Dividing Wavelength (nm)	Counts (n)	Blue Motor Position (mm): 26.000000	Red Motor Position (mm): 0.000000	
326.493990	2157.591161
326.888308	2157.591161
327.282561	2157.591161
327.676750	2130.293313
328.070874	2134.028808
328.464933	2137.149282
328.858929	2144.932824
329.252859	2156.905564
329.646726	2174.663028
330.040528	2187.144925
330.434265	2207.604448
330.827938	2224.595657
331.221547	2244.518297
331.615091	2264.221647
332.008571	2286.783331
332.401986	2304.881073
332.795338	2325.365802
333.188625	2344.418843
333.581847	2365.377440
333.975006	2385.620193
334.368100	2402.392112
334.761129	2419.756367
335.154095	2437.768409
335.546996	2462.913685
335.939833	2489.213384
336.332606	2505.392968
336.725315	2516.382683
337.117960	2525.393746
337.510540	2531.571680
337.903056	2537.933616
338.295508	2549.702189
338.687896	2553.558672
339.080220	2559.509754
339.472480	2569.864284
339.864676	2572.137845
340.256807	2576.725295
340.648875	2577.516756
341.040879	2580.410378
341.432818	2579.538258
341.824694	2579.190419
342.216506	2580.286870
342.608253	2580.675039
342.999937	2578.348546
343.391557	2577.778896
343.783113	2580.483475
344.174605	2576.531210
344.566033	2573.624985
344.957397	2574.237485
345.348697	2571.414439
345.739934	2572.178174
346.131106	2569.692885
346.522215	2567.474777
346.913260	2564.661813
347.304241	2561.800959
347.695159	2562.060578
348.086012	2558.786349
348.476802	2560.333983
348.867528	2556.202757
349.258191	2554.871893
349.648789	2553.818292
350.039324	2553.717468
350.429796	2551.025492
350.820203	2551.874927
351.210548	2548.391489
351.600828	2549.619010
351.991045	2548.265461
352.381198	2548.096582
352.771288	2548.628424
353.161314	2548.262940
353.551276	2550.647406
353.941175	2546.564071
354.331010	2547.385779
354.720782	2552.802499
355.110490	2548.426777
355.500135	2549.946685
355.889717	2548.144473
356.279235	2550.662529
356.668689	2551.204453
357.058080	2550.869217
357.447408	2548.187323
357.836672	2549.061963
358.225873	2548.406613
358.615010	2547.093392
359.004084	2554.362736
359.393095	2551.678322
359.782043	2555.590257
360.170927	2554.322407
360.559748	2554.881975
360.948505	2556.003632
361.337199	2556.180072
361.725830	2555.791903
362.114398	2557.130330
362.502903	2556.744681
362.891344	2559.439178
363.279722	2557.642007
363.668037	2555.408776
364.056289	2559.716442
364.444478	2561.445557
364.832603	2557.914229
365.220665	2559.643345
365.608665	2560.434806
365.996601	2560.633932
366.384474	2561.415310
366.772284	2563.761967
367.160031	2559.393808
367.547715	2561.952193
367.935336	2561.662327
368.322893	2563.197358
368.710388	2560.891030
369.097820	2567.381516
369.485189	2559.580330
369.872495	2564.951680
370.259738	2564.437482
370.646918	2560.797769
371.034035	2564.066957
371.421090	2565.385219
371.808081	2562.557132
372.195010	2567.258008
372.581875	2567.696588
372.968678	2566.685837
373.355418	2563.472101
373.742096	2566.262380
374.128710	2567.326063
374.515262	2569.574418
374.901751	2568.304047
375.288177	2568.175498
375.674540	2566.068295
376.060841	2568.697257
376.447079	2568.793039
376.833254	2565.904458
377.219367	2563.328428
377.605417	2565.420507
377.991404	2564.689540
378.377329	2562.904971
378.763191	2566.143913
379.148991	2566.816907
379.534727	2568.939233
379.920402	2569.929819
380.306013	2569.844120
380.691563	2569.995354
381.077049	2573.390571
381.462474	2569.405539
381.847835	2570.832186
382.233134	2570.607854
382.618371	2571.689182
383.003545	2572.221024
383.388657	2571.946281
383.773706	2571.837896
384.158693	2572.044583
384.543618	2573.982907
384.928480	2572.483164
385.313280	2573.698082
385.698017	2573.650191
386.082692	2576.412743
386.467305	2573.912331
386.851856	2573.050293
387.236344	2569.690364
387.620770	2575.283525
388.005133	2575.389389
388.389435	2575.197825
388.773674	2574.655901
389.157851	2576.692527
389.541965	2576.334605
389.926018	2576.024574
390.310008	2576.760583
390.693936	2577.209245
391.077802	2574.552557
391.461606	2574.131621
391.845348	2578.003227
392.229027	2576.642116
392.612645	2577.052970
392.996200	2580.007086
393.379694	2578.121694
393.763125	2579.190419
394.146494	2579.124884
394.529801	2579.611355
394.913047	2580.211252
395.296230	2581.695872
395.679351	2578.714030
396.062410	2579.623958
396.445408	2579.588670
396.828343	2580.826273
397.211217	2579.434915
397.594028	2578.507343
397.976778	2577.650346
398.359466	2575.956519
398.742092	2574.096333
399.124656	2581.547158
399.507158	2580.445666
399.889598	2582.736871
400.271977	2582.842735
400.654294	2585.101172
401.036549	2581.824422
401.418742	2582.136973
401.800874	2581.093454
402.182944	2584.438260
402.564952	2584.518918
402.946898	2585.161666
403.328783	2585.721234
403.710606	2584.236614
404.092367	2582.371387
404.474067	2586.346337
404.855705	2583.717375
405.237282	2583.561099
405.618797	2586.593353
406.000250	2585.328024
406.381642	2584.952458
406.762972	2583.515729
407.144240	2586.086717
407.525447	2587.830957
407.906593	2585.680904
408.287677	2586.227870
408.668700	2586.747108
409.049661	2587.651996
409.430560	2585.895153
409.811399	2588.042685
410.192176	2584.644947
410.572891	2588.912284
410.953545	2587.833477
411.334138	2588.244331
411.714669	2592.214240
412.095139	2586.656368
412.475547	2589.154259
412.855894	2589.660895
413.236180	2589.948241
413.616405	2589.247521
413.996568	2589.570155
414.376670	2589.381111
414.756711	2590.885896
415.136691	2591.795824
415.516609	2588.372881
415.896466	2592.211719
416.276262	2591.180803
416.655997	2586.263158
417.035670	2587.594022
417.415283	2588.178796
417.794834	2586.772314
418.174324	2588.284660
418.553753	2591.992429
418.933121	2592.622573
419.312428	2593.862697
419.691674	2588.294743
420.070859	2592.035279
420.449983	2592.259610
420.829045	2591.553849
421.208047	2592.773808
421.586988	2591.884044
421.965867	2596.358068
422.344686	2593.587954
422.723444	2594.528129
423.102141	2594.283633
423.480777	2592.390680
423.859352	2590.306163
424.237866	2592.761205
424.616319	2594.671802
424.994712	2597.336052
425.373044	2594.959148
425.751314	2596.942842
426.129524	2596.184148
426.507673	2595.322111
426.885762	2597.094077
427.263789	2594.260948
427.641756	2599.685230
428.019662	2597.144488
428.397508	2599.110538
428.775292	2596.572317
429.153016	2596.957966
429.530679	2597.940991
429.908282	2597.663727
430.285824	2596.854622
430.663305	2596.579879
431.040726	2597.376381
431.418086	2597.129365
431.795385	2600.501897
432.172624	2596.398397
432.549802	2599.854108
432.926920	2597.315888
433.303977	2602.125148
433.680974	2599.188676
434.057910	2600.229674
434.434786	2603.123297
434.811601	2600.942998
435.188355	2600.867380
435.565050	2597.784715
435.941683	2601.852926
436.318257	2602.173039
436.694770	2601.144644
437.071222	2599.075250
437.447614	2598.684561
437.823946	2599.067688
438.200218	2604.277721
438.576429	2605.296034
438.952580	2604.915427
439.328670	2605.379213
439.704700	2603.622371
440.080670	2604.285283
440.456580	2606.392485
440.832429	2606.153030
441.208218	2604.759151
441.583947	2607.935078
441.959616	2605.364090
442.335224	2609.044132
442.710773	2606.881477
443.086261	2607.562033
443.461689	2608.895418
443.837057	2609.734770
444.212365	2611.698299
444.587612	2612.048660
444.962800	2612.303238
445.337927	2615.506891
445.712995	2613.056890
446.088002	2616.424381
446.462949	2616.207612
446.837837	2618.503857
447.212664	2618.047633
447.587431	2625.435444
447.962139	2627.590537
448.336786	2633.806280
448.711374	2633.458440
449.085901	2632.278810
449.460369	2632.621608
449.834776	2635.716877
450.209124	2641.436066
450.583412	2643.898670
450.957640	2644.750625
451.331808	2647.447642
451.705917	2650.258085
452.079965	2653.900319
452.453954	2656.957779
452.827883	2663.838954
453.201752	2667.967659
453.575562	2671.904800
453.949311	2682.145904
454.323001	2688.217974
454.696632	2690.201668
455.070202	2703.366641
455.443713	2711.051880
455.817164	2720.612428
456.190556	2729.610888
456.563888	2739.942733
456.937160	2745.470358
457.310373	2752.081831
457.683526	2766.650766
458.056619	2775.941612
458.429653	2785.048457
458.802628	2798.379788
459.175542	2812.701706
459.548398	2835.061744
459.921194	2866.508462
460.293930	2888.576113
460.666607	2928.675971
461.039224	2965.574697
461.411782	2995.798934
461.784280	3002.990140
462.156719	3022.955630
462.529099	3031.825540
462.901419	3036.057589
463.273680	3038.739483
463.645882	3057.895868
464.018024	3081.770772
464.390106	3114.303858
464.762130	3175.629495
465.134094	3267.086108
465.505999	3408.462747
465.877845	3558.253072
466.249631	3648.497287
466.621358	3661.720234
466.993026	3656.968947
467.364634	3652.255468
467.736184	3635.090339
468.107674	3641.933705
468.479105	3662.887261
468.850477	3685.945499
469.221790	3686.215201
469.593043	3675.815300
469.964238	3685.978266
470.335373	3717.177968
470.706449	3797.196203
471.077467	3892.942837
471.448425	4114.478864
471.819324	4321.758507
472.190164	4372.298595
472.560945	4278.928864
472.931667	4189.846634
473.302330	4181.382537
473.672934	4188.606511
474.043479	4259.149897
474.413965	4276.998102
474.784393	4302.130775
475.154761	4400.781114
475.525070	4454.734063
475.895321	4488.343436
476.265513	4572.097166
476.635645	4688.111760
477.005719	4734.994491
477.375734	4824.530424
477.745691	4922.442235
478.115588	5065.157300
478.485427	5229.375407
478.855207	5500.634855
479.224928	5771.123005
479.594591	6011.039079
479.964194	6080.110448
480.333739	6193.090268
480.703226	6268.828563
481.072653	6390.418673
481.442022	6521.713004
481.811333	6674.507857
482.180584	6665.648029
482.549777	6703.126487
482.918912	6740.897333
483.287988	6799.760365
483.657005	6822.667368
484.025964	6844.997159
484.394864	6950.392563
484.763706	6995.067268
485.132489	7014.904209
485.501213	7072.706079
485.869879	7175.535535
486.238487	7201.684000
486.607036	7322.946435
486.975527	7349.561207
487.343959	7449.234901
487.712333	7547.295425
488.080648	7640.171123
488.448905	7771.626771
488.817104	7845.905653
489.185244	8029.479270
489.553326	8246.052280
489.921350	8647.023137
490.289315	9171.887911
490.657222	9451.898801
491.025070	9654.890943
491.392861	9661.898147
491.760593	9614.060117
492.128267	9483.433739
492.495883	9367.560297
492.863440	9240.588755
493.230939	9123.359243
493.598380	9033.339359
493.965763	9071.647087
494.333088	9010.674331
494.700354	9008.645267
495.067563	9031.096045
495.434713	9074.480215
495.801805	9159.355602
496.168839	9170.688116
496.535815	9189.519346
496.902733	9268.330225
497.269593	9272.093446
497.636395	9319.109768
498.003139	9454.263102
498.369825	9425.382332
498.736453	9539.841730
499.103023	9528.194144
499.469535	9569.808869
499.835989	9641.385692
500.202385	9652.637547
500.568723	9700.601605
500.935003	9789.615779
501.301226	9792.007807
501.667390	9958.438981
502.033497	10088.641902
502.399546	10036.347493
502.765537	9983.397733
503.131470	10104.549263
503.497345	10211.648577
503.863163	10025.640082
504.228923	10169.799438
504.594625	10306.165170
504.960269	10232.513912
505.325856	10402.882227
505.691385	10308.022835
506.056856	10380.335667
506.422270	10504.259831
506.787625	10459.426329
507.152924	10523.239775
507.518164	10596.407082
507.883347	10485.126132
508.248472	10566.392052
508.613540	10688.708088
508.978550	10774.634556
509.343503	10764.045612
509.708398	10823.823614
510.073236	10961.943668
510.438016	10988.571043
510.802738	10912.757130
511.167403	11046.037676
511.532010	11112.341452
511.896561	11222.286497
512.261053	11413.033676
512.625488	11340.534322
512.989866	11337.534835
513.354186	11324.790798
513.718449	11344.025321
514.082655	11489.026550
514.446803	11455.230654
514.810894	11569.082593
515.174927	11574.038048
515.538904	11556.411653
515.902822	11718.056251
516.266684	11601.948396
516.630488	11699.300638
516.994235	11692.507683
517.357925	11812.033441
517.721558	11864.907583
518.085133	11941.369284
518.448651	11970.691156
518.812112	11942.566558
519.175516	11948.172321
519.538863	12039.601208
519.902152	12052.241901
520.265385	12157.649908
520.628560	12186.051768
520.991678	12137.966722
521.354739	12197.563243
521.717743	12267.756269
522.080690	12242.326169
522.443580	12373.184440
522.806413	12399.358111
523.169189	12389.485011
523.531908	12445.807303
523.894569	12411.424113
524.257174	12427.974221
524.619722	12534.821477
524.982213	12517.361440
525.344647	12503.231086
525.707025	12514.755164
526.069345	12622.565280
526.431608	12597.735077
526.793815	12679.752129
527.155964	12571.400089
527.518057	12606.093310
527.880093	12564.561764
528.242072	12692.660004
528.603995	12606.640275
528.965860	12616.954476
529.327669	12647.072849
529.689421	12597.588883
530.051117	12615.459774
530.412755	12657.387050
530.774337	12661.924089
531.135862	12620.889096
531.497331	12675.618383
531.858743	12633.562557
532.220098	12730.511507
532.581396	12659.322853
532.942638	12576.037951
533.303824	12638.059266
533.664953	12621.670475
534.026025	12574.296232
534.387040	12688.576669
534.747999	12659.612720
535.108902	12708.479144
535.469748	12580.209505
535.830537	12610.184206
536.191270	12649.283395
536.551947	12579.208836
536.912567	12638.127322
537.273131	12675.265502
537.633638	12554.698746
537.994089	12615.726955
538.354483	12527.882328
538.714821	12645.094197
539.075103	12736.631468
539.435328	12665.044563
539.795497	12638.243268
540.155609	12640.524391
540.515665	12737.324627
540.875665	12600.631220
541.235609	12697.595293
541.595496	12658.755723
541.955328	12835.662415
542.315102	12694.114377
542.674821	12624.826238
543.034483	12643.937252
543.394090	12642.828198
543.753640	12615.699228
544.113134	12855.796783
544.472571	12617.486317
544.831953	12905.147159
545.191278	12720.398953
545.550548	12658.629695
545.909761	12769.401489
546.268918	12798.385603
546.628019	12881.783931
546.987064	12763.377310
547.346053	12612.203188
547.704986	12808.825832
548.063863	12698.038915
548.422684	12740.931572
548.781449	12701.590408
549.140158	12800.119760
549.498811	12746.872572
549.857408	12621.413376
550.215949	12827.470540
550.574434	12792.701702
550.932864	12740.805543
551.291237	12933.667487
551.649555	12828.665293
552.007817	12872.288918
552.366022	12802.504225
552.724173	12828.899707
553.082267	12919.229622
553.440305	13009.652799
553.798288	12835.380110
554.156215	12918.153336
554.514086	12957.139099
554.871902	12895.967218
555.229661	12917.162749
555.587365	12882.565310
555.945014	12896.683062
556.302606	12882.056154
556.660143	12939.653857
557.017625	12964.504225
557.375050	12933.450717
557.732421	13027.811035
558.089735	13026.021425
558.446994	13001.644926
558.804197	13119.388636
559.161345	13109.006379
559.518437	12925.936877
559.875474	13020.448430
560.232455	13054.347669
560.589381	13102.369700
560.946251	13034.858568
561.303065	13215.064694
561.659825	13169.563240
562.016528	13084.317328
562.373177	13015.492975
562.729770	13149.005414
563.086307	13035.181202
563.442789	13127.557825
563.799216	13170.957119
564.155587	13113.714817
564.511904	13139.225576
564.868164	13152.705621
565.224370	13213.464128
565.580520	13153.093790
565.936615	13220.390673
566.292654	13154.399449
566.648638	13222.195407
567.004567	13222.606261
567.360441	13225.986354
567.716260	13197.602137
568.072023	13283.720169
568.427732	13271.187860
568.783385	13172.603056
569.138982	13280.945013
569.494525	13266.345832
569.850013	13221.076270
570.205445	13205.007593
570.560823	13213.343140
570.916145	13179.794262
571.271412	13187.240046
571.626625	13151.157987
571.981782	13137.748518
572.336884	13089.691198
572.691931	13179.217049
573.046923	13068.021798
573.401860	13046.682594
573.756743	13038.473075
574.111570	13066.693454
574.466342	13044.214949
574.821059	13092.085746
575.175722	12964.791571
575.530330	12974.258858
575.884882	12923.471753
576.239380	12915.907502
576.593823	12901.522569
576.948211	12896.398236
577.302544	12771.054987
577.656823	12802.345429
578.011047	12847.458715
578.365216	12790.844037
578.719330	12729.215931
579.073389	12694.353831
579.427394	12713.278323
579.781344	12705.651057
580.135239	12639.828711
580.489080	12655.484015
580.842866	12531.091023
581.196597	12631.777989
581.550273	12619.177625
581.903895	12577.837643
582.257463	12692.201259
582.610975	12543.151983
582.964434	12607.184720
583.317837	12517.013601
583.671186	12472.185140
584.024481	12530.614634
584.377721	12425.196545
584.730906	12484.349444
585.084037	12503.866272
585.437113	12410.199113
585.790135	12442.943927
586.143103	12351.852798
586.496016	12376.902291
586.848874	12387.939898
587.201679	12382.497972
587.554428	12260.068510
587.907124	12307.412506
588.259765	12251.901841
588.612352	12312.786376
588.964884	12178.540449
589.317362	12230.847462
589.669786	12216.928836
590.022155	12175.112465
590.374470	12278.698094
590.726731	12157.768375
591.078937	12051.329453
591.431090	12070.450549
591.783188	11996.907676
592.135232	11921.242478
592.487222	11988.705719
592.839157	12007.312618
593.191038	11936.509612
593.542866	11874.884027
593.894639	11732.284908
594.246358	11791.465533
594.598022	11796.143724
594.949633	11700.129908
595.301190	11688.958711
595.652692	11641.244190
596.004141	11735.221380
596.355535	11510.227122
596.706876	11493.810605
597.058162	11460.128135
597.409395	11554.697661
597.760573	11588.312075
598.111698	11480.038172
598.462768	11476.869807
598.813785	11489.553350
599.164748	11361.255985
599.515657	11441.007039
599.866511	11310.484004
600.217312	11444.450147
600.568060	11212.806607
600.918753	11373.934487
601.269392	11373.853828
601.619978	11282.049376
601.970510	11317.193780
602.320988	11359.446211
602.671412	11430.707961
603.021783	11357.396982
603.372100	11274.349013
603.722363	11300.084103
604.072572	11293.270984
604.422728	11309.707666
604.772830	11249.826320
605.122878	11255.669017
605.472872	11228.988711
605.822813	11289.243102
606.172701	11249.670044
606.522534	11291.793926
606.872314	11344.569766
607.222041	11271.813313
607.571714	11347.685199
607.921333	11211.329549
608.270899	11271.326841
608.620411	11340.168838
608.969870	11283.715477
609.319276	11252.488049
609.668627	11276.241966
610.017926	11355.718277
610.367171	11387.623740
610.716362	11376.588654
611.065500	11350.659479
611.414585	11367.164217
611.763616	11429.114957
612.112594	11397.161603
612.461518	11427.088413
612.810389	11471.493417
613.159207	11416.262535
613.507971	11408.478993
613.856682	11511.585713
614.205340	11459.462703
614.553945	11604.398397
614.902496	11476.668161
615.250994	11546.793132
615.599439	11530.946264
615.947830	11577.340003
616.296169	11533.146728
616.644454	11548.401260
616.992686	11557.903835
617.340864	11647.706949
617.688990	11546.339428
618.037063	11676.267606
618.385082	11636.155145
618.733048	11682.538802
619.080961	11659.036943
619.428821	11649.836837
619.776628	11672.118737
620.124382	11610.609098
620.472083	11626.944957
620.819731	11642.045733
621.167326	11564.782489
621.514868	11551.914944
621.862357	11464.100564
622.209793	11455.512959
622.557176	11358.896725
622.904506	11309.049796
623.251783	11236.028682
623.599007	11170.949907
623.946179	11124.440221
624.293297	11105.170411
624.640363	10969.180244
624.987376	10950.590990
625.334336	10883.503314
625.681243	10796.707248
626.028097	10778.241501
626.374899	10738.744061
626.721647	10712.870339
627.068343	10661.556434
627.414987	10601.425551
627.761577	10542.975892
628.108115	10588.762172
628.454600	10460.245517
628.801032	10476.735131
629.147412	10453.969280
629.493739	10430.779972
629.840014	10352.042191
630.186236	10403.557742
630.532405	10297.892637
630.878521	10335.809675
631.224585	10292.228900
631.570597	10210.476508
631.916556	10214.577487
632.262462	10202.834119
632.608316	10181.875522
632.954117	10154.166820
633.299866	10141.384974
633.645562	10114.266087
633.991206	10016.553402
634.336797	9917.499770
634.682336	9908.657586
635.027823	9845.315488
635.373257	9814.912289
635.718639	9747.887628
636.063968	9720.133556
636.409245	9595.019679
636.754470	9585.272608
637.099642	9539.955156
637.444762	9432.371892
637.789829	9440.220968
638.134845	9370.640442
638.479808	9346.667235
638.824719	9318.351074
639.169577	9237.876614
639.514383	9228.832784
639.859137	9170.942694
640.203839	9201.388743
640.548489	9115.931103
640.893086	9118.774314
641.237632	9056.112771
641.582125	9053.549345
641.926566	9047.749497
642.270955	9028.661168
642.615292	9030.440695
642.959576	9007.236264
643.303809	8996.748144
643.647990	9016.426288
643.992118	8989.761104
644.336195	8968.300913
644.680219	8970.534144
645.024192	9001.544802
645.368112	9075.198580
645.711981	9048.919045
646.055797	9191.465232
646.399562	9142.031677
646.743274	9304.366913
647.086935	9381.645281
647.430544	9358.171148
647.774101	9378.310558
648.117606	9395.067353
648.461059	9465.404052
648.804460	9391.160459
649.147810	9273.053786
649.491108	9244.604034
649.834354	9175.391513
650.177548	9036.575780
650.520690	8944.269732
650.863781	8935.215820
651.206820	8913.884177
651.549807	8823.181217
651.892742	8729.342658
652.235626	8692.504427
652.578458	8653.082604
652.921238	8553.723982
653.263967	8586.501564
653.606644	8513.092282
653.949269	8494.503027
654.291843	8419.520905
654.634365	8492.879776
654.976836	8417.925380
655.319255	8402.267556
655.661622	8391.633242
656.003938	8352.181172
656.346203	8313.220614
656.688416	8348.637241
657.030577	8309.739698
657.372687	8271.008513
657.714746	8307.667783
658.056753	8317.694638
658.398708	8217.806695
658.740612	8213.557003
659.082465	8252.898167
659.424266	8214.779483
659.766016	8218.439360
660.107715	8195.681071
660.449362	8212.180768
660.790958	8209.476189
661.132503	8215.021458
661.473996	8210.892753
661.815438	8226.585865
662.156829	8252.739371
662.498168	8207.106846
662.839456	8202.710960
663.180693	8217.720996
663.521879	8242.253771
663.863013	8220.418013
664.204097	8210.880150
664.545129	8286.487375
664.886110	8281.922611
665.227040	8279.969163
665.567918	8291.064743
665.908746	8299.783419
666.249522	8328.875918
666.590248	8320.482396
666.930922	8333.846495
667.271545	8331.250301
667.612118	8353.176800
667.952639	8309.996796
668.293109	8320.288312
668.633528	8291.324362
668.973896	8276.205942
669.314213	8277.050335
669.654480	8233.378820
669.994695	8231.075012
670.334859	8216.087662
670.674973	8194.156122
671.015035	8212.584060
671.355047	8210.343267
671.695008	8196.598561
672.034918	8171.193666
672.374777	8168.254674
672.714585	8146.706262
673.054342	8178.279008
673.394049	8141.750807
673.733705	8186.962396
674.073310	8131.303016
674.412864	8138.705950
674.752368	8078.176816
675.091820	8133.374930
675.431223	8067.398829
675.770574	8015.416971
676.109875	7986.556366
676.449125	7943.779655
676.788324	7928.394053
677.127473	7846.341712
677.466571	7837.595311
677.805619	7771.992255
678.144616	7771.384796
678.483562	7754.862414
678.822458	7707.886422
679.161303	7685.044954
679.500098	7667.582397
679.838842	7649.073801
680.177535	7657.497569
680.516179	7691.684154
680.854771	7716.925211
681.193314	7833.219589
681.531805	7986.974781
681.870247	8110.893905
682.208638	8261.798324
682.546978	8329.685023
682.885268	8367.917133
683.223508	8291.057181
683.561697	8241.802588
683.899836	8204.966877
684.237925	8117.631407
684.575963	8088.526305
684.913951	8010.093513
685.251889	8026.197479
685.589776	8030.653859
685.927614	8014.680963
686.265401	8037.895476
686.603137	8041.073924
686.940824	8106.828214
687.278460	8155.818147
687.616046	8168.133686
687.953582	8280.206098
688.291068	8264.444930
688.628504	8324.545566
688.965889	8322.798807
689.303224	8280.798433
689.640510	8235.153306
689.977745	8131.671020
690.314930	8009.279367
690.652065	7941.773275
690.989150	7827.213054
691.326185	7676.603542
691.663170	7555.141981
692.000105	7437.557068
692.336990	7328.882394
692.673825	7254.333811
693.010610	7159.194635
693.347345	7069.094092
693.684030	6958.584438
694.020665	6907.570482
694.357251	6789.254601
694.693786	6785.473735
695.030272	6745.409165
695.366707	6650.630432
695.703093	6598.139417
696.039429	6598.512463
696.375716	6542.913577
696.711952	6532.266660
697.048139	6505.994687
697.384276	6473.267516
697.720363	6499.184088
698.056400	6469.221990
698.392388	6434.576660
698.728326	6435.461383
699.064214	6410.452218
699.400053	6403.994500
699.735842	6340.765828
700.071581	6297.301000
700.407270	6253.924392
700.742910	6224.214351
701.078501	6183.847312
701.414042	6140.306866
701.749533	6085.680923
702.084974	6028.889804
702.420366	6064.329116
702.755709	5995.043498
703.091002	5946.348472
703.426246	5949.153874
703.761440	5932.064363
704.096584	5889.025512
704.431679	5874.544797
704.766725	5861.115163
705.101721	5849.344069
705.436668	5863.076172
705.771565	5805.019724
706.106413	5865.561461
706.441212	5858.622313
706.775961	5873.783583
707.110661	5885.166508
707.445311	5944.606753
707.779913	5912.179531
708.114465	5951.122445
708.448967	5998.612634
708.783421	6110.493482
709.117825	6150.134596
709.452180	6190.761254
709.786485	6247.917857
710.120742	6375.887547
710.454949	6381.815944
710.789107	6461.020033
711.123216	6581.513692
711.457275	6613.812365
711.791286	6718.774229
712.125247	6738.616210
712.459159	6710.751233
712.793023	6836.449883
713.126837	6674.243196
713.460602	6727.555919
713.794318	6683.206368
714.127985	6630.642257
714.461602	6486.331666
714.795171	6487.286965
715.128691	6325.052552
715.462162	6232.461679
715.795584	6161.802346
716.128957	6121.442868
716.462281	6053.672117
716.795556	6014.429255
717.128782	5928.913641
717.461960	5829.076110
717.795088	5815.974151
718.128167	5753.410911
718.461198	5667.222304
718.794180	5644.128778
719.127113	5589.616261
719.459997	5551.479932
719.792833	5492.112784
720.125619	5484.966948
720.458357	5421.410601
720.791046	5391.420777
721.123686	5367.187951
721.456278	5323.720602
721.788821	5314.802800
722.121315	5271.645482
722.453761	5279.378612
722.786158	5264.545017
723.118506	5264.126601
723.450805	5245.771760
723.783056	5269.442498
724.115259	5251.072533
724.447412	5240.357561
724.779518	5285.712822
725.111574	5289.672648
725.443582	5323.700437
725.775542	5316.680630
726.107453	5402.329834
726.439315	5367.959247
726.771129	5445.411535
727.102895	5508.609960
727.434612	5548.687133
727.766281	5579.551597
728.097901	5631.654443
728.429473	5649.003574
728.760996	5658.158309
729.092471	5680.949366
729.423897	5669.057284
729.755276	5638.606194
730.086606	5651.408204
730.417887	5742.658130
730.749120	5830.263302
731.080305	5877.841712
731.411442	5948.836281
731.742530	5975.093131
732.073570	5992.064176
732.404562	6057.430297
732.735506	6055.436521
733.066401	6029.436770
733.397249	5961.202232
733.728048	5862.980390
734.058798	5723.781530
734.389501	5600.699238
734.720156	5513.870404
735.050762	5411.930712
735.381320	5331.292415
735.711831	5277.657058
736.042293	5199.798958
736.372707	5194.200756
736.703073	5148.091843
737.033391	5176.728117
737.363661	5162.786806
737.693883	5175.167880
738.024056	5203.279874
738.354182	5229.435901
738.684260	5277.558756
739.014290	5312.642666
739.344272	5346.103325
739.674207	5406.110699
740.004093	5435.651861
740.333931	5446.480259
740.663722	5460.419050
740.993464	5470.947500
741.323159	5456.040808
741.652806	5408.694291
741.982405	5382.565990
742.311956	5328.998690
742.641460	5316.292461
742.970915	5266.785810
743.300323	5200.761818
743.629683	5165.824101
743.958996	5116.879539
744.288260	5069.452363
744.617477	5006.866438
744.946647	4989.769365
745.275768	4937.275830
745.604842	4905.209050
745.933869	4873.424575
746.262847	4859.450497
746.591778	4853.058314
746.920662	4830.915046
747.249498	4827.978573
747.578286	4845.423486
747.907027	4863.765725
748.235720	4908.700049
748.564365	4916.912089
748.892963	4898.537083
749.221514	4921.769241
749.550017	4901.377773
749.878473	4894.035333
750.206881	4859.657184
750.535242	4838.645655
750.863555	4827.106454
751.191821	4805.850429
751.520039	4814.117921
751.848210	4793.996155
752.176334	4798.873472
752.504411	4775.628711
752.832440	4748.335904
753.160421	4762.262092
753.488356	4739.289554
753.816243	4724.735743
754.144082	4688.628478
754.471875	4675.755892
754.799620	4668.877237
755.127318	4660.231659
755.454969	4658.300897
755.782572	4651.749917
756.110129	4651.651615
756.437638	4636.139984
756.765100	4632.752329
757.092515	4632.008759
757.419882	4636.404645
757.747203	4630.390548
758.074477	4648.233712
758.401703	4639.961179
758.728882	4666.018903
759.056014	4677.364020
759.383099	4701.934604
759.710138	4730.593563
760.037129	4753.044342
760.364073	4764.886012
760.690970	4761.987349
761.017820	4764.543214
761.344623	4793.776865
761.671379	4857.489488
761.998088	4946.599444
762.324751	5178.248025
762.651366	5640.100896
762.977935	6323.832592
763.304456	6878.185596
763.630931	7187.586413
763.957359	7124.120807
764.283740	6831.239851
764.610074	6508.646334
764.936362	6108.726558
765.262602	5795.575122
765.588796	5445.794662
765.914943	5189.794788
766.241044	4974.542560
766.567097	4800.264830
766.893104	4652.206142
767.219064	4552.749218
767.544978	4456.735401
767.870845	4372.901013
768.196665	4323.026357
768.522438	4276.153709
768.848165	4238.544181
769.173846	4193.241852
769.499479	4167.710928
769.825066	4130.129126
770.150607	4091.465997
770.476101	4077.507042
770.801548	4055.162127
771.126949	4025.189947
771.452303	4006.822503
771.777611	3968.267758
772.102872	3964.050833
772.428087	3940.680044
772.753256	3910.155857
773.078378	3892.925193
773.403453	3863.197509
773.728482	3836.227336
774.053465	3824.032785
774.378401	3800.914053
774.703291	3783.315385
775.028135	3758.033999
775.352932	3748.428080
775.677683	3730.300091
776.002388	3710.112790
776.327046	3711.221844
776.651658	3689.169317
776.976224	3673.327491
777.300743	3670.448992
777.625216	3654.506343
777.949643	3645.727173
778.274024	3648.358656
778.598359	3627.198413
778.922647	3627.810913
779.246889	3617.431177
779.571086	3617.695837
779.895236	3616.289356
780.219339	3617.466465
780.543397	3617.607617
780.867409	3632.796614
781.191374	3635.034886
781.515294	3628.688073
781.839167	3639.738283
782.162995	3641.109477
782.486776	3631.967344
782.810511	3625.106334
783.134201	3608.533540
783.457844	3612.014457
783.781441	3601.667489
784.104993	3593.919235
784.428498	3590.642485
784.751958	3584.804829
785.075372	3580.161927
785.398739	3570.800504
785.722061	3576.844847
786.045337	3573.835278
786.368568	3597.836212
786.691752	3596.470059
787.014891	3643.314981
787.337983	3689.338195
787.661030	3772.701236
787.984031	3873.478943
788.306987	3944.859160
788.629897	3992.054443
788.952760	4002.756812
789.275579	3986.478927
789.598351	3939.089560
789.921078	3887.740367
790.243759	3825.111592
790.566395	3780.008388
790.888984	3729.458218
791.211529	3695.649720
791.534027	3651.350581
791.856480	3612.511011
792.178888	3592.734564
792.501249	3573.522727
792.823566	3542.196997
793.145836	3537.680123
793.468062	3524.537835
793.790241	3512.771782
794.112375	3517.245806
794.434464	3538.688354
794.756507	3538.206924
795.078505	3558.399265
795.400457	3597.367385
795.722364	3644.963439
796.044226	3690.323741
796.366042	3732.959300
796.687812	3732.860997
797.009538	3759.558948
797.331218	3744.569077
797.652852	3741.592276
797.974442	3721.974625
798.295986	3708.182028
798.617484	3679.344108
798.938938	3655.932989
799.260346	3639.738283
799.581709	3604.140175
799.903026	3595.970985
800.224299	3576.088674
800.545526	3540.362017
800.866708	3525.641848
801.187845	3511.776154
801.508936	3488.095334
801.829983	3482.361021
802.150984	3452.411526
802.471940	3444.746452
802.792851	3437.250256
803.113717	3430.966458
803.434538	3421.345416
803.755314	3409.584404
804.076045	3409.725556
804.396731	3395.983371
804.717372	3396.956313
805.037967	3392.925911
805.358518	3392.303328
805.679024	3412.891401
805.999485	3404.444948
806.319901	3412.921648
806.640272	3413.022471
806.960598	3423.132505
807.280879	3425.075870
807.601115	3438.129938
807.921306	3431.342024
808.241453	3430.875717
808.561554	3437.456943
808.881611	3430.643824
809.201623	3433.545008
809.521590	3423.739964
809.841513	3423.762649
810.161390	3431.331942
810.481223	3411.419384
810.801011	3411.278232
811.120755	3404.162643
811.440453	3393.135119
811.760107	3392.499933
812.079716	3382.006772
812.399281	3373.267932
812.718801	3370.999412
813.038276	3363.770398
813.357707	3356.344778
813.677093	3366.684185
813.996434	3347.719364
814.315731	3354.771938
814.634983	3355.147504
814.954191	3354.159438
815.273354	3374.792881
815.592473	3381.421998
815.911547	3403.124165
816.230577	3416.014396
816.549562	3442.185546
816.868502	3462.037610
817.187399	3480.740290
817.506250	3506.792973
817.825058	3519.625231
818.143821	3560.524112
818.462539	3606.164198
818.781213	3659.771828
819.099843	3745.753748
819.418429	3896.862335
819.736970	4051.303124
820.055466	4235.635435
820.373919	4472.294923
820.692327	4806.140295
821.010691	5314.853212
821.329011	6392.788015
821.647286	8124.487376
821.965517	10292.743098
822.283704	11904.571382
822.601847	12971.665184
822.919945	12563.790467
823.237999	11897.395299
823.556010	10997.597229
823.873976	10046.346621
824.191897	9090.024613
824.509775	8325.722676
824.827609	7523.662496
825.145398	6975.381562
825.463144	6600.856599
825.780845	6470.328523
826.098502	6533.484099
826.416116	6906.209370
826.733685	7414.826505
827.051210	7696.069958
827.368692	7602.543951
827.686129	7167.149575
828.003522	6610.865810
828.320872	6047.726076
828.638177	5590.909317
828.955439	5222.048090
829.272656	4886.216503
829.589830	4606.639152
829.906960	4345.572918
830.224046	4137.978203
830.541088	3966.468066
830.858086	3852.628730
831.175041	3756.332609
831.491952	3710.619426
831.808819	3693.159390
832.125642	3728.150039
832.442421	3829.789783
832.759157	4049.543761
833.075849	4423.269702
833.392497	4890.045260
833.709101	5273.150267
834.025662	5379.379981
834.342179	5255.806177
834.658653	4983.972038
834.975083	4713.302406
835.291469	4470.883400
835.607811	4244.462495
835.924110	4091.375256
836.240366	3926.869803
836.556578	3769.386677
836.872746	3633.598157
837.188871	3521.825694
837.504952	3423.699635
837.820990	3350.658357
838.136984	3298.275727
838.452935	3267.983433
838.768842	3251.753439
839.084706	3287.207874
839.400526	3420.112854
839.716303	3643.665342
840.032037	3858.010162
840.347727	3923.025923
840.663373	3829.641069
840.978977	3682.991383
841.294537	3551.150086
841.610054	3444.577573
841.925527	3371.372458
842.240957	3300.866880
842.556344	3241.676172
842.871687	3182.656863
843.186987	3120.375928
843.502244	3071.370872
843.817458	3029.617515
844.132629	2998.329594
844.447756	2974.512662
844.762840	2949.231276
845.077881	2934.672423
845.392879	2922.800506
845.707833	2912.292221
846.022745	2900.576579
846.337613	2899.018863
846.652438	2887.151987
846.967221	2885.069990
847.281960	2876.172354
847.596656	2871.902496
847.911309	2868.230016
848.225919	2861.631145
848.540485	2858.062008
848.855009	2856.095958
849.169490	2849.401306
849.483928	2847.788137
849.798323	2843.185563
850.112675	2842.205059
850.426984	2843.367045
850.741251	2840.377641
851.055474	2839.772702
851.369654	2837.718432
851.683792	2836.868998
851.997887	2836.604337
852.311938	2835.734738
852.625947	2835.696929
852.939914	2832.732731
853.253837	2837.960407
853.567718	2836.470747
853.881555	2832.417659
854.195350	2838.890500
854.509103	2833.970334
854.822812	2832.873883
855.136479	2832.566373
855.450103	2835.162567
855.763685	2829.035045
856.077224	2835.185252
856.390720	2833.219202
856.704173	2836.218689
857.017584	2838.328412
857.330953	2840.347394
857.644278	2842.268073
857.957561	2845.396109
858.270802	2846.600945
858.584000	2847.329392
858.897155	2845.809484
859.210268	2839.684482
859.523339	2840.193639
859.836367	2838.310768
860.149352	2839.321519
860.462295	2840.884277
860.775195	2830.973368
861.088054	2829.632421
861.400869	2831.812720
861.713642	2828.029334
862.026373	2832.152998
862.339062	2835.253308
862.651708	2833.791373
862.964312	2842.522652
863.276873	2843.167919
863.589392	2854.054291
863.901869	2860.282637
864.214303	2864.217257
864.526696	2873.180429
864.839045	2877.006665
865.151353	2886.042933
865.463619	2885.193498
865.775842	2889.584343
866.088023	2894.297822
866.400162	2889.768346
866.712258	2893.544170
867.024313	2896.949469
867.336325	2895.724469
867.648296	2898.696229
867.960224	2898.698750
868.272110	2902.396436
868.583954	2900.422824
868.895755	2902.156981
869.207515	2904.906931
869.519233	2910.162333
869.830909	2910.192580
870.142542	2917.199784
870.454134	2917.620721
870.765684	2921.036102
871.077191	2929.260745
871.388657	2934.304419
871.700081	2943.033177
872.011463	2948.533076
872.322803	2951.535083
872.634101	2956.979529
872.945357	2964.816003
873.256571	2973.320429
873.567744	2979.707571
873.878874	2985.260402
874.189963	2989.331134
874.501010	2993.996722
874.812015	2994.536125
875.122979	3006.990296
875.433900	3005.301509
875.744780	3008.646315
876.055618	3014.262160
876.366415	3017.186030
876.677169	3020.593850
876.987882	3026.731454
877.298554	3035.659338
877.609183	3053.074004
877.919771	3067.479101
878.230317	3090.663368
878.540822	3131.652989
878.851285	3177.802232
879.161707	3246.039291
879.472087	3352.561392
879.782425	3512.998634
880.092722	3791.232518
880.402977	4206.618553
880.713191	4751.259774
881.023363	5344.832954
881.333494	5785.054234
881.643583	6069.786165
881.953631	6145.988247
882.263637	6085.633032
882.573602	5941.841680
882.883526	5777.391680
883.193408	5573.507254
883.503248	5352.934088
883.813048	5140.956089
884.122806	4922.845527
884.432522	4684.129248
884.742197	4465.383501
885.051831	4257.677880
885.361424	4061.508940
885.670975	3892.121129
885.980485	3745.766351
886.289954	3622.865541
886.599382	3519.390817
886.908768	3433.870162
887.218113	3354.943337
887.527417	3292.047381
887.836680	3237.653331
888.145901	3190.344623
888.455082	3153.687873
888.764221	3119.526494
889.073319	3091.749736
889.382376	3068.933474
889.691392	3055.012328
890.000366	3046.182747
890.309300	3037.648073
890.618193	3036.871735
890.927044	3030.746733
891.235855	3033.272352
891.544625	3034.913247
891.853353	3039.404915
892.162041	3055.874365
892.470687	3079.587952
892.779293	3114.669342
893.087858	3159.465035
893.396381	3237.602920
893.704864	3346.423787
894.013306	3501.353568
894.321707	3686.522711
894.630068	3838.536185
894.938387	3917.263884
895.246665	3921.372425
895.554903	3863.300853
895.863100	3779.100981
896.171256	3704.171791
896.479371	3632.179072
896.787446	3557.486817
897.095480	3485.695745
897.403473	3432.020059
897.711425	3369.401367
898.019336	3321.258347
898.327207	3268.626181
898.635038	3222.025754
898.942827	3169.996006
899.250576	3129.003863
899.558284	3092.011876
899.865952	3064.850139
900.173579	3036.246632
900.481165	3010.236799
900.788711	2994.266424
901.096216	2979.488281
901.403681	2964.848770
901.711105	2956.712348
902.018489	2953.070114
902.325832	2961.488841
902.633135	2969.587455
902.940397	3007.398629
903.247619	3096.009511
903.554800	3274.874691
903.861941	3544.805794
904.169041	3807.916216
904.476101	3974.007112
904.783121	3998.839836
905.090100	3930.875000
905.397039	3828.894978
905.703938	3721.669636
906.010796	3620.181126
906.317614	3535.151984
906.624391	3450.652164
906.931129	3381.091802
907.237826	3310.961791
907.544483	3245.517531
907.851099	3177.298117
908.157675	3102.086622
908.464211	3030.512320
908.770707	2974.379072
909.077163	2925.913419
909.383578	2890.688356
909.689954	2860.355733
909.996289	2841.368227
910.302584	2829.750888
910.608839	2820.001297
910.915054	2812.016109
911.221229	2806.632157
911.527363	2803.882207
911.833458	2803.582259
912.139513	2810.975111
912.445527	2812.048877
912.751502	2824.399704
913.057436	2839.167764
913.363331	2858.939169
913.669186	2888.921432
913.975000	2923.702873
914.280775	2982.986842
914.586510	3067.274934
914.892205	3175.311902
915.197859	3321.606187
915.503475	3498.265862
915.809050	3672.561235
916.114585	3807.530568
916.420081	3880.168554
916.725536	3914.314809
917.030952	3875.674365
917.336328	3832.517047
917.641665	3791.424081
917.946961	3731.119278
918.252218	3670.945546
918.557435	3598.557097
918.862612	3530.635111
919.167750	3468.742344
919.472848	3398.093094
919.777906	3333.238649
920.082925	3261.981940
920.387904	3188.171886
920.692843	3135.774133
920.997743	3083.537697
921.302603	3033.410983
921.607423	2997.686847
921.912204	2965.604943
922.216946	2938.133176
922.521647	2917.214908
922.826310	2893.589540
923.130932	2875.716129
923.435516	2855.581761
923.740059	2842.568022
924.044564	2828.034376
924.349028	2815.265133
924.653454	2798.218471
924.957840	2784.735905
925.262186	2777.446397
925.566493	2767.621188
925.870761	2757.614497
926.174989	2748.056470
926.479178	2743.219483
926.783328	2732.176835
927.087438	2727.665002
927.391509	2720.652757
927.695541	2713.408619
927.999533	2710.807384
928.303486	2704.458051
928.607400	2702.275231
928.911275	2696.997143
929.215110	2693.206195
929.518906	2689.740402
929.822663	2689.140505
930.126381	2689.037161
930.430060	2690.337779
930.733699	2689.170752
931.037299	2690.839374
931.340861	2690.708304
931.644383	2692.036648
931.947866	2692.787780
932.251309	2689.422809
932.554714	2689.531194
932.858080	2691.330886
933.161407	2689.942048
933.464694	2687.151770
933.767943	2686.849300
934.071153	2685.737726
934.374323	2684.979032
934.677455	2683.527180
934.980548	2683.030626
935.283602	2680.918383
935.586617	2679.632889
935.889593	2679.211952
936.192530	2681.472910
936.495428	2682.899556
936.798287	2685.548683
937.101108	2688.772501
937.403890	2697.733152
937.706632	2705.902341
938.009336	2715.999772
938.312002	2728.713562
938.614628	2740.136817
938.917216	2752.197778
939.219765	2755.973602
939.522275	2768.006836
939.824747	2767.482556
940.127179	2762.345620
940.429573	2765.133378
940.731929	2766.091198
941.034246	2762.970723
941.336524	2766.403749
941.638763	2765.420724
941.940964	2764.339397
942.243126	2758.133736
942.545250	2755.829929
942.847335	2746.970101
943.149381	2739.478947
943.451389	2737.759913
943.753359	2730.903944
944.055290	2726.192986
944.357182	2722.719631
944.659036	2718.457335
944.960851	2715.046994
945.262628	2711.248485
945.564367	2712.944833
945.866067	2710.146993
946.167729	2710.005841
946.469352	2708.828731
946.770937	2707.553319
947.072484	2705.042825
947.373992	2706.091385
947.675462	2702.643235
947.976893	2699.618543
948.278286	2700.394881
948.579641	2701.254397
948.880958	2697.791125
949.182236	2699.172401
949.483476	2698.854808
949.784678	2696.354396
950.085841	2695.119313
950.386967	2697.632328
950.688054	2697.826413
950.989103	2701.224151
951.290114	2701.947556
951.591087	2704.488298
951.892021	2712.879298
952.192917	2715.117571
952.493776	2719.702500
952.794596	2723.314487
953.095378	2729.903275
953.396122	2727.044941
953.696828	2724.615104
953.997496	2726.795403
954.298126	2719.132850
954.598718	2720.332644
954.899272	2713.451469
955.199788	2710.832590
955.500266	2708.493494
955.800706	2700.089891
956.101108	2691.961030
956.401472	2686.289732
956.701798	2681.253620
957.002087	2673.921261
957.302337	2670.440345
957.602550	2663.478511
957.902724	2659.803510
958.202861	2653.933086
958.502960	2649.459062
958.803022	2645.584936
959.103045	2640.697537
959.403031	2639.901035
959.702979	2633.589510
960.002889	2632.593882
960.302762	2627.267903
960.602596	2626.196658
960.902393	2624.265896
961.202153	2620.333796
961.501875	2619.101234
961.801559	2618.947479
962.101205	2617.818260
962.400814	2618.730709
962.700385	2616.447066
962.999918	2613.528238
963.299414	2613.467744
963.598873	2616.371449
963.898293	2613.873557
964.197677	2609.507918
964.497022	2611.199225
964.796331	2610.579163
965.095601	2609.543206
965.394835	2609.409616
965.694030	2610.700151
965.993189	2608.166971
966.292309	2605.729573
966.591393	2608.315685
966.890439	2605.868205
967.189447	2607.826693
967.488419	2605.999275
967.787353	2607.972887
968.086249	2607.090685
968.385108	2607.521703
968.683930	2608.353494
968.982714	2608.603031
969.281462	2608.282918
969.580172	2610.465737
969.878844	2609.230655
970.177480	2609.134873
970.476078	2612.469596
970.774639	2615.811881
971.073162	2616.857920
971.371649	2613.629061
971.670098	2619.166769
971.968510	2617.629217
972.266885	2617.624176
972.565223	2620.114506
972.863524	2623.245062
973.161788	2619.933024
973.460014	2621.450412
973.758204	2623.361009
974.056356	2623.151801
974.354471	2622.985443
974.652550	2624.142388
974.950591	2623.103910
975.248595	2622.461163
975.546563	2625.296812
975.844493	2625.982409
976.142386	2623.113992
976.440243	2621.694907
976.738062	2620.885802
977.035845	2619.068466
977.333590	2619.381018
977.631299	2618.158538
977.928971	2616.711727
978.226606	2616.169803
978.524204	2616.142077
978.821765	2613.951695
979.119290	2615.698455
979.416777	2612.477158
979.714228	2612.724174
980.011642	2613.550923
980.309020	2617.553600
980.606360	2618.609721
980.903664	2624.583489
981.200931	2628.376957
981.498162	2632.382154
981.795356	2646.298259
982.092513	2660.625218
982.389633	2677.150120
982.686717	2694.761391
982.983764	2712.450800
983.280775	2724.920094
983.577749	2729.419324
983.874686	2732.617936
984.171587	2725.509909
984.468451	2722.336503
984.765279	2717.393652
985.062070	2710.270501
985.358824	2702.454192
985.655543	2691.555217
985.952224	2683.875020
986.248869	2672.171981
986.545478	2655.100113
986.842050	2644.019657
987.138586	2631.983902
987.435086	2624.538118
987.731549	2617.442694
988.027975	2616.474793
988.324366	2611.194184
988.620719	2606.226127
988.917037	2604.297886
989.213318	2603.138420
989.509563	2600.058275
989.805772	2600.333018
990.101944	2597.600713
990.398080	2599.775971
990.694180	2597.978799
990.990244	2598.523244
991.286271	2595.634663
991.582262	2598.155240
991.878217	2597.651124
992.174136	2598.883686
992.470019	2602.959459
992.765865	2601.215220
993.061676	2600.839654
993.357450	2601.956270
993.653188	2604.270159
993.948890	2603.824017
994.244556	2608.509770
994.540186	2612.489761
994.835780	2618.536625
995.131337	2625.926956
995.426859	2631.222688
995.722345	2638.736528
996.017795	2649.098620
996.313208	2656.836791
996.608586	2661.520023
996.903928	2666.387257
997.199234	2670.581497
997.494504	2671.060407
997.789738	2669.147289
998.084936	2666.593944
998.380099	2661.094045
998.675225	2657.154384
998.970316	2648.561737
999.265371	2642.865233
999.560390	2635.384161
999.855373	2630.584982
1000.150320	2623.759260
1000.445232	2620.472428
1000.740108	2612.688886
1001.034948	2608.734101
1001.329752	2607.635129
1001.624521	2604.325612
1001.919254	2598.230857
1002.213951	2594.414703
1002.508613	2593.761874
1002.803239	2595.448140
1003.097829	2590.414548
1003.392384	2590.575865
1003.686903	2593.035948
1003.981386	2591.115268
1004.275834	2589.239959
1004.570246	2591.163159
1004.864623	2589.474373
1005.158964	2588.803899
1005.453270	2589.630648
1005.747540	2588.889599
1006.041775	2587.914136
1006.335974	2586.883220
1006.630138	2584.720565
1006.924266	2584.518918
1007.218359	2587.099989
1007.512416	2587.026892
1007.806438	2586.185020
1008.100425	2585.612849
1008.394376	2584.279464
1008.688292	2585.776686
1008.982172	2588.236769
1009.276017	2585.159145
1009.569827	2585.958168
1009.863602	2587.044537
1010.157341	2584.420616
1010.451045	2585.275092
1010.744714	2584.987746
1011.038347	2584.460945
1011.331945	2583.467838
1011.625508	2584.526480
1011.919036	2581.675708
1012.212528	2580.949782
1012.505986	2583.578743
1012.799408	2585.093610
1013.092795	2582.189905
1013.386147	2583.311562
1013.679464	2580.445666
1013.972745	2581.456417
1014.265992	2582.575554
1014.559204	2582.744432
1014.852380	2583.762745
1015.145521	2580.601942
1015.438628	2584.425657
1015.731699	2582.131932
1016.024736	2584.977663
1016.317737	2582.651171
1016.610703	2582.741912
1016.903635	2581.799216
1017.196531	2582.547827
1017.489393	2577.042887
1017.782219	2579.757549
1018.075011	2581.320306
1018.367768	2584.924731
1018.660490	2584.062694
1018.953177	2584.062694
1019.245829	2584.062694
