Dividing Wavelength (nm)	Counts (n)	Blue Motor Position (mm): 12.500000	Red Motor Position (mm): 0.000000	
326.493990	2158.775832
326.888308	2158.775832
327.282561	2158.775832
327.676750	2133.801956
328.070874	2136.564508
328.464933	2141.194808
328.858929	2149.399286
329.252859	2162.725576
329.646726	2177.506239
330.040528	2191.669361
330.434265	2211.710468
330.827938	2231.401215
331.221547	2249.730850
331.615091	2266.825403
332.008571	2289.918929
332.401986	2309.387865
332.795338	2325.844712
333.188625	2350.269102
333.581847	2370.821886
333.975006	2387.308980
334.368100	2405.462175
334.761129	2425.609146
335.154095	2437.894438
335.546996	2461.915536
335.939833	2484.683908
336.332606	2497.952225
336.725315	2511.933865
337.117960	2520.339989
337.510540	2527.689991
337.903056	2534.064530
338.295508	2542.672300
338.687896	2549.130018
339.080220	2558.304918
339.472480	2563.159550
339.864676	2566.736248
340.256807	2571.250602
340.648875	2572.203380
341.040879	2572.299162
341.432818	2575.623803
341.824694	2576.198494
342.216506	2577.226889
342.608253	2574.166909
342.999937	2575.689337
343.391557	2572.495767
343.783113	2571.802608
344.174605	2571.868143
344.566033	2569.035014
344.957397	2567.391598
345.348697	2567.444530
345.739934	2563.678788
346.131106	2563.179714
346.522215	2561.097718
346.913260	2559.358520
347.304241	2558.088149
347.695159	2556.820299
348.086012	2554.055226
348.476802	2552.978939
348.867528	2551.191850
349.258191	2549.119936
349.648789	2548.426777
350.039324	2548.492313
350.429796	2550.619679
350.820203	2546.470810
351.210548	2546.468289
351.600828	2543.625078
351.991045	2545.543237
352.381198	2544.361087
352.771288	2544.169523
353.161314	2539.947557
353.551276	2542.581560
353.941175	2543.289842
354.331010	2544.519883
354.720782	2541.192722
355.110490	2543.710778
355.500135	2542.052238
355.889717	2543.514173
356.279235	2543.582229
356.668689	2547.925183
357.058080	2544.822353
357.447408	2542.684903
357.836672	2545.051725
358.225873	2542.349667
358.615010	2540.784388
359.004084	2547.791592
359.393095	2547.511808
359.782043	2548.134391
360.170927	2547.216901
360.559748	2549.316541
360.948505	2550.435677
361.337199	2550.264278
361.725830	2552.457180
362.114398	2548.252858
362.502903	2552.066491
362.891344	2551.978270
363.279722	2550.019782
363.668037	2551.925338
364.056289	2552.767211
364.444478	2553.251162
364.832603	2554.410627
365.220665	2555.975905
365.608665	2553.084804
365.996601	2554.902140
366.384474	2555.083621
366.772284	2554.556821
367.160031	2558.209137
367.547715	2558.307439
367.935336	2554.776111
368.322893	2555.048333
368.710388	2559.882800
369.097820	2559.020762
369.485189	2557.541184
369.872495	2558.141081
370.259738	2557.826009
370.646918	2558.935063
371.034035	2557.258879
371.421090	2560.538150
371.808081	2561.075032
372.195010	2556.585885
372.581875	2559.663509
372.968678	2559.247614
373.355418	2560.129816
373.742096	2560.233160
374.128710	2561.611915
374.515262	2560.611246
374.901751	2561.843808
375.288177	2562.282389
375.674540	2560.825495
376.060841	2560.742316
376.447079	2562.199210
376.833254	2563.083932
377.219367	2558.317521
377.605417	2558.884651
377.991404	2558.993036
378.377329	2560.127296
378.763191	2558.299877
379.148991	2561.745506
379.534727	2561.596792
379.920402	2566.693398
380.306013	2563.005794
380.691563	2564.548387
381.077049	2561.044786
381.462474	2564.966803
381.847835	2564.959242
382.233134	2564.465208
382.618371	2564.172822
383.003545	2565.586865
383.388657	2566.292627
383.773706	2567.736917
384.158693	2564.946639
384.543618	2567.089129
384.928480	2565.128120
385.313280	2567.081567
385.698017	2569.894531
386.082692	2565.506207
386.467305	2564.356824
386.851856	2566.068295
387.236344	2571.598441
387.620770	2568.175498
388.005133	2569.529048
388.389435	2567.459654
388.773674	2566.320353
389.157851	2568.626681
389.541965	2569.251784
389.926018	2569.173646
390.310008	2568.979562
390.693936	2570.295303
391.077802	2566.958059
391.461606	2569.685323
391.845348	2571.061558
392.229027	2570.438976
392.612645	2568.866136
392.996200	2570.076013
393.379694	2572.886456
393.763125	2571.873184
394.146494	2573.113308
394.529801	2574.774368
394.913047	2571.086764
395.296230	2573.544327
395.679351	2573.335119
396.062410	2571.696744
396.445408	2570.900241
396.828343	2573.730849
397.211217	2571.336301
397.594028	2567.913358
397.976778	2568.465364
398.359466	2572.127762
398.742092	2568.145251
399.124656	2578.041036
399.507158	2572.130283
399.889598	2571.265725
400.271977	2573.977866
400.654294	2578.542631
401.036549	2575.049111
401.418742	2577.761252
401.800874	2573.743452
402.182944	2576.722774
402.564952	2574.892835
402.946898	2578.275449
403.328783	2579.417271
403.710606	2574.237485
404.092367	2576.929461
404.474067	2573.221693
404.855705	2576.077506
405.237282	2575.361662
405.618797	2576.652198
406.000250	2580.211252
406.381642	2576.717733
406.762972	2578.232600
407.144240	2577.889801
407.525447	2582.459607
407.906593	2578.053639
408.287677	2576.967270
408.668700	2576.553895
409.049661	2578.575398
409.430560	2578.472054
409.811399	2580.135635
410.192176	2576.523648
410.572891	2579.165213
410.953545	2579.664287
411.334138	2580.939699
411.714669	2576.874009
412.095139	2580.097827
412.475547	2578.333423
412.855894	2578.787127
413.236180	2579.155131
413.616405	2581.852148
413.996568	2579.505491
414.376670	2580.390213
414.756711	2580.949782
415.136691	2581.285018
415.516609	2579.288721
415.896466	2583.445153
416.276262	2580.816191
416.655997	2577.405850
417.035670	2574.565160
417.415283	2577.801581
417.794834	2575.003741
418.174324	2578.013309
418.553753	2581.978177
418.933121	2583.765266
419.312428	2583.125039
419.691674	2582.431881
420.070859	2584.344999
420.449983	2581.544638
420.829045	2581.897518
421.208047	2584.143352
421.586988	2582.779720
421.965867	2583.576223
422.344686	2584.012282
422.723444	2584.281984
423.102141	2583.414906
423.480777	2581.776531
423.859352	2582.993969
424.237866	2581.862230
424.616319	2582.809967
424.994712	2585.756522
425.373044	2582.257961
425.751314	2585.219639
426.129524	2582.066397
426.507673	2585.895153
426.885762	2585.766604
427.263789	2584.024885
427.641756	2584.065215
428.019662	2585.144022
428.397508	2585.491861
428.775292	2585.156624
429.153016	2585.512026
429.530679	2584.937334
429.908282	2584.120667
430.285824	2582.164700
430.663305	2585.093610
431.040726	2584.024885
431.418086	2585.985894
431.795385	2587.036975
432.172624	2584.229052
432.549802	2587.140318
432.926920	2586.142170
433.303977	2586.913467
433.680974	2586.275761
434.057910	2585.123857
434.434786	2587.402458
434.811601	2585.580081
435.188355	2585.317941
435.565050	2584.904567
435.941683	2588.829105
436.318257	2584.541604
436.694770	2581.847107
437.071222	2586.437077
437.447614	2583.979515
437.823946	2582.754515
438.200218	2587.566296
438.576429	2586.852973
438.952580	2585.980853
439.328670	2588.158632
439.704700	2587.553693
440.080670	2584.425657
440.456580	2587.248703
440.832429	2588.093097
441.208218	2587.863724
441.583947	2591.579054
441.959616	2589.406317
442.335224	2588.445977
442.710773	2587.538570
443.086261	2583.591346
443.461689	2586.084197
443.837057	2588.937490
444.212365	2588.544280
444.587612	2588.143508
444.962800	2588.493868
445.337927	2589.406317
445.712995	2588.690473
446.088002	2590.326328
446.462949	2590.961513
446.837837	2589.741554
447.212664	2586.671491
447.587431	2591.997470
447.962139	2591.112748
448.336786	2592.315063
448.711374	2590.248190
449.085901	2591.410176
449.460369	2589.418920
449.834776	2589.958323
450.209124	2589.728951
450.583412	2592.642738
450.957640	2588.786255
451.331808	2589.814651
451.705917	2588.690473
452.079965	2590.636359
452.453954	2592.854466
452.827883	2591.372367
453.201752	2592.544435
453.575562	2590.255752
453.949311	2590.318766
454.323001	2592.078129
454.696632	2592.904878
455.070202	2594.220619
455.443713	2590.129723
455.817164	2588.720720
456.190556	2588.249372
456.563888	2586.386666
456.937160	2588.264496
457.310373	2589.000504
457.683526	2590.545618
458.056619	2591.664754
458.429653	2592.204157
458.802628	2593.555187
459.175542	2589.083683
459.548398	2590.694332
459.921194	2594.046699
460.293930	2593.502255
460.666607	2593.068715
461.039224	2594.697008
461.411782	2594.916298
461.784280	2593.509816
462.156719	2595.896803
462.529099	2591.185844
462.901419	2588.902202
463.273680	2595.186000
463.645882	2595.233891
464.018024	2593.361102
464.390106	2593.288006
464.762130	2591.866400
465.134094	2593.126689
465.505999	2593.910588
465.877845	2594.409662
466.249631	2593.323294
466.621358	2593.882862
466.993026	2597.993923
467.364634	2595.186000
467.736184	2597.028542
468.107674	2594.563417
468.479105	2595.218767
468.850477	2594.712132
469.221790	2597.918305
469.593043	2594.013932
469.964238	2595.732965
470.335373	2592.362954
470.706449	2596.990733
471.077467	2595.029724
471.448425	2597.746906
471.819324	2596.779005
472.190164	2596.272369
472.560945	2595.949735
472.931667	2595.856473
473.302330	2597.966196
473.672934	2594.654158
474.043479	2594.649117
474.413965	2595.866556
474.784393	2592.068046
475.154761	2594.233222
475.525070	2592.536874
475.895321	2592.675505
476.265513	2593.015783
476.635645	2596.106011
477.005719	2596.453850
477.375734	2595.622060
477.745691	2595.967379
478.115588	2596.988212
478.485427	2596.955445
478.855207	2598.651793
479.224928	2598.051896
479.594591	2599.072730
479.964194	2595.896803
480.333739	2596.811772
480.703226	2598.404777
481.072653	2598.578697
481.442022	2598.019128
481.811333	2599.889397
482.180584	2598.576176
482.549777	2600.063316
482.918912	2599.844026
483.287988	2600.133892
483.657005	2598.097266
484.025964	2596.852101
484.394864	2600.653131
484.763706	2599.304623
485.132489	2599.407966
485.501213	2600.670775
485.869879	2598.777822
486.238487	2598.266145
486.607036	2598.389653
486.975527	2599.100456
487.343959	2599.687750
487.712333	2599.229005
488.080648	2599.982658
488.448905	2598.200610
488.817104	2600.441403
489.185244	2598.926536
489.553326	2599.549119
489.921350	2600.350662
490.289315	2601.142123
490.657222	2603.022474
491.025070	2604.693616
491.392861	2602.994747
491.760593	2599.783532
492.128267	2601.636156
492.495883	2602.132710
492.863440	2599.765888
493.230939	2598.619026
493.598380	2600.758996
493.965763	2599.352514
494.333088	2598.051896
494.700354	2597.905702
495.067563	2600.958121
495.434713	2597.908223
495.801805	2603.304778
496.168839	2602.626743
496.535815	2602.994747
496.902733	2601.827720
497.269593	2601.827720
497.636395	2601.989037
498.003139	2601.376537
498.369825	2603.425766
498.736453	2599.491145
499.103023	2603.577001
499.469535	2602.236054
499.835989	2600.602720
500.202385	2602.528441
500.568723	2603.030035
500.935003	2603.410642
501.301226	2602.452823
501.667390	2602.785539
502.033497	2606.982300
502.399546	2603.637494
502.765537	2603.256887
503.131470	2605.059100
503.497345	2605.543051
503.863163	2606.649584
504.228923	2606.241250
504.594625	2606.644543
504.960269	2604.532299
505.325856	2608.119080
505.691385	2607.781323
506.056856	2608.668566
506.422270	2608.933227
506.787625	2607.882146
507.152924	2606.954574
507.518164	2609.518000
507.883347	2608.537496
508.248472	2608.872733
508.613540	2608.179574
508.978550	2608.963473
509.343503	2610.077568
509.708398	2611.622682
510.073236	2609.187805
510.438016	2612.900615
510.802738	2611.980604
511.167403	2611.526900
511.532010	2611.428598
511.896561	2611.287445
512.261053	2615.085955
512.625488	2608.290479
512.989866	2608.832403
513.354186	2609.838114
513.718449	2610.558999
514.082655	2611.426077
514.446803	2613.795419
514.810894	2615.884978
515.174927	2618.173662
515.538904	2613.772734
515.902822	2615.769031
516.266684	2618.423199
516.630488	2616.830194
516.994235	2619.063425
517.357925	2618.481172
517.721558	2618.793723
518.085133	2617.989659
518.448651	2618.687859
518.812112	2618.602160
519.175516	2623.295474
519.538863	2621.616770
519.902152	2623.313118
520.265385	2622.932511
520.628560	2624.805299
520.991678	2620.724485
521.354739	2624.500310
521.717743	2621.243724
522.080690	2623.872686
522.443580	2623.048457
522.806413	2624.880917
523.169189	2626.685650
523.531908	2626.373098
523.894569	2625.059878
524.257174	2627.507358
524.619722	2624.981740
524.982213	2629.276803
525.344647	2627.714045
525.707025	2625.682460
526.069345	2627.514920
526.431608	2627.953500
526.793815	2627.146915
527.155964	2627.416617
527.518057	2628.991978
527.880093	2628.369395
528.242072	2627.414097
528.603995	2632.316619
528.965860	2625.516102
529.327669	2630.665641
529.689421	2629.705301
530.051117	2631.575569
530.412755	2630.983233
530.774337	2632.472894
531.135862	2631.850312
531.497331	2626.831843
531.858743	2627.487193
532.220098	2629.178500
532.581396	2627.963582
532.942638	2626.181534
533.303824	2631.275620
533.664953	2631.376443
534.026025	2631.041207
534.387040	2631.878038
534.747999	2633.198821
535.108902	2633.087915
535.469748	2630.645476
535.830537	2634.101187
536.191270	2632.301495
536.551947	2633.218985
536.912567	2632.777884
537.273131	2633.801238
537.633638	2630.721093
537.994089	2631.875518
538.354483	2635.429531
538.714821	2634.128913
539.075103	2633.521454
539.435328	2632.795528
539.795497	2634.910292
540.155609	2633.584469
540.515665	2631.711680
540.875665	2635.943729
541.235609	2635.782412
541.595496	2634.481794
541.955328	2636.054634
542.315102	2633.450878
542.674821	2634.433903
543.034483	2634.043214
543.394090	2634.328039
543.753640	2636.830972
544.113134	2634.043214
544.472571	2637.090591
544.831953	2635.885756
545.191278	2635.926085
545.550548	2638.350880
545.909761	2638.313071
546.268918	2636.654532
546.628019	2640.077475
546.987064	2639.384316
547.346053	2640.967239
547.704986	2637.909779
548.063863	2638.456744
548.422684	2640.132928
548.781449	2639.018833
549.140158	2639.291055
549.498811	2643.437404
549.857408	2641.151241
550.215949	2639.535551
550.574434	2639.722074
550.932864	2640.526138
551.291237	2638.061013
551.649555	2644.732981
552.007817	2646.686428
552.366022	2643.666777
552.724173	2644.254071
553.082267	2645.726088
553.440305	2647.548465
553.798288	2649.864875
554.156215	2649.627941
554.514086	2650.631131
554.871902	2650.757159
555.229661	2651.901501
555.587365	2651.208343
555.945014	2653.814619
556.302606	2653.534835
556.660143	2654.001142
557.017625	2657.280412
557.375050	2655.909219
557.732421	2658.144970
558.089735	2659.115392
558.446994	2657.807213
558.804197	2660.922646
559.161345	2661.812410
559.518437	2663.503717
559.875474	2663.130672
560.232455	2667.294665
560.589381	2664.501865
560.946251	2670.337001
561.303065	2667.324912
561.659825	2670.475633
562.016528	2670.616785
562.373177	2671.783812
562.729770	2675.738597
563.086307	2677.387055
563.442789	2676.981242
563.799216	2679.925276
564.155587	2683.572550
564.511904	2679.146417
564.868164	2683.595236
565.224370	2683.199505
565.580520	2685.231090
565.936615	2690.126050
566.292654	2689.639579
566.648638	2691.950948
567.004567	2693.463294
567.360441	2697.118131
567.716260	2698.575024
568.072023	2703.764892
568.427732	2701.413194
568.783385	2701.541743
569.138982	2703.510314
569.494525	2709.897456
569.850013	2710.283104
570.205445	2716.786192
570.560823	2715.977087
570.916145	2720.478838
571.271412	2722.560834
571.626625	2725.981257
571.981782	2728.489231
572.336884	2730.427555
572.691931	2733.842937
573.046923	2736.202197
573.401860	2739.045407
573.756743	2744.114287
574.111570	2748.268198
574.466342	2749.026892
574.821059	2754.380597
575.175722	2759.131885
575.530330	2757.485948
575.884882	2760.800507
576.239380	2765.813934
576.593823	2770.615633
576.948211	2774.174688
577.302544	2774.736777
577.656823	2777.806839
578.011047	2782.255657
578.365216	2789.971143
578.719330	2790.815537
579.073389	2796.688481
579.427394	2800.459264
579.781344	2804.091415
580.135239	2807.915131
580.489080	2813.712457
580.842866	2818.221770
581.196597	2827.373984
581.550273	2829.960096
581.903895	2837.864626
582.257463	2845.504494
582.610975	2847.679752
582.964434	2856.726103
583.317837	2861.646269
583.671186	2867.824203
584.024481	2877.659494
584.377721	2879.262581
584.730906	2890.975702
585.084037	2899.167577
585.437113	2902.315778
585.790135	2911.578898
586.143103	2917.340937
586.496016	2922.606422
586.848874	2927.972730
587.201679	2937.850871
587.554428	2943.446552
587.907124	2953.012141
588.259765	2958.123871
588.612352	2972.571818
588.964884	2976.786223
589.317362	2989.868017
589.669786	2996.333297
590.022155	3008.028774
590.374470	3020.558562
590.726731	3020.833304
591.078937	3028.442926
591.431090	3035.152702
591.783188	3044.914896
592.135232	3050.681976
592.487222	3063.052968
592.839157	3073.135276
593.191038	3082.100968
593.542866	3089.461052
593.894639	3091.028851
594.246358	3105.854885
594.598022	3115.649847
594.949633	3122.830970
595.301190	3136.318577
595.652692	3141.868888
596.004141	3158.330776
596.355535	3159.162566
596.706876	3163.989471
597.058162	3175.442972
597.409395	3190.836136
597.760573	3204.795091
598.111698	3211.643498
598.462768	3223.298646
598.813785	3235.611664
599.164748	3241.633322
599.515657	3261.440016
599.866511	3261.800458
600.217312	3285.125877
600.568060	3281.523973
600.918753	3305.235040
601.269392	3322.621979
601.619978	3326.917043
601.970510	3347.295907
602.320988	3363.614122
602.671412	3385.157493
603.021783	3391.088410
603.372100	3401.085018
603.722363	3419.575971
604.072572	3435.322015
604.422728	3453.951599
604.772830	3461.268834
605.122878	3477.423211
605.472872	3488.244048
605.822813	3512.227337
606.172701	3526.960109
606.522534	3548.221176
606.872314	3573.512645
607.222041	3585.157710
607.571714	3613.352883
607.921333	3612.755507
608.270899	3638.251142
608.620411	3666.804238
608.969870	3677.945188
609.319276	3693.449256
609.668627	3715.544634
610.017926	3749.073348
610.367171	3772.663427
610.716362	3791.098927
611.065500	3812.599448
611.414585	3834.828416
611.763616	3868.533571
612.112594	3881.532186
612.461518	3911.953029
612.810389	3939.109724
613.159207	3951.662197
613.507971	3973.732369
613.856682	4011.263759
614.205340	4030.233621
614.553945	4076.806321
614.902496	4083.574070
615.250994	4117.508597
615.599439	4139.772853
615.947830	4172.941125
616.296169	4191.452242
616.644454	4219.730594
616.992686	4251.898197
617.340864	4291.496461
617.688990	4304.316115
618.037063	4353.885781
618.385082	4377.458216
618.733048	4414.747631
619.080961	4443.623360
619.428821	4462.038695
619.776628	4495.237214
620.124382	4509.947301
620.472083	4539.881672
620.819731	4568.104572
621.167326	4575.855346
621.514868	4595.168007
621.862357	4601.872741
622.209793	4626.924755
622.557176	4629.210918
622.904506	4636.427330
623.251783	4638.564779
623.599007	4647.255729
623.946179	4658.994055
624.293297	4681.517931
624.640363	4674.982075
624.987376	4693.951937
625.334336	4704.803020
625.681243	4705.171025
626.028097	4726.903439
626.374899	4739.229060
626.721647	4756.278242
627.068343	4774.431437
627.414987	4781.093322
627.761577	4791.790651
628.108115	4830.642823
628.454600	4823.560002
628.801032	4848.647304
629.147412	4874.795769
629.493739	4887.607862
629.840014	4896.686980
630.186236	4930.682001
630.532405	4931.808699
630.878521	4968.858659
631.224585	4986.560671
631.570597	4986.495136
631.916556	5014.166029
632.262462	5036.248803
632.608316	5056.078182
632.954117	5072.298095
633.299866	5096.538483
633.645562	5109.635401
633.991206	5104.450574
634.336797	5092.835755
634.682336	5112.597078
635.027823	5113.360813
635.373257	5128.217094
635.718639	5129.074090
636.063968	5138.916943
636.409245	5119.788284
636.754470	5142.135719
637.099642	5142.970030
637.444762	5124.985714
637.789829	5155.436804
638.134845	5152.795239
638.479808	5166.418958
638.824719	5180.882028
639.169577	5173.675698
639.514383	5192.461558
639.859137	5189.890570
640.203839	5229.420778
640.548489	5220.752514
640.893086	5237.458898
641.237632	5238.883023
641.582125	5260.413792
641.926566	5276.638745
642.270955	5295.099451
642.615292	5316.100897
642.959576	5325.023740
643.303809	5350.350497
643.647990	5377.552563
643.992118	5389.416918
644.336195	5399.085852
644.680219	5424.170633
645.024192	5462.669925
645.368112	5517.772257
645.711981	5531.844638
646.055797	5617.277072
646.399562	5619.502742
646.743274	5715.110745
647.086935	5772.403458
647.430544	5785.858298
647.774101	5818.993802
648.117606	5856.373958
648.461059	5912.078708
648.804460	5899.596811
649.147810	5866.100864
649.491108	5869.642275
649.834354	5861.967118
650.177548	5806.655578
650.520690	5788.419204
650.863781	5804.999559
651.206820	5818.192259
651.549807	5787.408453
651.892742	5766.865751
652.235626	5766.865751
652.578458	5765.718888
652.921238	5738.121092
653.263967	5772.327841
653.606644	5755.616416
653.949269	5766.787613
654.291843	5744.636783
654.634365	5803.582995
654.976836	5780.749089
655.319255	5796.424557
655.661622	5811.900899
656.003938	5807.741947
656.346203	5809.294622
656.688416	5844.141598
657.030577	5839.521381
657.372687	5842.246124
657.714746	5876.775508
658.056753	5905.258027
658.398708	5866.877202
658.740612	5883.134923
659.082465	5923.892652
659.424266	5912.010653
659.766016	5938.950579
660.107715	5941.309839
660.449362	5973.439633
660.790958	5983.408514
661.132503	6004.079766
661.473996	6012.173338
661.815438	6043.854470
662.156829	6081.567342
662.498168	6061.556481
662.839456	6080.675057
663.180693	6112.368792
663.521879	6145.537063
663.863013	6148.120655
664.204097	6160.413508
664.545129	6221.247632
664.886110	6235.561989
665.227040	6257.097798
665.567918	6278.036230
665.908746	6304.436753
666.249522	6332.014385
666.590248	6344.445871
666.930922	6368.580395
667.271545	6383.018259
667.612118	6410.406848
667.952639	6400.498460
668.293109	6424.426297
668.633528	6425.260608
668.973896	6432.661022
669.314213	6453.843950
669.654480	6439.035561
669.994695	6448.684329
670.334859	6454.895031
670.674973	6452.258507
671.015035	6490.964487
671.355047	6501.495457
671.695008	6503.781620
672.034918	6502.425550
672.374777	6519.121851
672.714585	6512.585995
673.054342	6556.565022
673.394049	6548.214350
673.733705	6585.823878
674.073310	6562.894190
674.412864	6592.921823
674.752368	6561.482667
675.091820	6616.547191
675.431223	6574.388021
675.770574	6555.224075
676.109875	6547.574124
676.449125	6531.802874
676.788324	6547.029679
677.127473	6496.255177
677.466571	6502.768348
677.805619	6467.545806
678.144616	6483.105328
678.483562	6481.134237
678.822458	6462.103881
679.161303	6459.913499
679.500098	6451.766995
679.838842	6456.142716
680.177535	6473.176775
680.516179	6516.197982
680.854771	6535.079624
681.193314	6636.326158
681.531805	6760.552791
681.870247	6862.908379
682.208638	6987.525702
682.546978	7050.593057
682.885268	7089.961948
683.223508	7047.132305
683.561697	7020.578027
683.899836	7004.937848
684.237925	6949.470032
684.575963	6938.508043
684.913951	6888.729169
685.251889	6911.447129
685.589776	6917.801503
685.927614	6907.371356
686.265401	6931.957063
686.603137	6946.339475
686.940824	7008.995976
687.278460	7051.770167
687.616046	7060.791312
687.953582	7158.564490
688.291068	7148.252810
688.628504	7198.109822
688.965889	7208.986111
689.303224	7188.239242
689.640510	7167.812487
689.977745	7096.243226
690.314930	7017.311360
690.652065	6966.209183
690.989150	6885.117182
691.326185	6784.808303
691.663170	6711.358692
692.000105	6629.933975
692.336990	6545.474483
692.673825	6492.060937
693.010610	6432.398882
693.347345	6358.104877
693.684030	6270.053563
694.020665	6242.289408
694.357251	6160.582387
694.693786	6156.267159
695.030272	6130.005268
695.366707	6054.705553
695.703093	6018.220202
696.039429	6021.963259
696.375716	5988.043855
696.711952	5980.285520
697.048139	5965.938396
697.384276	5941.541732
697.720363	5955.122600
698.056400	5938.451504
698.392388	5921.266211
698.728326	5923.128917
699.064214	5905.797430
699.400053	5911.156177
699.735842	5866.279825
700.071581	5836.942831
700.407270	5804.608870
700.742910	5787.889883
701.078501	5760.839052
701.414042	5724.177260
701.749533	5676.112379
702.084974	5637.766842
702.420366	5673.180948
702.755709	5620.460561
703.091002	5580.819448
703.426246	5591.481488
703.761440	5580.595116
704.096584	5544.301329
704.431679	5537.064753
704.766725	5531.791706
705.101721	5519.052710
705.436668	5541.077511
705.771565	5492.437938
706.106413	5553.584614
706.441212	5553.579573
706.775961	5568.859310
707.110661	5578.097225
707.445311	5636.763652
707.779913	5613.564262
708.114465	5650.619264
708.448967	5694.590728
708.783421	5797.800792
709.117825	5838.840825
709.452180	5875.482452
709.786485	5928.527993
710.120742	6045.439912
710.454949	6049.341766
710.789107	6121.183249
711.123216	6227.705350
711.457275	6251.771819
711.791286	6340.886816
712.125247	6368.938317
712.459159	6334.081258
712.793023	6450.231963
713.126837	6302.705117
713.460602	6360.811977
713.794318	6329.486247
714.127985	6290.218179
714.461602	6162.687069
714.795171	6175.499161
715.128691	6028.549527
715.462162	5957.645698
715.795584	5894.580863
716.128957	5860.616089
716.462281	5808.785466
716.795556	5778.089880
717.128782	5701.504671
717.461960	5612.263645
717.795088	5610.663078
718.128167	5548.230909
718.461198	5471.736440
718.794180	5458.518535
719.127113	5401.908898
719.459997	5378.437285
719.792833	5317.739272
720.125619	5312.844312
720.458357	5262.841107
720.791046	5236.667436
721.123686	5208.510072
721.456278	5173.025390
721.788821	5164.825953
722.121315	5127.186178
722.453761	5136.439216
722.786158	5123.095281
723.118506	5131.118278
723.450805	5106.635914
723.783056	5132.343278
724.115259	5116.166215
724.447412	5103.838074
724.779518	5143.864835
725.111574	5152.870857
725.443582	5189.280590
725.775542	5180.526627
726.107453	5262.251292
726.439315	5238.981326
726.771129	5301.552127
727.102895	5362.018247
727.434612	5402.299587
727.766281	5430.378814
728.097901	5480.167770
728.429473	5500.355071
728.760996	5510.800341
729.092471	5539.739085
729.423897	5527.993197
729.755276	5497.572354
730.086606	5514.482904
730.417887	5596.668835
730.749120	5688.866498
731.080305	5728.593311
731.411442	5803.487213
731.742530	5821.801725
732.073570	5850.241394
732.404562	5914.397639
732.735506	5902.056894
733.066401	5885.786570
733.397249	5827.324309
733.728048	5736.031533
734.058798	5604.858190
734.389501	5483.981403
734.720156	5403.375873
735.050762	5303.233352
735.381320	5231.845573
735.711831	5182.275907
736.042293	5106.567858
736.372707	5107.308908
736.703073	5058.271084
737.033391	5088.984314
737.363661	5075.347993
737.693883	5086.630095
738.024056	5109.690853
738.354182	5133.964009
738.684260	5186.288665
739.014290	5222.428697
739.344272	5255.644860
739.674207	5305.496830
740.004093	5335.703424
740.333931	5340.250545
740.663722	5358.123956
740.993464	5370.220205
741.323159	5353.044993
741.652806	5317.328418
741.982405	5284.959170
742.311956	5235.195419
742.641460	5224.523297
742.970915	5179.362120
743.300323	5121.373727
743.629683	5091.419191
743.958996	5044.377664
744.288260	4995.405375
744.617477	4937.820275
744.946647	4930.760139
745.275768	4874.289133
745.604842	4842.958362
745.933869	4810.621881
746.262847	4806.904030
746.591778	4791.730157
746.920662	4766.597484
747.249498	4769.607053
747.578286	4785.703457
747.907027	4806.843536
748.235720	4847.795349
748.564365	4856.425805
748.892963	4846.794680
749.221514	4863.680025
749.550017	4837.942414
749.878473	4836.011652
750.206881	4800.025375
750.535242	4789.179333
750.863555	4772.215850
751.191821	4750.972428
751.520039	4760.008696
751.848210	4742.914143
752.176334	4747.683075
752.504411	4732.582299
752.832440	4699.986198
753.160421	4711.611099
753.488356	4690.586967
753.816243	4678.029452
754.144082	4646.129031
754.471875	4633.896671
754.799620	4627.141525
755.127318	4616.877736
755.454969	4615.851861
755.782572	4607.014718
756.110129	4609.459678
756.437638	4591.825722
756.765100	4590.169702
757.092515	4596.977781
757.419882	4599.326958
757.747203	4592.803705
758.074477	4604.569758
758.401703	4595.084828
758.728882	4621.858396
759.056014	4635.041013
759.383099	4656.526411
759.710138	4687.237120
760.037129	4705.430644
760.364073	4720.846492
760.690970	4713.879618
761.017820	4718.830031
761.344623	4754.188684
761.671379	4811.340245
761.998088	4899.484820
762.324751	5130.808247
762.651366	5584.033183
762.977935	6261.397902
763.304456	6798.976466
763.630931	7099.220027
763.957359	7037.836417
764.283740	6747.997798
764.610074	6432.381238
764.936362	6041.835488
765.262602	5733.868878
765.588796	5397.863372
765.914943	5148.159898
766.241044	4926.223100
766.567097	4760.684211
766.893104	4617.197849
767.219064	4517.403167
767.544978	4423.642747
767.870845	4340.307433
768.196665	4292.976039
768.522438	4247.333432
768.848165	4207.019325
769.173846	4166.685053
769.499479	4139.120024
769.825066	4105.949232
770.150607	4064.803334
770.476101	4051.711457
770.801548	4031.060371
771.126949	4001.531812
771.452303	3977.356959
771.777611	3942.716670
772.102872	3942.126855
772.428087	3916.245571
772.753256	3893.053743
773.078378	3873.224364
773.403453	3839.068026
773.728482	3813.383348
774.053465	3805.453612
774.378401	3784.099285
774.703291	3759.299328
775.028135	3737.813931
775.352932	3730.569793
775.677683	3707.602296
776.002388	3687.558668
776.327046	3691.233669
776.651658	3670.806914
776.976224	3652.149603
777.300743	3650.576763
777.625216	3638.513282
777.949643	3633.066316
778.274024	3632.726038
778.598359	3613.340281
778.922647	3612.090074
779.246889	3605.992799
779.571086	3601.186059
779.895236	3602.915174
780.219339	3605.665124
780.543397	3600.646655
780.867409	3615.157617
781.191374	3618.840179
781.515294	3611.527986
781.839167	3624.128350
782.162995	3627.027013
782.486776	3615.210549
782.810511	3609.849282
783.134201	3596.061726
783.457844	3596.318825
783.781441	3589.432608
784.104993	3580.953388
784.428498	3574.964497
784.751958	3569.061306
785.075372	3567.990061
785.398739	3556.508833
785.722061	3564.335224
786.045337	3560.723237
786.368568	3585.450097
786.691752	3584.199891
787.014891	3630.341572
787.337983	3671.532840
787.661030	3763.312087
787.984031	3856.616283
788.306987	3931.316101
788.629897	3979.559943
788.952760	3983.618072
789.275579	3969.691884
789.598351	3922.897374
789.921078	3870.565156
790.243759	3809.763799
790.566395	3765.482304
790.888984	3717.987073
791.211529	3680.692617
791.534027	3637.026142
791.856480	3597.175821
792.178888	3582.306937
792.501249	3558.797517
792.823566	3528.699308
793.145836	3526.057743
793.468062	3515.877133
793.790241	3499.586644
794.112375	3507.292048
794.434464	3526.266951
794.756507	3524.719317
795.078505	3543.550547
795.400457	3584.227617
795.722364	3634.482880
796.044226	3677.733459
796.366042	3721.362125
796.687812	3717.694686
797.009538	3741.004981
797.331218	3734.106162
797.652852	3725.090058
797.974442	3704.287737
798.295986	3693.323228
798.617484	3665.244001
798.938938	3638.598982
799.260346	3625.186992
799.581709	3590.919749
799.903026	3580.885332
800.224299	3560.440933
800.545526	3528.969009
800.866708	3513.074251
801.187845	3498.507837
801.508936	3479.212821
801.829983	3470.257211
802.150984	3439.501131
802.471940	3435.785801
802.792851	3427.225922
803.113717	3420.526228
803.434538	3411.021133
803.755314	3401.011922
804.076045	3397.657034
804.396731	3385.094478
804.717372	3384.953326
805.037967	3385.752349
805.358518	3384.217318
805.679024	3397.407497
805.999485	3394.493710
806.319901	3403.313208
806.640272	3402.151223
806.960598	3416.326947
807.280879	3414.512132
807.601115	3426.053853
807.921306	3415.646391
808.241453	3417.410795
808.561554	3425.872372
808.881611	3422.467073
809.201623	3424.985129
809.521590	3414.280239
809.841513	3414.428953
810.161390	3423.286260
810.481223	3397.301633
810.801011	3398.287178
811.120755	3397.205851
811.440453	3382.639437
811.760107	3376.269939
812.079716	3373.104094
812.399281	3360.009697
812.718801	3361.146477
813.038276	3353.279757
813.357707	3349.403109
813.677093	3356.047350
813.996434	3338.579752
814.315731	3346.214579
814.634983	3348.820856
814.954191	3344.442614
815.273354	3363.125130
815.592473	3373.247767
815.911547	3396.003535
816.230577	3407.162129
816.549562	3432.216664
816.868502	3451.831794
817.187399	3469.664875
817.506250	3494.633710
817.825058	3504.998323
818.143821	3550.441804
818.462539	3596.371757
818.781213	3649.243378
819.099843	3734.315370
819.418429	3885.086199
819.736970	4035.912481
820.055466	4221.908373
820.373919	4453.657777
820.692327	4786.709167
821.010691	5301.741171
821.329011	6371.683225
821.647286	8077.967608
821.965517	10215.409277
822.283704	11802.447687
822.601847	12840.930421
822.919945	12438.724482
823.237999	11776.349634
823.556010	10893.598225
823.873976	9966.030958
824.191897	9012.163992
824.509775	8258.934949
824.827609	7466.032025
825.145398	6926.361383
825.463144	6552.645524
825.780845	6424.252377
826.098502	6489.217727
826.416116	6866.437187
826.733685	7359.275510
827.051210	7642.613562
827.368692	7555.268010
827.686129	7116.604446
828.003522	6572.452218
828.320872	6015.349265
828.638177	5560.801026
828.955439	5191.667577
829.272656	4863.160786
829.589830	4582.625616
829.906960	4324.674815
830.224046	4118.688227
830.541088	3950.878298
830.858086	3835.004856
831.175041	3739.200248
831.491952	3694.898588
831.808819	3679.376875
832.125642	3715.380796
832.442421	3816.239161
832.759157	4031.708159
833.075849	4403.367226
833.392497	4860.468810
833.709101	5238.993929
834.025662	5342.690463
834.342179	5220.989448
834.658653	4955.862564
834.975083	4690.884395
835.291469	4450.045790
835.607811	4223.511460
835.924110	4068.178386
836.240366	3916.011157
836.556578	3756.027620
836.872746	3620.047536
837.188871	3508.234743
837.504952	3419.782658
837.820990	3342.005216
838.136984	3287.870785
838.452935	3258.748040
838.768842	3243.581728
839.084706	3275.565329
839.400526	3412.427615
839.716303	3635.165956
840.032037	3843.763861
840.347727	3909.747524
840.663373	3819.606652
840.978977	3670.141482
841.294537	3535.585524
841.610054	3436.746141
841.925527	3360.907022
842.240957	3296.370171
842.556344	3231.442630
842.871687	3171.442817
843.186987	3111.319495
843.502244	3061.313770
843.817458	3018.947913
844.132629	2992.013028
844.447756	2968.412866
844.762840	2946.330092
845.077881	2929.984150
845.392879	2917.204825
845.707833	2906.588155
846.022745	2895.008625
846.337613	2890.839591
846.652438	2878.859289
846.967221	2879.970863
847.281960	2869.601210
847.596656	2864.756661
847.911309	2859.796165
848.225919	2854.465145
848.540485	2852.627645
848.855009	2847.243692
849.169490	2846.283352
849.483928	2842.361335
849.798323	2841.988289
850.112675	2836.324553
850.426984	2836.309430
850.741251	2834.353462
851.055474	2833.125941
851.369654	2833.413287
851.683792	2832.095025
851.997887	2828.619149
852.311938	2832.276507
852.625947	2830.222236
852.939914	2828.813234
853.253837	2833.239367
853.567718	2833.196517
853.881555	2828.954386
854.195350	2829.468584
854.509103	2828.493121
854.822812	2828.414983
855.136479	2824.505568
855.450103	2829.277020
855.763685	2829.806341
856.077224	2826.040599
856.390720	2827.338696
856.704173	2830.096207
857.017584	2832.400015
857.330953	2832.969665
857.644278	2839.825634
857.957561	2840.556602
858.270802	2839.503001
858.584000	2839.813032
858.897155	2838.945953
859.210268	2836.064934
859.523339	2834.093842
859.836367	2834.169460
860.149352	2831.656445
860.462295	2829.887000
860.775195	2823.908191
861.088054	2825.954900
861.400869	2823.646051
861.713642	2822.955413
862.026373	2825.831391
862.339062	2828.014211
862.651708	2830.471773
862.964312	2837.274811
863.276873	2836.730366
863.589392	2843.475430
863.901869	2847.553723
864.214303	2858.127543
864.526696	2864.302957
864.839045	2872.152033
865.151353	2877.505739
865.463619	2879.403733
865.775842	2883.865154
866.088023	2885.546379
866.400162	2886.899929
866.712258	2888.886144
867.024313	2891.184910
867.336325	2890.489231
867.648296	2892.808161
867.960224	2893.460991
868.272110	2894.605333
868.583954	2895.079201
868.895755	2894.900240
869.207515	2897.022566
869.519233	2901.617578
869.830909	2905.640418
870.142542	2910.898342
870.454134	2911.006727
870.765684	2916.680545
871.077191	2921.729261
871.388657	2928.872576
871.700081	2936.136879
872.011463	2941.341870
872.322803	2945.856223
872.634101	2951.991308
872.945357	2958.512040
873.256571	2968.352372
873.567744	2973.025522
873.878874	2977.146665
874.189963	2984.862151
874.501010	2986.066987
874.812015	2988.474138
875.122979	2997.028976
875.433900	2997.069305
875.744780	2998.606857
876.055618	3005.856036
876.366415	3006.685306
876.677169	3014.320134
876.987882	3018.509332
877.298554	3028.868904
877.609183	3045.103940
877.919771	3061.827968
878.230317	3083.870413
878.540822	3119.932307
878.851285	3171.992302
879.161707	3235.326839
879.472087	3344.170392
879.782425	3502.139988
880.092722	3777.873460
880.402977	4194.212274
880.713191	4726.361515
881.023363	5315.841278
881.333494	5742.690898
881.643583	6017.620305
881.953631	6090.815338
882.263637	6036.446494
882.573602	5899.778293
882.883526	5739.847687
883.193408	5541.198499
883.503248	5326.115150
883.813048	5110.605823
884.122806	4896.928955
884.432522	4658.300897
884.742197	4435.736475
885.051831	4231.521853
885.361424	4039.413562
885.670975	3873.713356
885.980485	3729.329669
886.289954	3608.606637
886.599382	3506.311543
886.908768	3424.493616
887.218113	3347.187522
887.527417	3285.952626
887.836680	3228.125551
888.145901	3179.286852
888.455082	3144.059269
888.764221	3111.201028
889.073319	3082.007706
889.382376	3061.583472
889.691392	3045.827345
890.000366	3037.945501
890.309300	3029.113400
890.618193	3028.558873
890.927044	3021.541587
891.235855	3023.883203
891.544625	3028.054757
891.853353	3031.986857
892.162041	3047.473282
892.470687	3073.344483
892.779293	3106.613578
893.087858	3153.760970
893.396381	3228.554049
893.704864	3336.838033
894.013306	3489.733709
894.321707	3671.794980
894.630068	3822.485151
894.938387	3900.975916
895.246665	3908.764499
895.554903	3849.717464
895.863100	3762.913836
896.171256	3693.645861
896.479371	3618.111733
896.787446	3545.047769
897.095480	3471.091522
897.403473	3419.709561
897.711425	3364.773587
898.019336	3312.953046
898.327207	3258.924480
898.635038	3210.736090
898.942827	3163.820592
899.250576	3119.314765
899.558284	3082.148859
899.865952	3056.668347
900.173579	3024.609129
900.481165	3003.398474
900.788711	2987.659992
901.096216	2970.320943
901.403681	2957.476083
901.711105	2949.735391
902.018489	2943.323043
902.325832	2951.968622
902.633135	2962.151753
902.940397	3001.077023
903.247619	3087.913418
903.554800	3262.788524
903.861941	3535.141902
904.169041	3793.143115
904.476101	3957.479689
904.783121	3978.178667
905.090100	3915.345725
905.397039	3809.277328
905.703938	3709.215465
906.010796	3605.473560
906.317614	3515.032739
906.624391	3434.439813
906.931129	3363.551108
907.237826	3296.589461
907.544483	3234.847929
907.851099	3162.018380
908.157675	3093.057916
908.464211	3020.004035
908.770707	2963.071764
909.077163	2917.892943
909.383578	2882.980432
909.689954	2854.782738
909.996289	2834.444203
910.302584	2824.404745
910.608839	2812.374031
910.915054	2803.730973
911.221229	2801.500262
911.527363	2798.878862
911.833458	2798.934315
912.139513	2803.297434
912.445527	2806.669966
912.751502	2820.220587
913.057436	2832.889007
913.363331	2852.347861
913.669186	2880.739639
913.975000	2918.313879
914.280775	2977.368476
914.586510	3058.278995
914.892205	3166.948628
915.197859	3308.988179
915.503475	3489.282526
915.809050	3663.134278
916.114585	3790.206643
916.420081	3865.496275
916.725536	3894.994587
917.030952	3855.940768
917.336328	3820.814008
917.641665	3774.672327
917.946961	3712.661094
918.252218	3654.826456
918.557435	3584.192329
918.862612	3515.985517
919.167750	3457.014100
919.472848	3383.740929
919.777906	3319.125939
920.082925	3248.111205
920.387904	3177.943385
920.692843	3124.464304
920.997743	3075.139134
921.302603	3024.520908
921.607423	2991.929849
921.912204	2956.724951
922.216946	2931.859460
922.521647	2907.208217
922.826310	2887.456977
923.130932	2869.074409
923.435516	2848.526666
923.740059	2835.434789
924.044564	2819.635813
924.349028	2808.880512
924.653454	2792.622790
924.957840	2778.439504
925.262186	2771.691920
925.566493	2758.867224
925.870761	2745.586304
926.174989	2742.624627
926.479178	2733.053996
926.783328	2726.480331
927.087438	2722.321379
927.391509	2715.288970
927.695541	2708.571632
927.999533	2705.118442
928.303486	2698.360775
928.607400	2697.181145
928.911275	2691.033458
929.215110	2691.109075
929.518906	2686.146059
929.822663	2687.572706
930.126381	2683.050791
930.430060	2684.331244
930.733699	2687.358457
931.037299	2684.558096
931.340861	2687.698735
931.644383	2687.010617
931.947866	2688.659075
932.251309	2685.649506
932.554714	2686.375432
932.858080	2686.884588
933.161407	2683.166737
933.464694	2684.636234
933.767943	2682.546676
934.071153	2681.586336
934.374323	2680.505008
934.677455	2680.152128
934.980548	2678.143228
935.283602	2676.613237
935.586617	2673.696930
935.889593	2674.768175
936.192530	2676.187260
936.495428	2677.833197
936.798287	2680.328568
937.101108	2684.106913
937.403890	2691.857687
937.706632	2700.772967
938.009336	2711.011551
938.312002	2723.866493
938.614628	2734.364696
938.917216	2744.164699
939.219765	2750.892119
939.522275	2759.139447
939.824747	2761.687750
940.127179	2757.077615
940.429573	2758.158942
940.731929	2759.247831
941.034246	2757.654827
941.336524	2759.986360
941.638763	2758.685743
941.940964	2761.453336
942.243126	2753.717686
942.545250	2750.511512
942.847335	2743.947929
943.149381	2736.789491
943.451389	2732.436455
943.753359	2727.133161
944.055290	2722.938921
944.357182	2718.898436
944.659036	2715.286449
944.960851	2712.586911
945.262628	2704.556353
945.564367	2708.337219
945.866067	2705.582228
946.167729	2706.608103
946.469352	2705.970397
946.770937	2703.419573
947.072484	2701.370344
947.373992	2701.040148
947.675462	2698.688450
947.976893	2699.595858
948.278286	2698.990919
948.579641	2694.398428
948.880958	2690.864579
949.182236	2695.073943
949.483476	2690.446164
949.784678	2691.028417
950.085841	2693.838860
950.386967	2692.664271
950.688054	2694.499251
950.989103	2695.618387
951.290114	2697.718028
951.591087	2703.170036
951.892021	2704.216075
952.192917	2711.014071
952.493776	2716.806357
952.794596	2719.349619
953.095378	2720.430947
953.396122	2722.308777
953.696828	2719.904146
953.997496	2721.114023
954.298126	2715.712427
954.598718	2714.651264
954.899272	2710.525079
955.199788	2706.903010
955.500266	2702.209696
955.800706	2691.245187
956.101108	2687.928107
956.401472	2681.568692
956.701798	2675.985614
957.002087	2665.308450
957.302337	2666.263749
957.602550	2658.996925
957.902724	2653.756646
958.202861	2650.547952
958.502960	2645.922693
958.803022	2643.507980
959.103045	2636.972124
959.403031	2636.089922
959.702979	2630.615229
960.002889	2630.335445
960.302762	2625.523664
960.602596	2622.602315
960.902393	2622.496451
961.202153	2619.933024
961.501875	2620.485031
961.801559	2619.209619
962.101205	2614.322220
962.400814	2616.436984
962.700385	2611.342898
962.999918	2612.872888
963.299414	2609.447424
963.598873	2613.182919
963.898293	2607.168823
964.197677	2608.686210
964.497022	2611.148814
964.796331	2603.456013
965.095601	2606.304265
965.394835	2608.010695
965.694030	2607.239399
965.993189	2607.393154
966.292309	2604.807042
966.591393	2604.393667
966.890439	2604.416353
967.189447	2605.830396
967.488419	2606.195880
967.787353	2606.084975
968.086249	2603.045159
968.385108	2606.130345
968.683930	2605.732094
968.982714	2605.469954
969.281462	2606.268977
969.580172	2605.845520
969.878844	2608.114039
970.177480	2610.052363
970.476078	2612.741818
970.774639	2614.418002
971.073162	2614.843979
971.371649	2610.901797
971.670098	2611.143773
971.968510	2612.993876
972.266885	2613.029164
972.565223	2618.062756
972.863524	2617.495626
973.161788	2618.655092
973.460014	2621.105092
973.758204	2619.968312
974.056356	2620.772376
974.354471	2625.417800
974.652550	2622.541821
974.950591	2620.240535
975.248595	2623.436626
975.546563	2621.405041
975.844493	2621.745319
976.142386	2621.805813
976.440243	2620.595936
976.738062	2618.781121
977.035845	2621.077366
977.333590	2617.304063
977.631299	2614.849021
977.928971	2615.295163
978.226606	2616.613424
978.524204	2613.066973
978.821765	2610.692589
979.119290	2612.288114
979.416777	2610.218721
979.714228	2614.538990
980.011642	2611.592435
980.309020	2616.527725
980.606360	2615.658126
980.903664	2618.292129
981.200931	2626.307563
981.498162	2630.012811
981.795356	2644.483443
982.092513	2657.769404
982.389633	2675.050480
982.686717	2692.331555
982.983764	2709.809236
983.280775	2720.690566
983.577749	2725.527553
983.874686	2727.667523
984.171587	2721.814743
984.468451	2715.437684
984.765279	2711.712271
985.062070	2705.534337
985.358824	2700.727597
985.655543	2687.222346
985.952224	2678.768331
986.248869	2669.447237
986.545478	2652.362767
986.842050	2641.244502
987.138586	2631.381485
987.435086	2620.361522
987.731549	2613.077055
988.027975	2615.358177
988.324366	2608.895418
988.620719	2607.047835
988.917037	2603.957608
989.213318	2602.341918
989.509563	2597.046186
989.805772	2600.234716
990.101944	2595.417893
990.398080	2593.887903
990.694180	2596.199272
990.990244	2596.398398
991.286271	2594.031576
991.582262	2596.519385
991.878217	2596.784046
992.174136	2597.636001
992.470019	2598.288830
992.765865	2597.444437
993.061676	2598.896289
993.357450	2600.648090
993.653188	2603.201435
993.948890	2601.643718
994.244556	2607.836776
994.540186	2612.530090
994.835780	2617.903960
995.131337	2624.651544
995.426859	2628.893675
995.722345	2638.817187
996.017795	2647.034267
996.313208	2652.319917
996.608586	2662.986999
996.903928	2664.423727
997.199234	2668.179387
997.494504	2667.050169
997.789738	2663.964982
998.084936	2663.657472
998.380099	2656.095741
998.675225	2652.332520
998.970316	2647.356901
999.265371	2638.857516
999.560390	2633.166053
999.855373	2629.304529
1000.150320	2622.307408
1000.445232	2616.162241
1000.740108	2609.578494
1001.034948	2608.003134
1001.329752	2605.180087
1001.624521	2602.977103
1001.919254	2595.251535
1002.213951	2596.373192
1002.508613	2592.846905
1002.803239	2592.206678
1003.097829	2589.965885
1003.392384	2593.514857
1003.686903	2591.758015
1003.981386	2591.546287
1004.275834	2587.987232
1004.570246	2590.694332
1004.864623	2587.079825
1005.158964	2588.282140
1005.453270	2588.130905
1005.747540	2585.786769
1006.041775	2585.517067
1006.335974	2588.960175
1006.630138	2584.806264
1006.924266	2583.500605
1007.218359	2587.619228
1007.512416	2586.996646
1007.806438	2584.299628
1008.100425	2584.622262
1008.394376	2584.314752
1008.688292	2587.982191
1008.982172	2586.689135
1009.276017	2586.943713
1009.569827	2583.692169
1009.863602	2587.273909
1010.157341	2585.713672
1010.451045	2585.252406
1010.744714	2585.186871
1011.038347	2583.954309
1011.331945	2578.676221
1011.625508	2585.428847
1011.919036	2583.387179
1012.212528	2585.297777
1012.505986	2584.168558
1012.799408	2584.561768
1013.092795	2581.421129
1013.386147	2581.716037
1013.679464	2582.084041
1013.972745	2581.022878
1014.265992	2584.087900
1014.559204	2583.281315
1014.852380	2585.900195
1015.145521	2583.145204
1015.438628	2582.073959
1015.731699	2583.553537
1016.024736	2583.944227
1016.317737	2583.354412
1016.610703	2585.174268
1016.903635	2580.911973
1017.196531	2580.092785
1017.489393	2582.643609
1017.782219	2580.705286
1018.075011	2583.465317
1018.367768	2584.904567
1018.660490	2583.941706
1018.953177	2583.941706
1019.245829	2583.941706
