Dividing Wavelength (nm)	Counts (n)	Blue Motor Position (mm): 34.500000	Red Motor Position (mm): 0.000000	
326.493990	2152.421458
326.888308	2152.421458
327.282561	2152.421458
327.676750	2126.852725
328.070874	2129.325411
328.464933	2137.076185
328.858929	2144.456435
329.252859	2156.540080
329.646726	2171.628254
330.040528	2184.589060
330.434265	2204.647812
330.827938	2222.929556
331.221547	2241.014695
331.615091	2264.201483
332.008571	2283.055398
332.401986	2302.050466
332.795338	2324.337407
333.188625	2340.948009
333.581847	2363.396267
333.975006	2382.106509
334.368100	2398.747358
334.761129	2417.170255
335.154095	2433.564087
335.546996	2457.436471
335.939833	2487.585092
336.332606	2502.806856
336.725315	2513.831859
337.117960	2523.858714
337.510540	2530.628984
337.903056	2539.357742
338.295508	2548.767055
338.687896	2553.929197
339.080220	2560.896072
339.472480	2566.514438
339.864676	2574.855027
340.256807	2572.800756
340.648875	2577.340315
341.040879	2578.835017
341.432818	2580.289390
341.824694	2581.201839
342.216506	2577.047928
342.608253	2578.966088
342.999937	2578.315779
343.391557	2576.201015
343.783113	2577.231931
344.174605	2575.757393
344.566033	2573.393092
344.957397	2571.747155
345.348697	2570.590210
345.739934	2568.314129
346.131106	2570.948132
346.522215	2564.739951
346.913260	2562.821792
347.304241	2562.973027
347.695159	2560.812892
348.086012	2559.421534
348.476802	2557.750392
348.867528	2557.611760
349.258191	2554.627397
349.648789	2554.697973
350.039324	2552.873075
350.429796	2548.323434
350.820203	2552.182437
351.210548	2549.218239
351.600828	2551.320400
351.991045	2547.295038
352.381198	2548.696479
352.771288	2546.198588
353.161314	2548.928372
353.551276	2550.576830
353.941175	2543.846889
354.331010	2548.341078
354.720782	2548.018444
355.110490	2550.317210
355.500135	2547.957950
355.889717	2550.884340
356.279235	2551.181768
356.668689	2547.857127
357.058080	2548.933413
357.447408	2548.141952
357.836672	2547.526932
358.225873	2546.223793
358.615010	2547.582384
359.004084	2552.762170
359.393095	2551.927859
359.782043	2552.225287
360.170927	2552.394166
360.559748	2554.703014
360.948505	2555.605381
361.337199	2555.804506
361.725830	2558.098231
362.114398	2556.278375
362.502903	2556.124619
362.891344	2557.914229
363.279722	2556.719476
363.668037	2555.025648
364.056289	2558.793910
364.444478	2559.129147
364.832603	2557.102603
365.220665	2558.924980
365.608665	2559.509754
365.996601	2561.067471
366.384474	2559.250135
366.772284	2560.631411
367.160031	2559.620660
367.547715	2564.266083
367.935336	2560.933880
368.322893	2564.671896
368.710388	2562.378171
369.097820	2567.865467
369.485189	2564.714746
369.872495	2562.229457
370.259738	2561.110321
370.646918	2562.179045
371.034035	2564.407235
371.421090	2564.704663
371.808081	2566.232133
372.195010	2565.967472
372.581875	2567.371434
372.968678	2567.278172
373.355418	2566.461505
373.742096	2568.220868
374.128710	2564.533264
374.515262	2566.983265
374.901751	2565.975034
375.288177	2566.045610
375.674540	2567.111814
376.060841	2568.493090
376.447079	2568.951835
376.833254	2570.010478
377.219367	2563.353634
377.605417	2565.508727
377.991404	2565.627194
378.377329	2563.514951
378.763191	2566.874880
379.148991	2569.602144
379.534727	2569.763461
379.920402	2572.405026
380.306013	2567.615930
380.691563	2571.752196
381.077049	2570.726322
381.462474	2570.401167
381.847835	2572.616754
382.233134	2570.335632
382.618371	2572.054666
383.003545	2570.915365
383.388657	2573.995510
383.773706	2572.959553
384.158693	2573.874522
384.543618	2571.999213
384.928480	2576.253947
385.313280	2574.965932
385.698017	2575.684296
386.082692	2574.401323
386.467305	2574.030798
386.851856	2572.006775
387.236344	2574.224882
387.620770	2577.282342
388.005133	2575.467527
388.389435	2577.930130
388.773674	2576.770665
389.157851	2576.138000
389.541965	2576.352249
389.926018	2577.216807
390.310008	2576.879050
390.693936	2577.912486
391.077802	2580.138156
391.461606	2578.784606
391.845348	2579.044225
392.229027	2580.715368
392.612645	2576.190932
392.996200	2579.039184
393.379694	2582.182344
393.763125	2582.676377
394.146494	2582.774679
394.529801	2580.014648
394.913047	2581.572364
395.296230	2581.285018
395.679351	2582.527663
396.062410	2582.089082
396.445408	2579.545820
396.828343	2582.320975
397.211217	2578.613207
397.594028	2582.073959
397.976778	2580.733012
398.359466	2582.147056
398.742092	2579.770152
399.124656	2581.622776
399.507158	2584.713003
399.889598	2583.571182
400.271977	2582.741912
400.654294	2584.627303
401.036549	2583.976994
401.418742	2586.116964
401.800874	2585.794330
402.182944	2587.717531
402.564952	2583.989597
402.946898	2587.830957
403.328783	2589.368508
403.710606	2588.236769
404.092367	2588.282140
404.474067	2586.174937
404.855705	2589.847418
405.237282	2589.912953
405.618797	2588.201481
406.000250	2590.313725
406.381642	2592.302460
406.762972	2592.141143
407.144240	2592.342789
407.525447	2594.986874
407.906593	2595.296905
408.287677	2594.651638
408.668700	2595.559045
409.049661	2596.290013
409.430560	2597.895620
409.811399	2598.550970
410.192176	2600.723708
410.572891	2603.513986
410.953545	2604.854933
411.334138	2605.580859
411.714669	2610.886674
412.095139	2610.498505
412.475547	2612.227621
412.855894	2616.517642
413.236180	2620.646347
413.616405	2624.422172
413.996568	2631.532719
414.376670	2632.553553
414.756711	2637.077988
415.136691	2640.805922
415.516609	2648.055101
415.896466	2655.077428
416.276262	2662.384581
416.655997	2668.217196
417.035670	2676.950995
417.415283	2691.562779
417.794834	2699.041331
418.174324	2706.224975
418.553753	2716.337530
418.933121	2733.895869
419.312428	2738.195973
419.691674	2750.234248
420.070859	2765.120776
420.449983	2772.047321
420.829045	2793.981381
421.208047	2805.996972
421.586988	2821.599343
421.965867	2844.823938
422.344686	2860.398583
422.723444	2882.380535
423.102141	2875.028012
423.480777	2915.326996
423.859352	2920.889909
424.237866	2964.206023
424.616319	2977.368476
424.994712	3011.668487
425.373044	3027.449819
425.751314	3067.506827
426.129524	3061.671692
426.507673	3116.426184
426.885762	3127.751136
427.263789	3159.770025
427.641756	3177.661080
428.019662	3212.591235
428.397508	3232.649986
428.775292	3274.022736
429.153016	3295.407310
429.530679	3326.533915
429.908282	3350.539889
430.285824	3361.655634
430.663305	3420.163265
431.040726	3421.980601
431.418086	3440.267387
431.795385	3504.383302
432.172624	3543.840413
432.549802	3551.457597
432.926920	3586.433122
433.303977	3601.165894
433.680974	3653.644306
434.057910	3691.805840
434.434786	3712.673697
434.811601	3732.530802
435.188355	3826.233249
435.565050	3830.669464
435.941683	3850.045139
436.318257	3936.705094
436.694770	3961.258034
437.071222	4025.487375
437.447614	3999.661544
437.823946	4020.499153
438.200218	4058.872416
438.576429	4062.597829
438.952580	4100.333386
439.328670	4126.333137
439.704700	4178.370448
440.080670	4169.752595
440.456580	4233.671905
440.832429	4285.068989
441.208218	4217.726736
441.583947	4280.763844
441.959616	4309.821055
442.335224	4346.777754
442.710773	4377.740521
443.086261	4445.216365
443.461689	4420.093775
443.837057	4437.463070
444.212365	4520.261502
444.587612	4533.121485
444.962800	4518.600441
445.337927	4565.586516
445.712995	4473.840036
446.088002	4661.169313
446.462949	4691.718706
446.837837	4714.025811
447.212664	4714.015729
447.587431	4942.216161
447.962139	5235.830605
448.336786	5565.980811
448.711374	5554.300458
449.085901	5222.920210
449.460369	5168.526160
449.834776	5117.912975
450.209124	5347.650959
450.583412	5368.231469
450.957640	5492.059852
451.331808	5357.450962
451.705917	5215.988623
452.079965	5215.693716
452.453954	5255.344911
452.827883	5225.095468
453.201752	5232.581581
453.575562	5267.763794
453.949311	5403.020472
454.323001	5410.771246
454.696632	5404.568106
455.070202	5562.464607
455.443713	5591.960398
455.817164	5686.151837
456.190556	5761.045739
456.563888	5733.576492
456.937160	5815.346528
457.310373	5654.732845
457.683526	5719.178956
458.056619	5711.561773
458.429653	5691.339184
458.802628	5742.272482
459.175542	5775.914622
459.548398	5912.734058
459.921194	6101.273212
460.293930	6156.604917
460.666607	6416.534371
461.039224	6628.313244
461.411782	6751.274548
461.784280	6672.922414
462.156719	6671.329409
462.529099	6633.614017
462.901419	6488.456512
463.273680	6365.598552
463.645882	6352.373085
464.018024	6356.375761
464.390106	6422.792963
464.762130	6686.163005
465.134094	7077.432160
465.505999	7712.758697
465.877845	8416.171058
466.249631	8766.715252
466.621358	8686.641565
466.993026	8487.024475
467.364634	8269.249150
467.736184	7988.154411
468.107674	7843.143100
468.479105	7753.856704
468.850477	7681.465735
469.221790	7515.213522
469.593043	7291.696322
469.964238	7193.736621
470.335373	7168.253588
470.706449	7328.461457
471.077467	7525.091663
471.448425	8186.707817
471.819324	8766.894213
472.190164	8787.978839
472.560945	8303.392885
472.931667	7837.048345
473.302330	7648.620097
473.672934	7526.941767
474.043479	7602.246523
474.413965	7501.330184
474.784393	7453.872762
475.154761	7608.467307
475.525070	7623.056406
475.895321	7577.252482
476.265513	7675.161772
476.635645	7832.002150
477.005719	7831.437541
477.375734	7917.099348
477.745691	8024.576748
478.115588	8232.937719
478.485427	8470.003019
478.855207	8939.009288
479.224928	9372.765288
479.594591	9757.677549
479.964194	9757.879195
480.333739	9840.264252
480.703226	9843.213327
481.072653	9947.582856
481.442022	10059.982943
481.811333	10209.705212
482.180584	10052.902642
482.549777	9990.969546
482.918912	9930.773128
483.287988	9919.488505
483.657005	9826.849742
484.025964	9750.924924
484.394864	9806.486001
484.763706	9763.772304
485.132489	9677.417339
485.501213	9670.563890
485.869879	9725.008352
486.238487	9664.574999
486.607036	9746.345035
486.975527	9693.637251
487.343959	9746.997865
487.712333	9791.990163
488.080648	9836.677471
488.448905	9932.784549
488.817104	9940.830230
489.185244	10108.098235
489.553326	10323.849538
489.921350	10798.675818
490.289315	11423.400809
490.657222	11716.261600
491.025070	11894.799105
491.392861	11806.261320
491.760593	11650.177115
492.128267	11393.688248
492.495883	11157.812660
492.863440	10929.884450
493.230939	10698.591271
493.598380	10512.466829
493.965763	10486.383899
494.333088	10354.608138
494.700354	10290.172109
495.067563	10262.302090
495.434713	10266.582030
495.801805	10310.861005
496.168839	10274.640314
496.535815	10239.248894
496.902733	10290.567840
497.269593	10247.990255
497.636395	10243.974976
498.003139	10364.060301
498.369825	10285.370410
498.736453	10375.410459
499.103023	10320.860133
499.469535	10331.139046
499.835989	10383.345235
500.202385	10355.578560
500.568723	10377.986489
500.935003	10437.081415
501.301226	10400.517926
501.667390	10565.524974
502.033497	10667.752012
502.399546	10595.179561
502.765537	10503.672537
503.131470	10608.672209
503.497345	10695.294356
503.863163	10470.718514
504.228923	10604.851015
504.594625	10722.020033
504.960269	10624.531679
505.325856	10785.546133
505.691385	10657.546196
506.056856	10731.837680
506.422270	10827.430560
506.787625	10766.455284
507.152924	10823.344705
507.518164	10882.847964
507.883347	10740.939483
508.248472	10822.318830
508.613540	10929.418143
508.978550	11000.127888
509.343503	10987.474592
509.708398	11032.401355
510.073236	11166.002014
510.438016	11176.956441
510.802738	11087.395302
511.167403	11216.075795
511.532010	11281.399067
511.896561	11376.462625
512.261053	11573.601988
512.625488	11484.149233
512.989866	11478.311577
513.354186	11454.202259
513.718449	11465.476799
514.082655	11604.751277
514.446803	11560.714278
514.810894	11668.194198
515.174927	11662.719505
515.538904	11658.868064
515.902822	11802.982049
516.266684	11682.014522
516.630488	11792.171295
516.994235	11779.097063
517.357925	11893.934547
517.721558	11951.570059
518.085133	12018.453568
518.448651	12044.465922
518.812112	12003.466217
519.175516	12008.870334
519.538863	12104.309459
519.902152	12111.959410
520.265385	12220.752551
520.628560	12243.263823
520.991678	12190.152747
521.354739	12246.691808
521.717743	12317.711583
522.080690	12287.996502
522.443580	12423.159919
522.806413	12433.600149
523.169189	12430.830035
523.531908	12484.934218
523.894569	12447.412910
524.257174	12463.791619
524.619722	12575.153228
524.982213	12546.010318
525.344647	12533.967001
525.707025	12547.681460
526.069345	12652.456802
526.431608	12630.290848
526.793815	12709.164741
527.155964	12605.238834
527.518057	12636.645223
527.880093	12597.346908
528.242072	12717.139847
528.603995	12632.592135
528.965860	12654.853870
529.327669	12678.811954
529.689421	12629.688430
530.051117	12638.011375
530.412755	12672.001355
530.774337	12686.519878
531.135862	12636.516673
531.497331	12696.367772
531.858743	12658.700271
532.220098	12750.880289
532.581396	12676.956809
532.942638	12600.467382
533.303824	12674.461438
533.664953	12660.079026
534.026025	12590.924478
534.387040	12713.394269
534.747999	12682.519723
535.108902	12725.619068
535.469748	12606.970471
535.830537	12623.477729
536.191270	12668.346519
536.551947	12595.655601
536.912567	12663.123883
537.273131	12689.990713
537.633638	12575.299422
537.994089	12629.794295
538.354483	12545.430585
538.714821	12663.466682
539.075103	12747.936256
539.435328	12682.713807
539.795497	12671.577898
540.155609	12662.541630
540.515665	12769.537600
540.875665	12618.287861
541.235609	12716.441647
541.595496	12681.168693
541.955328	12855.789222
542.315102	12711.466028
542.674821	12648.292809
543.034483	12666.877022
543.394090	12660.933502
543.753640	12631.150365
544.113134	12874.537273
544.472571	12632.992907
544.831953	12923.691043
545.191278	12733.810943
545.550548	12664.306034
545.909761	12769.552723
546.268918	12822.205055
546.628019	12891.785581
546.987064	12770.666818
547.346053	12613.594547
547.704986	12815.475114
548.063863	12697.045808
548.422684	12755.515630
548.781449	12718.901730
549.140158	12802.831900
549.498811	12760.392947
549.857408	12632.569450
550.215949	12839.012262
550.574434	12802.400882
550.932864	12745.413158
551.291237	12944.044702
551.649555	12828.871981
552.007817	12892.806414
552.366022	12808.082262
552.724173	12859.718801
553.082267	12946.083849
553.440305	13035.705482
553.798288	12851.312677
554.156215	12919.053182
554.514086	12970.447745
554.871902	12910.284095
555.229661	12933.677569
555.587365	12893.287844
555.945014	12903.690265
556.302606	12881.073129
556.660143	12948.979992
557.017625	12968.955564
557.375050	12939.056480
557.732421	13038.064742
558.089735	13026.860777
558.446994	13006.247499
558.804197	13125.407773
559.161345	13117.490641
559.518437	12934.169082
559.875474	13021.406249
560.232455	13063.462075
560.589381	13099.155965
560.946251	13044.930793
561.303065	13219.024521
561.659825	13167.385461
562.016528	13091.437958
562.373177	13015.528263
562.729770	13159.312053
563.086307	13036.912838
563.442789	13146.053819
563.799216	13186.947659
564.155587	13132.972025
564.511904	13148.087924
564.868164	13169.311182
565.224370	13218.228018
565.580520	13160.116118
565.936615	13240.320875
566.292654	13170.153055
566.648638	13234.682345
567.004567	13239.703334
567.360441	13245.067122
567.716260	13213.259961
568.072023	13296.433959
568.427732	13281.822174
568.783385	13175.617666
569.138982	13284.693111
569.494525	13284.153708
569.850013	13234.947005
570.205445	13218.066702
570.560823	13232.814597
570.916145	13184.543028
571.271412	13198.325543
571.626625	13152.017504
571.981782	13159.533864
572.336884	13102.430194
572.691931	13196.583824
573.046923	13084.249273
573.401860	13062.163978
573.756743	13052.217781
574.111570	13084.307246
574.466342	13056.177607
574.821059	13105.822891
575.175722	12977.459990
575.530330	12999.041170
575.884882	12942.323148
576.239380	12934.305193
576.593823	12908.081110
576.948211	12910.465576
577.302544	12794.143472
577.656823	12811.825319
578.011047	12864.391951
578.365216	12803.557827
578.719330	12734.441087
579.073389	12705.910677
579.427394	12722.715363
579.781344	12718.881565
580.135239	12648.176862
580.489080	12673.322138
580.842866	12550.512068
581.196597	12646.220894
581.550273	12640.347950
581.903895	12595.562339
582.257463	12710.591388
582.610975	12549.667675
582.964434	12617.055299
583.317837	12527.700847
583.671186	12491.853202
584.024481	12546.335472
584.377721	12432.758276
584.730906	12500.370231
585.084037	12512.947910
585.437113	12431.082092
585.790135	12463.045528
586.143103	12372.198895
586.496016	12385.946121
586.848874	12396.038511
587.201679	12402.864234
587.554428	12278.609874
587.907124	12317.855256
588.259765	12266.523707
588.612352	12331.942761
588.964884	12191.057634
589.317362	12242.588309
589.669786	12232.437946
590.022155	12193.462265
590.374470	12293.095629
590.726731	12180.342662
591.078937	12068.388717
591.431090	12088.578538
591.783188	12023.366172
592.135232	11933.820156
592.487222	12007.355468
592.839157	12018.130934
593.191038	11952.845471
593.542866	11896.316492
593.894639	11745.984243
594.246358	11805.033799
594.598022	11814.433030
594.949633	11718.111704
595.301190	11704.309025
595.652692	11664.801502
596.004141	11754.168557
596.355535	11532.846779
596.706876	11507.807368
597.058162	11482.730148
597.409395	11569.949672
597.760573	11596.982859
598.111698	11492.298258
598.462768	11488.683751
598.813785	11500.664053
599.164748	11359.410922
599.515657	11453.098246
599.866511	11326.635861
600.217312	11456.238885
600.568060	11218.818183
600.918753	11382.723738
601.269392	11382.131403
601.619978	11286.150354
601.970510	11327.109729
602.320988	11367.963240
602.671412	11437.657192
603.021783	11356.900428
603.372100	11285.237905
603.722363	11310.577265
604.072572	11311.353603
604.422728	11320.296610
604.772830	11263.603794
605.122878	11273.678540
605.472872	11239.643189
605.822813	11305.815895
606.172701	11264.682601
606.522534	11302.415637
606.872314	11348.335507
607.222041	11279.692636
607.571714	11363.705986
607.921333	11231.753784
608.270899	11286.178081
608.620411	11349.169818
608.969870	11288.416353
609.319276	11281.590631
609.668627	11290.697475
610.017926	11371.328210
610.367171	11401.552448
610.716362	11393.907538
611.065500	11368.714372
611.414585	11381.400436
611.763616	11441.150712
612.112594	11407.342213
612.461518	11430.110585
612.810389	11486.095119
613.159207	11424.025912
613.507971	11411.798593
613.856682	11518.313133
614.205340	11474.155146
614.553945	11607.939807
614.902496	11481.053965
615.250994	11550.815972
615.599439	11543.390353
615.947830	11582.471898
616.296169	11541.265506
616.644454	11563.156717
616.992686	11570.063098
617.340864	11670.825681
617.688990	11560.595811
618.037063	11684.393946
618.385082	11661.234886
618.733048	11701.816174
619.080961	11685.608864
619.428821	11662.933754
619.776628	11673.273161
620.124382	11620.285593
620.472083	11638.000207
620.819731	11663.019454
621.167326	11579.447206
621.514868	11568.984291
621.862357	11466.195164
622.209793	11458.275511
622.557176	11374.350382
622.904506	11316.961887
623.251783	11245.122924
623.599007	11182.771412
623.946179	11135.911367
624.293297	11117.211207
624.640363	10970.415327
624.987376	10965.132198
625.334336	10901.792620
625.681243	10813.262397
626.028097	10782.748293
626.374899	10744.128013
626.721647	10722.040198
627.068343	10680.818683
627.414987	10617.179157
627.761577	10561.393748
628.108115	10606.864956
628.454600	10480.296706
628.801032	10496.040230
629.147412	10474.320418
629.493739	10446.583990
629.840014	10364.755981
630.186236	10407.537733
630.532405	10310.107352
630.878521	10348.089926
631.224585	10306.563421
631.570597	10231.780424
631.916556	10241.000695
632.262462	10209.468278
632.608316	10188.706285
632.954117	10167.351958
633.299866	10141.843719
633.645562	10120.544844
633.991206	10022.053301
634.336797	9923.155945
634.682336	9913.895345
635.027823	9861.734526
635.373257	9826.806892
635.718639	9761.095452
636.063968	9731.266944
636.409245	9610.284293
636.754470	9595.551521
637.099642	9541.102018
637.444762	9445.355383
637.789829	9444.523593
638.134845	9376.548674
638.479808	9358.156025
638.824719	9330.787600
639.169577	9238.758816
639.514383	9249.357842
639.859137	9178.577522
640.203839	9209.772182
640.548489	9127.929049
640.893086	9129.022979
641.237632	9070.492663
641.582125	9069.834792
641.926566	9056.374911
642.270955	9043.792191
642.615292	9037.528558
642.959576	9013.847737
643.303809	8999.374585
643.647990	9020.930559
643.992118	9002.835337
644.336195	8975.837438
644.680219	8966.869225
645.024192	9007.647118
645.368112	9078.916431
645.711981	9051.749653
646.055797	9198.348927
646.399562	9158.584306
646.743274	9320.564140
647.086935	9391.599039
647.430544	9359.640644
647.774101	9386.477227
648.117606	9406.387264
648.461059	9476.396288
648.804460	9405.686544
649.147810	9291.159090
649.491108	9260.549204
649.834354	9186.643368
650.177548	9050.174292
650.520690	8962.334707
650.863781	8957.202812
651.206820	8924.629397
651.549807	8836.252929
651.892742	8747.107685
652.235626	8706.057569
652.578458	8666.391250
652.921238	8555.299343
653.263967	8586.141122
653.606644	8526.627780
653.949269	8505.533072
654.291843	8437.913555
654.634365	8499.211465
654.976836	8418.101820
655.319255	8408.059842
655.661622	8398.847133
656.003938	8351.616562
656.346203	8323.002973
656.688416	8355.286523
657.030577	8317.364443
657.372687	8278.764328
657.714746	8313.792785
658.056753	8331.308274
658.398708	8229.807162
658.740612	8220.886840
659.082465	8270.514479
659.424266	8223.367088
659.766016	8234.046773
660.107715	8208.581384
660.449362	8231.909323
660.790958	8222.104279
661.132503	8217.249648
661.473996	8213.950213
661.815438	8236.612720
662.156829	8265.705219
662.498168	8214.386273
662.839456	8208.364614
663.180693	8231.251453
663.521879	8248.797189
663.863013	8229.247594
664.204097	8231.226247
664.545129	8303.735683
664.886110	8294.223026
665.227040	8289.486862
665.567918	8306.500756
665.908746	8323.118920
666.249522	8337.708019
666.590248	8335.807504
666.930922	8347.079524
667.271545	8342.567691
667.612118	8356.758539
667.952639	8320.784866
668.293109	8318.705390
668.633528	8296.531874
668.973896	8286.187427
669.314213	8291.573900
669.654480	8239.715550
669.994695	8240.691013
670.334859	8223.712407
670.674973	8202.791619
671.015035	8225.257521
671.355047	8218.162097
671.695008	8204.114922
672.034918	8181.414606
672.374777	8187.297632
672.714585	8161.572624
673.054342	8187.945421
673.394049	8152.493506
673.733705	8195.184518
674.073310	8144.178123
674.412864	8154.111717
674.752368	8091.102335
675.091820	8143.978997
675.431223	8072.651712
675.770574	8028.463477
676.109875	7998.471133
676.449125	7965.174312
676.788324	7948.180582
677.127473	7853.343875
677.466571	7843.919438
677.805619	7783.891899
678.144616	7785.399204
678.483562	7761.978003
678.822458	7713.625776
679.161303	7702.825104
679.500098	7680.485230
679.838842	7656.627970
680.177535	7672.353849
680.516179	7706.353911
680.854771	7725.361582
681.193314	7840.967842
681.531805	8002.050352
681.870247	8127.282696
682.208638	8269.430631
682.546978	8344.443001
682.885268	8372.842341
683.223508	8303.891959
683.561697	8245.437260
683.899836	8217.862148
684.237925	8134.857029
684.575963	8105.814942
684.913951	8022.744288
685.251889	8042.326651
685.589776	8036.990589
685.927614	8019.812857
686.265401	8045.205149
686.603137	8042.918986
686.940824	8113.941282
687.278460	8159.866194
687.616046	8181.916201
687.953582	8293.119013
688.291068	8273.740818
688.628504	8328.664189
688.965889	8331.643511
689.303224	8288.433261
689.640510	8247.504133
689.977745	8143.568143
690.314930	8020.884103
690.652065	7944.157741
690.989150	7834.636153
691.326185	7678.680497
691.663170	7566.318219
692.000105	7454.432330
692.336990	7334.238620
692.673825	7268.875019
693.010610	7175.787592
693.347345	7073.507622
693.684030	6964.989224
694.020665	6918.328304
694.357251	6800.617362
694.693786	6791.886083
695.030272	6753.565752
695.366707	6659.298696
695.703093	6601.658143
696.039429	6602.983966
696.375716	6552.451440
696.711952	6543.969699
697.048139	6509.765470
697.384276	6479.707590
697.720363	6500.144428
698.056400	6470.638554
698.392388	6437.976918
698.728326	6442.927332
699.064214	6411.984729
699.400053	6410.432054
699.735842	6343.344378
700.071581	6303.206712
700.407270	6260.276245
700.742910	6228.847172
701.078501	6188.671696
701.414042	6141.085724
701.749533	6087.634370
702.084974	6035.183685
702.420366	6070.136525
702.755709	6000.344271
703.091002	5948.395180
703.426246	5948.942146
703.761440	5940.752791
704.096584	5895.329474
704.431679	5882.288009
704.766725	5865.251430
705.101721	5846.899109
705.436668	5868.722264
705.771565	5812.934335
706.106413	5866.244537
706.441212	5870.821905
706.775961	5888.476026
707.110661	5895.765534
707.445311	5958.588393
707.779913	5919.378299
708.114465	5960.178878
708.448967	6008.137895
708.783421	6120.618640
709.117825	6154.820348
709.452180	6196.687131
709.786485	6260.341780
710.120742	6389.302057
710.454949	6391.331122
710.789107	6463.696885
711.123216	6591.273366
711.457275	6618.644311
711.791286	6726.159519
712.125247	6746.984526
712.459159	6718.159208
712.793023	6847.515216
713.126837	6673.902918
713.460602	6734.535396
713.794318	6684.622932
714.127985	6636.845397
714.461602	6493.777450
714.795171	6495.743500
715.128691	6328.150341
715.462162	6241.187916
715.795584	6172.101423
716.128957	6131.870495
716.462281	6061.677469
716.795556	6022.459813
717.128782	5936.409837
717.461960	5838.187996
717.795088	5829.650802
718.128167	5759.906438
718.461198	5677.319735
718.794180	5655.899872
719.127113	5595.554740
719.459997	5559.923865
719.792833	5496.428012
720.125619	5490.577753
720.458357	5426.721457
720.791046	5399.839504
721.123686	5374.553076
721.456278	5325.747145
721.788821	5321.358821
722.121315	5277.818375
722.453761	5284.762565
722.786158	5272.489876
723.118506	5273.787973
723.450805	5250.863326
723.783056	5278.798880
724.115259	5256.849696
724.447412	5245.013067
724.779518	5290.630468
725.111574	5294.597856
725.443582	5331.884750
725.775542	5319.118028
726.107453	5400.620883
726.439315	5375.100042
726.771129	5451.178615
727.102895	5509.340927
727.434612	5552.583945
727.766281	5584.449078
728.097901	5641.368747
728.429473	5653.318802
728.760996	5658.624616
729.092471	5686.850037
729.423897	5674.322769
729.755276	5647.534078
730.086606	5660.409185
730.417887	5752.811014
730.749120	5842.851063
731.080305	5882.842536
731.411442	5959.480678
731.742530	5985.530840
732.073570	6002.844683
732.404562	6063.242747
732.735506	6058.022633
733.066401	6037.608480
733.397249	5969.600794
733.728048	5876.863728
734.058798	5733.483230
734.389501	5606.284836
734.720156	5521.359038
735.050762	5414.821813
735.381320	5342.463612
735.711831	5282.380619
736.042293	5203.388259
736.372707	5200.605542
736.703073	5155.212473
737.033391	5184.746072
737.363661	5168.639586
737.693883	5180.579559
738.024056	5210.196337
738.354182	5236.168362
738.684260	5279.411380
739.014290	5320.136341
739.344272	5355.134552
739.674207	5411.976082
740.004093	5443.185865
740.333931	5451.947391
740.663722	5468.227797
740.993464	5482.763964
741.323159	5464.643537
741.652806	5421.266928
741.982405	5386.157813
742.311956	5334.750646
742.641460	5323.345036
742.970915	5271.007776
743.300323	5208.487386
743.629683	5176.055123
743.958996	5124.080827
744.288260	5076.895627
744.617477	5013.861039
744.946647	4997.527701
745.275768	4945.913847
745.604842	4914.678858
745.933869	4874.397518
746.262847	4867.266806
746.591778	4857.630640
746.920662	4832.608873
747.249498	4826.758614
747.578286	4849.078323
747.907027	4871.869379
748.235720	4911.656686
748.564365	4923.430301
748.892963	4911.054268
749.221514	4930.815591
749.550017	4903.225356
749.878473	4898.960540
750.206881	4863.634655
750.535242	4848.090257
750.863555	4829.256506
751.191821	4803.813802
751.520039	4814.284279
751.848210	4798.044202
752.176334	4803.281961
752.504411	4781.254639
752.832440	4755.091051
753.160421	4766.778966
753.488356	4746.579062
753.816243	4729.189602
754.144082	4691.491854
754.471875	4683.526831
754.799620	4672.935366
755.127318	4669.066281
755.454969	4663.581505
755.782572	4652.904342
756.110129	4653.826873
756.437638	4643.268176
756.765100	4636.041682
757.092515	4638.158967
757.419882	4639.653669
757.747203	4639.666272
758.074477	4654.018437
758.401703	4642.446468
758.728882	4675.735727
759.056014	4685.230741
759.383099	4707.190007
759.710138	4736.471549
760.037129	4756.910907
760.364073	4769.571765
760.690970	4767.588071
761.017820	4769.612094
761.344623	4804.277589
761.671379	4863.405282
761.998088	4948.769661
762.324751	5182.913613
762.651366	5643.791021
762.977935	6342.832701
763.304456	6895.970787
763.630931	7202.903959
763.957359	7140.774258
764.283740	6842.791655
764.610074	6519.714187
764.936362	6123.918075
765.262602	5806.648017
765.588796	5458.662208
765.914943	5202.556469
766.241044	4979.447603
766.567097	4805.338752
766.893104	4658.358870
767.219064	4557.540834
767.544978	4460.818736
767.870845	4379.726735
768.196665	4331.205629
768.522438	4278.369296
768.848165	4239.232298
769.173846	4199.200495
769.499479	4171.580013
769.825066	4136.564159
770.150607	4092.587653
770.476101	4079.657094
770.801548	4056.127508
771.126949	4021.799771
771.452303	4006.517513
771.777611	3968.237511
772.102872	3965.084270
772.428087	3939.273562
772.753256	3912.000920
773.078378	3900.038262
773.403453	3862.862273
773.728482	3839.514168
774.053465	3827.833815
774.378401	3806.819765
774.703291	3783.242289
775.028135	3758.656581
775.352932	3748.997731
775.677683	3730.085842
776.002388	3707.962738
776.327046	3712.993810
776.651658	3693.272816
776.976224	3676.871422
777.300743	3669.962521
777.625216	3654.022392
777.949643	3648.469561
778.274024	3653.450221
778.598359	3630.112199
778.922647	3632.738641
779.246889	3622.076600
779.571086	3618.978811
779.895236	3619.929069
780.219339	3618.782206
780.543397	3619.651805
780.867409	3636.063282
781.191374	3638.185607
781.515294	3625.975933
781.839167	3644.615599
782.162995	3644.131648
782.486776	3634.137561
782.810511	3627.939462
783.134201	3612.737863
783.457844	3613.519242
783.781441	3603.696553
784.104993	3598.756222
784.428498	3592.931169
784.751958	3587.280036
785.075372	3582.057400
785.398739	3573.726894
785.722061	3578.357193
786.045337	3577.391812
786.368568	3603.872994
786.691752	3599.935852
787.014891	3648.908142
787.337983	3692.713248
787.661030	3783.811939
787.984031	3876.175960
788.306987	3952.965336
788.629897	4002.991226
788.952760	4008.556660
789.275579	3995.550483
789.598351	3941.531999
789.921078	3889.280439
790.243759	3830.326666
790.566395	3782.413019
790.888984	3731.986357
791.211529	3697.472097
791.534027	3652.477278
791.856480	3609.317440
792.178888	3592.182558
792.501249	3571.438210
792.823566	3542.454096
793.145836	3538.756409
793.468062	3525.707383
793.790241	3513.807739
794.112375	3516.943337
794.434464	3542.736400
794.756507	3540.911503
795.078505	3559.399934
795.400457	3599.038527
795.722364	3647.264725
796.044226	3696.305070
796.366042	3741.763675
796.687812	3737.519023
797.009538	3763.178496
797.331218	3750.588215
797.652852	3743.404570
797.974442	3720.613514
798.295986	3709.608675
798.617484	3682.628420
798.938938	3656.094306
799.260346	3643.695588
799.581709	3606.045731
799.903026	3596.906119
800.224299	3576.890218
800.545526	3547.200342
800.866708	3524.580685
801.187845	3511.733304
801.508936	3491.331755
801.829983	3483.379334
802.150984	3454.748101
802.471940	3448.005558
802.792851	3439.549022
803.113717	3433.310594
803.434538	3421.375663
803.755314	3413.690424
804.076045	3408.629105
804.396731	3398.052764
804.717372	3397.266344
805.037967	3395.829616
805.358518	3400.308681
805.679024	3413.244282
805.999485	3406.426121
806.319901	3414.741504
806.640272	3416.059766
806.960598	3426.759615
807.280879	3428.609718
807.601115	3436.972993
807.921306	3432.567024
808.241453	3433.635749
808.561554	3440.806790
808.881611	3435.364865
809.201623	3436.136161
809.521590	3426.137033
809.841513	3426.016045
810.161390	3436.022735
810.481223	3415.580856
810.801011	3412.883839
811.120755	3412.397368
811.440453	3396.984040
811.760107	3391.002711
812.079716	3382.543655
812.399281	3370.028990
812.718801	3371.339690
813.038276	3366.749720
813.357707	3358.351157
813.677093	3366.767364
813.996434	3350.544931
814.315731	3359.833257
814.634983	3358.247814
814.954191	3358.825026
815.273354	3375.571739
815.592473	3386.846279
815.911547	3404.104670
816.230577	3422.121753
816.549562	3445.462296
816.868502	3459.146508
817.187399	3482.618120
817.506250	3509.172398
817.825058	3523.101106
818.143821	3565.408990
818.462539	3610.232409
818.781213	3663.403979
819.099843	3748.798605
819.418429	3901.227974
819.736970	4053.382600
820.055466	4242.660283
820.373919	4481.583249
820.692327	4821.203263
821.010691	5329.777548
821.329011	6409.055819
821.647286	8154.641038
821.965517	10331.554941
822.283704	11946.102928
822.601847	13042.201008
822.919945	12621.158798
823.237999	11950.211468
823.556010	11043.128930
823.873976	10094.277912
824.191897	9121.728430
824.509775	8348.246551
824.827609	7550.713328
825.145398	7003.528845
825.463144	6619.604650
825.780845	6492.872563
826.098502	6553.179887
826.416116	6940.781603
826.733685	7444.100485
827.051210	7729.364258
827.368692	7631.719629
827.686129	7186.066505
828.003522	6632.542772
828.320872	6067.852883
828.638177	5598.836532
828.955439	5235.525615
829.272656	4895.600611
829.589830	4615.609885
829.906960	4349.389071
830.224046	4142.613543
830.541088	3969.296154
830.858086	3854.322558
831.175041	3762.190430
831.491952	3716.119325
831.808819	3695.745502
832.125642	3734.942994
832.442421	3836.812110
832.759157	4051.897980
833.075849	4432.295888
833.392497	4894.925097
833.709101	5281.503459
834.025662	5391.451024
834.342179	5266.163227
834.658653	4995.251620
834.975083	4722.409250
835.291469	4474.815500
835.607811	4251.777209
835.924110	4092.940534
836.240366	3932.238632
836.556578	3773.263325
836.872746	3638.742655
837.188871	3521.603883
837.504952	3425.602670
837.820990	3354.731609
838.136984	3298.096766
838.452935	3265.483021
838.768842	3256.673605
839.084706	3287.890950
839.400526	3423.838266
839.716303	3648.998882
840.032037	3861.428064
840.347727	3927.305863
840.663373	3838.770598
840.978977	3688.072866
841.294537	3552.478430
841.610054	3448.935651
841.925527	3369.552601
842.240957	3307.695123
842.556344	3242.817993
842.871687	3182.036802
843.186987	3123.163686
843.502244	3069.979513
843.817458	3029.042823
844.132629	2995.708194
844.447756	2978.185143
844.762840	2952.056843
845.077881	2937.029163
845.392879	2922.596339
845.707833	2913.093764
846.022745	2897.768657
846.337613	2897.703122
846.652438	2883.592932
846.967221	2884.921276
847.281960	2875.300234
847.596656	2873.520707
847.911309	2867.206662
848.225919	2862.102493
848.540485	2858.649303
848.855009	2855.400279
849.169490	2850.575895
849.483928	2847.883919
849.798323	2843.951819
850.112675	2843.901407
850.426984	2840.884277
850.741251	2837.000068
851.055474	2838.396467
851.369654	2837.201714
851.683792	2836.266580
851.997887	2834.464367
852.311938	2835.880932
852.625947	2836.561487
852.939914	2830.426403
853.253837	2836.803463
853.567718	2835.991837
853.881555	2832.460509
854.195350	2833.642659
854.509103	2835.311281
854.822812	2834.958400
855.136479	2832.165601
855.450103	2833.763647
855.763685	2834.010663
856.077224	2830.091166
856.390720	2832.430262
856.704173	2839.369410
857.017584	2837.131138
857.330953	2842.058866
857.644278	2844.516428
857.957561	2843.719926
858.270802	2844.488702
858.584000	2844.458455
858.897155	2843.513238
859.210268	2844.546675
859.523339	2840.294462
859.836367	2840.664987
860.149352	2838.003257
860.462295	2835.911178
860.775195	2830.524706
861.088054	2829.912205
861.400869	2828.909016
861.713642	2827.933552
862.026373	2830.476815
862.339062	2831.530416
862.651708	2839.359328
862.964312	2843.238496
863.276873	2840.647342
863.589392	2850.248220
863.901869	2855.700228
864.214303	2865.417052
864.526696	2869.540716
864.839045	2878.014895
865.151353	2884.452449
865.463619	2886.758777
865.775842	2890.370763
866.088023	2893.796228
866.400162	2895.376629
866.712258	2895.986609
867.024313	2895.230436
867.336325	2897.309912
867.648296	2899.961559
867.960224	2897.685478
868.272110	2902.409039
868.583954	2902.898031
868.895755	2904.566653
869.207515	2906.169740
869.519233	2910.361459
869.830909	2910.119484
870.142542	2918.316400
870.454134	2920.794127
870.765684	2923.415527
871.077191	2930.470622
871.388657	2936.043617
871.700081	2941.843465
872.011463	2948.843107
872.322803	2953.276802
872.634101	2959.979016
872.945357	2963.621249
873.256571	2974.374031
873.567744	2980.864516
873.878874	2986.225783
874.189963	2996.847494
874.501010	2998.082577
874.812015	2998.150633
875.122979	3006.874349
875.433900	3005.548526
875.744780	3010.047756
876.055618	3015.759383
876.366415	3020.858510
876.677169	3020.666946
876.987882	3025.788759
877.298554	3036.052548
877.609183	3051.917059
877.919771	3071.000347
878.230317	3092.984819
878.540822	3131.421096
878.851285	3180.728622
879.161707	3246.213211
879.472087	3355.308821
879.782425	3517.260929
880.092722	3794.466418
880.402977	4220.393506
880.713191	4764.389459
881.023363	5358.983473
881.333494	5799.971008
881.643583	6085.219658
881.953631	6160.048025
882.263637	6113.276199
882.573602	5968.287573
882.883526	5794.486233
883.193408	5598.786120
883.503248	5377.996184
883.813048	5162.774203
884.122806	4941.288588
884.432522	4699.035940
884.742197	4476.869770
885.051831	4269.668264
885.361424	4067.596133
885.670975	3902.268972
885.980485	3755.480654
886.289954	3628.713279
886.599382	3524.915922
886.908768	3439.606996
887.218113	3359.331662
887.527417	3296.534008
887.836680	3240.247005
888.145901	3192.141794
888.455082	3155.643841
888.764221	3122.445322
889.073319	3095.170159
889.382376	3076.119639
889.691392	3059.342679
890.000366	3050.099723
890.309300	3042.217879
890.618193	3040.208979
890.927044	3029.904861
891.235855	3031.928884
891.544625	3036.755789
891.853353	3040.902138
892.162041	3057.999211
892.470687	3083.482244
892.779293	3115.624641
893.087858	3164.816220
893.396381	3242.709609
893.704864	3349.292204
894.013306	3506.094774
894.321707	3692.360367
894.630068	3845.712267
894.938387	3923.499792
895.246665	3934.297943
895.554903	3875.961711
895.863100	3787.403761
896.171256	3709.255794
896.479371	3639.776091
896.787446	3560.438412
897.095480	3489.844614
897.403473	3435.664813
897.711425	3378.072151
898.019336	3325.684480
898.327207	3274.153806
898.635038	3229.037999
898.942827	3177.396419
899.250576	3134.569297
899.558284	3091.096907
899.865952	3068.898186
900.173579	3034.933412
900.481165	3015.512367
900.788711	2993.888337
901.096216	2979.589104
901.403681	2968.123000
901.711105	2957.410548
902.018489	2952.374435
902.325832	2961.922381
902.633135	2972.465954
902.940397	3008.248064
903.247619	3100.312136
903.554800	3276.939043
903.861941	3551.689490
904.169041	3817.091116
904.476101	3984.268381
904.783121	4004.012060
905.090100	3938.716514
905.397039	3837.253211
905.703938	3726.141139
906.010796	3624.897126
906.317614	3540.609033
906.624391	3452.643419
906.931129	3385.384345
907.237826	3315.085454
907.544483	3250.624220
907.851099	3179.947243
908.157675	3103.780450
908.464211	3033.862167
908.770707	2972.932261
909.077163	2924.262441
909.383578	2887.590567
909.689954	2861.855477
909.996289	2839.908813
910.302584	2827.550425
910.608839	2818.922490
910.915054	2810.229020
911.221229	2806.480922
911.527363	2806.395223
911.833458	2809.034267
912.139513	2807.237095
912.445527	2811.292704
912.751502	2821.299394
913.057436	2835.026456
913.363331	2859.039992
913.669186	2887.005793
913.975000	2923.649941
914.280775	2984.801657
914.586510	3065.923905
914.892205	3175.190915
915.197859	3325.747495
915.503475	3503.833816
915.809050	3677.408305
916.114585	3813.554747
916.420081	3889.683732
916.725536	3921.599277
917.030952	3884.355232
917.336328	3846.423070
917.641665	3799.741985
917.946961	3738.527254
918.252218	3675.656504
918.557435	3604.263683
918.862612	3538.285062
919.167750	3478.660814
919.472848	3403.887900
919.777906	3333.757888
920.082925	3266.851694
920.387904	3192.598019
920.692843	3140.119607
920.997743	3085.468458
921.302603	3039.909031
921.607423	3002.791015
921.912204	2966.298102
922.216946	2943.101233
922.521647	2916.965371
922.826310	2897.952659
923.130932	2874.440717
923.435516	2854.092100
923.740059	2842.714216
924.044564	2825.433140
924.349028	2816.424598
924.653454	2800.635704
924.957840	2787.478293
925.262186	2776.075203
925.566493	2764.994747
925.870761	2751.429002
926.174989	2747.176788
926.479178	2742.405336
926.783328	2733.081722
927.087438	2727.642317
927.391509	2720.052860
927.695541	2714.255533
927.999533	2708.669935
928.303486	2704.410160
928.607400	2699.439582
928.911275	2696.833306
929.215110	2694.350537
929.518906	2690.209229
929.822663	2692.465146
930.126381	2687.363498
930.430060	2689.730320
930.733699	2687.829805
931.037299	2688.729651
931.340861	2690.075639
931.644383	2690.715865
931.947866	2689.944569
932.251309	2689.395083
932.554714	2690.226873
932.858080	2688.338961
933.161407	2687.519774
933.464694	2685.848631
933.767943	2685.624300
934.071153	2684.555575
934.374323	2682.692869
934.677455	2685.082376
934.980548	2681.188085
935.283602	2679.085923
935.586617	2678.027281
935.889593	2680.706654
936.192530	2681.172961
936.495428	2682.581964
936.798287	2686.778724
937.101108	2689.652182
937.403890	2693.864066
937.706632	2705.395705
938.009336	2717.249979
938.312002	2728.779097
938.614628	2738.692527
938.917216	2750.115781
939.219765	2756.649117
939.522275	2765.135899
939.824747	2767.240581
940.127179	2765.791249
940.429573	2764.173039
940.731929	2766.353338
941.034246	2762.562390
941.336524	2767.071702
941.638763	2764.543563
941.940964	2766.058430
942.243126	2759.550301
942.545250	2755.038468
942.847335	2747.020513
943.149381	2743.151427
943.451389	2734.500807
943.753359	2731.181207
944.055290	2725.852708
944.357182	2721.804661
944.659036	2716.377859
944.960851	2714.217725
945.262628	2712.034905
945.564367	2709.410984
945.866067	2711.714792
946.167729	2708.957281
946.469352	2708.465768
946.770937	2708.483412
947.072484	2706.903010
947.373992	2706.343442
947.675462	2702.434027
947.976893	2699.351362
948.278286	2697.329859
948.579641	2697.065199
948.880958	2697.471012
949.182236	2697.549149
949.483476	2696.263655
949.784678	2694.416072
950.085841	2693.438088
950.386967	2695.348686
950.688054	2699.268183
950.989103	2701.163657
951.290114	2702.872608
951.591087	2708.435521
951.892021	2712.569267
952.192917	2714.197560
952.493776	2719.815926
952.794596	2722.291132
953.095378	2724.957903
953.396122	2726.129971
953.696828	2724.857080
953.997496	2725.036041
954.298126	2719.374825
954.598718	2718.134701
954.899272	2715.956923
955.199788	2708.743032
955.500266	2707.583566
955.800706	2697.135775
956.101108	2688.296112
956.401472	2685.190761
956.701798	2679.204391
957.002087	2670.775581
957.302337	2667.312309
957.602550	2663.102945
957.902724	2658.646565
958.202861	2652.536687
958.502960	2648.110554
958.803022	2645.151396
959.103045	2638.436579
959.403031	2636.541106
959.702979	2632.160343
960.002889	2630.239663
960.302762	2627.968623
960.602596	2626.489045
960.902393	2624.182717
961.202153	2622.314969
961.501875	2619.030658
961.801559	2617.568723
962.101205	2617.977057
962.400814	2616.210132
962.700385	2612.991355
962.999918	2610.838783
963.299414	2611.438680
963.598873	2614.042436
963.898293	2609.061776
964.197677	2608.993720
964.497022	2607.390633
964.796331	2608.998762
965.095601	2605.510283
965.394835	2610.127980
965.694030	2608.217383
965.993189	2607.068000
966.292309	2606.941971
966.591393	2607.345263
966.890439	2603.239243
967.189447	2603.554315
967.488419	2605.543051
967.787353	2604.005499
968.086249	2605.170005
968.385108	2605.943822
968.683930	2607.544389
968.982714	2607.544389
969.281462	2608.187136
969.580172	2604.350818
969.878844	2610.558999
970.177480	2608.875253
970.476078	2610.710233
970.774639	2613.843310
971.073162	2614.768362
971.371649	2612.525049
971.670098	2614.196191
971.968510	2614.251644
972.266885	2614.705348
972.565223	2620.991667
972.863524	2620.593415
973.161788	2621.309259
973.460014	2620.928652
973.758204	2619.938065
974.056356	2621.397479
974.354471	2623.602984
974.652550	2620.590895
974.950591	2623.207254
975.248595	2623.043416
975.546563	2623.345885
975.844493	2622.206585
976.142386	2622.894702
976.440243	2621.384877
976.738062	2618.987808
977.035845	2617.535956
977.333590	2618.544186
977.631299	2613.218207
977.928971	2616.499998
978.226606	2616.399175
978.524204	2612.076386
978.821765	2613.795419
979.119290	2613.550923
979.416777	2611.378186
979.714228	2615.708537
980.011642	2617.183075
980.309020	2616.994032
980.606360	2616.699124
980.903664	2619.754063
981.200931	2626.947790
981.498162	2635.197638
981.795356	2645.985707
982.092513	2658.157573
982.389633	2675.887311
982.686717	2694.206864
982.983764	2710.436859
983.280775	2727.826319
983.577749	2729.477297
983.874686	2732.025601
984.171587	2726.702142
984.468451	2722.064281
984.765279	2715.576316
985.062070	2708.836293
985.358824	2701.183821
985.655543	2689.586647
985.952224	2681.840914
986.248869	2668.607885
986.545478	2654.285967
986.842050	2645.012765
987.138586	2632.699746
987.435086	2624.621297
987.731549	2613.785337
988.027975	2613.649226
988.324366	2608.275356
988.620719	2602.495673
988.917037	2603.254367
989.213318	2601.242946
989.509563	2594.956628
989.805772	2596.521906
990.101944	2596.075764
990.398080	2592.441092
990.694180	2594.928901
990.990244	2595.138109
991.286271	2592.962851
991.582262	2593.870259
991.878217	2596.037955
992.174136	2594.780187
992.470019	2597.928388
992.765865	2595.574169
993.061676	2599.372678
993.357450	2601.182452
993.653188	2597.963676
993.948890	2602.316712
994.244556	2607.806529
994.540186	2610.107815
994.835780	2616.094186
995.131337	2623.499641
995.426859	2631.462143
995.722345	2637.173770
996.017795	2647.364463
996.313208	2657.255207
996.608586	2663.332318
996.903928	2666.543533
997.199234	2669.447237
997.494504	2667.939932
997.789738	2668.219716
998.084936	2661.134375
998.380099	2659.402738
998.675225	2652.950061
998.970316	2648.889412
999.265371	2642.492188
999.560390	2633.705457
999.855373	2630.995836
1000.150320	2623.638272
1000.445232	2616.494957
1000.740108	2610.959770
1001.034948	2609.144955
1001.329752	2605.303596
1001.624521	2600.474170
1001.919254	2596.194231
1002.213951	2594.185331
1002.508613	2592.983016
1002.803239	2590.137284
1003.097829	2589.434043
1003.392384	2590.152408
1003.686903	2590.071749
1003.981386	2589.156780
1004.275834	2588.549321
1004.570246	2589.363467
1004.864623	2584.087900
1005.158964	2587.745257
1005.453270	2585.088569
1005.747540	2588.453539
1006.041775	2583.513208
1006.335974	2584.092941
1006.630138	2585.259968
1006.924266	2583.480441
1007.218359	2584.828949
1007.512416	2584.619742
1007.806438	2581.968095
1008.100425	2583.430029
1008.394376	2581.539597
1008.688292	2582.908270
1008.982172	2581.191757
1009.276017	2584.198805
1009.569827	2583.256109
1009.863602	2585.832139
1010.157341	2583.253589
1010.451045	2581.831983
1010.744714	2579.770152
1011.038347	2582.389031
1011.331945	2579.858372
1011.625508	2580.685121
1011.919036	2581.705955
1012.212528	2578.983732
1012.505986	2582.036150
1012.799408	2579.838207
1013.092795	2582.207549
1013.386147	2580.251582
1013.679464	2581.161510
1013.972745	2580.269226
1014.265992	2582.905749
1014.559204	2581.768969
1014.852380	2581.968095
1015.145521	2580.624627
1015.438628	2579.896180
1015.731699	2579.329051
1016.024736	2580.980028
1016.317737	2581.612693
1016.610703	2582.676377
1016.903635	2577.514235
1017.196531	2576.369893
1017.489393	2577.801581
1017.782219	2579.787796
1018.075011	2578.093968
1018.367768	2582.399113
1018.660490	2581.279977
1018.953177	2581.279977
1019.245829	2581.279977
