Dividing Wavelength (nm)	Counts (n)	Blue Motor Position (mm): 33.000000	Red Motor Position (mm): 0.000000	
326.493990	2153.596047
326.888308	2153.596047
327.282561	2153.596047
327.676750	2128.153343
328.070874	2131.815741
328.464933	2135.062244
328.858929	2145.578091
329.252859	2156.600574
329.646726	2171.731598
330.040528	2183.936231
330.434265	2206.550847
330.827938	2222.019628
331.221547	2243.832700
331.615091	2262.535381
332.008571	2282.936931
332.401986	2303.232616
332.795338	2323.704742
333.188625	2343.977742
333.581847	2363.673530
333.975006	2382.925697
334.368100	2401.635939
334.761129	2418.249062
335.154095	2436.346804
335.546996	2460.453602
335.939833	2490.476193
336.332606	2504.409943
336.725315	2514.416633
337.117960	2525.459281
337.510540	2532.335414
337.903056	2541.596014
338.295508	2550.445760
338.687896	2555.703683
339.080220	2563.887996
339.472480	2566.781619
339.864676	2570.350756
340.256807	2574.277814
340.648875	2576.377455
341.040879	2579.659246
341.432818	2582.149576
341.824694	2579.757549
342.216506	2580.357446
342.608253	2581.194278
342.999937	2578.875347
343.391557	2579.896180
343.783113	2578.414081
344.174605	2577.665470
344.566033	2573.314954
344.957397	2571.842937
345.348697	2570.577607
345.739934	2568.853533
346.131106	2571.167422
346.522215	2565.859088
346.913260	2562.410938
347.304241	2563.197358
347.695159	2559.192162
348.086012	2559.149312
348.476802	2561.362378
348.867528	2558.309960
349.258191	2554.254351
349.648789	2556.442212
350.039324	2549.364432
350.429796	2554.607232
350.820203	2549.848383
351.210548	2553.553631
351.600828	2550.324772
351.991045	2551.295194
352.381198	2548.346119
352.771288	2548.333516
353.161314	2549.243444
353.551276	2551.910215
353.941175	2549.361912
354.331010	2548.076417
354.720782	2549.664381
355.110490	2551.242262
355.500135	2551.403579
355.889717	2550.975081
356.279235	2554.254351
356.668689	2552.356357
357.058080	2548.242775
357.447408	2546.286808
357.836672	2548.348640
358.225873	2546.765717
358.615010	2547.347971
359.004084	2550.723023
359.393095	2554.942469
359.782043	2549.573640
360.170927	2554.713096
360.559748	2554.030020
360.948505	2554.740823
361.337199	2557.619322
361.725830	2557.896585
362.114398	2556.716955
362.502903	2558.798952
362.891344	2559.850032
363.279722	2557.062274
363.668037	2554.403065
364.056289	2560.044117
364.444478	2557.190823
364.832603	2561.100238
365.220665	2561.899261
365.608665	2559.373643
365.996601	2560.928839
366.384474	2560.840619
366.772284	2561.929508
367.160031	2560.026472
367.547715	2559.413972
367.935336	2561.984961
368.322893	2560.828016
368.710388	2563.131823
369.097820	2564.858418
369.485189	2563.356155
369.872495	2566.222051
370.259738	2564.626525
370.646918	2563.567883
371.034035	2568.931671
371.421090	2566.398491
371.808081	2565.012174
372.195010	2566.431258
372.581875	2564.135013
372.968678	2565.465877
373.355418	2567.799932
373.742096	2564.077040
374.128710	2568.936712
374.515262	2569.773543
374.901751	2568.336815
375.288177	2563.754406
375.674540	2568.724983
376.060841	2568.760272
376.447079	2565.609550
376.833254	2569.208934
377.219367	2565.087791
377.605417	2563.759447
377.991404	2565.183573
378.377329	2564.374468
378.763191	2567.620971
379.148991	2570.575087
379.534727	2569.105591
379.920402	2570.295303
380.306013	2572.508369
380.691563	2571.008626
381.077049	2572.808318
381.462474	2572.601631
381.847835	2571.762279
382.233134	2573.098184
382.618371	2573.385530
383.003545	2572.205900
383.388657	2571.386713
383.773706	2575.928792
384.158693	2572.883935
384.543618	2572.747824
384.928480	2574.517269
385.313280	2575.384348
385.698017	2574.328226
386.082692	2576.180850
386.467305	2576.642116
386.851856	2572.059707
387.236344	2575.248237
387.620770	2576.324523
388.005133	2577.408371
388.389435	2579.777713
388.773674	2574.212279
389.157851	2572.745304
389.541965	2576.349729
389.926018	2577.494071
390.310008	2575.517938
390.693936	2573.859399
391.077802	2576.092630
391.461606	2578.444328
391.845348	2577.126066
392.229027	2579.243351
392.612645	2579.409709
392.996200	2578.509863
393.379694	2580.783423
393.763125	2579.689493
394.146494	2578.477096
394.529801	2580.435584
394.913047	2581.093454
395.296230	2580.153279
395.679351	2578.973649
396.062410	2582.895667
396.445408	2581.559761
396.828343	2582.610842
397.211217	2578.943402
397.594028	2578.978690
397.976778	2582.542786
398.359466	2580.521283
398.742092	2580.299473
399.124656	2583.677046
399.507158	2582.351222
399.889598	2583.699731
400.271977	2583.767787
400.654294	2586.938672
401.036549	2584.183682
401.418742	2585.449011
401.800874	2587.208374
402.182944	2587.954465
402.564952	2585.111254
402.946898	2588.143508
403.328783	2587.994794
403.710606	2586.442119
404.092367	2586.490010
404.474067	2588.075452
404.855705	2589.731472
405.237282	2586.769794
405.618797	2587.357088
406.000250	2591.087542
406.381642	2586.749629
406.762972	2590.099476
407.144240	2590.013776
407.525447	2592.055443
407.906593	2588.279619
408.287677	2592.420927
408.668700	2590.215422
409.049661	2593.149374
409.430560	2595.211206
409.811399	2594.931422
410.192176	2593.156936
410.572891	2592.831781
410.953545	2594.087028
411.334138	2593.156936
411.714669	2595.327152
412.095139	2593.789600
412.475547	2595.080136
412.855894	2596.698346
413.236180	2596.776484
413.616405	2599.448296
413.996568	2598.127513
414.376670	2600.292689
414.756711	2599.450816
415.136691	2601.008533
415.516609	2608.182095
415.896466	2605.043976
416.276262	2607.632609
416.655997	2606.021960
417.035670	2612.668722
417.415283	2614.901953
417.794834	2614.581839
418.174324	2618.534104
418.553753	2622.446039
418.933121	2625.755557
419.312428	2633.062709
419.691674	2636.145375
420.070859	2643.671818
420.449983	2643.923875
420.829045	2653.081131
421.208047	2659.339724
421.586988	2670.155519
421.965867	2677.913855
422.344686	2683.691017
422.723444	2697.236598
423.102141	2696.692153
423.480777	2710.711602
423.859352	2717.534804
424.237866	2736.174470
424.616319	2744.263002
424.994712	2763.421907
425.373044	2772.455654
425.751314	2796.464150
426.129524	2796.081022
426.507673	2826.799293
426.885762	2833.025118
427.263789	2852.710824
427.641756	2862.977133
428.019662	2885.816081
428.397508	2900.569018
428.775292	2928.832247
429.153016	2942.806325
429.530679	2963.346507
429.908282	2984.768890
430.285824	2994.515961
430.663305	3035.266128
431.040726	3040.077909
431.418086	3052.005279
431.795385	3096.881631
432.172624	3124.338275
432.549802	3136.469812
432.926920	3164.975016
433.303977	3183.894467
433.680974	3217.995352
434.057910	3249.416864
434.434786	3274.816718
434.811601	3294.812454
435.188355	3362.936087
435.565050	3369.570245
435.941683	3397.760378
436.318257	3458.080304
436.694770	3486.227586
437.071222	3537.546532
437.447614	3531.489586
437.823946	3557.779203
438.200218	3592.865634
438.576429	3610.517234
438.952580	3648.693892
439.328670	3678.114066
439.704700	3725.931931
440.080670	3731.343610
440.456580	3791.111530
440.832429	3839.403263
441.208218	3803.729538
441.583947	3861.039895
441.959616	3895.153383
442.335224	3932.233591
442.710773	3979.234788
443.086261	4037.167728
443.461689	4030.072304
443.837057	4058.446439
444.212365	4136.914519
444.587612	4165.265968
444.962800	4162.163138
445.337927	4216.869740
445.712995	4153.119308
446.088002	4322.444104
446.462949	4361.084548
446.837837	4398.560486
447.212664	4415.100512
447.587431	4620.809836
447.962139	4888.011154
448.336786	5191.823852
448.711374	5197.848031
449.085901	4915.024177
449.460369	4885.609044
449.834776	4853.136452
450.209124	5080.716822
450.583412	5108.246563
450.957640	5235.011417
451.331808	5124.867247
451.705917	5006.677395
452.079965	5015.050752
452.453954	5069.301129
452.827883	5050.248088
453.201752	5070.130398
453.575562	5112.715546
453.949311	5252.143779
454.323001	5269.853352
454.696632	5267.942755
455.070202	5432.687663
455.443713	5468.381552
455.817164	5573.419034
456.190556	5648.935518
456.563888	5631.112519
456.937160	5713.061516
457.310373	5568.551800
457.683526	5633.186954
458.056619	5632.645030
458.429653	5627.954236
458.802628	5674.468963
459.175542	5710.193099
459.548398	5855.597620
459.921194	6043.037803
460.293930	6106.934428
460.666607	6362.251226
461.039224	6575.348361
461.411782	6700.646240
461.784280	6619.009794
462.156719	6626.160671
462.529099	6597.385765
462.901419	6459.104394
463.273680	6332.939437
463.645882	6332.851217
464.018024	6335.971691
464.390106	6402.182206
464.762130	6662.109139
465.134094	7050.237656
465.505999	7686.154008
465.877845	8383.814412
466.249631	8733.365499
466.621358	8665.589706
466.993026	8463.048748
467.364634	8254.637365
467.736184	7972.705795
468.107674	7821.894637
468.479105	7743.391269
468.850477	7680.114706
469.221790	7508.430650
469.593043	7285.662061
469.964238	7185.708583
470.335373	7166.542116
470.706449	7318.663975
471.077467	7519.193513
471.448425	8171.561671
471.819324	8750.908715
472.190164	8780.825442
472.560945	8292.151112
472.931667	7829.703384
473.302330	7634.681307
473.672934	7519.662340
474.043479	7596.459278
474.413965	7499.001171
474.784393	7449.353368
475.154761	7603.610155
475.525070	7615.101465
475.895321	7572.793581
476.265513	7671.249837
476.635645	7832.508786
477.005719	7822.844894
477.375734	7910.805467
477.745691	8020.569031
478.115588	8222.258034
478.485427	8461.468346
478.855207	8932.654914
479.224928	9369.143219
479.594591	9744.182380
479.964194	9761.229042
480.333739	9835.848201
480.703226	9834.449281
481.072653	9943.625550
481.442022	10054.725019
481.811333	10199.844715
482.180584	10048.960460
482.549777	9984.214400
482.918912	9924.716182
483.287988	9911.767978
483.657005	9819.817332
484.025964	9738.180887
484.394864	9797.570720
484.763706	9754.836859
485.132489	9669.457357
485.501213	9665.273199
485.869879	9712.912103
486.238487	9657.829936
486.607036	9739.950332
486.975527	9681.737608
487.343959	9740.444365
487.712333	9783.460531
488.080648	9821.816150
488.448905	9935.181617
488.817104	9941.165467
489.185244	10103.120096
489.553326	10313.716818
489.921350	10790.123501
490.289315	11416.933008
490.657222	11704.485465
491.025070	11881.523226
491.392861	11793.267746
491.760593	11635.774538
492.128267	11385.781198
492.495883	11147.342183
492.863440	10911.234702
493.230939	10690.036432
493.598380	10509.144709
493.965763	10484.165792
494.333088	10351.916162
494.700354	10282.272621
495.067563	10257.891081
495.434713	10262.140773
495.801805	10300.236773
496.168839	10261.172872
496.535815	10230.615918
496.902733	10283.245564
497.269593	10240.612526
497.636395	10243.977496
498.003139	10355.727274
498.369825	10283.104412
498.736453	10375.738134
499.103023	10317.820318
499.469535	10324.401544
499.835989	10373.232681
500.202385	10353.219300
500.568723	10369.161949
500.935003	10429.325600
501.301226	10402.209233
501.667390	10554.494929
502.033497	10663.953503
502.399546	10586.886863
502.765537	10494.341361
503.131470	10598.932700
503.497345	10688.090547
503.863163	10463.023192
504.228923	10595.295508
504.594625	10706.914216
504.960269	10623.543613
505.325856	10778.029773
505.691385	10658.962760
506.056856	10722.882070
506.422270	10826.497947
506.787625	10753.849878
507.152924	10821.297996
507.518164	10873.627694
507.883347	10740.727755
508.248472	10815.160392
508.613540	10921.059910
508.978550	10991.797381
509.343503	10978.907151
509.708398	11021.807370
510.073236	11151.312092
510.438016	11168.101655
510.802738	11084.542009
511.167403	11214.651669
511.532010	11267.939186
511.896561	11370.819054
512.261053	11560.326109
512.625488	11477.452060
512.989866	11471.221194
513.354186	11444.964344
513.718449	11458.381375
514.082655	11601.840011
514.446803	11557.987014
514.810894	11662.701861
515.174927	11664.441059
515.538904	11649.864563
515.902822	11808.272740
516.266684	11674.422544
516.630488	11775.122113
516.994235	11762.282294
517.357925	11884.923485
517.721558	11933.258068
518.085133	12003.735919
518.448651	12042.056250
518.812112	11989.272849
519.175516	12003.030157
519.538863	12098.721340
519.902152	12107.082093
520.265385	12214.027652
520.628560	12237.222001
520.991678	12183.891634
521.354739	12239.200653
521.717743	12315.367447
522.080690	12281.387549
522.443580	12415.787232
522.806413	12434.063935
523.169189	12417.375195
523.531908	12480.750061
523.894569	12440.491406
524.257174	12463.945374
524.619722	12566.462279
524.982213	12535.141590
525.344647	12535.330633
525.707025	12537.495809
526.069345	12650.631904
526.431608	12621.763737
526.793815	12697.055890
527.155964	12598.055190
527.518057	12634.510294
527.880093	12589.366761
528.242072	12703.309441
528.603995	12629.900159
528.965860	12634.918627
529.327669	12671.981191
529.689421	12614.602778
530.051117	12633.716312
530.412755	12669.412723
530.774337	12678.363291
531.135862	12632.211528
531.497331	12685.869569
531.858743	12651.299857
532.220098	12739.605749
532.581396	12670.912466
532.942638	12597.659459
533.303824	12658.450734
533.664953	12634.376703
534.026025	12588.141761
534.387040	12704.652909
534.747999	12669.848783
535.108902	12719.539436
535.469748	12598.198863
535.830537	12619.480094
536.191270	12659.300168
536.551947	12586.130341
536.912567	12640.773928
537.273131	12684.488293
537.633638	12564.554202
537.994089	12623.596196
538.354483	12537.372301
538.714821	12663.297803
539.075103	12745.677819
539.435328	12680.122654
539.795497	12652.643324
540.155609	12652.310608
540.515665	12755.878593
540.875665	12608.003907
541.235609	12711.897047
541.595496	12675.494875
541.955328	12848.489631
542.315102	12697.824666
542.674821	12637.091365
543.034483	12656.845126
543.394090	12654.042245
543.753640	12623.283644
544.113134	12865.077548
544.472571	12625.116104
544.831953	12911.226790
545.191278	12725.916496
545.550548	12653.699446
545.909761	12762.903441
546.268918	12815.026452
546.628019	12874.842263
546.987064	12763.410077
547.346053	12605.395110
547.704986	12808.833394
548.063863	12692.874253
548.422684	12742.290163
548.781449	12706.717261
549.140158	12802.685707
549.498811	12755.674427
549.857408	12624.170887
550.215949	12831.332064
550.574434	12795.779326
550.932864	12734.811612
551.291237	12937.496243
551.649555	12821.020383
552.007817	12880.785783
552.366022	12801.984987
552.724173	12834.790295
553.082267	12934.158999
553.440305	13019.455322
553.798288	12848.713962
554.156215	12916.557811
554.514086	12957.295375
554.871902	12904.085996
555.229661	12924.585848
555.587365	12887.432544
555.945014	12894.031415
556.302606	12882.691339
556.660143	12943.225514
557.017625	12965.348618
557.375050	12935.973815
557.732421	13026.364224
558.089735	13028.244574
558.446994	12998.234585
558.804197	13117.765384
559.161345	13112.401596
559.518437	12925.215992
559.875474	13026.187783
560.232455	13048.446998
560.589381	13091.102721
560.946251	13036.864947
561.303065	13206.144373
561.659825	13149.209581
562.016528	13077.012696
562.373177	13014.280578
562.729770	13143.729847
563.086307	13039.773693
563.442789	13141.499136
563.799216	13178.975074
564.155587	13127.948515
564.511904	13143.318993
564.868164	13149.638079
565.224370	13214.797513
565.580520	13162.240964
565.936615	13215.669633
566.292654	13159.289368
566.648638	13228.431314
567.004567	13232.706212
567.360441	13229.336201
567.716260	13205.685628
568.072023	13282.192699
568.427732	13279.601546
568.783385	13173.729753
569.138982	13285.698822
569.494525	13273.431174
569.850013	13221.217423
570.205445	13215.543604
570.560823	13227.629770
570.916145	13188.187783
571.271412	13187.058564
571.626625	13142.199857
571.981782	13143.261020
572.336884	13093.741765
572.691931	13190.010160
573.046923	13071.389289
573.401860	13047.310218
573.756743	13051.716186
574.111570	13073.889702
574.466342	13056.906054
574.821059	13098.145213
575.175722	12972.396151
575.530330	12991.597906
575.884882	12931.459461
576.239380	12923.834716
576.593823	12902.964339
576.948211	12900.864699
577.302544	12777.792489
577.656823	12795.290334
578.011047	12861.901621
578.365216	12793.251188
578.719330	12732.487640
579.073389	12702.475130
579.427394	12714.367212
579.781344	12708.285060
580.135239	12645.804999
580.489080	12654.027121
580.842866	12538.423381
581.196597	12645.227787
581.550273	12628.917134
581.903895	12595.882453
582.257463	12702.676776
582.610975	12543.615770
582.964434	12607.759411
583.317837	12520.870083
583.671186	12483.711738
584.024481	12537.495809
584.377721	12423.853078
584.730906	12489.771205
585.084037	12506.412054
585.437113	12432.912031
585.790135	12449.114300
586.143103	12362.852596
586.496016	12376.304915
586.848874	12390.299158
587.201679	12387.188766
587.554428	12266.004468
587.907124	12302.202474
588.259765	12255.460895
588.612352	12321.583190
588.964884	12175.790500
589.317362	12227.721946
589.669786	12233.438615
590.022155	12185.456912
590.374470	12287.368878
590.726731	12171.795385
591.078937	12050.921119
591.431090	12082.652662
591.783188	12012.333607
592.135232	11930.112388
592.487222	11999.398006
592.839157	12009.243380
593.191038	11940.265272
593.542866	11886.556818
593.894639	11740.950651
594.246358	11793.809670
594.598022	11796.627675
594.949633	11703.535207
595.301190	11695.658405
595.652692	11653.224492
596.004141	11741.817730
596.355535	11521.320181
596.706876	11503.635813
597.058162	11475.362502
597.409395	11566.166286
597.760573	11590.038670
598.111698	11480.380971
598.462768	11483.471198
598.813785	11499.035761
599.164748	11358.264060
599.515657	11446.020466
599.866511	11317.750827
600.217312	11448.183121
600.568060	11216.416073
600.918753	11376.568490
601.269392	11380.500590
601.619978	11274.795155
601.970510	11319.376599
602.320988	11361.616427
602.671412	11438.463777
603.021783	11358.158196
603.372100	11283.617174
603.722363	11301.218363
604.072572	11303.335648
604.422728	11309.614405
604.772830	11253.438307
605.122878	11257.688000
605.472872	11234.324772
605.822813	11298.609566
606.172701	11251.099212
606.522534	11289.008688
606.872314	11341.693787
607.222041	11279.022163
607.571714	11348.388440
607.921333	11218.840868
608.270899	11272.050247
608.620411	11348.461536
608.969870	11289.175047
609.319276	11266.280646
609.668627	11282.500559
610.017926	11367.484330
610.367171	11386.360931
610.716362	11389.287321
611.065500	11355.635098
611.414585	11376.079498
611.763616	11433.407499
612.112594	11396.239072
612.461518	11426.007085
612.810389	11474.714714
613.159207	11420.033318
613.507971	11408.486555
613.856682	11516.652073
614.205340	11468.889661
614.553945	11601.088879
614.902496	11488.280459
615.250994	11550.805890
615.599439	11536.897347
615.947830	11575.825137
616.296169	11536.688139
616.644454	11550.679861
616.992686	11564.797613
617.340864	11662.757314
617.688990	11554.743031
618.037063	11682.667351
618.385082	11648.528657
618.733048	11687.700943
619.080961	11677.411948
619.428821	11660.682879
619.776628	11665.177068
620.124382	11612.756630
620.472083	11632.210442
620.819731	11655.540902
621.167326	11575.691546
621.514868	11555.579863
621.862357	11464.317334
622.209793	11455.770058
622.557176	11368.391738
622.904506	11312.230764
623.251783	11242.546894
623.599007	11183.139417
623.946179	11128.168154
624.293297	11105.112437
624.640363	10967.612446
624.987376	10956.736156
625.334336	10888.882225
625.681243	10809.980606
626.028097	10778.841399
626.374899	10735.497558
626.721647	10707.977899
627.068343	10676.286685
627.414987	10615.591193
627.761577	10556.602131
628.108115	10597.327093
628.454600	10473.322270
628.801032	10489.302727
629.147412	10468.439912
629.493739	10441.174832
629.840014	10354.073776
630.186236	10401.165714
630.532405	10302.419593
630.878521	10341.188586
631.224585	10296.400455
631.570597	10219.784999
631.916556	10223.966636
632.262462	10206.685561
632.608316	10183.057673
632.954117	10155.943827
633.299866	10137.594027
633.645562	10122.478127
633.991206	10018.252271
634.336797	9918.959184
634.682336	9908.692874
635.027823	9857.273105
635.373257	9824.946706
635.718639	9759.497406
636.063968	9726.152694
636.409245	9602.712480
636.754470	9593.411551
637.099642	9542.319457
637.444762	9439.721894
637.789829	9444.853788
638.134845	9376.120176
638.479808	9344.388633
638.824719	9327.783073
639.169577	9238.952901
639.514383	9239.038600
639.859137	9173.672479
640.203839	9203.405204
640.548489	9122.484603
640.893086	9127.596333
641.237632	9063.072084
641.582125	9064.203823
641.926566	9044.868478
642.270955	9034.584524
642.615292	9028.857773
642.959576	9008.405812
643.303809	8997.272424
643.647990	9009.015792
643.992118	8995.636569
644.336195	8972.674113
644.680219	8965.351838
645.024192	9004.660235
645.368112	9081.220238
645.711981	9056.072442
646.055797	9194.187455
646.399562	9160.769646
646.743274	9312.803284
647.086935	9388.226507
647.430544	9360.230459
647.774101	9378.131597
648.117606	9409.346421
648.461059	9472.383530
648.804460	9398.916274
649.147810	9281.817832
649.491108	9250.676104
649.834354	9181.277060
650.177548	9041.705154
650.520690	8957.691804
650.863781	8945.807284
651.206820	8915.376359
651.549807	8828.361002
651.892742	8733.977999
652.235626	8695.508954
652.578458	8656.084611
652.921238	8547.997231
653.263967	8586.809075
653.606644	8522.710803
653.949269	8503.337649
654.291843	8427.503572
654.634365	8491.707707
654.976836	8419.157942
655.319255	8405.519100
655.661622	8392.429744
656.003938	8351.813168
656.346203	8316.159607
656.688416	8349.952982
657.030577	8311.972929
657.372687	8282.431767
657.714746	8314.433012
658.056753	8324.953900
658.398708	8225.033189
658.740612	8220.193682
659.082465	8263.842512
659.424266	8224.889517
659.766016	8225.723828
660.107715	8200.374385
660.449362	8223.092345
660.790958	8221.297694
661.132503	8213.415850
661.473996	8212.589101
661.815438	8233.167091
662.156829	8259.381091
662.498168	8212.359729
662.839456	8204.397226
663.180693	8226.721976
663.521879	8240.270077
663.863013	8223.442705
664.204097	8220.281902
664.545129	8300.668141
664.886110	8288.178683
665.227040	8284.526367
665.567918	8303.395405
665.908746	8311.647774
666.249522	8331.429262
666.590248	8331.512441
666.930922	8342.416457
667.271545	8341.345212
667.612118	8359.311884
667.952639	8309.689286
668.293109	8319.033065
668.633528	8298.636556
668.973896	8280.737939
669.314213	8290.089280
669.654480	8239.488698
669.994695	8234.087102
670.334859	8222.152170
670.674973	8197.059827
671.015035	8220.037406
671.355047	8208.294038
671.695008	8198.879683
672.034918	8180.179523
672.374777	8181.986777
672.714585	8158.658837
673.054342	8184.272940
673.394049	8146.260119
673.733705	8190.463477
674.073310	8139.268039
674.412864	8152.425451
674.752368	8079.724450
675.091820	8138.526989
675.431223	8068.134838
675.770574	8022.477107
676.109875	7994.735638
676.449125	7952.596633
676.788324	7936.981659
677.127473	7854.233639
677.466571	7837.189498
677.805619	7779.047350
678.144616	7781.099099
678.483562	7758.723938
678.822458	7708.009930
679.161303	7694.635749
679.500098	7671.373345
679.838842	7654.903895
680.177535	7674.065321
680.516179	7705.343160
680.854771	7724.358392
681.193314	7838.989190
681.531805	7998.392995
681.870247	8120.003270
682.208638	8266.882328
682.546978	8337.282042
682.885268	8369.673976
683.223508	8295.017008
683.561697	8243.750994
683.899836	8214.474493
684.237925	8131.418962
684.575963	8102.399560
684.913951	8019.568362
685.251889	8040.398409
685.589776	8029.254939
685.927614	8010.791713
686.265401	8037.270373
686.603137	8034.719549
686.940824	8111.899615
687.278460	8159.417531
687.616046	8179.229266
687.953582	8286.857900
688.291068	8272.036908
688.628504	8327.010691
688.965889	8322.085483
689.303224	8284.228938
689.640510	8246.379955
689.977745	8140.281311
690.314930	8014.524687
690.652065	7940.417205
690.989150	7825.032755
691.326185	7677.876433
691.663170	7566.451810
692.000105	7451.306815
692.336990	7333.714340
692.673825	7261.794718
693.010610	7173.090575
693.347345	7076.479382
693.684030	6964.860674
694.020665	6919.402070
694.357251	6798.553009
694.693786	6790.913140
695.030272	6746.692139
695.366707	6651.232850
695.703093	6601.184274
696.039429	6595.759993
696.375716	6547.838784
696.711952	6541.171858
697.048139	6510.390573
697.384276	6476.440922
697.720363	6493.079251
698.056400	6464.362318
698.392388	6434.644716
698.728326	6436.882988
699.064214	6413.328197
699.400053	6405.481641
699.735842	6343.886302
700.071581	6304.502288
700.407270	6261.723057
700.742910	6226.571091
701.078501	6189.624474
701.414042	6144.538915
701.749533	6084.811324
702.084974	6032.499271
702.420366	6066.146452
702.755709	5997.937120
703.091002	5945.773780
703.426246	5950.835099
703.761440	5935.948572
704.096584	5888.927209
704.431679	5879.127206
704.766725	5866.849476
705.101721	5849.896075
705.436668	5861.609196
705.771565	5807.661288
706.106413	5869.352409
706.441212	5869.584302
706.775961	5887.780347
707.110661	5892.496346
707.445311	5951.936591
707.779913	5914.901754
708.114465	5955.213341
708.448967	6001.781000
708.783421	6110.324604
709.117825	6160.504249
709.452180	6192.898704
709.786485	6256.417242
710.120742	6389.183590
710.454949	6387.240226
710.789107	6457.970135
711.123216	6584.878662
711.457275	6615.302026
711.791286	6721.463684
712.125247	6743.193578
712.459159	6712.913888
712.793023	6844.359453
713.126837	6677.149422
713.460602	6733.456589
713.794318	6683.531522
714.127985	6634.506301
714.461602	6490.309137
714.795171	6494.044632
715.128691	6327.096740
715.462162	6238.911835
715.795584	6171.786351
716.128957	6124.394464
716.462281	6054.864350
716.795556	6020.309761
717.128782	5929.576553
717.461960	5831.064845
717.795088	5823.858516
718.128167	5756.763279
718.461198	5676.850908
718.794180	5654.768133
719.127113	5589.381847
719.459997	5556.442948
719.792833	5493.133618
720.125619	5490.373586
720.458357	5427.381848
720.791046	5398.475872
721.123686	5370.719279
721.456278	5327.022557
721.788821	5317.582997
722.121315	5277.941883
722.453761	5283.401453
722.786158	5266.170789
723.118506	5269.651706
723.450805	5247.626905
723.783056	5267.436119
724.115259	5255.629737
724.447412	5241.602726
724.779518	5287.885559
725.111574	5286.050579
725.443582	5323.622299
725.775542	5316.612575
726.107453	5398.879164
726.439315	5371.556110
726.771129	5446.044200
727.102895	5507.773128
727.434612	5549.685282
727.766281	5581.149643
728.097901	5637.754239
728.429473	5648.469212
728.760996	5659.219472
729.092471	5684.352145
729.423897	5669.962171
729.755276	5640.557121
730.086606	5656.741745
730.417887	5748.379840
730.749120	5839.594478
731.080305	5880.369850
731.411442	5952.531447
731.742530	5982.629656
732.073570	6003.310990
732.404562	6061.284259
732.735506	6055.570111
733.066401	6037.001021
733.397249	5969.273119
733.728048	5874.927925
734.058798	5724.129369
734.389501	5602.728302
734.720156	5519.997927
735.050762	5406.246811
735.381320	5340.018652
735.711831	5281.347183
736.042293	5197.356519
736.372707	5195.541703
736.703073	5152.727184
737.033391	5182.487635
737.363661	5164.158000
737.693883	5175.694681
738.024056	5202.664854
738.354182	5232.891612
738.684260	5279.126555
739.014290	5318.571063
739.344272	5350.400908
739.674207	5407.428961
740.004093	5440.614877
740.333931	5448.131237
740.663722	5469.596470
740.993464	5478.284899
741.323159	5462.758145
741.652806	5417.281896
741.982405	5387.095467
742.311956	5335.912632
742.641460	5319.944777
742.970915	5266.455614
743.300323	5201.558320
743.629683	5171.903733
743.958996	5122.386999
744.288260	5074.034772
744.617477	5012.804918
744.946647	4993.751877
745.275768	4942.672385
745.604842	4905.987909
745.933869	4870.881313
746.262847	4866.301425
746.591778	4853.759034
746.920662	4829.949665
747.249498	4826.166279
747.578286	4844.390050
747.907027	4866.729923
748.235720	4910.338424
748.564365	4921.993572
748.892963	4909.304988
749.221514	4926.386938
749.550017	4899.033637
749.878473	4897.947268
750.206881	4857.706258
750.535242	4842.005584
750.863555	4831.288091
751.191821	4802.936642
751.520039	4814.445596
751.848210	4790.225372
752.176334	4803.518895
752.504411	4783.157675
752.832440	4753.944188
753.160421	4765.531280
753.488356	4744.741562
753.816243	4723.019230
754.144082	4691.476730
754.471875	4680.199669
754.799620	4670.450077
755.127318	4659.820805
755.454969	4657.789220
755.782572	4651.084485
756.110129	4653.975587
756.437638	4636.558400
756.765100	4634.340292
757.092515	4636.772649
757.419882	4640.694667
757.747203	4635.610663
758.074477	4651.089526
758.401703	4640.051920
758.728882	4670.523174
759.056014	4686.788457
759.383099	4702.214388
759.710138	4733.454418
760.037129	4749.694495
760.364073	4767.935911
760.690970	4764.926342
761.017820	4764.886012
761.344623	4797.202329
761.671379	4861.063666
761.998088	4945.845792
762.324751	5178.734496
762.651366	5636.975381
762.977935	6330.345763
763.304456	6889.853346
763.630931	7195.377516
763.957359	7127.977289
764.283740	6839.381314
764.610074	6518.794176
764.936362	6115.509430
765.262602	5798.688035
765.588796	5453.240447
765.914943	5198.722671
766.241044	4976.478363
766.567097	4800.927742
766.893104	4657.141431
767.219064	4554.816091
767.544978	4461.516936
767.870845	4374.844378
768.196665	4326.698838
768.522438	4278.001292
768.848165	4235.211978
769.173846	4198.537584
769.499479	4164.903005
769.825066	4135.734889
770.150607	4089.361315
770.476101	4076.080395
770.801548	4052.044173
771.126949	4023.027292
771.452303	4006.290661
771.777611	3968.880258
772.102872	3964.910350
772.428087	3941.337914
772.753256	3913.175508
773.078378	3893.522570
773.403453	3863.018548
773.728482	3836.612984
774.053465	3825.247703
774.378401	3802.048313
774.703291	3779.610137
775.028135	3758.812857
775.352932	3748.939757
775.677683	3728.555852
776.002388	3709.878377
776.327046	3712.406515
776.651658	3691.652085
776.976224	3672.989733
777.300743	3671.820186
777.625216	3654.551713
777.949643	3646.329591
778.274024	3648.875374
778.598359	3629.852580
778.922647	3629.782004
779.246889	3618.714151
779.571086	3618.648616
779.895236	3618.333543
780.219339	3623.707413
780.543397	3618.993935
780.867409	3631.397694
781.191374	3635.637304
781.515294	3622.742032
781.839167	3643.788850
782.162995	3640.043272
782.486776	3633.900627
782.810511	3628.725882
783.134201	3613.604941
783.457844	3612.248871
783.781441	3605.294599
784.104993	3598.010132
784.428498	3590.778597
784.751958	3585.533276
785.075372	3583.693255
785.398739	3570.359403
785.722061	3579.917431
786.045337	3575.380392
786.368568	3600.835698
786.691752	3597.763115
787.014891	3645.409581
787.337983	3691.251313
787.661030	3777.833131
787.984031	3872.621946
788.306987	3950.149851
788.629897	3997.607274
788.952760	4004.546422
789.275579	3991.580574
789.598351	3940.551494
789.921078	3886.013772
790.243759	3824.549503
790.566395	3782.786064
790.888984	3728.719689
791.211529	3697.129299
791.534027	3651.605159
791.856480	3610.171915
792.178888	3591.897733
792.501249	3574.467943
792.823566	3542.877553
793.145836	3536.888662
793.468062	3527.832229
793.790241	3511.546782
794.112375	3518.375024
794.434464	3540.687171
794.756507	3539.126934
795.078505	3561.144174
795.400457	3595.280347
795.722364	3644.885301
796.044226	3691.846169
796.366042	3737.463571
796.687812	3730.544587
797.009538	3763.836367
797.331218	3744.853902
797.652852	3740.820979
797.974442	3718.314748
798.295986	3710.253943
798.617484	3680.743028
798.938938	3658.002383
799.260346	3642.689878
799.581709	3603.389043
799.903026	3593.425202
800.224299	3572.822007
800.545526	3544.808315
800.866708	3529.599153
801.187845	3512.905373
801.508936	3489.380828
801.829983	3487.495437
802.150984	3453.976805
802.471940	3443.917182
802.792851	3437.966100
803.113717	3435.208589
803.434538	3424.589398
803.755314	3412.220927
804.076045	3407.116759
804.396731	3396.729462
804.717372	3396.197620
805.037967	3394.521436
805.358518	3395.980850
805.679024	3408.755134
805.999485	3405.627098
806.319901	3410.630443
806.640272	3412.697316
806.960598	3428.735747
807.280879	3424.564193
807.601115	3436.481480
807.921306	3430.681633
808.241453	3430.890841
808.561554	3435.097683
808.881611	3429.935542
809.201623	3433.880245
809.521590	3425.466559
809.841513	3425.030499
810.161390	3429.985953
810.481223	3412.644384
810.801011	3409.559198
811.120755	3408.503076
811.440453	3394.765932
811.760107	3386.352246
812.079716	3381.119529
812.399281	3368.708208
812.718801	3370.938918
813.038276	3361.910212
813.357707	3357.121116
813.677093	3364.929863
813.996434	3354.897967
814.315731	3355.528111
814.634983	3356.269161
814.954191	3357.922659
815.273354	3373.585524
815.592473	3384.905435
815.911547	3404.558373
816.230577	3422.162083
816.549562	3446.503294
816.868502	3460.626087
817.187399	3480.773058
817.506250	3507.798684
817.825058	3518.710261
818.143821	3561.895306
818.462539	3608.329374
818.781213	3663.313239
819.099843	3748.007144
819.418429	3899.650093
819.736970	4052.838155
820.055466	4236.381526
820.373919	4478.820696
820.692327	4811.725893
821.010691	5326.236137
821.329011	6400.309417
821.647286	8148.712641
821.965517	10321.671759
822.283704	11933.560537
822.601847	13024.146116
822.919945	12609.836367
823.237999	11934.699838
823.556010	11032.494616
823.873976	10078.420963
824.191897	9112.750135
824.509775	8336.762803
824.827609	7533.470061
825.145398	6987.119889
825.463144	6608.866993
825.780845	6481.913095
826.098502	6544.015069
826.416116	6927.087309
826.733685	7433.388033
827.051210	7722.021817
827.368692	7614.060467
827.686129	7176.533683
828.003522	6623.549353
828.320872	6057.059772
828.638177	5595.554740
828.955439	5229.098144
829.272656	4887.655753
829.589830	4609.245429
829.906960	4347.092826
830.224046	4139.034324
830.541088	3970.601812
830.858086	3851.416333
831.175041	3754.517794
831.491952	3713.359293
831.808819	3691.974719
832.125642	3728.177765
832.442421	3829.769618
832.759157	4048.442269
833.075849	4429.941669
833.392497	4890.592225
833.709101	5277.843581
834.025662	5384.416094
834.342179	5259.491260
834.658653	4990.059231
834.975083	4716.659814
835.291469	4475.763237
835.607811	4249.513731
835.924110	4092.789299
836.240366	3932.238632
836.556578	3771.420783
836.872746	3632.640338
837.188871	3523.136394
837.504952	3424.717948
837.820990	3351.782534
838.136984	3295.077115
838.452935	3267.446551
838.768842	3250.878798
839.084706	3285.239303
839.400526	3421.678132
839.716303	3646.309427
840.032037	3858.922611
840.347727	3923.018361
840.663373	3835.990402
840.978977	3685.897608
841.294537	3552.493554
841.610054	3446.435238
841.925527	3371.740462
842.240957	3304.279741
842.556344	3244.627768
842.871687	3181.111750
843.186987	3124.212246
843.502244	3067.768967
843.817458	3031.737320
844.132629	2997.613750
844.447756	2975.044504
844.762840	2953.354940
845.077881	2936.121755
845.392879	2918.825556
845.707833	2909.592683
846.022745	2900.768143
846.337613	2895.510220
846.652438	2885.080073
846.967221	2881.604197
847.281960	2877.331819
847.596656	2871.166488
847.911309	2865.938811
848.225919	2860.980837
848.540485	2857.704087
848.855009	2854.505474
849.169490	2851.183354
849.483928	2845.973322
849.798323	2843.319154
850.112675	2841.050635
850.426984	2839.273628
850.741251	2839.036694
851.055474	2837.665500
851.369654	2838.071313
851.683792	2836.589214
851.997887	2834.837413
852.311938	2835.099553
852.625947	2838.764472
852.939914	2830.925477
853.253837	2835.533092
853.567718	2834.093842
853.881555	2833.428410
854.195350	2834.913030
854.509103	2834.681137
854.822812	2835.454954
855.136479	2833.877073
855.450103	2833.206599
855.763685	2833.057885
856.077224	2833.423369
856.390720	2832.397494
856.704173	2835.190293
857.017584	2836.531240
857.330953	2837.408401
857.644278	2844.352591
857.957561	2843.677076
858.270802	2848.072962
858.584000	2845.098681
858.897155	2846.527848
859.210268	2842.855368
859.523339	2839.089626
859.836367	2839.566015
860.149352	2836.349759
860.462295	2839.744976
860.775195	2831.825323
861.088054	2831.827844
861.400869	2829.420693
861.713642	2828.208295
862.026373	2832.641990
862.339062	2834.895386
862.651708	2835.560818
862.964312	2840.785974
863.276873	2843.470389
863.589392	2849.960874
863.901869	2856.466483
864.214303	2863.682895
864.526696	2870.032228
864.839045	2878.415667
865.151353	2886.053015
865.463619	2887.245248
865.775842	2888.311452
866.088023	2893.032493
866.400162	2893.037534
866.712258	2894.181876
867.024313	2895.323697
867.336325	2897.786301
867.648296	2899.281003
867.960224	2898.366033
868.272110	2899.903585
868.583954	2899.961559
868.895755	2904.332239
869.207515	2901.778895
869.519233	2910.023702
869.830909	2915.523601
870.142542	2913.136614
870.454134	2918.024013
870.765684	2923.206319
871.077191	2929.971548
871.388657	2937.271138
871.700081	2942.012343
872.011463	2946.592232
872.322803	2951.093982
872.634101	2955.351237
872.945357	2962.865076
873.256571	2975.409988
873.567744	2980.796461
873.878874	2984.995742
874.189963	2993.048985
874.501010	2995.546877
874.812015	2995.506548
875.122979	3002.380161
875.433900	3004.361334
875.744780	3010.650174
876.055618	3014.670494
876.366415	3015.764424
876.677169	3022.005373
876.987882	3026.330683
877.298554	3037.527085
877.609183	3050.099723
877.919771	3070.413053
878.230317	3093.181424
878.540822	3125.890951
878.851285	3177.766944
879.161707	3244.315216
879.472087	3353.930065
879.782425	3517.152545
880.092722	3791.126653
880.402977	4212.995613
880.713191	4758.859313
881.023363	5354.506928
881.333494	5794.004803
881.643583	6079.964255
881.953631	6161.530124
882.263637	6109.477690
882.573602	5964.617613
882.883526	5795.239885
883.193408	5588.814718
883.503248	5371.755236
883.813048	5154.615096
884.122806	4934.573772
884.432522	4696.686763
884.742197	4473.245180
885.051831	4265.678191
885.361424	4067.104621
885.670975	3897.666399
885.980485	3754.268257
886.289954	3627.354688
886.599382	3524.467259
886.908768	3439.430555
887.218113	3357.345447
887.527417	3297.847229
887.836680	3238.520410
888.145901	3192.540046
888.455082	3154.789365
888.764221	3121.351392
889.073319	3091.802668
889.382376	3074.503949
889.691392	3054.803120
890.000366	3049.744322
890.309300	3038.492466
890.618193	3035.671941
890.927044	3030.232536
891.235855	3032.942156
891.544625	3037.927857
891.853353	3044.559495
892.162041	3057.336299
892.470687	3081.218766
892.779293	3117.202522
893.087858	3163.656755
893.396381	3240.506624
893.704864	3346.738859
894.013306	3503.163343
894.321707	3689.363401
894.630068	3846.536496
894.938387	3922.244544
895.246665	3932.054630
895.554903	3870.938201
895.863100	3786.708082
896.171256	3706.946946
896.479371	3637.570587
896.787446	3557.980850
897.095480	3487.064418
897.403473	3430.611057
897.711425	3377.016029
898.019336	3324.000735
898.327207	3272.094494
898.635038	3224.211095
898.942827	3173.653363
899.250576	3129.570993
899.558284	3091.336362
899.865952	3065.830644
900.173579	3035.402239
900.481165	3014.521780
900.788711	2994.400014
901.096216	2978.467448
901.403681	2966.293061
901.711105	2958.068418
902.018489	2950.420988
902.325832	2960.435240
902.633135	2970.842702
902.940397	3007.975842
903.247619	3098.900613
903.554800	3276.553395
903.861941	3548.122873
904.169041	3811.404695
904.476101	3981.147906
904.783121	4002.713962
905.090100	3934.693674
905.397039	3827.932117
905.703938	3724.152404
906.010796	3623.223463
906.317614	3536.112324
906.624391	3451.473872
906.931129	3379.846637
907.237826	3313.820125
907.544483	3246.742532
907.851099	3176.708302
908.157675	3102.779781
908.464211	3030.529964
908.770707	2975.392344
909.077163	2926.213367
909.383578	2891.857904
909.689954	2861.515199
909.996289	2839.268587
910.302584	2829.609736
910.608839	2820.699497
910.915054	2810.536531
911.221229	2805.268525
911.527363	2807.211890
911.833458	2805.087043
912.139513	2811.194401
912.445527	2813.939309
912.751502	2824.233346
913.057436	2839.508042
913.363331	2857.777183
913.669186	2886.166441
913.975000	2927.012390
914.280775	2984.549600
914.586510	3067.204358
914.892205	3178.908766
915.197859	3319.733398
915.503475	3501.290554
915.809050	3679.467616
916.114585	3814.484840
916.420081	3887.684914
916.725536	3916.759769
917.030952	3882.515211
917.336328	3845.314016
917.641665	3794.962971
917.946961	3736.162953
918.252218	3671.253056
918.557435	3600.881069
918.862612	3535.746841
919.167750	3473.917089
919.472848	3401.271541
919.777906	3331.222188
920.082925	3263.501848
920.387904	3191.436033
920.692843	3137.488125
920.997743	3085.269333
921.302603	3035.172867
921.607423	2999.340345
921.912204	2966.585448
922.216946	2941.702313
922.521647	2919.148190
922.826310	2895.696743
923.130932	2873.916437
923.435516	2854.865917
923.740059	2840.523834
924.044564	2827.094200
924.349028	2814.851758
924.653454	2800.156795
924.957840	2785.499640
925.262186	2778.031171
925.566493	2764.503234
925.870761	2750.655185
926.174989	2749.793147
926.479178	2743.748804
926.783328	2733.885786
927.087438	2726.828171
927.391509	2721.958416
927.695541	2714.739484
927.999533	2709.552137
928.303486	2702.930581
928.607400	2702.360931
928.911275	2701.093081
929.215110	2693.223839
929.518906	2689.662264
929.822663	2691.459436
930.126381	2689.095134
930.430060	2690.713345
930.733699	2689.818540
931.037299	2690.773839
931.340861	2689.584126
931.644383	2691.008252
931.947866	2692.989426
932.251309	2688.500278
932.554714	2689.395083
932.858080	2692.387008
933.161407	2690.579754
933.464694	2688.908612
933.767943	2689.276616
934.071153	2685.959537
934.374323	2684.237983
934.677455	2685.084897
934.980548	2682.108095
935.283602	2681.276305
935.586617	2680.699093
935.889593	2679.940399
936.192530	2678.057528
936.495428	2682.105575
936.798287	2684.061542
937.101108	2688.374249
937.403890	2695.235260
937.706632	2704.110211
938.009336	2716.617314
938.312002	2726.845815
938.614628	2739.138669
938.917216	2748.880698
939.219765	2756.134919
939.522275	2765.055241
939.824747	2768.498349
940.127179	2764.258738
940.429573	2762.028028
940.731929	2768.876435
941.034246	2760.946700
941.336524	2763.689088
941.638763	2765.461053
941.940964	2764.304109
942.243126	2757.450660
942.545250	2753.453025
942.847335	2748.379104
943.149381	2740.532548
943.451389	2734.853688
943.753359	2732.938049
944.055290	2727.604509
944.357182	2722.666698
944.659036	2717.426419
944.960851	2716.277036
945.262628	2711.114894
945.564367	2710.497353
945.866067	2708.506097
946.167729	2710.129349
946.469352	2708.564071
946.770937	2706.129193
947.072484	2704.455530
947.373992	2704.805890
947.675462	2702.396219
947.976893	2699.616022
948.278286	2699.792463
948.579641	2699.467308
948.880958	2696.913964
949.182236	2698.978317
949.483476	2695.943542
949.784678	2694.874817
950.085841	2698.214582
950.386967	2695.424303
950.688054	2699.661393
950.989103	2701.793801
951.290114	2701.811445
951.591087	2707.467620
951.892021	2713.393496
952.192917	2715.324258
952.493776	2721.444219
952.794596	2723.652244
953.095378	2725.149467
953.396122	2728.063254
953.696828	2723.742985
953.997496	2722.215515
954.298126	2720.995556
954.598718	2717.433981
954.899272	2715.888867
955.199788	2709.615151
955.500266	2707.311344
955.800706	2698.229705
956.101108	2691.608150
956.401472	2684.487520
956.701798	2678.402847
957.002087	2673.853206
957.302337	2667.776095
957.602550	2664.915240
957.902724	2657.766884
958.202861	2650.248003
958.502960	2649.716161
958.803022	2645.857158
959.103045	2638.234933
959.403031	2636.392392
959.702979	2634.002885
960.002889	2632.803090
960.302762	2629.334776
960.602596	2625.750516
960.902393	2623.038375
961.202153	2623.338324
961.501875	2617.341871
961.801559	2616.830194
962.101205	2615.214504
962.400814	2617.084772
962.700385	2612.391458
962.999918	2613.477827
963.299414	2611.237034
963.598873	2610.374997
963.898293	2608.736622
964.197677	2609.696961
964.497022	2608.197218
964.796331	2607.642691
965.095601	2605.409460
965.394835	2607.564553
965.694030	2606.321909
965.993189	2605.298555
966.292309	2608.129162
966.591393	2604.968359
966.890439	2605.006168
967.189447	2606.054728
967.488419	2604.239912
967.787353	2609.157558
968.086249	2604.224789
968.385108	2609.938937
968.683930	2610.271653
968.982714	2605.026332
969.281462	2606.546240
969.580172	2609.954060
969.878844	2608.933227
970.177480	2610.748042
970.476078	2611.148814
970.774639	2611.254678
971.073162	2614.690224
971.371649	2612.789709
971.670098	2614.596963
971.968510	2616.668877
972.266885	2617.230966
972.565223	2618.314814
972.863524	2622.776235
973.161788	2623.161883
973.460014	2622.710700
973.758204	2626.559621
974.056356	2621.866307
974.354471	2622.718262
974.652550	2625.412758
974.950591	2623.418982
975.248595	2624.777573
975.546563	2622.680453
975.844493	2621.082407
976.142386	2624.767491
976.440243	2620.981584
976.738062	2617.712396
977.035845	2619.348250
977.333590	2618.382869
977.631299	2619.146604
977.928971	2617.223404
978.226606	2617.775410
978.524204	2614.339864
978.821765	2615.456480
979.119290	2614.385234
979.416777	2613.729884
979.714228	2613.629061
980.011642	2614.392796
980.309020	2615.403547
980.606360	2617.518312
980.903664	2622.370422
981.200931	2627.230094
981.498162	2632.672020
981.795356	2645.957981
982.092513	2661.240239
982.389633	2674.349759
982.686717	2695.358768
982.983764	2712.478527
983.280775	2725.991339
983.577749	2730.394787
983.874686	2733.432082
984.171587	2730.881259
984.468451	2722.059239
984.765279	2716.105637
985.062070	2710.767055
985.358824	2705.307485
985.655543	2692.371884
985.952224	2685.503312
986.248869	2672.187104
986.545478	2657.502223
986.842050	2644.039822
987.138586	2634.625467
987.435086	2623.736575
987.731549	2615.330451
988.027975	2614.145780
988.324366	2606.246292
988.620719	2605.719491
988.917037	2602.447782
989.213318	2601.358893
989.509563	2599.526433
989.805772	2597.736824
990.101944	2594.747420
990.398080	2597.764550
990.694180	2594.439909
990.990244	2595.420414
991.286271	2595.231370
991.582262	2597.005857
991.878217	2597.051227
992.174136	2595.720362
992.470019	2596.106011
992.765865	2597.409149
993.061676	2601.366455
993.357450	2602.067175
993.653188	2600.499376
993.948890	2605.021291
994.244556	2607.955243
994.540186	2610.155706
994.835780	2614.954885
995.131337	2624.281019
995.426859	2630.708491
995.722345	2638.169398
996.017795	2649.370842
996.313208	2657.194713
996.608586	2661.802327
996.903928	2668.043276
997.199234	2670.455468
997.494504	2672.161899
997.789738	2668.386074
998.084936	2665.333656
998.380099	2657.401400
998.675225	2653.607932
998.970316	2650.999135
999.265371	2642.134266
999.560390	2635.343832
999.855373	2628.127420
1000.150320	2621.062243
1000.445232	2618.743312
1000.740108	2613.026643
1001.034948	2608.033381
1001.329752	2603.657659
1001.624521	2603.249326
1001.919254	2594.938983
1002.213951	2594.717173
1002.508613	2593.935794
1002.803239	2590.139805
1003.097829	2589.171903
1003.392384	2590.260793
1003.686903	2590.071749
1003.981386	2591.178283
1004.275834	2587.946903
1004.570246	2590.291040
1004.864623	2584.629824
1005.158964	2585.413723
1005.453270	2586.779876
1005.747540	2584.324834
1006.041775	2585.194433
1006.335974	2582.315934
1006.630138	2583.692169
1006.924266	2585.814495
1007.218359	2584.743250
1007.512416	2584.118147
1007.806438	2582.711665
1008.100425	2584.778538
1008.394376	2586.709300
1008.688292	2582.414237
1008.982172	2581.224524
1009.276017	2582.194947
1009.569827	2581.317786
1009.863602	2582.109247
1010.157341	2583.815678
1010.451045	2584.770976
1010.744714	2582.305852
1011.038347	2582.610842
1011.331945	2579.235789
1011.625508	2583.432550
1011.919036	2581.506829
1012.212528	2582.837694
1012.505986	2579.182857
1012.799408	2583.553537
1013.092795	2579.833166
1013.386147	2580.480954
1013.679464	2582.152097
1013.972745	2582.938517
1014.265992	2581.456417
1014.559204	2581.403485
1014.852380	2580.475913
1015.145521	2581.332909
1015.438628	2580.662436
1015.731699	2583.442632
1016.024736	2581.950451
1016.317737	2582.842735
1016.610703	2583.261151
1016.903635	2578.847620
1017.196531	2580.082703
1017.489393	2578.605645
1017.782219	2579.392065
1018.075011	2579.813001
1018.367768	2580.919535
1018.660490	2581.703434
1018.953177	2581.703434
1019.245829	2581.703434
