Dividing Wavelength (nm)	Counts (n)	Blue Motor Position (mm): 22.000000	Red Motor Position (mm): 0.000000	
326.493990	2155.126037
326.888308	2155.126037
327.282561	2155.126037
327.676750	2134.696761
328.070874	2134.928654
328.464933	2137.739097
328.858929	2147.839049
329.252859	2159.700884
329.646726	2174.128666
330.040528	2186.741633
330.434265	2205.376258
330.827938	2224.136912
331.221547	2243.709192
331.615091	2262.542943
332.008571	2285.510440
332.401986	2304.825621
332.795338	2326.295895
333.188625	2347.912363
333.581847	2366.403315
333.975006	2383.371839
334.368100	2404.060734
334.761129	2423.159146
335.154095	2436.382092
335.546996	2463.669858
335.939833	2488.263127
336.332606	2500.868532
336.725315	2516.758249
337.117960	2522.545494
337.510540	2530.528161
337.903056	2539.405633
338.295508	2547.378217
338.687896	2551.615307
339.080220	2559.930691
339.472480	2566.153995
339.864676	2571.908472
340.256807	2574.003072
340.648875	2576.163206
341.040879	2577.821746
341.432818	2580.967426
341.824694	2577.816704
342.216506	2581.524473
342.608253	2580.707806
342.999937	2577.148752
343.391557	2578.028433
343.783113	2576.097671
344.174605	2572.911662
344.566033	2572.669686
344.957397	2574.068607
345.348697	2571.084243
345.739934	2567.573080
346.131106	2564.805486
346.522215	2565.859087
346.913260	2562.005125
347.304241	2561.586710
347.695159	2558.554456
348.086012	2559.295505
348.476802	2557.803324
348.867528	2555.045813
349.258191	2552.011038
349.648789	2555.527243
350.039324	2553.175544
350.429796	2554.670247
350.820203	2548.492313
351.210548	2549.813095
351.600828	2548.184802
351.991045	2547.544576
352.381198	2544.600542
352.771288	2548.416695
353.161314	2548.615821
353.551276	2545.573484
353.941175	2545.754966
354.331010	2547.975594
354.720782	2548.255378
355.110490	2547.030378
355.500135	2545.306303
355.889717	2549.455173
356.279235	2548.000800
356.668689	2550.342416
357.058080	2548.583053
357.447408	2545.581046
357.836672	2544.900490
358.225873	2545.760007
358.615010	2544.890408
359.004084	2551.612787
359.393095	2553.367108
359.782043	2550.617159
360.170927	2551.552293
360.559748	2551.413661
360.948505	2554.035061
361.337199	2557.397511
361.725830	2555.680998
362.114398	2556.137222
362.502903	2553.349464
362.891344	2554.705535
363.279722	2556.505227
363.668037	2554.009855
364.056289	2555.519681
364.444478	2558.773746
364.832603	2559.129147
365.220665	2556.545556
365.608665	2561.561504
365.996601	2559.504713
366.384474	2559.754250
366.772284	2559.867676
367.160031	2559.842470
367.547715	2560.999415
367.935336	2561.274158
368.322893	2561.354817
368.710388	2559.842470
369.097820	2562.834395
369.485189	2561.208623
369.872495	2559.401369
370.259738	2560.661658
370.646918	2562.751216
371.034035	2560.553273
371.421090	2561.755588
371.808081	2564.414797
372.195010	2564.581155
372.581875	2561.987481
372.968678	2561.082594
373.355418	2564.790363
373.742096	2565.259190
374.128710	2565.881773
374.515262	2565.380178
374.901751	2563.847667
375.288177	2567.842782
375.674540	2565.760785
376.060841	2565.140723
376.447079	2567.076526
376.833254	2567.862946
377.219367	2562.804148
377.605417	2564.538305
377.991404	2561.047306
378.377329	2562.244580
378.763191	2564.475291
379.148991	2566.814386
379.534727	2566.247256
379.920402	2566.451423
380.306013	2567.026115
380.691563	2569.813873
381.077049	2569.002247
381.462474	2568.603996
381.847835	2568.994685
382.233134	2570.509552
382.618371	2569.854202
383.003545	2568.412432
383.388657	2569.213975
383.773706	2572.092474
384.158693	2572.150447
384.543618	2570.648184
384.928480	2572.052145
385.313280	2570.988462
385.698017	2571.106929
386.082692	2574.363514
386.467305	2571.734552
386.851856	2570.796898
387.236344	2572.881415
387.620770	2572.520972
388.005133	2570.852350
388.389435	2573.272104
388.773674	2574.033318
389.157851	2570.108780
389.541965	2574.229923
389.926018	2573.256981
390.310008	2573.209090
390.693936	2574.996179
391.077802	2573.327557
391.461606	2576.556416
391.845348	2576.987435
392.229027	2574.970973
392.612645	2575.033987
392.996200	2575.764955
393.379694	2575.102043
393.763125	2577.438618
394.146494	2575.485171
394.529801	2577.791499
394.913047	2575.777558
395.296230	2578.824935
395.679351	2574.970973
396.062410	2579.024061
396.445408	2577.360480
396.828343	2579.127404
397.211217	2572.919223
397.594028	2573.380489
397.976778	2573.957701
398.359466	2576.543813
398.742092	2574.098853
399.124656	2577.027764
399.507158	2578.535069
399.889598	2576.745459
400.271977	2579.215625
400.654294	2582.925914
401.036549	2579.008937
401.418742	2581.088413
401.800874	2579.603793
402.182944	2578.494740
402.564952	2578.547672
402.946898	2581.038002
403.328783	2582.227714
403.710606	2583.931624
404.092367	2579.061869
404.474067	2583.460276
404.855705	2582.822570
405.237282	2580.196129
405.618797	2581.065728
406.000250	2584.692838
406.381642	2584.783579
406.762972	2584.443301
407.144240	2584.491192
407.525447	2586.313569
407.906593	2585.335585
408.287677	2583.112437
408.668700	2584.029927
409.049661	2583.001531
409.430560	2585.607808
409.811399	2586.467324
410.192176	2585.300297
410.572891	2587.946903
410.953545	2585.189392
411.334138	2583.230904
411.714669	2584.859196
412.095139	2584.453383
412.475547	2583.777869
412.855894	2584.924731
413.236180	2584.055132
413.616405	2588.466142
413.996568	2585.834660
414.376670	2585.688466
414.756711	2585.194433
415.136691	2586.404310
415.516609	2586.298446
415.896466	2585.413723
416.276262	2589.650813
416.655997	2584.672674
417.035670	2580.183526
417.415283	2587.407500
417.794834	2579.946592
418.174324	2583.372056
418.553753	2584.841552
418.933121	2585.431367
419.312428	2586.956316
419.691674	2586.668971
420.070859	2587.818354
420.449983	2586.631162
420.829045	2586.265678
421.208047	2589.106368
421.586988	2587.110072
421.965867	2589.015628
422.344686	2589.219794
422.723444	2587.347006
423.102141	2590.936307
423.480777	2591.001842
423.859352	2590.094435
424.237866	2590.137284
424.616319	2589.025710
424.994712	2592.456215
425.373044	2590.107037
425.751314	2592.403283
426.129524	2590.273396
426.507673	2592.320104
426.885762	2592.937645
427.263789	2591.425299
427.641756	2589.998653
428.019662	2591.800865
428.397508	2593.741709
428.775292	2594.991916
429.153016	2592.362954
429.530679	2593.555187
429.908282	2593.986205
430.285824	2592.657861
430.663305	2592.431009
431.040726	2592.287337
431.418086	2591.798345
431.795385	2594.875969
432.172624	2595.518716
432.549802	2592.425968
432.926920	2593.865218
433.303977	2593.439240
433.680974	2592.181472
434.057910	2594.757502
434.434786	2594.389498
434.811601	2596.637852
435.188355	2595.337235
435.565050	2594.165166
435.941683	2595.954776
436.318257	2592.975454
436.694770	2590.091914
437.071222	2591.402614
437.447614	2593.998808
437.823946	2591.435382
438.200218	2593.761874
438.576429	2595.077615
438.952580	2593.466967
439.328670	2593.250197
439.704700	2596.116093
440.080670	2597.116762
440.456580	2596.325301
440.832429	2597.789756
441.208218	2598.611464
441.583947	2596.378233
441.959616	2596.504262
442.335224	2598.069540
442.710773	2599.428131
443.086261	2598.155240
443.461689	2598.523244
443.837057	2601.207658
444.212365	2596.292533
444.587612	2598.268666
444.962800	2600.106166
445.337927	2598.553491
445.712995	2599.123141
446.088002	2598.117431
446.462949	2597.439396
446.837837	2600.983327
447.212664	2598.276227
447.587431	2600.794284
447.962139	2599.355034
448.336786	2602.566249
448.711374	2601.991558
449.085901	2602.500714
449.460369	2602.624222
449.834776	2601.152206
450.209124	2599.985178
450.583412	2603.440889
450.957640	2602.858636
451.331808	2600.426279
451.705917	2603.014912
452.079965	2603.725715
452.453954	2602.997268
452.827883	2604.721342
453.201752	2601.913420
453.575562	2605.462392
453.949311	2604.181939
454.323001	2603.445931
454.696632	2607.617485
455.070202	2606.483226
455.443713	2606.667228
455.817164	2604.101281
456.190556	2601.411825
456.563888	2606.634460
456.937160	2606.773092
457.310373	2606.992382
457.683526	2603.566918
458.056619	2608.603031
458.429653	2608.015737
458.802628	2608.131683
459.175542	2608.018257
459.548398	2610.589246
459.921194	2609.833072
460.293930	2610.087651
460.666607	2610.067486
461.039224	2611.637806
461.411782	2613.472786
461.784280	2614.685183
462.156719	2613.747528
462.529099	2613.586212
462.901419	2613.427415
463.273680	2614.496140
463.645882	2614.740636
464.018024	2614.395317
464.390106	2614.160903
464.762130	2614.521346
465.134094	2619.600308
465.505999	2621.778087
465.877845	2624.154991
466.249631	2628.704632
466.621358	2627.903088
466.993026	2629.816206
467.364634	2630.136320
467.736184	2626.857049
468.107674	2625.294291
468.479105	2626.352934
468.850477	2626.337810
469.221790	2625.301853
469.593043	2625.828654
469.964238	2629.249077
470.335373	2629.463326
470.706449	2631.111783
471.077467	2630.300157
471.448425	2637.740900
471.819324	2642.275418
472.190164	2644.493526
472.560945	2641.078144
472.931667	2638.512197
473.302330	2642.207362
473.672934	2638.918010
474.043479	2646.872950
474.413965	2646.757004
474.784393	2644.065028
475.154761	2648.607107
475.525070	2653.144146
475.895321	2651.286481
476.265513	2655.064825
476.635645	2663.002122
477.005719	2667.022442
477.375734	2673.759944
477.745691	2678.319668
478.115588	2682.904598
478.485427	2692.266020
478.855207	2706.494677
479.224928	2720.632593
479.594591	2730.712380
479.964194	2734.430231
480.333739	2741.119842
480.703226	2748.618558
481.072653	2761.133223
481.442022	2771.507917
481.811333	2784.932510
482.180584	2791.289405
482.549777	2798.639407
482.918912	2807.554688
483.287988	2819.492140
483.657005	2825.329797
484.025964	2837.007629
484.394864	2846.250585
484.763706	2861.023686
485.132489	2867.178935
485.501213	2882.504043
485.869879	2897.748492
486.238487	2909.373393
486.607036	2929.006167
486.975527	2941.099895
487.343959	2961.491362
487.712333	2980.277222
488.080648	2999.771364
488.448905	3024.707431
488.817104	3040.834082
489.185244	3075.527303
489.553326	3110.911162
489.921350	3171.558763
490.289315	3245.378900
490.657222	3297.343113
491.025070	3337.488342
491.392861	3360.380222
491.760593	3372.388250
492.128267	3379.420660
492.495883	3379.700444
492.863440	3391.600088
493.230939	3400.091911
493.598380	3408.820669
493.965763	3436.357972
494.333088	3455.307669
494.700354	3479.880774
495.067563	3510.646936
495.434713	3541.740773
495.801805	3581.701999
496.168839	3613.683079
496.535815	3647.219355
496.902733	3689.139070
497.269593	3722.400603
497.636395	3760.247065
498.003139	3812.244047
498.369825	3847.272504
498.736453	3899.256883
499.103023	3930.249897
499.469535	3975.285044
499.835989	4023.952344
500.202385	4063.724527
500.568723	4112.348976
500.935003	4173.304088
501.301226	4211.705078
501.667390	4294.349754
502.033497	4366.408007
502.399546	4392.740474
502.765537	4423.602418
503.131470	4499.297863
503.497345	4570.151281
503.863163	4572.976847
504.228923	4658.192512
504.594625	4738.369543
504.960269	4768.921456
505.325856	4863.327144
505.691385	4888.306062
506.056856	4967.064008
506.422270	5050.164909
506.787625	5093.612093
507.152924	5160.762783
507.518164	5243.402418
507.883347	5261.348926
508.248472	5344.142316
508.613540	5439.752840
508.978550	5528.444380
509.343503	5586.770530
509.708398	5664.558054
510.073236	5780.002998
510.438016	5848.744172
510.802738	5884.506117
511.167403	6002.290156
511.532010	6089.696202
511.896561	6197.513880
512.261053	6341.416137
512.625488	6377.644389
512.989866	6440.689059
513.354186	6501.999572
513.718449	6575.698721
514.082655	6709.962292
514.446803	6761.187977
514.810894	6882.016873
515.174927	6949.283509
515.538904	7012.668457
515.902822	7169.344998
516.266684	7177.284815
516.630488	7301.125801
516.994235	7366.340687
517.357925	7499.475040
517.721558	7599.811645
518.085133	7713.837504
518.448651	7802.082902
518.812112	7857.341510
519.175516	7932.817666
519.538863	8055.194196
519.902152	8131.802090
520.265385	8268.099767
520.628560	8350.497426
520.991678	8385.309114
521.354739	8497.638625
521.717743	8620.335268
522.080690	8672.836365
522.443580	8819.203746
522.806413	8910.751100
523.169189	8980.132501
523.531908	9082.069673
523.894569	9130.797466
524.257174	9205.383857
524.619722	9355.884985
524.982213	9405.575638
525.344647	9463.984967
525.707025	9537.467346
526.069345	9675.194190
526.431608	9726.666891
526.793815	9850.402012
527.155964	9839.316515
527.518057	9919.251571
527.880093	9956.283887
528.242072	10098.005845
528.603995	10108.877094
528.965860	10167.062091
529.327669	10260.673798
529.689421	10281.428228
530.051117	10350.522283
530.412755	10432.829202
530.774337	10492.224076
531.135862	10520.295741
531.497331	10616.256625
531.858743	10639.516509
532.220098	10758.313820
532.581396	10753.355845
532.942638	10747.593807
533.303824	10850.186328
533.664953	10884.708150
534.026025	10897.167362
534.387040	11029.285922
534.747999	11050.098325
535.108902	11125.496343
535.469748	11084.995713
535.830537	11146.160033
536.191270	11223.057793
536.551947	11207.611698
536.912567	11295.090841
537.273131	11362.160872
537.633638	11300.741974
537.994089	11389.909903
538.354483	11351.524037
538.714821	11494.178609
539.075103	11601.482089
539.435328	11579.409397
539.795497	11593.670821
540.155609	11622.899431
540.515665	11747.088256
540.875665	11654.018474
541.235609	11768.213211
541.595496	11769.425609
541.955328	11947.108638
542.315102	11851.417456
542.674821	11820.547950
543.034483	11856.990451
543.394090	11894.194167
543.753640	11898.572409
544.113134	12132.696196
544.472571	11955.313116
544.831953	12214.161242
545.191278	12080.210223
545.550548	12036.838656
545.909761	12161.718119
546.268918	12216.979247
546.628019	12303.523256
546.987064	12230.182029
547.346053	12113.499482
547.704986	12302.492340
548.063863	12224.336811
548.422684	12282.115996
548.781449	12262.536155
549.140158	12365.655477
549.498811	12332.598111
549.857408	12231.822925
550.215949	12430.935899
550.574434	12415.383939
550.932864	12381.983774
551.291237	12579.203795
551.649555	12489.556956
552.007817	12548.102397
552.366022	12489.105773
552.724173	12531.922813
553.082267	12642.278712
553.440305	12735.381262
553.798288	12581.953745
554.156215	12666.899708
554.514086	12717.321328
554.871902	12672.250892
555.229661	12699.205942
555.587365	12669.001869
555.945014	12687.734796
556.302606	12677.836491
556.660143	12742.539700
557.017625	12785.218109
557.375050	12747.520360
557.732421	12858.624871
558.089735	12867.441849
558.446994	12848.323273
558.804197	12964.930202
559.161345	12967.367600
559.518437	12778.168055
559.875474	12892.607289
560.232455	12925.420159
560.589381	12981.213129
560.946251	12924.316146
561.303065	13093.459461
561.659825	13051.317935
562.016528	12970.173002
562.373177	12921.084767
562.729770	13050.619735
563.086307	12929.816045
563.442789	13042.503478
563.799216	13086.273296
564.155587	13027.586703
564.511904	13050.783573
564.868164	13074.048498
565.224370	13134.595276
565.580520	13071.492633
565.936615	13147.336793
566.292654	13081.375815
566.648638	13155.705108
567.004567	13159.569152
567.360441	13158.306343
567.716260	13133.140903
568.072023	13221.751785
568.427732	13210.300804
568.783385	13105.835493
569.138982	13219.521074
569.494525	13214.535373
569.850013	13167.193897
570.205445	13152.690498
570.560823	13175.894929
570.916145	13123.839974
571.271412	13140.495947
571.626625	13097.757044
571.981782	13096.874842
572.336884	13046.549004
572.691931	13139.707006
573.046923	13026.230633
573.401860	13012.579188
573.756743	13003.963857
574.111570	13032.542158
574.466342	13009.166327
574.821059	13057.286661
575.175722	12939.626131
575.530330	12951.344293
575.884882	12892.191393
576.239380	12884.054971
576.593823	12868.258516
576.948211	12869.423022
577.302544	12749.083118
577.656823	12768.196653
578.011047	12831.652177
578.365216	12770.548351
578.719330	12712.998539
579.073389	12682.887727
579.427394	12696.120756
579.781344	12685.715814
580.135239	12615.119496
580.489080	12641.441881
580.842866	12510.044206
581.196597	12608.906274
581.550273	12594.687699
581.903895	12566.361456
582.257463	12677.685256
582.610975	12521.578366
582.964434	12581.941142
583.317837	12503.624296
583.671186	12457.545629
584.024481	12505.174451
584.377721	12403.771641
584.730906	12472.079276
585.084037	12487.946308
585.437113	12400.396589
585.790135	12432.793564
586.143103	12339.217146
586.496016	12355.381606
586.848874	12367.084644
587.201679	12363.379396
587.554428	12242.079152
587.907124	12285.730503
588.259765	12231.399468
588.612352	12299.313892
588.964884	12161.282059
589.317362	12211.340717
589.669786	12201.273532
590.022155	12161.120742
590.374470	12261.787543
590.726731	12151.103969
591.078937	12039.369315
591.431090	12052.158722
591.783188	11989.628250
592.135232	11909.410889
592.487222	11968.586474
592.839157	11983.646921
593.191038	11922.850606
593.542866	11864.214425
593.894639	11723.546068
594.246358	11786.789863
594.598022	11786.754575
594.949633	11700.351719
595.301190	11685.407218
595.652692	11633.722788
596.004141	11720.438196
596.355535	11507.777121
596.706876	11489.311375
597.058162	11458.915738
597.409395	11555.070706
597.760573	11580.720097
598.111698	11478.707308
598.462768	11469.461832
598.813785	11486.518576
599.164748	11359.506704
599.515657	11434.866913
599.866511	11314.327884
600.217312	11447.734458
600.568060	11211.599251
600.918753	11372.661595
601.269392	11363.466531
601.619978	11278.444951
601.970510	11314.209417
602.320988	11358.443021
602.671412	11420.628174
603.021783	11351.403050
603.372100	11274.996801
603.722363	11300.636110
604.072572	11292.381220
604.422728	11306.786317
604.772830	11247.991340
605.122878	11255.053997
605.472872	11230.639689
605.822813	11285.545416
606.172701	11254.002916
606.522534	11293.114708
606.872314	11346.329128
607.222041	11282.472832
607.571714	11346.356855
607.921333	11214.941536
608.270899	11267.785431
608.620411	11328.554020
608.969870	11274.419589
609.319276	11259.548185
609.668627	11270.205185
610.017926	11359.526869
610.367171	11392.218752
610.716362	11378.211906
611.065500	11358.122908
611.414585	11371.055988
611.763616	11433.054618
612.112594	11395.714792
612.461518	11423.778895
612.810389	11467.165586
613.159207	11410.767677
613.507971	11410.336659
613.856682	11505.221256
614.205340	11464.103085
614.553945	11596.617376
614.902496	11478.019190
615.250994	11541.240301
615.599439	11529.643126
615.947830	11563.038250
616.296169	11531.208404
616.644454	11547.511496
616.992686	11554.506097
617.340864	11651.868422
617.688990	11538.467666
618.037063	11665.565237
618.385082	11642.106227
618.733048	11686.475943
619.080961	11661.151707
619.428821	11647.046558
619.776628	11652.954790
620.124382	11612.078594
620.472083	11628.618620
620.819731	11641.218984
621.167326	11569.657285
621.514868	11555.952908
621.862357	11454.252670
622.209793	11453.904831
622.557176	11367.040709
622.904506	11311.424179
623.251783	11232.625903
623.599007	11167.637868
623.946179	11120.034253
624.293297	11098.062384
624.640363	10954.087030
624.987376	10950.258273
625.334336	10886.870805
625.681243	10800.619183
626.028097	10771.793866
626.374899	10738.499565
626.721647	10711.627694
627.068343	10671.815182
627.414987	10600.414799
627.761577	10532.117247
628.108115	10583.622716
628.454600	10461.790630
628.801032	10468.646600
629.147412	10454.498601
629.493739	10424.965002
629.840014	10346.935502
630.186236	10394.526515
630.532405	10293.640423
630.878521	10330.914715
631.224585	10288.011975
631.570597	10205.485766
631.916556	10210.514317
632.262462	10198.750784
632.608316	10182.959370
632.954117	10163.951699
633.299866	10140.396908
633.645562	10112.108473
633.991206	10015.139358
634.336797	9916.065562
634.682336	9914.752341
635.027823	9853.698927
635.373257	9814.264501
635.718639	9746.801260
636.063968	9720.299914
636.409245	9591.800903
636.754470	9589.514739
637.099642	9539.093118
637.444762	9437.017315
637.789829	9447.558368
638.134845	9368.800421
638.479808	9345.265794
638.824719	9319.828132
639.169577	9232.091890
639.514383	9228.908402
639.859137	9155.458790
640.203839	9195.576293
640.548489	9110.900031
640.893086	9117.025033
641.237632	9054.988594
641.582125	9061.037979
641.926566	9050.383500
642.270955	9036.147282
642.615292	9023.375518
642.959576	9005.497066
643.303809	8990.580292
643.647990	9019.995425
643.992118	8992.367381
644.336195	8959.075601
644.680219	8959.877144
645.024192	8994.935849
645.368112	9070.792611
645.711981	9049.503819
646.055797	9190.283081
646.399562	9149.515270
646.743274	9303.824989
647.086935	9371.699084
647.430544	9348.963481
647.774101	9377.017502
648.117606	9393.318073
648.461059	9460.667888
648.804460	9391.054595
649.147810	9273.026060
649.491108	9243.164785
649.834354	9173.964866
650.177548	9033.939256
650.520690	8948.138818
650.863781	8932.692722
651.206820	8909.949557
651.549807	8819.854055
651.892742	8735.460099
652.235626	8692.005352
652.578458	8650.945154
652.921238	8542.199904
653.263967	8585.871420
653.606644	8516.674022
653.949269	8502.536106
654.291843	8418.404289
654.634365	8486.419537
654.976836	8412.753156
655.319255	8403.996672
655.661622	8395.968634
656.003938	8357.625618
656.346203	8318.138260
656.688416	8345.388217
657.030577	8298.301319
657.372687	8262.201617
657.714746	8290.797562
658.056753	8310.662229
658.398708	8214.527425
658.740612	8204.016619
659.082465	8247.940193
659.424266	8210.408802
659.766016	8222.812561
660.107715	8190.377777
660.449362	8223.994712
660.790958	8209.889563
661.132503	8210.320582
661.473996	8208.904018
661.815438	8222.000935
662.156829	8251.479083
662.498168	8201.811114
662.839456	8193.578910
663.180693	8214.658495
663.521879	8235.740600
663.863013	8225.527222
664.204097	8215.384421
664.545129	8285.090976
664.886110	8278.784492
665.227040	8277.826673
665.567918	8299.710322
665.908746	8306.455386
666.249522	8324.011204
666.590248	8320.484917
666.930922	8331.943460
667.271545	8320.754619
667.612118	8343.515428
667.952639	8310.775655
668.293109	8309.795150
668.633528	8295.712687
668.973896	8276.916745
669.314213	8272.697299
669.654480	8239.188749
669.994695	8228.191472
670.334859	8213.884678
670.674973	8195.232408
671.015035	8214.971046
671.355047	8208.115077
671.695008	8186.924587
672.034918	8165.935743
672.374777	8174.535951
672.714585	8148.957137
673.054342	8178.052156
673.394049	8142.804408
673.733705	8185.107251
674.073310	8130.614898
674.412864	8146.202146
674.752368	8078.297804
675.091820	8129.987275
675.431223	8064.439672
675.770574	8009.294490
676.109875	7984.902867
676.449125	7937.047194
676.788324	7933.107532
677.127473	7843.669901
677.466571	7835.730084
677.805619	7772.483768
678.144616	7773.103829
678.483562	7746.521825
678.822458	7706.979014
679.161303	7689.917229
679.500098	7670.947367
679.838842	7648.509192
680.177535	7655.922208
680.516179	7687.575613
680.854771	7703.697223
681.193314	7827.278589
681.531805	7980.635530
681.870247	8107.380220
682.208638	8262.297399
682.546978	8331.961104
682.885268	8360.940177
683.223508	8295.163201
683.561697	8236.312771
683.899836	8204.888739
684.237925	8122.186089
684.575963	8083.318793
684.913951	8012.757763
685.251889	8033.494549
685.589776	8024.634721
685.927614	8012.299018
686.265401	8031.284003
686.603137	8028.745782
686.940824	8103.869057
687.278460	8160.768560
687.616046	8163.440372
687.953582	8273.942464
688.291068	8256.041327
688.628504	8313.984349
688.965889	8315.048033
689.303224	8279.149976
689.640510	8234.863439
689.977745	8126.564331
690.314930	8009.128132
690.652065	7935.454189
690.989150	7822.365985
691.326185	7673.147831
691.663170	7564.694968
692.000105	7438.635875
692.336990	7322.601116
692.673825	7246.711586
693.010610	7155.358317
693.347345	7054.358799
693.684030	6954.491021
694.020665	6904.966726
694.357251	6783.842922
694.693786	6776.336644
695.030272	6735.178143
695.366707	6641.715151
695.703093	6588.621719
696.039429	6586.832109
696.375716	6543.190840
696.711952	6529.882194
697.048139	6501.999572
697.384276	6470.446990
697.720363	6489.137068
698.056400	6465.017668
698.392388	6428.106339
698.728326	6430.397544
699.064214	6399.444859
699.400053	6399.107102
699.735842	6337.163924
700.071581	6289.653569
700.407270	6249.357106
700.742910	6218.598506
701.078501	6176.996384
701.414042	6134.325537
701.749533	6078.893009
702.084974	6019.167939
702.420366	6057.952056
702.755709	5989.972097
703.091002	5943.573317
703.426246	5945.925015
703.761440	5932.318941
704.096584	5882.552670
704.431679	5876.669643
704.766725	5857.019226
705.101721	5844.323080
705.436668	5857.972004
705.771565	5805.261699
706.106413	5862.418302
706.441212	5853.719791
706.775961	5873.173603
707.110661	5883.291199
707.445311	5942.451660
707.779913	5909.444705
708.114465	5953.479184
708.448967	5996.646584
708.783421	6106.437874
709.117825	6150.227857
709.452180	6184.860584
709.786485	6237.495271
710.120742	6368.232555
710.454949	6377.420058
710.789107	6451.726666
711.123216	6575.300470
711.457275	6607.447908
711.791286	6719.333797
712.125247	6737.774338
712.459159	6700.280756
712.793023	6829.548543
713.126837	6660.649725
713.460602	6721.347738
713.794318	6674.520460
714.127985	6627.390713
714.461602	6476.730789
714.795171	6482.800338
715.128691	6318.274720
715.462162	6224.393312
715.795584	6154.913609
716.128957	6111.864676
716.462281	6048.162136
716.795556	6009.123440
717.128782	5923.323002
717.461960	5826.358928
717.795088	5815.069264
718.128167	5742.184262
718.461198	5665.699876
718.794180	5643.990147
719.127113	5581.265590
719.459997	5546.668151
719.792833	5479.794725
720.125619	5478.715918
720.458357	5417.959932
720.791046	5390.576384
721.123686	5363.366756
721.456278	5319.685158
721.788821	5308.521523
722.121315	5265.848155
722.453761	5274.713024
722.786158	5264.212301
723.118506	5262.026961
723.450805	5239.432509
723.783056	5266.102734
724.115259	5246.994240
724.447412	5235.291201
724.779518	5282.763747
725.111574	5284.606289
725.443582	5325.061548
725.775542	5309.481863
726.107453	5399.930245
726.439315	5362.648392
726.771129	5435.034320
727.102895	5503.901522
727.434612	5550.252411
727.766281	5573.613118
728.097901	5625.594976
728.429473	5640.559641
728.760996	5649.936187
729.092471	5670.879661
729.423897	5661.268701
729.755276	5635.682325
730.086606	5650.657072
730.417887	5734.156224
730.749120	5827.969577
731.080305	5870.463983
731.411442	5947.341579
731.742530	5961.953364
732.073570	5993.211038
732.404562	6053.437703
732.735506	6047.723555
733.066401	6028.257140
733.397249	5957.607889
733.728048	5866.531883
734.058798	5719.277259
734.389501	5593.248412
734.720156	5506.056616
735.050762	5402.914608
735.381320	5328.817208
735.711831	5268.671202
736.042293	5190.462741
736.372707	5189.530127
736.703073	5144.946163
737.033391	5173.990771
737.363661	5158.418646
737.693883	5169.514226
738.024056	5196.575140
738.354182	5223.363831
738.684260	5271.801758
739.014290	5310.285927
739.344272	5342.508982
739.674207	5397.558382
740.004093	5434.928455
740.333931	5432.589360
740.663722	5454.853616
740.993464	5469.326769
741.323159	5445.895486
741.652806	5407.005504
741.982405	5372.098034
742.311956	5321.774716
742.641460	5309.895237
742.970915	5258.475468
743.300323	5194.851065
743.629683	5162.161703
743.958996	5112.183704
744.288260	5062.435077
744.617477	5000.630531
744.946647	4988.864478
745.275768	4932.365746
745.604842	4899.542793
745.933869	4866.803020
746.262847	4859.740363
746.591778	4850.746945
746.920662	4826.909849
747.249498	4819.630423
747.578286	4838.827137
747.907027	4859.256412
748.235720	4902.781735
748.564365	4913.090894
748.892963	4897.836363
749.221514	4913.975617
749.550017	4890.748501
749.878473	4889.276484
750.206881	4852.796174
750.535242	4836.813196
750.863555	4823.368438
751.191821	4802.684584
751.520039	4810.223630
751.848210	4788.997851
752.176334	4795.808450
752.504411	4774.050830
752.832440	4747.216768
753.160421	4755.905197
753.488356	4736.025407
753.816243	4717.625195
754.144082	4686.249054
754.471875	4676.812014
754.799620	4666.507895
755.127318	4655.175381
755.454969	4654.197397
755.782572	4650.466944
756.110129	4654.663704
756.437638	4636.805417
756.765100	4631.993635
757.092515	4629.195795
757.419882	4637.034789
757.747203	4632.860714
758.074477	4644.616685
758.401703	4637.682578
758.728882	4666.528060
759.056014	4679.118342
759.383099	4698.607442
759.710138	4726.235486
760.037129	4749.644084
760.364073	4765.017082
760.690970	4757.689765
761.017820	4759.595322
761.344623	4795.823574
761.671379	4852.251729
761.998088	4948.825113
762.324751	5174.199978
762.651366	5631.034381
762.977935	6320.563404
763.304456	6880.058384
763.630931	7176.707603
763.957359	7109.415761
764.283740	6816.456667
764.610074	6496.613099
764.936362	6097.598211
765.262602	5783.584738
765.588796	5440.375422
765.914943	5183.266494
766.241044	4964.608966
766.567097	4792.390548
766.893104	4642.186848
767.219064	4548.839803
767.544978	4453.594762
767.870845	4368.399263
768.196665	4320.415040
768.522438	4270.547946
768.848165	4229.457501
769.173846	4191.860575
769.499479	4163.970392
769.825066	4131.638952
770.150607	4083.163216
770.476101	4069.292481
770.801548	4050.022671
771.126949	4021.275491
771.452303	4001.937625
771.777611	3963.554279
772.102872	3960.489258
772.428087	3936.919343
772.753256	3906.385074
773.078378	3887.760531
773.403453	3858.322713
773.728482	3835.834126
774.053465	3818.404337
774.378401	3799.704177
774.703291	3780.673821
775.028135	3754.900922
775.352932	3744.866505
775.677683	3723.529821
776.002388	3705.381668
776.327046	3708.812173
776.651658	3689.441539
776.976224	3669.385308
777.300743	3664.394566
777.625216	3651.524500
777.949643	3641.976555
778.274024	3642.558808
778.598359	3625.713793
778.922647	3626.422075
779.246889	3619.155252
779.571086	3617.756331
779.895236	3615.447483
780.219339	3614.376238
780.543397	3616.841362
780.867409	3627.962147
781.191374	3633.341058
781.515294	3626.510295
781.839167	3640.212151
782.162995	3637.515134
782.486776	3628.940131
782.810511	3624.234214
783.134201	3605.367696
783.457844	3607.626133
783.781441	3602.327880
784.104993	3592.353957
784.428498	3587.804316
784.751958	3582.690065
785.075372	3578.367276
785.398739	3566.835636
785.722061	3574.142789
786.045337	3570.102304
786.368568	3601.730503
786.691752	3593.745316
787.014891	3638.553612
787.337983	3683.233358
787.661030	3777.233233
787.984031	3870.353427
788.306987	3945.186835
788.629897	3994.665760
788.952760	4000.004342
789.275579	3988.823063
789.598351	3935.911112
789.921078	3883.949419
790.243759	3820.725788
790.566395	3777.366824
790.888984	3725.853793
791.211529	3689.562527
791.534027	3649.134993
791.856480	3607.109414
792.178888	3591.658278
792.501249	3570.702201
792.823566	3542.007954
793.145836	3537.445709
793.468062	3524.673946
793.790241	3510.808253
794.112375	3516.126670
794.434464	3535.232643
794.756507	3533.233825
795.078505	3554.757032
795.400457	3592.109461
795.722364	3643.980414
796.044226	3690.601004
796.366042	3730.988208
796.687812	3729.934607
797.009538	3757.068618
797.331218	3745.143768
797.652852	3736.982140
797.974442	3715.048080
798.295986	3705.795042
798.617484	3672.359589
798.938938	3652.321003
799.260346	3638.094867
799.581709	3602.733693
799.903026	3591.262547
800.224299	3570.266142
800.545526	3542.446534
800.866708	3524.326107
801.187845	3511.345135
801.508936	3487.311434
801.829983	3480.152996
802.150984	3449.742235
802.471940	3441.169753
802.792851	3434.006274
803.113717	3427.606529
803.434538	3416.752925
803.755314	3409.823859
804.076045	3402.788928
804.396731	3393.230901
804.717372	3395.186868
805.037967	3392.109244
805.358518	3396.434554
805.679024	3407.220103
805.999485	3403.620719
806.319901	3408.195566
806.640272	3412.173036
806.960598	3423.160231
807.280879	3422.504881
807.601115	3435.193465
807.921306	3423.583688
808.241453	3428.962599
808.561554	3434.376798
808.881611	3429.756581
809.201623	3431.432765
809.521590	3422.323400
809.841513	3422.494799
810.161390	3432.254473
810.481223	3410.227151
810.801011	3406.862181
811.120755	3406.398395
811.440453	3392.126888
811.760107	3388.076321
812.079716	3378.024260
812.399281	3367.407590
812.718801	3368.710728
813.038276	3361.262424
813.357707	3356.264120
813.677093	3362.411807
813.996434	3345.854137
814.315731	3353.302442
814.634983	3352.984849
814.954191	3355.906198
815.273354	3371.266593
815.592473	3382.740260
815.911547	3401.248856
816.230577	3415.225455
816.549562	3441.449537
816.868502	3457.553503
817.187399	3477.594610
817.506250	3504.668127
817.825058	3517.162627
818.143821	3557.648133
818.462539	3605.445834
818.781213	3657.465500
819.099843	3743.492791
819.418429	3896.335534
819.736970	4045.452865
820.055466	4230.425402
820.373919	4467.462977
820.692327	4802.437567
821.010691	5315.742976
821.329011	6389.412963
821.647286	8116.797096
821.965517	10280.535944
822.283704	11895.260371
822.601847	12958.323770
822.919945	12544.192982
823.237999	11871.403110
823.556010	10981.513427
823.873976	10029.935145
824.191897	9071.021984
824.509775	8313.767579
824.827609	7508.574323
825.145398	6965.579039
825.463144	6587.497542
825.780845	6459.207738
826.098502	6518.864753
826.416116	6903.713999
826.733685	7402.919300
827.051210	7681.435488
827.368692	7588.983247
827.686129	7149.440002
828.003522	6604.574450
828.320872	6036.927924
828.638177	5585.086784
828.955439	5219.386361
829.272656	4881.994537
829.589830	4599.153039
829.906960	4337.517154
830.224046	4130.103920
830.541088	3962.924135
830.858086	3846.786033
831.175041	3750.663832
831.491952	3705.522820
831.808819	3689.008000
832.125642	3728.024010
832.442421	3824.831808
832.759157	4042.728121
833.075849	4418.347015
833.392497	4879.720977
833.709101	5268.346047
834.025662	5367.482858
834.342179	5240.430658
834.658653	4976.536336
834.975083	4705.150860
835.291469	4467.606650
835.607811	4242.279676
835.924110	4080.320005
836.240366	3926.479113
836.556578	3761.769494
836.872746	3631.974906
837.188871	3514.750435
837.504952	3424.793565
837.820990	3347.744570
838.136984	3294.532670
838.452935	3264.212650
838.768842	3252.103799
839.084706	3282.486833
839.400526	3421.224428
839.716303	3644.383706
840.032037	3851.701158
840.347727	3919.252619
840.663373	3829.126871
840.978977	3680.160775
841.294537	3546.829817
841.610054	3443.508849
841.925527	3366.018752
842.240957	3301.648259
842.556344	3237.915471
842.871687	3178.568488
843.186987	3118.936679
843.502244	3069.969431
843.817458	3028.392515
844.132629	2994.624346
844.447756	2974.784885
844.762840	2950.788992
845.077881	2935.383226
845.392879	2924.101124
845.707833	2909.118815
846.022745	2895.888306
846.337613	2899.318812
846.652438	2887.681308
846.967221	2882.877088
847.281960	2874.856613
847.596656	2871.219420
847.911309	2866.737834
848.225919	2859.637369
848.540485	2853.429188
848.855009	2853.189733
849.169490	2848.589680
849.483928	2847.798219
849.798323	2843.810667
850.112675	2843.089782
850.426984	2840.861592
850.741251	2836.380006
851.055474	2836.402691
851.369654	2836.594255
851.683792	2834.671055
851.997887	2836.513596
852.311938	2836.158195
852.625947	2835.790191
852.939914	2833.670386
853.253837	2838.900583
853.567718	2836.120386
853.881555	2835.754903
854.195350	2834.502176
854.509103	2836.836230
854.822812	2833.312464
855.136479	2832.331959
855.450103	2834.529902
855.763685	2828.407421
856.077224	2833.998061
856.390720	2831.898420
856.704173	2835.364213
857.017584	2836.788339
857.330953	2839.223217
857.644278	2840.922085
857.957561	2846.338805
858.270802	2843.687158
858.584000	2846.865606
858.897155	2844.098012
859.210268	2840.002075
859.523339	2836.561487
859.836367	2840.685151
860.149352	2839.334122
860.462295	2836.906806
860.775195	2831.764829
861.088054	2830.010508
861.400869	2829.750888
861.713642	2830.751557
862.026373	2829.284582
862.339062	2833.287258
862.651708	2836.929492
862.964312	2840.349914
863.276873	2844.748321
863.589392	2850.525483
863.901869	2856.305166
864.214303	2863.410673
864.526696	2870.405274
864.839045	2879.262581
865.151353	2883.436656
865.463619	2886.413458
865.775842	2889.501164
866.088023	2891.716752
866.400162	2893.229098
866.712258	2893.350085
867.024313	2895.847977
867.336325	2894.471742
867.648296	2898.020714
867.960224	2897.975344
868.272110	2898.353431
868.583954	2901.350397
868.895755	2900.322001
869.207515	2899.654048
869.519233	2907.861047
869.830909	2910.091757
870.142542	2915.901687
870.454134	2917.109043
870.765684	2920.239600
871.077191	2929.767381
871.388657	2934.407763
871.700081	2939.794236
872.011463	2945.352108
872.322803	2949.904270
872.634101	2954.655557
872.945357	2965.425983
873.256571	2973.635502
873.567744	2979.223621
873.878874	2982.767552
874.189963	2991.670229
874.501010	2994.871362
874.812015	2995.962772
875.122979	3003.116169
875.433900	3002.443175
875.744780	3005.488032
876.055618	3011.776872
876.366415	3015.812315
876.677169	3019.867923
876.987882	3025.050230
877.298554	3035.745037
877.609183	3047.821122
877.919771	3067.479101
878.230317	3090.123964
878.540822	3128.645941
878.851285	3176.851975
879.161707	3242.893611
879.472087	3350.068542
879.782425	3510.523427
880.092722	3783.025519
880.402977	4201.678223
880.713191	4743.050255
881.023363	5338.105534
881.333494	5774.989570
881.643583	6061.506070
881.953631	6136.513398
882.263637	6078.799748
882.573602	5938.486793
882.883526	5771.944713
883.193408	5567.359567
883.503248	5348.001319
883.813048	5134.863855
884.122806	4917.383437
884.432522	4675.392929
884.742197	4454.487047
885.051831	4250.176643
885.361424	4055.290677
885.670975	3888.453690
885.980485	3742.998758
886.289954	3618.953605
886.599382	3516.953419
886.908768	3434.782611
887.218113	3352.934438
887.527417	3293.567289
887.836680	3235.926736
888.145901	3186.102492
888.455082	3151.464724
888.764221	3117.923407
889.073319	3090.892740
889.382376	3070.465985
889.691392	3052.542162
890.000366	3046.318858
890.309300	3038.671427
890.618193	3036.297044
890.927044	3030.943338
891.235855	3033.194214
891.544625	3033.577341
891.853353	3040.198897
892.162041	3054.712379
892.470687	3078.317582
892.779293	3115.516256
893.087858	3162.653565
893.396381	3236.665265
893.704864	3340.444979
894.013306	3499.601767
894.321707	3681.380734
894.630068	3833.684074
894.938387	3910.009664
895.246665	3918.783792
895.554903	3857.158207
895.863100	3776.461937
896.171256	3700.153991
896.479371	3628.902322
896.787446	3549.370559
897.095480	3480.553768
897.403473	3426.661313
897.711425	3370.782643
898.019336	3324.114161
898.327207	3264.683998
898.635038	3217.385372
898.942827	3169.043227
899.250576	3125.848101
899.558284	3087.502564
899.865952	3064.759398
900.173579	3032.475849
900.481165	3011.849968
900.788711	2992.396156
901.096216	2977.880153
901.403681	2964.206023
901.711105	2958.428861
902.018489	2949.569033
902.325832	2957.929787
902.633135	2969.312712
902.940397	3009.745287
903.247619	3097.111003
903.554800	3271.534926
903.861941	3541.771019
904.169041	3804.634425
904.476101	3971.385712
904.783121	3993.039988
905.090100	3925.576747
905.397039	3821.759225
905.703938	3716.005899
906.010796	3614.731639
906.317614	3532.722148
906.624391	3447.269549
906.931129	3374.860936
907.237826	3307.939619
907.544483	3242.679362
907.851099	3173.108918
908.157675	3101.574945
908.464211	3028.367309
908.770707	2970.691468
909.077163	2922.225815
909.383578	2889.866648
909.689954	2860.249869
909.996289	2839.868484
910.302584	2827.623522
910.608839	2818.557006
910.915054	2807.733649
911.221229	2806.049904
911.527363	2804.383802
911.833458	2804.298103
912.139513	2809.021664
912.445527	2812.613486
912.751502	2823.336020
913.057436	2835.490242
913.363331	2858.518233
913.669186	2886.678118
913.975000	2922.540887
914.280775	2983.652274
914.586510	3061.568348
914.892205	3168.284534
915.197859	3317.958912
915.503475	3497.229905
915.809050	3672.369672
916.114585	3802.023107
916.420081	3877.408522
916.725536	3905.659148
917.030952	3871.031462
917.336328	3832.242304
917.641665	3784.850417
917.946961	3724.094431
918.252218	3666.111079
918.557435	3590.700459
918.862612	3527.721324
919.167750	3470.408446
919.472848	3392.890623
919.777906	3327.602639
920.082925	3260.759460
920.387904	3189.366639
920.692843	3135.093577
920.997743	3080.807912
921.302603	3032.291847
921.607423	3000.411590
921.912204	2965.294913
922.216946	2938.649894
922.521647	2914.870771
922.826310	2892.974519
923.130932	2874.682693
923.435516	2856.111082
923.740059	2842.137003
924.044564	2825.957420
924.349028	2814.423260
924.653454	2800.847433
924.957840	2786.346554
925.262186	2778.104267
925.566493	2765.728235
925.870761	2751.875144
926.174989	2748.668970
926.479178	2739.801580
926.783328	2732.343193
927.087438	2726.031669
927.391509	2721.781976
927.695541	2717.567571
927.999533	2705.347814
928.303486	2704.929399
928.607400	2701.398070
928.911275	2699.484952
929.215110	2693.793490
929.518906	2690.569672
929.822663	2688.996832
930.126381	2690.131092
930.430060	2689.029599
930.733699	2688.959023
931.037299	2692.039168
931.340861	2689.800896
931.644383	2692.876000
931.947866	2692.407172
932.251309	2690.925073
932.554714	2691.401462
932.858080	2690.388190
933.161407	2688.452387
933.464694	2686.640092
933.767943	2686.287212
934.071153	2686.589681
934.374323	2684.716892
934.677455	2685.336954
934.980548	2682.236645
935.283602	2681.246058
935.586617	2677.497960
935.889593	2681.329237
936.192530	2682.760925
936.495428	2684.996676
936.798287	2685.808302
937.101108	2689.175793
937.403890	2693.107893
937.706632	2707.112218
938.009336	2717.922973
938.312002	2729.300857
938.614628	2738.536251
938.917216	2748.815163
939.219765	2756.439909
939.522275	2764.011722
939.824747	2765.317381
940.127179	2764.253697
940.429573	2763.371495
940.731929	2766.733945
941.034246	2765.438368
941.336524	2765.045158
941.638763	2766.612957
941.940964	2765.851743
942.243126	2757.117944
942.545250	2754.869589
942.847335	2748.273239
943.149381	2743.499267
943.451389	2737.207907
943.753359	2728.658110
944.055290	2726.936556
944.357182	2722.833057
944.659036	2719.533621
944.960851	2715.011706
945.262628	2710.923331
945.564367	2712.917107
945.866067	2708.700182
946.167729	2707.903679
946.469352	2705.241950
946.770937	2706.434183
947.072484	2702.905375
947.373992	2705.340253
947.675462	2702.688606
947.976893	2702.048379
948.278286	2698.625436
948.579641	2697.486135
948.880958	2699.984027
949.182236	2699.036290
949.483476	2697.471012
949.784678	2697.337421
950.085841	2694.383305
950.386967	2696.881197
950.688054	2697.962524
950.989103	2700.493183
951.290114	2701.705581
951.591087	2707.913762
951.892021	2713.413661
952.192917	2715.762838
952.493776	2720.766183
952.794596	2723.044785
953.095378	2724.050495
953.396122	2726.248438
953.696828	2724.418499
953.997496	2724.287429
954.298126	2721.285422
954.598718	2721.219887
954.899272	2714.298383
955.199788	2711.833259
955.500266	2707.999461
955.800706	2698.154088
956.101108	2692.011442
956.401472	2684.686645
956.701798	2679.282528
957.002087	2672.300530
957.302337	2667.884480
957.602550	2665.404232
957.902724	2659.475835
958.202861	2654.807727
958.502960	2648.481078
958.803022	2647.036788
959.103045	2641.375572
959.403031	2637.191414
959.702979	2632.924078
960.002889	2631.570528
960.302762	2629.392749
960.602596	2625.831174
960.902393	2624.593571
961.202153	2621.457973
961.501875	2621.649537
961.801559	2620.653909
962.101205	2617.364556
962.400814	2618.377828
962.700385	2611.262240
962.999918	2616.406737
963.299414	2614.980091
963.598873	2611.287445
963.898293	2610.596807
964.197677	2612.572940
964.497022	2612.487240
964.796331	2607.173864
965.095601	2606.463061
965.394835	2608.597990
965.694030	2608.043463
965.993189	2610.760645
966.292309	2610.019595
966.591393	2604.431476
966.890439	2608.923144
967.189447	2604.749069
967.488419	2605.908534
967.787353	2606.921806
968.086249	2606.460541
968.385108	2611.884822
968.683930	2609.734770
968.982714	2608.081272
969.281462	2609.321395
969.580172	2610.748042
969.878844	2612.361211
970.177480	2611.998248
970.476078	2615.030502
970.774639	2615.630399
971.073162	2615.547220
971.371649	2615.481685
971.670098	2613.510594
971.968510	2619.547376
972.266885	2617.823301
972.565223	2621.256327
972.863524	2623.063581
973.161788	2621.014352
973.460014	2622.395628
973.758204	2626.867131
974.056356	2626.426030
974.354471	2625.624487
974.652550	2625.087604
974.950591	2624.245731
975.248595	2624.212964
975.546563	2624.749847
975.844493	2623.847480
976.142386	2621.667181
976.440243	2622.927470
976.738062	2620.825308
977.035845	2620.706841
977.333590	2619.275154
977.631299	2617.926645
977.928971	2617.656943
978.226606	2615.751387
978.524204	2617.092334
978.821765	2612.666201
979.119290	2615.166613
979.416777	2614.712909
979.714228	2613.833228
980.011642	2612.492281
980.309020	2617.208281
980.606360	2617.883795
980.903664	2620.076697
981.200931	2627.545167
981.498162	2634.106228
981.795356	2644.503608
982.092513	2663.639828
982.389633	2678.793537
982.686717	2697.471012
982.983764	2712.581870
983.280775	2724.660475
983.577749	2730.372102
983.874686	2731.561814
984.171587	2726.805486
984.468451	2723.261555
984.765279	2717.217211
985.062070	2709.683207
985.358824	2701.282124
985.655543	2690.695701
985.952224	2684.595905
986.248869	2670.584018
986.545478	2656.564569
986.842050	2642.144348
987.138586	2634.857360
987.435086	2623.746657
987.731549	2615.721140
988.027975	2613.818105
988.324366	2611.652929
988.620719	2607.330140
988.917037	2605.704367
989.213318	2602.530961
989.509563	2600.340580
989.805772	2600.632967
990.101944	2597.643562
990.398080	2597.872935
990.694180	2595.667430
990.990244	2598.253542
991.286271	2599.201279
991.582262	2598.248501
991.878217	2597.726742
992.174136	2596.804210
992.470019	2599.418049
992.765865	2600.925354
993.061676	2600.980806
993.357450	2603.045159
993.653188	2602.203286
993.948890	2602.843513
994.244556	2609.384410
994.540186	2613.679473
994.835780	2620.411934
995.131337	2623.630711
995.426859	2631.691516
995.722345	2638.728966
996.017795	2649.617859
996.313208	2659.284271
996.608586	2666.495642
996.903928	2670.221054
997.199234	2670.163081
997.494504	2669.916065
997.789738	2666.223419
998.084936	2665.293327
998.380099	2661.666216
998.675225	2654.956441
998.970316	2651.641882
999.265371	2641.345325
999.560390	2635.598410
999.855373	2629.659931
1000.150320	2623.146760
1000.445232	2617.218363
1000.740108	2610.196036
1001.034948	2609.112187
1001.329752	2604.265118
1001.624521	2601.926023
1001.919254	2600.322936
1002.213951	2591.906729
1002.508613	2594.616350
1002.803239	2595.586772
1003.097829	2589.928077
1003.392384	2590.628797
1003.686903	2591.198447
1003.981386	2591.826071
1004.275834	2590.240628
1004.570246	2594.570979
1004.864623	2590.560741
1005.158964	2590.820361
1005.453270	2589.968406
1005.747540	2587.321800
1006.041775	2585.345668
1006.335974	2585.690987
1006.630138	2586.621080
1006.924266	2587.896492
1007.218359	2588.743405
1007.512416	2587.074783
1007.806438	2585.897674
1008.100425	2586.270719
1008.394376	2584.118147
1008.688292	2585.378435
1008.982172	2588.395566
1009.276017	2583.432550
1009.569827	2586.064032
1009.863602	2588.728282
1010.157341	2586.134608
1010.451045	2583.316603
1010.744714	2585.446491
1011.038347	2581.942889
1011.331945	2582.326017
1011.625508	2584.720565
1011.919036	2585.144022
1012.212528	2584.859196
1012.505986	2583.566140
1012.799408	2586.437078
1013.092795	2581.534555
1013.386147	2583.727457
1013.679464	2581.673187
1013.972745	2584.231573
1014.265992	2580.725450
1014.559204	2583.639237
1014.852380	2579.923907
1015.145521	2583.273753
1015.438628	2582.731829
1015.731699	2582.694021
1016.024736	2582.764597
1016.317737	2585.436408
1016.610703	2581.842066
1016.903635	2579.558423
1017.196531	2581.040522
1017.489393	2579.848289
1017.782219	2579.833166
1018.075011	2580.743094
1018.367768	2583.777869
1018.660490	2585.438929
1018.953177	2585.438929
1019.245829	2585.438929
