Dividing Wavelength (nm)	Counts (n)	Blue Motor Position (mm): 33.500000	Red Motor Position (mm): 0.000000	
326.493990	2153.268372
326.888308	2153.268372
327.282561	2153.268372
327.676750	2129.799280
328.070874	2130.429424
328.464933	2137.290434
328.858929	2146.225880
329.252859	2156.870276
329.646726	2171.391320
330.040528	2185.904802
330.434265	2206.076979
330.827938	2223.347972
331.221547	2242.247258
331.615091	2262.336256
332.008571	2281.399379
332.401986	2304.823100
332.795338	2321.927735
333.188625	2343.357680
333.581847	2361.720083
333.975006	2381.282281
334.368100	2401.376320
334.761129	2417.535738
335.154095	2436.669438
335.546996	2460.632563
335.939833	2488.817654
336.332606	2502.330467
336.725315	2515.223218
337.117960	2522.240504
337.510540	2529.683768
337.903056	2539.945036
338.295508	2544.766900
338.687896	2556.167469
339.080220	2562.509241
339.472480	2567.714232
339.864676	2571.429563
340.256807	2576.064903
340.648875	2575.432239
341.040879	2578.318299
341.432818	2579.805440
341.824694	2583.074628
342.216506	2582.988928
342.608253	2581.912642
342.999937	2580.117991
343.391557	2581.242168
343.783113	2578.595563
344.174605	2579.772672
344.566033	2577.466344
344.957397	2571.008626
345.348697	2570.484346
345.739934	2571.437124
346.131106	2567.086608
346.522215	2565.090312
346.913260	2565.057544
347.304241	2564.150136
347.695159	2562.121072
348.086012	2558.859445
348.476802	2556.119578
348.867528	2556.273333
349.258191	2553.828374
349.648789	2556.285936
350.039324	2549.119936
350.429796	2554.004814
350.820203	2553.316697
351.210548	2550.889381
351.600828	2550.206305
351.991045	2549.419885
352.381198	2547.809236
352.771288	2551.315359
353.161314	2549.240924
353.551276	2550.778476
353.941175	2548.089020
354.331010	2550.087838
354.720782	2549.235883
355.110490	2552.285781
355.500135	2546.460728
355.889717	2549.046839
356.279235	2549.225800
356.668689	2553.266285
357.058080	2553.828374
357.447408	2549.815615
357.836672	2546.896787
358.225873	2547.466438
358.615010	2547.264792
359.004084	2553.399876
359.393095	2553.551110
359.782043	2552.875596
360.170927	2553.946841
360.559748	2555.673436
360.948505	2555.854918
361.337199	2555.779300
361.725830	2554.390462
362.114398	2554.428271
362.502903	2556.485062
362.891344	2558.007490
363.279722	2557.946997
363.668037	2556.265772
364.056289	2559.789538
364.444478	2558.362892
364.832603	2560.356668
365.220665	2560.644014
365.608665	2561.947152
365.996601	2559.792059
366.384474	2560.212995
366.772284	2562.075702
367.160031	2561.213664
367.547715	2561.213664
367.935336	2560.230639
368.322893	2561.218705
368.710388	2559.471946
369.097820	2565.518810
369.485189	2565.271793
369.872495	2566.131310
370.259738	2565.627194
370.646918	2563.406566
371.034035	2562.519323
371.421090	2564.810527
371.808081	2563.905640
372.195010	2564.835733
372.581875	2566.579973
372.968678	2570.189439
373.355418	2566.156516
373.742096	2565.879252
374.128710	2568.306568
374.515262	2566.930333
374.901751	2570.033163
375.288177	2565.778429
375.674540	2568.170457
376.060841	2568.919068
376.447079	2567.479818
376.833254	2570.696075
377.219367	2564.482852
377.605417	2567.716753
377.991404	2568.251115
378.377329	2569.319840
378.763191	2564.175342
379.148991	2570.212124
379.534727	2570.809501
379.920402	2571.537947
380.306013	2574.124059
380.691563	2570.275138
381.077049	2569.118193
381.462474	2571.268246
381.847835	2571.180025
382.233134	2571.880746
382.618371	2572.064748
383.003545	2571.994172
383.388657	2572.667166
383.773706	2573.713205
384.158693	2573.630026
384.543618	2572.974676
384.928480	2576.213617
385.313280	2575.812846
385.698017	2573.609862
386.082692	2575.364183
386.467305	2576.488360
386.851856	2574.474419
387.236344	2572.629357
387.620770	2577.753690
388.005133	2579.046746
388.389435	2578.280491
388.773674	2577.365521
389.157851	2576.911817
389.541965	2577.244533
389.926018	2578.774524
390.310008	2579.933989
390.693936	2575.470047
391.077802	2578.035995
391.461606	2578.663618
391.845348	2576.448031
392.229027	2579.936510
392.612645	2579.046746
392.996200	2578.731674
393.379694	2577.133628
393.763125	2581.579926
394.146494	2577.970460
394.529801	2581.844586
394.913047	2579.850810
395.296230	2582.086562
395.679351	2580.710327
396.062410	2581.791654
396.445408	2584.201326
396.828343	2583.107395
397.211217	2578.777044
397.594028	2579.223186
397.976778	2578.744277
398.359466	2581.285018
398.742092	2579.329051
399.124656	2583.934145
399.507158	2582.585636
399.889598	2587.296594
400.271977	2582.003383
400.654294	2586.384145
401.036549	2584.735688
401.418742	2585.915318
401.800874	2586.817685
402.182944	2586.618559
402.564952	2584.120667
402.946898	2585.136460
403.328783	2584.801223
403.710606	2587.979671
404.092367	2586.016141
404.474067	2589.141657
404.855705	2588.287181
405.237282	2587.999835
405.618797	2588.138467
406.000250	2589.880186
406.381642	2588.009917
406.762972	2591.165680
407.144240	2589.217274
407.525447	2594.276072
407.906593	2591.213571
408.287677	2590.873293
408.668700	2592.862028
409.049661	2592.491503
409.430560	2592.675505
409.811399	2594.550815
410.192176	2595.811103
410.572891	2591.488314
410.953545	2597.288161
411.334138	2596.373192
411.714669	2597.240270
412.095139	2597.527616
412.475547	2597.189859
412.855894	2599.970055
413.236180	2601.694130
413.616405	2603.481219
413.996568	2603.201435
414.376670	2607.062958
414.756711	2607.093205
415.136691	2611.597476
415.516609	2615.161572
415.896466	2615.854731
416.276262	2619.688528
416.655997	2617.087293
417.035670	2621.589043
417.415283	2628.445012
417.794834	2632.074643
418.174324	2639.149903
418.553753	2645.801705
418.933121	2655.571461
419.312428	2660.282420
419.691674	2663.798624
420.070859	2675.063083
420.449983	2677.717250
420.829045	2687.524815
421.208047	2696.707277
421.586988	2709.163968
421.965867	2721.643344
422.344686	2730.586351
422.723444	2745.079668
423.102141	2743.090933
423.480777	2764.525919
423.859352	2774.784667
424.237866	2799.821558
424.616319	2809.067034
424.994712	2832.846157
425.373044	2844.312261
425.751314	2871.652959
426.129524	2873.951725
426.507673	2908.037487
426.885762	2918.969229
427.263789	2942.032508
427.641756	2960.588995
428.019662	2985.235197
428.397508	3002.634739
428.775292	3028.687422
429.153016	3051.448232
429.530679	3072.807601
429.908282	3097.587392
430.285824	3108.657766
430.663305	3154.428922
431.040726	3160.286743
431.418086	3180.285001
431.795385	3227.802917
432.172624	3266.009822
432.549802	3273.379989
432.926920	3302.815286
433.303977	3322.430416
433.680974	3361.968185
434.057910	3396.704256
434.434786	3423.079573
434.811601	3441.676389
435.188355	3520.575488
435.565050	3529.604195
435.941683	3552.695200
436.318257	3625.744040
436.694770	3653.472906
437.071222	3709.137327
437.447614	3695.435471
437.823946	3725.584092
438.200218	3761.852673
438.576429	3775.993109
438.952580	3814.903255
439.328670	3843.564736
439.704700	3893.930904
440.080670	3895.349988
440.456580	3958.732416
440.832429	4009.012884
441.208218	3963.309783
441.583947	4022.992004
441.959616	4060.825863
442.335224	4097.810289
442.710773	4134.479642
443.086261	4200.236453
443.461689	4183.406560
443.837057	4213.003175
444.212365	4294.884116
444.587612	4318.660718
444.962800	4311.015808
445.337927	4363.214436
445.712995	4289.343888
446.088002	4468.934994
446.462949	4507.623329
446.837837	4538.455026
447.212664	4546.253691
447.587431	4760.865692
447.962139	5044.496131
448.336786	5360.606724
448.711374	5363.371797
449.085901	5057.545158
449.460369	5017.646946
449.834776	4979.979444
450.209124	5213.208427
450.583412	5230.764245
450.957640	5358.799471
451.331808	5239.162808
451.705917	5113.254949
452.079965	5114.484991
452.453954	5163.603473
452.827883	5142.223940
453.201752	5159.754552
453.575562	5195.370304
453.949311	5332.661088
454.323001	5349.400239
454.696632	5346.869580
455.070202	5503.964537
455.443713	5543.401483
455.817164	5632.425740
456.190556	5709.605805
456.563888	5688.856416
456.937160	5770.631493
457.310373	5620.425273
457.683526	5684.959604
458.056619	5685.541857
458.429653	5665.331871
458.802628	5716.524789
459.175542	5751.641466
459.548398	5892.839144
459.921194	6077.236990
460.293930	6148.594523
460.666607	6395.200207
461.039224	6605.401199
461.411782	6733.277628
461.784280	6652.677140
462.156719	6660.253994
462.529099	6616.537108
462.901419	6483.939639
463.273680	6351.858887
463.645882	6347.248752
464.018024	6350.936356
464.390106	6418.354227
464.762130	6682.384660
465.134094	7066.702064
465.505999	7708.728295
465.877845	8407.248216
466.249631	8762.145447
466.621358	8678.910955
466.993026	8479.248496
467.364634	8272.639326
467.736184	7996.167325
468.107674	7839.142945
468.479105	7756.226046
468.850477	7688.142743
469.221790	7514.336361
469.593043	7291.020808
469.964238	7198.117383
470.335373	7174.484454
470.706449	7333.454720
471.077467	7524.058227
471.448425	8188.565482
471.819324	8766.742979
472.190164	8794.991084
472.560945	8307.400602
472.931667	7836.201432
473.302330	7647.427864
473.672934	7530.626850
474.043479	7605.747604
474.413965	7510.615990
474.784393	7461.283258
475.154761	7614.393183
475.525070	7628.112683
475.895321	7579.032009
476.265513	7678.685538
476.635645	7842.258378
477.005719	7835.041966
477.375734	7919.798886
477.745691	8023.508023
478.115588	8234.850837
478.485427	8470.270201
478.855207	8941.623126
479.224928	9377.645125
479.594591	9763.255586
479.964194	9759.782231
480.333739	9846.873205
480.703226	9856.806798
481.072653	9956.999731
481.442022	10069.064581
481.811333	10217.342560
482.180584	10053.126973
482.549777	9996.724023
482.918912	9936.676319
483.287988	9923.138301
483.657005	9832.697480
484.025964	9751.761755
484.394864	9810.249222
484.763706	9767.046534
485.132489	9680.305920
485.501213	9667.738323
485.869879	9730.127643
486.238487	9666.760340
486.607036	9749.992310
486.975527	9694.713538
487.343959	9744.671372
487.712333	9801.212954
488.080648	9837.927677
488.448905	9939.993399
488.817104	9944.353997
489.185244	10115.959915
489.553326	10328.338685
489.921350	10801.198916
490.289315	11434.876996
490.657222	11719.896272
491.025070	11896.392110
491.392861	11806.727627
491.760593	11654.434369
492.128267	11394.041129
492.495883	11167.680718
492.863440	10930.310428
493.230939	10702.674605
493.598380	10515.047900
493.965763	10497.519808
494.333088	10357.519404
494.700354	10300.153594
495.067563	10262.362584
495.434713	10271.673595
495.801805	10314.445265
496.168839	10277.818762
496.535815	10242.286189
496.902733	10296.680239
497.269593	10251.829093
497.636395	10257.049208
498.003139	10375.158402
498.369825	10294.313417
498.736453	10384.965966
499.103023	10330.087966
499.469535	10335.550056
499.835989	10386.458148
500.202385	10362.696669
500.568723	10374.896262
500.935003	10441.033679
501.301226	10406.184183
501.667390	10577.182642
502.033497	10673.793835
502.399546	10595.166958
502.765537	10508.038176
503.131470	10613.274783
503.497345	10698.457680
503.863163	10473.566766
504.228923	10607.323701
504.594625	10720.923582
504.960269	10632.559717
505.325856	10786.992944
505.691385	10665.556589
506.056856	10728.939017
506.422270	10830.508184
506.787625	10773.754874
507.152924	10828.451394
507.518164	10881.370906
507.883347	10751.233520
508.248472	10821.565178
508.613540	10931.348905
508.978550	11008.196255
509.343503	10991.719243
509.708398	11039.325380
510.073236	11171.554845
510.438016	11181.198572
510.802738	11097.364184
511.167403	11225.832948
511.532010	11283.360076
511.896561	11380.949252
512.261053	11579.311094
512.625488	11492.336067
512.989866	11481.747123
513.354186	11462.749535
513.718449	11470.495268
514.082655	11615.738472
514.446803	11568.994373
514.810894	11676.633090
515.174927	11674.409941
515.538904	11663.921821
515.902822	11819.511993
516.266684	11693.652025
516.630488	11791.586521
516.994235	11782.109152
517.357925	11897.047460
517.721558	11954.138527
518.085133	12018.766119
518.448651	12052.478836
518.812112	12006.470745
519.175516	12017.480625
519.538863	12116.042744
519.902152	12118.525513
520.265385	12224.039383
520.628560	12248.340265
520.991678	12199.395703
521.354739	12252.448806
521.717743	12325.311123
522.080690	12295.452369
522.443580	12428.926999
522.806413	12450.999691
523.169189	12435.334306
523.531908	12498.419305
523.894569	12460.429169
524.257174	12475.454328
524.619722	12573.905543
524.982213	12553.761092
525.344647	12546.716079
525.707025	12555.134806
526.069345	12655.393274
526.431608	12640.695790
526.793815	12715.927449
527.155964	12610.426182
527.518057	12647.040082
527.880093	12598.912186
528.242072	12725.735014
528.603995	12645.953713
528.965860	12663.801918
529.327669	12684.453005
529.689421	12633.774286
530.051117	12652.209785
530.412755	12681.055267
530.774337	12693.935416
531.135862	12649.187613
531.497331	12694.109335
531.858743	12664.147238
532.220098	12754.822472
532.581396	12680.432685
532.942638	12615.487500
533.303824	12673.183506
533.664953	12652.940752
534.026025	12607.010800
534.387040	12708.494268
534.747999	12679.394207
535.108902	12733.395047
535.469748	12604.868309
535.830537	12631.956950
536.191270	12678.363291
536.551947	12600.744646
536.912567	12662.844099
537.273131	12693.680837
537.633638	12578.036768
537.994089	12638.160089
538.354483	12550.431410
538.714821	12677.584433
539.075103	12758.714242
539.435328	12694.258049
539.795497	12665.672187
540.155609	12664.812670
540.515665	12764.756065
540.875665	12629.499387
541.235609	12730.811456
541.595496	12692.165971
541.955328	12871.414278
542.315102	12715.783776
542.674821	12664.822752
543.034483	12665.926765
543.394090	12671.172085
543.753640	12644.514464
544.113134	12882.635886
544.472571	12633.988535
544.831953	12917.523192
545.191278	12738.882343
545.550548	12672.041684
545.909761	12781.611163
546.268918	12833.461951
546.628019	12885.985733
546.987064	12776.275102
547.346053	12629.075930
547.704986	12818.676247
548.063863	12703.974873
548.422684	12757.060744
548.781449	12715.506513
549.140158	12820.183552
549.498811	12767.001899
549.857408	12634.764872
550.215949	12838.392200
550.574434	12810.383549
550.932864	12745.014907
551.291237	12945.100824
551.649555	12839.609638
552.007817	12897.953432
552.366022	12812.662150
552.724173	12852.245290
553.082267	12949.373202
553.440305	13026.152495
553.798288	12854.284437
554.156215	12921.735076
554.514086	12980.519971
554.871902	12916.149477
555.229661	12947.248355
555.587365	12898.507959
555.945014	12912.577820
556.302606	12896.864543
556.660143	12949.950414
557.017625	12983.854694
557.375050	12945.042850
557.732421	13046.231411
558.089735	13041.626317
558.446994	13011.608766
558.804197	13127.119245
559.161345	13126.854584
559.518437	12932.225717
559.875474	13039.594732
560.232455	13067.399216
560.589381	13108.086369
560.946251	13049.661916
561.303065	13220.831774
561.659825	13170.838652
562.016528	13099.032456
562.373177	13034.493084
562.729770	13168.280266
563.086307	13043.834342
563.442789	13153.139161
563.799216	13194.950491
564.155587	13139.608704
564.511904	13155.488338
564.868164	13165.255574
565.224370	13233.790060
565.580520	13170.730267
565.936615	13232.736459
566.292654	13170.803364
566.648638	13239.680649
567.004567	13242.513777
567.360441	13241.820618
567.716260	13215.944376
568.072023	13298.533599
568.427732	13285.053554
568.783385	13179.794262
569.138982	13291.944811
569.494525	13285.930715
569.850013	13237.633940
570.205445	13227.128176
570.560823	13237.512953
570.916145	13195.000902
571.271412	13205.486502
571.626625	13159.390191
571.981782	13168.368486
572.336884	13114.470990
572.691931	13198.126417
573.046923	13086.525354
573.401860	13069.178743
573.756743	13057.763050
574.111570	13085.607864
574.466342	13056.500241
574.821059	13114.236576
575.175722	12984.336124
575.530330	13002.791788
575.884882	12950.031072
576.239380	12936.533383
576.593823	12920.376485
576.948211	12916.071339
577.302544	12798.824183
577.656823	12809.181234
578.011047	12866.378165
578.365216	12797.057259
578.719330	12740.482910
579.073389	12711.773538
579.427394	12730.723236
579.781344	12715.841750
580.135239	12655.930157
580.489080	12666.680417
580.842866	12552.367213
581.196597	12655.506700
581.550273	12641.900626
581.903895	12608.278650
582.257463	12716.945762
582.610975	12554.260166
582.964434	12620.705094
583.317837	12532.202597
583.671186	12492.100218
584.024481	12546.774053
584.377721	12438.656426
584.730906	12514.677026
585.084037	12525.265970
585.437113	12439.326899
585.790135	12462.496043
586.143103	12378.984288
586.496016	12389.016184
586.848874	12400.268039
587.201679	12403.181826
587.554428	12274.982763
587.907124	12327.186432
588.259765	12267.980601
588.612352	12330.354797
588.964884	12185.875328
589.317362	12238.124367
589.669786	12241.660737
590.022155	12195.017461
590.374470	12298.610652
590.726731	12178.116992
591.078937	12075.206878
591.431090	12104.019593
591.783188	12024.525637
592.135232	11947.154008
592.487222	12009.235818
592.839157	12015.547343
593.191038	11952.192642
593.542866	11897.672563
593.894639	11752.535223
594.246358	11804.033130
594.598022	11814.155767
594.949633	11714.860160
595.301190	11709.841691
595.652692	11660.839155
596.004141	11755.640574
596.355535	11532.587160
596.706876	11517.471260
597.058162	11480.232257
597.409395	11573.299518
597.760573	11604.325300
598.111698	11494.534010
598.462768	11496.104330
598.813785	11500.134732
599.164748	11370.778724
599.515657	11454.597989
599.866511	11329.335399
600.217312	11462.807508
600.568060	11233.213198
600.918753	11383.749613
601.269392	11388.831096
601.619978	11290.828545
601.970510	11335.543580
602.320988	11373.034641
602.671412	11446.542226
603.021783	11366.831501
603.372100	11298.491099
603.722363	11315.663789
604.072572	11306.423354
604.422728	11327.117291
604.772830	11271.122675
605.122878	11278.981833
605.472872	11245.740465
605.822813	11307.413941
606.172701	11268.329875
606.522534	11300.336161
606.872314	11355.990500
607.222041	11285.517689
607.571714	11366.234124
607.921333	11230.831252
608.270899	11286.117587
608.620411	11355.108298
608.969870	11299.209463
609.319276	11277.827409
609.668627	11290.493308
610.017926	11381.284489
610.367171	11408.380691
610.716362	11397.022971
611.065500	11374.375588
611.414585	11381.029911
611.763616	11444.624067
612.112594	11414.102401
612.461518	11433.349526
612.810389	11482.016825
613.159207	11426.231417
613.507971	11423.209245
613.856682	11518.487053
614.205340	11476.716052
614.553945	11615.095725
614.902496	11489.392033
615.250994	11556.487270
615.599439	11549.966538
615.947830	11580.518451
616.296169	11545.941177
616.644454	11560.051366
616.992686	11578.665827
617.340864	11675.239211
617.688990	11559.048177
618.037063	11697.652181
618.385082	11658.011068
618.733048	11699.043539
619.080961	11691.774196
619.428821	11672.602688
619.776628	11675.375322
620.124382	11619.720984
620.472083	11640.404838
620.819731	11665.078765
621.167326	11582.693709
621.514868	11566.491440
621.862357	11473.835032
622.209793	11456.657301
622.557176	11380.583769
622.904506	11326.247692
623.251783	11250.738769
623.599007	11187.573111
623.946179	11142.658951
624.293297	11114.738521
624.640363	10979.605351
624.987376	10964.370984
625.334336	10893.923379
625.681243	10814.192490
626.028097	10785.581421
626.374899	10749.501883
626.721647	10723.648326
627.068343	10682.570484
627.414987	10627.619386
627.761577	10562.331403
628.108115	10611.059196
628.454600	10480.268980
628.801032	10494.800106
629.147412	10479.157405
629.493739	10451.872160
629.840014	10374.112362
630.186236	10415.134752
630.532405	10310.608947
630.878521	10346.703609
631.224585	10306.210540
631.570597	10228.244055
631.916556	10235.836033
632.262462	10214.043125
632.608316	10195.751298
632.954117	10169.239870
633.299866	10143.635849
633.645562	10127.466348
633.991206	10025.037664
634.336797	9932.968551
634.682336	9918.616386
635.027823	9862.934321
635.373257	9829.831584
635.718639	9766.582747
636.063968	9732.302901
636.409245	9615.179253
636.754470	9603.846740
637.099642	9549.493019
637.444762	9445.511659
637.789829	9452.793606
638.134845	9380.594200
638.479808	9359.295325
638.824719	9328.559410
639.169577	9249.294828
639.514383	9253.136187
639.859137	9183.822842
640.203839	9215.720743
640.548489	9131.523392
640.893086	9134.049010
641.237632	9073.580369
641.582125	9074.243281
641.926566	9059.571003
642.270955	9048.906442
642.615292	9034.065285
642.959576	9017.817646
643.303809	9006.301130
643.647990	9018.412502
643.992118	9000.062702
644.336195	8983.570567
644.680219	8974.521696
645.024192	9011.054938
645.368112	9082.369621
645.711981	9061.040499
646.055797	9198.807672
646.399562	9157.064398
646.743274	9326.384153
647.086935	9389.796827
647.430544	9365.158187
647.774101	9383.139983
648.117606	9417.586187
648.461059	9476.303027
648.804460	9406.052027
649.147810	9292.245459
649.491108	9264.430892
649.834354	9192.213843
650.177548	9049.304693
650.520690	8965.341755
650.863781	8955.057801
651.206820	8928.402700
651.549807	8830.407711
651.892742	8745.560050
652.235626	8703.443731
652.578458	8665.604830
652.921238	8557.688849
653.263967	8594.544725
653.606644	8527.575517
653.949269	8505.071806
654.291843	8435.476157
654.634365	8500.423862
654.976836	8421.892768
655.319255	8409.806601
655.661622	8406.711333
656.003938	8363.160805
656.346203	8327.744178
656.688416	8358.084363
657.030577	8311.670459
657.372687	8280.753063
657.714746	8315.819329
658.056753	8333.518820
658.398708	8236.680775
658.740612	8227.021925
659.082465	8271.512628
659.424266	8228.032676
659.766016	8234.480312
660.107715	8206.960653
660.449362	8232.927636
660.790958	8231.564004
661.132503	8218.777117
661.473996	8222.608394
661.815438	8240.930468
662.156829	8269.337370
662.498168	8215.623876
662.839456	8210.002989
663.180693	8228.148622
663.521879	8253.908919
663.863013	8234.258501
664.204097	8231.347235
664.545129	8305.880694
664.886110	8293.567676
665.227040	8289.154146
665.567918	8303.778533
665.908746	8322.821492
666.249522	8348.803599
666.590248	8338.728853
666.930922	8356.602264
667.271545	8344.518618
667.612118	8362.573510
667.952639	8319.784197
668.293109	8328.523037
668.633528	8304.322978
668.973896	8286.426882
669.314213	8293.076163
669.654480	8243.811488
669.994695	8246.599246
670.334859	8220.765853
670.674973	8199.968572
671.015035	8230.830516
671.355047	8225.360864
671.695008	8197.246349
672.034918	8182.057353
672.374777	8188.885596
672.714585	8166.018922
673.054342	8191.219650
673.394049	8154.429309
673.733705	8199.242646
674.073310	8143.636199
674.412864	8154.867890
674.752368	8090.870442
675.091820	8146.454204
675.431223	8072.281187
675.770574	8028.314763
676.109875	8001.546237
676.449125	7961.005277
676.788324	7950.633103
677.127473	7862.044907
677.466571	7840.251999
677.805619	7782.714789
678.144616	7785.442053
678.483562	7766.416739
678.822458	7715.972433
679.161303	7702.207562
679.500098	7674.531628
679.838842	7661.724576
680.177535	7681.047319
680.516179	7712.342802
680.854771	7730.674958
681.193314	7845.414140
681.531805	8003.295517
681.870247	8124.333621
682.208638	8269.581866
682.546978	8341.178853
682.885268	8374.316878
683.223508	8304.494377
683.561697	8248.270388
683.899836	8216.180923
684.237925	8139.978842
684.575963	8106.308975
684.913951	8023.709669
685.251889	8046.712454
685.589776	8036.665435
685.927614	8022.610698
686.265401	8043.128194
686.603137	8045.474851
686.940824	8112.728885
687.278460	8166.865836
687.616046	8186.332251
687.953582	8292.206564
688.291068	8278.671066
688.628504	8327.350968
688.965889	8332.434972
689.303224	8293.398797
689.640510	8251.728620
689.977745	8139.401630
690.314930	8018.935697
690.652065	7950.305428
690.989150	7830.585586
691.326185	7683.903133
691.663170	7572.304589
692.000105	7455.531302
692.336990	7344.502409
692.673825	7269.111953
693.010610	7176.838673
693.347345	7081.434837
693.684030	6972.117415
694.020665	6919.238232
694.357251	6803.609286
694.693786	6799.142824
695.030272	6755.395691
695.366707	6660.506052
695.703093	6606.323731
696.039429	6608.430933
696.375716	6553.827675
696.711952	6546.560852
697.048139	6517.344845
697.384276	6478.964020
697.720363	6496.935733
698.056400	6474.588298
698.392388	6436.267967
698.728326	6444.981602
699.064214	6416.521768
699.400053	6412.718217
699.735842	6345.779256
700.071581	6303.718389
700.407270	6260.868581
700.742910	6235.998048
701.078501	6191.232602
701.414042	6148.027393
701.749533	6092.741059
702.084974	6033.542789
702.420366	6074.711372
702.755709	6000.913921
703.091002	5949.584893
703.426246	5953.668227
703.761440	5940.170538
704.096584	5892.206480
704.431679	5883.795314
704.766725	5865.768148
705.101721	5851.867167
705.436668	5871.126895
705.771565	5813.128420
706.106413	5872.404827
706.441212	5867.930803
706.775961	5890.348814
707.110661	5895.989866
707.445311	5956.418177
707.779913	5920.683958
708.114465	5956.894566
708.448967	6002.383418
708.783421	6119.305419
709.117825	6159.753117
709.452180	6197.395413
709.786485	6255.151912
710.120742	6393.597121
710.454949	6392.825824
710.789107	6466.550178
711.123216	6588.387305
711.457275	6621.001050
711.791286	6726.192287
712.125247	6748.985864
712.459159	6715.769701
712.793023	6855.439910
713.126837	6684.272572
713.460602	6736.443473
713.794318	6690.947060
714.127985	6640.495192
714.461602	6492.151678
714.795171	6497.815415
715.128691	6329.488767
715.462162	6242.700262
715.795584	6170.624365
716.128957	6127.099043
716.462281	6063.250309
716.795556	6022.923599
717.128782	5937.513850
717.461960	5837.399055
717.795088	5825.562426
718.128167	5759.470378
718.461198	5674.554662
718.794180	5655.506662
719.127113	5596.000882
719.459997	5559.029060
719.792833	5492.488350
720.125619	5488.498277
720.458357	5433.486685
720.791046	5400.295728
721.123686	5376.798910
721.456278	5325.056507
721.788821	5321.852854
722.121315	5282.085712
722.453761	5289.438235
722.786158	5270.959885
723.118506	5274.549187
723.450805	5251.377523
723.783056	5280.099497
724.115259	5261.603504
724.447412	5248.317543
724.779518	5289.125683
725.111574	5287.071413
725.443582	5329.659081
725.775542	5320.146423
726.107453	5407.038272
726.439315	5378.684302
726.771129	5448.552174
727.102895	5513.799828
727.434612	5553.052772
727.766281	5585.041414
728.097901	5639.579137
728.429473	5654.221168
728.760996	5662.224000
729.092471	5685.239388
729.423897	5673.974930
729.755276	5647.970137
730.086606	5663.264998
730.417887	5749.904789
730.749120	5844.285271
731.080305	5882.431682
731.411442	5958.447241
731.742530	5985.125027
732.073570	6005.458521
732.404562	6067.341205
732.735506	6063.467079
733.066401	6037.984046
733.397249	5971.587009
733.728048	5879.714500
734.058798	5729.707406
734.389501	5606.282316
734.720156	5522.906672
735.050762	5413.785856
735.381320	5341.261296
735.711831	5287.068892
736.042293	5203.622673
736.372707	5197.623700
736.703073	5155.640971
737.033391	5182.404456
737.363661	5168.170758
737.693883	5179.543602
738.024056	5210.367737
738.354182	5238.673816
738.684260	5284.550836
739.014290	5322.455272
739.344272	5355.074058
739.674207	5411.416514
740.004093	5444.988078
740.333931	5450.475374
740.663722	5471.081090
740.993464	5480.321525
741.323159	5464.817457
741.652806	5424.006796
741.982405	5393.686776
742.311956	5334.864072
742.641460	5326.929296
742.970915	5267.645327
743.300323	5210.594589
743.629683	5176.786090
743.958996	5121.842555
744.288260	5073.961675
744.617477	5016.268190
744.946647	5000.963247
745.275768	4946.990133
745.604842	4913.957973
745.933869	4878.102766
746.262847	4871.047671
746.591778	4856.183829
746.920662	4834.496785
747.249498	4828.903625
747.578286	4848.790977
747.907027	4869.555490
748.235720	4916.193725
748.564365	4921.199590
748.892963	4912.685082
749.221514	4925.441721
749.550017	4901.960027
749.878473	4897.405344
750.206881	4860.335219
750.535242	4849.292572
750.863555	4836.167928
751.191821	4810.508455
751.520039	4815.927695
751.848210	4796.851969
752.176334	4804.010407
752.504411	4785.219507
752.832440	4755.491822
753.160421	4771.056385
753.488356	4743.254421
753.816243	4726.295980
754.144082	4698.017627
754.471875	4682.511038
754.799620	4672.123741
755.127318	4669.830016
755.454969	4662.525384
755.782572	4651.782685
756.110129	4653.194208
756.437638	4638.453874
756.765100	4637.949759
757.092515	4637.886744
757.419882	4642.459071
757.747203	4638.922701
758.074477	4655.170340
758.401703	4644.208351
758.728882	4675.440820
759.056014	4686.105381
759.383099	4709.012384
759.710138	4735.788472
760.037129	4755.569960
760.364073	4771.835243
760.690970	4768.369450
761.017820	4771.530253
761.344623	4805.290861
761.671379	4863.677504
761.998088	4957.536227
762.324751	5183.185835
762.651366	5646.588861
762.977935	6340.980077
763.304456	6898.294758
763.630931	7202.271294
763.957359	7132.698330
764.283740	6845.173600
764.610074	6521.173601
764.936362	6125.062417
765.262602	5808.858563
765.588796	5458.581549
765.914943	5202.415317
766.241044	4977.768898
766.567097	4806.427641
766.893104	4657.920290
767.219064	4558.733067
767.544978	4463.024241
767.870845	4380.485429
768.196665	4330.809899
768.522438	4280.179070
768.848165	4242.115838
769.173846	4200.014642
769.499479	4171.665713
769.825066	4135.505517
770.150607	4092.554886
770.476101	4076.899582
770.801548	4057.612128
771.126949	4027.685318
771.452303	4005.254704
771.777611	3967.647696
772.102872	3967.932522
772.428087	3940.110393
772.753256	3913.984614
773.078378	3897.658837
773.403453	3861.155842
773.728482	3838.944518
774.053465	3828.302642
774.378401	3805.743479
774.703291	3780.436887
775.028135	3756.335130
775.352932	3750.499994
775.677683	3727.366139
776.002388	3712.396433
776.327046	3711.209241
776.651658	3694.018907
776.976224	3673.171215
777.300743	3672.145340
777.625216	3658.907270
777.949643	3644.434118
778.274024	3648.257833
778.598359	3631.319556
778.922647	3631.657313
779.246889	3620.627268
779.571086	3615.649129
779.895236	3621.358236
780.219339	3624.025006
780.543397	3625.063484
780.867409	3632.884834
781.191374	3633.225112
781.515294	3629.035913
781.839167	3644.915548
782.162995	3641.195176
782.486776	3633.641007
782.810511	3628.493989
783.134201	3614.875312
783.457844	3613.932616
783.781441	3605.029938
784.104993	3597.145574
784.428498	3588.837752
784.751958	3589.493102
785.075372	3583.894901
785.398739	3576.857450
785.722061	3582.503543
786.045337	3579.342739
786.368568	3603.411728
786.691752	3603.010956
787.014891	3647.713388
787.337983	3688.748380
787.661030	3778.468316
787.984031	3872.879045
788.306987	3950.822845
788.629897	4001.340248
788.952760	4007.825692
789.275579	3994.630472
789.598351	3943.873615
789.921078	3891.082652
790.243759	3825.963547
790.566395	3784.457207
790.888984	3734.393508
791.211529	3694.389432
791.534027	3652.018533
791.856480	3615.364304
792.178888	3593.886468
792.501249	3577.417018
792.823566	3540.808159
793.145836	3537.901934
793.468062	3528.628731
793.790241	3514.994931
794.112375	3523.421219
794.434464	3543.835372
794.756507	3540.488046
795.078505	3557.811971
795.400457	3600.376953
795.722364	3646.863954
796.044226	3694.328938
796.366042	3740.445413
796.687812	3739.636308
797.009538	3762.192951
797.331218	3749.857247
797.652852	3741.362903
797.974442	3718.909604
798.295986	3708.459292
798.617484	3680.831248
798.938938	3659.023217
799.260346	3641.454796
799.581709	3605.970114
799.903026	3597.465687
800.224299	3579.065476
800.545526	3544.349570
800.866708	3526.143443
801.187845	3514.150537
801.508936	3494.656396
801.829983	3485.393275
802.150984	3456.366312
802.471940	3446.213428
802.792851	3441.719239
803.113717	3432.877055
803.434538	3421.753749
803.755314	3415.522883
804.076045	3408.561050
804.396731	3395.771642
804.717372	3399.670975
805.037967	3397.268865
805.358518	3395.166704
805.679024	3410.272521
805.999485	3408.669434
806.319901	3412.626740
806.640272	3416.420208
806.960598	3429.910336
807.280879	3429.653237
807.601115	3439.823765
807.921306	3434.916202
808.241453	3430.227929
808.561554	3438.533230
808.881611	3434.843105
809.201623	3433.577776
809.521590	3426.429419
809.841513	3428.042589
810.161390	3436.395781
810.481223	3412.654467
810.801011	3413.695465
811.120755	3412.112543
811.440453	3399.537384
811.760107	3391.544635
812.079716	3385.825446
812.399281	3371.296840
812.718801	3373.146944
813.038276	3364.251828
813.357707	3359.286291
813.677093	3367.815924
813.996434	3352.238758
814.315731	3358.368801
814.634983	3358.484748
814.954191	3356.667412
815.273354	3374.417315
815.592473	3384.988614
815.911547	3406.058117
816.230577	3416.770569
816.549562	3443.692851
816.868502	3462.496355
817.187399	3483.729695
817.506250	3511.156092
817.825058	3522.425592
818.143821	3567.075091
818.462539	3609.133438
818.781213	3665.322138
819.099843	3750.489912
819.418429	3901.873242
819.736970	4055.464596
820.055466	4242.314964
820.373919	4477.010922
820.692327	4816.683868
821.010691	5327.259492
821.329011	6409.696045
821.647286	8150.945872
821.965517	10320.469444
822.283704	11934.052049
822.601847	13032.383361
822.919945	12617.637552
823.237999	11938.226125
823.556010	11040.242870
823.873976	10093.370504
824.191897	9123.361764
824.509775	8351.793003
824.827609	7550.796507
825.145398	6997.676065
825.463144	6620.726307
825.780845	6492.814590
826.098502	6553.613426
826.416116	6933.708864
826.733685	7438.547654
827.051210	7724.943166
827.368692	7632.253991
827.686129	7181.254724
828.003522	6630.738039
828.320872	6063.391461
828.638177	5599.721254
828.955439	5232.790789
829.272656	4897.785951
829.589830	4612.597796
829.906960	4350.334288
830.224046	4141.932988
830.541088	3972.436792
830.858086	3856.588557
831.175041	3759.647168
831.491952	3715.761403
831.808819	3695.178372
832.125642	3735.991554
832.442421	3837.124662
832.759157	4051.434194
833.075849	4428.903191
833.392497	4892.089448
833.709101	5283.686278
834.025662	5391.037649
834.342179	5263.909832
834.658653	4995.130632
834.975083	4721.849682
835.291469	4478.913958
835.607811	4254.176799
835.924110	4092.191923
836.240366	3935.356585
836.556578	3773.596041
836.872746	3638.122593
837.188871	3524.626055
837.504952	3429.915377
837.820990	3355.271012
838.136984	3297.877476
838.452935	3266.017383
838.768842	3251.723192
839.084706	3286.945734
839.400526	3425.395983
839.716303	3649.283707
840.032037	3861.942262
840.347727	3928.316614
840.663373	3838.750434
840.978977	3685.708565
841.294537	3555.500602
841.610054	3449.948923
841.925527	3369.925647
842.240957	3304.352838
842.556344	3245.167171
842.871687	3187.423274
843.186987	3122.772997
843.502244	3070.498752
843.817458	3030.819830
844.132629	2998.753051
844.447756	2975.692292
844.762840	2953.397789
845.077881	2937.835748
845.392879	2924.448963
845.707833	2911.793147
846.022745	2900.017011
846.337613	2897.284706
846.652438	2888.056874
846.967221	2883.678632
847.281960	2875.212014
847.596656	2874.702857
847.911309	2868.451827
848.225919	2863.640045
848.540485	2856.310207
848.855009	2853.625793
849.169490	2849.454238
849.483928	2847.369721
849.798323	2844.544154
850.112675	2839.094667
850.426984	2840.748166
850.741251	2837.489060
851.055474	2834.320694
851.369654	2837.294975
851.683792	2837.206755
851.997887	2836.042248
852.311938	2838.371262
852.625947	2835.694409
852.939914	2833.642659
853.253837	2837.637774
853.567718	2836.710201
853.881555	2833.546877
854.195350	2835.197855
854.509103	2836.259018
854.822812	2832.460509
855.136479	2832.047134
855.450103	2833.206599
855.763685	2830.880107
856.077224	2831.853050
856.390720	2834.608040
856.704173	2837.022753
857.017584	2838.910665
857.330953	2837.274811
857.644278	2841.821931
857.957561	2842.903259
858.270802	2848.614886
858.584000	2848.085565
858.897155	2845.249916
859.210268	2840.637260
859.523339	2837.675582
859.836367	2836.586693
860.149352	2839.205572
860.462295	2839.134996
860.775195	2832.609223
861.088054	2829.584530
861.400869	2826.179231
861.713642	2826.834581
862.026373	2830.043275
862.339062	2832.773060
862.651708	2834.552587
862.964312	2842.830162
863.276873	2843.114987
863.589392	2851.445494
863.901869	2859.423120
864.214303	2863.632483
864.526696	2869.228164
864.839045	2879.088661
865.151353	2884.233159
865.463619	2886.713406
865.775842	2886.547048
866.088023	2894.073491
866.400162	2894.151629
866.712258	2896.079870
867.024313	2896.047103
867.336325	2897.748492
867.648296	2896.616753
867.960224	2900.314439
868.272110	2900.805952
868.583954	2903.535737
868.895755	2906.799884
869.207515	2905.438772
869.519233	2913.030750
869.830909	2915.185843
870.142542	2918.099630
870.454134	2920.935279
870.765684	2922.697163
871.077191	2932.096394
871.388657	2937.946653
871.700081	2942.148455
872.011463	2948.154989
872.322803	2953.458283
872.634101	2961.851804
872.945357	2964.939511
873.256571	2975.231027
873.567744	2979.165647
873.878874	2985.933396
874.189963	2992.945641
874.501010	2997.538133
874.812015	2997.069305
875.122979	3005.170439
875.433900	3007.731346
875.744780	3009.117663
876.055618	3016.606297
876.366415	3015.383817
876.677169	3020.752646
876.987882	3028.863863
877.298554	3038.338711
877.609183	3051.833880
877.919771	3069.813155
878.230317	3094.419027
878.540822	3131.471508
878.851285	3181.071421
879.161707	3247.254209
879.472087	3357.022813
879.782425	3518.737988
880.092722	3797.022283
880.402977	4214.457548
880.713191	4762.173872
881.023363	5355.948698
881.333494	5797.394979
881.643583	6077.489048
881.953631	6154.069216
882.263637	6106.894098
882.573602	5962.303724
882.883526	5791.975738
883.193408	5591.683134
883.503248	5374.520309
883.813048	5156.019057
884.122806	4938.483186
884.432522	4698.589798
884.742197	4471.931960
885.051831	4266.129374
885.361424	4072.165939
885.670975	3901.177562
885.980485	3753.817074
886.289954	3630.568424
886.599382	3526.191333
886.908768	3441.696554
887.218113	3360.135726
887.527417	3300.110707
887.836680	3239.989906
888.145901	3191.967875
888.455082	3155.704334
888.764221	3126.473204
889.073319	3092.654623
889.382376	3071.610327
889.691392	3057.850497
890.000366	3049.172151
890.309300	3041.015564
890.618193	3036.503731
890.927044	3033.385778
891.235855	3033.869728
891.544625	3036.783515
891.853353	3041.675955
892.162041	3059.214129
892.470687	3082.983170
892.779293	3115.100361
893.087858	3163.689522
893.396381	3241.083837
893.704864	3348.825897
894.013306	3507.917151
894.321707	3694.379349
894.630068	3847.287628
894.938387	3923.615738
895.246665	3933.730813
895.554903	3872.725290
895.863100	3787.345788
896.171256	3710.422821
896.479371	3637.230309
896.787446	3562.515367
897.095480	3488.065087
897.403473	3433.003084
897.711425	3375.065103
898.019336	3327.416117
898.327207	3272.830503
898.635038	3224.006928
898.942827	3177.593024
899.250576	3132.555356
899.558284	3093.493975
899.865952	3065.901220
900.173579	3036.584390
900.481165	3015.630834
900.788711	2991.629900
901.096216	2980.940133
901.403681	2966.756847
901.711105	2959.984057
902.018489	2953.125567
902.325832	2960.735189
902.633135	2970.436889
902.940397	3007.159175
903.247619	3097.247114
903.554800	3276.492901
903.861941	3552.841393
904.169041	3814.510045
904.476101	3984.079337
904.783121	4005.491638
905.090100	3935.623767
905.397039	3830.893795
905.703938	3726.985532
906.010796	3624.186323
906.317614	3542.007954
906.624391	3453.573512
906.931129	3383.947616
907.237826	3316.007986
907.544483	3250.510794
907.851099	3177.570339
908.157675	3106.192642
908.464211	3032.367464
908.770707	2974.217755
909.077163	2924.980805
909.383578	2892.566186
909.689954	2862.878831
909.996289	2842.421829
910.302584	2831.094356
910.608839	2817.649599
910.915054	2811.554844
911.221229	2806.027218
911.527363	2807.045532
911.833458	2805.875984
912.139513	2811.118784
912.445527	2809.936633
912.751502	2824.336689
913.057436	2839.059379
913.363331	2856.529498
913.669186	2889.349930
913.975000	2925.966351
914.280775	2985.507419
914.586510	3065.134964
914.892205	3174.028929
915.197859	3321.301197
915.503475	3501.517406
915.809050	3681.143800
916.114585	3813.592555
916.420081	3888.952764
916.725536	3920.626334
917.030952	3881.673338
917.336328	3843.889890
917.641665	3797.717962
917.946961	3734.096080
918.252218	3676.188346
918.557435	3604.498097
918.862612	3537.417983
919.167750	3477.950012
919.472848	3403.746748
919.777906	3336.167560
920.082925	3264.895727
920.387904	3196.572969
920.692843	3138.418218
920.997743	3083.865372
921.302603	3037.748896
921.607423	3002.085253
921.912204	2966.308184
922.216946	2942.022426
922.521647	2916.937644
922.826310	2894.638100
923.130932	2874.695296
923.435516	2857.358767
923.740059	2843.730008
924.044564	2827.179900
924.349028	2815.670946
924.653454	2799.572021
924.957840	2785.824794
925.262186	2779.230965
925.566493	2765.801331
925.870761	2752.152407
926.174989	2749.931779
926.479178	2740.025912
926.783328	2732.713718
927.087438	2726.535784
927.391509	2720.246945
927.695541	2714.643702
927.999533	2708.372507
928.303486	2702.582742
928.607400	2701.783719
928.911275	2699.179963
929.215110	2693.632173
929.518906	2689.692511
929.822663	2691.121678
930.126381	2687.471883
930.430060	2689.150587
930.733699	2688.817871
931.037299	2691.953469
931.340861	2690.546987
931.644383	2689.402645
931.947866	2690.698221
932.251309	2690.741071
932.554714	2689.720237
932.858080	2692.409693
933.161407	2689.112778
933.464694	2686.652695
933.767943	2685.594053
934.071153	2686.130936
934.374323	2685.808302
934.677455	2684.676563
934.980548	2679.080882
935.283602	2677.810512
935.586617	2677.046777
935.889593	2679.557271
936.192530	2679.960564
936.495428	2683.060873
936.798287	2683.834690
937.101108	2689.689991
937.403890	2695.968748
937.706632	2704.936960
938.009336	2716.098075
938.312002	2728.065774
938.614628	2738.521127
938.917216	2750.405647
939.219765	2755.595515
939.522275	2763.825199
939.824747	2769.902310
940.127179	2761.203799
940.429573	2766.181938
940.731929	2765.266969
941.034246	2765.236722
941.336524	2766.126486
941.638763	2764.757812
941.940964	2762.811927
942.243126	2756.243304
942.545250	2753.884044
942.847335	2748.737026
943.149381	2742.307034
943.451389	2736.981055
943.753359	2731.947463
944.055290	2726.399673
944.357182	2722.081925
944.659036	2716.206460
944.960851	2716.254351
945.262628	2711.949205
945.564367	2712.798640
945.866067	2709.564740
946.167729	2706.643391
946.469352	2711.487940
946.770937	2704.163143
947.072484	2702.660879
947.373992	2706.260263
947.675462	2702.209696
947.976893	2701.297247
948.278286	2697.002184
948.579641	2698.640559
948.880958	2697.281968
949.182236	2700.737679
949.483476	2697.012267
949.784678	2694.766432
950.085841	2692.697039
950.386967	2697.614684
950.688054	2695.154601
950.989103	2701.975282
951.290114	2702.423945
951.591087	2707.152547
951.892021	2713.980790
952.192917	2718.472458
952.493776	2719.324413
952.794596	2721.701317
953.095378	2725.373798
953.396122	2728.088459
953.696828	2724.421020
953.997496	2724.022769
954.298126	2722.669219
954.598718	2717.749053
954.899272	2712.380224
955.199788	2711.924000
955.500266	2705.025181
955.800706	2698.388502
956.101108	2687.650844
956.401472	2686.032633
956.701798	2680.694052
957.002087	2672.050993
957.302337	2668.141578
957.602550	2662.326607
957.902724	2656.612460
958.202861	2651.107520
958.502960	2650.026192
958.803022	2644.475882
959.103045	2641.128556
959.403031	2637.927423
959.702979	2631.406690
960.002889	2630.799231
960.302762	2626.020218
960.602596	2623.865124
960.902393	2622.393107
961.202153	2621.941924
961.501875	2618.322376
961.801559	2618.892026
962.101205	2615.043105
962.400814	2615.655605
962.700385	2614.443208
962.999918	2612.686366
963.299414	2610.808536
963.598873	2611.975563
963.898293	2608.857609
964.197677	2607.589759
964.497022	2609.016406
964.796331	2606.997423
965.095601	2608.187136
965.394835	2609.999431
965.694030	2606.702516
965.993189	2608.504728
966.292309	2603.158585
966.591393	2605.938781
966.890439	2603.624892
967.189447	2605.283431
967.488419	2604.812083
967.787353	2606.261415
968.086249	2609.011364
968.385108	2608.164451
968.683930	2604.832248
968.982714	2606.342073
969.281462	2607.982969
969.580172	2609.051694
969.878844	2608.330809
970.177480	2611.869699
970.476078	2613.235851
970.774639	2612.862806
971.073162	2614.357508
971.371649	2613.248454
971.670098	2612.580501
971.968510	2618.103085
972.266885	2613.003958
972.565223	2621.410082
972.863524	2619.302880
973.161788	2620.837911
973.460014	2620.739609
973.758204	2622.486369
974.056356	2622.889661
974.354471	2623.668519
974.652550	2623.539970
974.950591	2622.176338
975.248595	2622.521657
975.546563	2623.504682
975.844493	2622.443519
976.142386	2621.647017
976.440243	2624.351596
976.738062	2621.208436
977.035845	2619.035699
977.333590	2618.450925
977.631299	2616.532766
977.928971	2616.860441
978.226606	2617.851028
978.524204	2613.470265
978.821765	2613.487909
979.119290	2612.772065
979.416777	2612.008330
979.714228	2614.397837
980.011642	2615.133846
980.309020	2616.290791
980.606360	2617.906480
980.903664	2621.087448
981.200931	2626.829323
981.498162	2632.745117
981.795356	2645.751294
982.092513	2658.785197
982.389633	2675.179029
982.686717	2693.012111
982.983764	2712.685214
983.280775	2725.590568
983.577749	2729.401680
983.874686	2730.362020
984.171587	2727.201216
984.468451	2725.270454
984.765279	2715.397355
985.062070	2710.146993
985.358824	2701.982844
985.655543	2692.351720
985.952224	2684.036337
986.248869	2671.602331
986.545478	2657.451812
986.842050	2644.853968
987.138586	2632.631691
987.435086	2622.483848
987.731549	2615.211984
988.027975	2614.486057
988.324366	2610.024636
988.620719	2604.910386
988.917037	2600.804366
989.213318	2600.580035
989.509563	2597.751947
989.805772	2598.876125
990.101944	2595.793459
990.398080	2598.671958
990.694180	2592.118458
990.990244	2593.897985
991.286271	2595.758171
991.582262	2593.482090
991.878217	2592.335227
992.174136	2595.117944
992.470019	2597.285641
992.765865	2599.090374
993.061676	2597.636001
993.357450	2600.138934
993.653188	2599.730600
993.948890	2602.200766
994.244556	2606.972218
994.540186	2613.069493
994.835780	2616.583177
995.131337	2623.086266
995.426859	2629.511217
995.722345	2637.272073
996.017795	2648.259268
996.313208	2657.144301
996.608586	2665.426917
996.903928	2667.050169
997.199234	2668.355827
997.494504	2670.521003
997.789738	2667.178718
998.084936	2665.996567
998.380099	2657.877789
998.675225	2653.229845
998.970316	2650.278250
999.265371	2642.678710
999.560390	2635.522792
999.855373	2630.443830
1000.150320	2621.813375
1000.445232	2615.161572
1000.740108	2610.952209
1001.034948	2608.741663
1001.329752	2603.997937
1001.624521	2601.147164
1001.919254	2595.874117
1002.213951	2597.746906
1002.508613	2590.464959
1002.803239	2589.083683
1003.097829	2588.919846
1003.392384	2591.700042
1003.686903	2589.444126
1003.981386	2590.782552
1004.275834	2586.179979
1004.570246	2588.113261
1004.864623	2588.067891
1005.158964	2588.531677
1005.453270	2586.646285
1005.747540	2584.876840
1006.041775	2584.874320
1006.335974	2588.312387
1006.630138	2586.631162
1006.924266	2584.639906
1007.218359	2585.887592
1007.512416	2586.323652
1007.806438	2584.077817
1008.100425	2582.517580
1008.394376	2583.896336
1008.688292	2583.561099
1008.982172	2586.495051
1009.276017	2585.310380
1009.569827	2582.320975
1009.863602	2584.065215
1010.157341	2581.390882
1010.451045	2583.382138
1010.744714	2580.848958
1011.038347	2583.283836
1011.331945	2583.528332
1011.625508	2583.780389
1011.919036	2583.031778
1012.212528	2580.354925
1012.505986	2580.296952
1012.799408	2581.335430
1013.092795	2580.692683
1013.386147	2582.822570
1013.679464	2581.156469
1013.972745	2579.286201
1014.265992	2581.557241
1014.559204	2581.965574
1014.852380	2582.227714
1015.145521	2583.472879
1015.438628	2580.208732
1015.731699	2581.915162
1016.024736	2577.481468
1016.317737	2581.070769
1016.610703	2583.230904
1016.903635	2578.225038
1017.196531	2580.813670
1017.489393	2576.868967
1017.782219	2579.694534
1018.075011	2578.134297
1018.367768	2582.880543
1018.660490	2582.963722
1018.953177	2582.963722
1019.245829	2582.963722
