Dividing Wavelength (nm)	Counts (n)	Blue Motor Position (mm): 41.500000	Red Motor Position (mm): 0.000000	
326.493990	2154.876500
326.888308	2154.876500
327.282561	2154.876500
327.676750	2128.475977
328.070874	2132.166102
328.464933	2135.357152
328.858929	2144.025416
329.252859	2156.159473
329.646726	2171.008192
330.040528	2183.477486
330.434265	2207.092771
330.827938	2221.001315
331.221547	2243.341188
331.615091	2261.597727
332.008571	2279.024995
332.401986	2301.170784
332.795338	2321.753815
333.188625	2342.399861
333.581847	2361.954497
333.975006	2382.590460
334.368100	2401.945970
334.761129	2418.327200
335.154095	2432.150043
335.546996	2459.742799
335.939833	2489.049547
336.332606	2504.959428
336.725315	2510.623165
337.117960	2520.781090
337.510540	2530.233253
337.903056	2541.475026
338.295508	2544.315717
338.687896	2553.641851
339.080220	2562.824313
339.472480	2565.745662
339.864676	2571.321178
340.256807	2573.771178
340.648875	2574.920562
341.040879	2576.117836
341.432818	2579.976839
341.824694	2581.743763
342.216506	2582.510019
342.608253	2578.998855
342.999937	2578.892991
343.391557	2581.799216
343.783113	2573.428380
344.174605	2575.827969
344.566033	2573.090623
344.957397	2574.350911
345.348697	2571.427042
345.739934	2571.369069
346.131106	2569.851681
346.522215	2566.537123
346.913260	2562.456309
347.304241	2565.617112
347.695159	2562.171483
348.086012	2561.410269
348.476802	2557.468087
348.867528	2557.510937
349.258191	2555.134033
349.648789	2553.951882
350.039324	2553.031872
350.429796	2552.888199
350.820203	2548.837632
351.210548	2548.888043
351.600828	2549.440049
351.991045	2550.027344
352.381198	2548.424257
352.771288	2549.477858
353.161314	2545.639019
353.551276	2547.925183
353.941175	2551.378373
354.331010	2547.559699
354.720782	2551.506923
355.110490	2549.956768
355.500135	2547.224462
355.889717	2549.805533
356.279235	2549.261088
356.668689	2549.939124
357.058080	2549.198074
357.447408	2547.857127
357.836672	2550.208825
358.225873	2545.155069
358.615010	2546.773279
359.004084	2550.201264
359.393095	2552.636141
359.782043	2551.151521
360.170927	2553.026830
360.559748	2553.651933
360.948505	2554.720658
361.337199	2557.647048
361.725830	2555.126471
362.114398	2554.967675
362.502903	2556.318704
362.891344	2560.291133
363.279722	2556.210319
363.668037	2555.865000
364.056289	2557.410114
364.444478	2558.998077
364.832603	2558.430947
365.220665	2559.330793
365.608665	2561.962276
365.996601	2559.416493
366.384474	2559.744168
366.772284	2560.230639
367.160031	2560.800290
367.547715	2561.795917
367.935336	2560.457491
368.322893	2563.822461
368.710388	2565.022256
369.097820	2564.533264
369.485189	2562.292471
369.872495	2561.291802
370.259738	2565.102914
370.646918	2564.651731
371.034035	2564.931515
371.421090	2563.958573
371.808081	2563.903120
372.195010	2567.489901
372.581875	2566.257339
372.968678	2567.464695
373.355418	2568.619119
373.742096	2566.426217
374.128710	2567.832699
374.515262	2566.025446
374.901751	2565.191135
375.288177	2566.942936
375.674540	2567.976372
376.060841	2568.311609
376.447079	2568.160374
376.833254	2568.344376
377.219367	2563.215002
377.605417	2567.265569
377.991404	2566.862277
378.377329	2568.165415
378.763191	2563.719118
379.148991	2571.321178
379.534727	2567.797411
379.920402	2571.013667
380.306013	2572.473081
380.691563	2570.612896
381.077049	2569.939902
381.462474	2572.951991
381.847835	2571.074161
382.233134	2572.634398
382.618371	2572.465520
383.003545	2574.227403
383.388657	2577.178998
383.773706	2575.976683
384.158693	2573.383010
384.543618	2574.124059
384.928480	2574.106415
385.313280	2576.246385
385.698017	2575.379307
386.082692	2578.855182
386.467305	2575.207907
386.851856	2579.235789
387.236344	2580.301993
387.620770	2578.270408
388.005133	2578.903073
388.389435	2585.572520
388.773674	2579.606314
389.157851	2579.974318
389.541965	2584.579412
389.926018	2586.353898
390.310008	2587.394897
390.693936	2586.946234
391.077802	2592.274734
391.461606	2594.946545
391.845348	2597.537698
392.229027	2599.176073
392.612645	2603.158585
392.996200	2608.953391
393.379694	2614.261726
393.763125	2618.440843
394.146494	2623.280350
394.529801	2626.436113
394.913047	2633.861732
395.296230	2638.877680
395.679351	2644.669966
396.062410	2651.825884
396.445408	2653.799496
396.828343	2665.920950
397.211217	2669.245591
397.594028	2672.660973
397.976778	2682.065245
398.359466	2696.369519
398.742092	2696.220805
399.124656	2715.490616
399.507158	2724.761298
399.889598	2732.663307
400.271977	2745.961870
400.654294	2753.876482
401.036549	2766.489449
401.418742	2776.917076
401.800874	2795.826444
402.182944	2808.434369
402.564952	2831.989161
402.946898	2836.919409
403.328783	2851.523632
403.710606	2866.707587
404.092367	2888.626524
404.474067	2914.308683
404.855705	2917.083838
405.237282	2927.440888
405.618797	2961.070426
406.000250	2983.972388
406.381642	3013.866430
406.762972	3027.079294
407.144240	3031.505427
407.525447	3061.016342
407.906593	3069.795511
408.287677	3095.404573
408.668700	3119.644961
409.049661	3127.403297
409.430560	3150.862306
409.811399	3163.553411
410.192176	3189.964016
410.572891	3205.394988
410.953545	3248.456524
411.334138	3233.333062
411.714669	3286.618059
412.095139	3248.005341
412.475547	3298.285809
412.855894	3300.168680
413.236180	3332.469873
413.616405	3327.577434
413.996568	3355.497864
414.376670	3360.385263
414.756711	3364.229143
415.136691	3395.600243
415.516609	3421.995725
415.896466	3437.013322
416.276262	3464.182621
416.655997	3498.386849
417.035670	3511.577028
417.415283	3580.986155
417.794834	3604.762757
418.174324	3592.391766
418.553753	3598.098352
418.933121	3644.413953
419.312428	3637.862973
419.691674	3635.927170
420.070859	3676.054755
420.449983	3658.191426
420.829045	3712.898028
421.208047	3696.335317
421.586988	3742.910537
421.965867	3775.872122
422.344686	3790.804019
422.723444	3826.384483
423.102141	3731.479721
423.480777	3836.938139
423.859352	3802.892706
424.237866	3903.062954
424.616319	3889.640882
424.994712	3949.111374
425.373044	3936.097635
425.751314	4001.602388
426.129524	3937.365485
426.507673	4037.571021
426.885762	4013.239892
427.263789	4041.651835
427.641756	4042.622257
428.019662	4074.749530
428.397508	4075.518306
428.775292	4114.088174
429.153016	4121.216366
429.530679	4135.329076
429.908282	4139.500631
430.285824	4120.019092
430.663305	4192.568858
431.040726	4150.848268
431.418086	4143.757885
431.795385	4218.450141
432.172624	4252.329216
432.549802	4219.685224
432.926920	4238.413111
433.303977	4233.077049
433.680974	4271.702370
434.057910	4296.804796
434.434786	4302.513902
434.811601	4295.345382
435.188355	4399.452770
435.565050	4373.861353
435.941683	4367.201988
436.318257	4457.794044
436.694770	4464.768480
437.071222	4518.933158
437.447614	4456.649702
437.823946	4457.819249
438.200218	4471.705108
438.576429	4456.276656
438.952580	4482.082323
439.328670	4487.100792
439.704700	4528.236607
440.080670	4493.452645
440.456580	4557.528231
440.832429	4592.110547
441.208218	4495.479189
441.583947	4547.614802
441.959616	4556.908169
442.335224	4583.719546
442.710773	4608.869863
443.086261	4658.595804
443.461689	4615.423363
443.837057	4626.292090
444.212365	4701.168348
444.587612	4706.617836
444.962800	4672.373278
445.337927	4712.306778
445.712995	4602.533132
446.088002	4789.471720
446.462949	4812.938291
446.837837	4834.910160
447.212664	4821.057069
447.587431	5047.485535
447.962139	5349.281772
448.336786	5687.487742
448.711374	5664.721892
449.085901	5311.815917
449.460369	5247.437862
449.834776	5185.635836
450.209124	5424.780613
450.583412	5432.942241
450.957640	5552.241147
451.331808	5417.372637
451.705917	5265.878402
452.079965	5259.445890
452.453954	5299.467610
452.827883	5260.736425
453.201752	5265.913690
453.575562	5297.408299
453.949311	5432.528866
454.323001	5437.779228
454.696632	5434.535245
455.070202	5588.960911
455.443713	5618.363441
455.817164	5709.668819
456.190556	5779.962669
456.563888	5756.803608
456.937160	5831.347150
457.310373	5676.218243
457.683526	5733.316872
458.056619	5724.043670
458.429653	5703.206060
458.802628	5752.914358
459.175542	5787.529441
459.548398	5923.227220
459.921194	6117.833402
460.293930	6174.092679
460.666607	6422.825731
461.039224	6641.876468
461.411782	6768.570747
461.784280	6677.126736
462.156719	6686.959507
462.529099	6647.595657
462.901419	6508.575757
463.273680	6371.494182
463.645882	6366.125353
464.018024	6362.125197
464.390106	6430.644560
464.762130	6691.350352
465.134094	7083.809220
465.505999	7718.951755
465.877845	8426.278572
466.249631	8780.548179
466.621358	8700.313174
466.993026	8497.668872
467.364634	8284.680122
467.736184	8003.330805
468.107674	7848.169131
468.479105	7768.007223
468.850477	7696.924433
469.221790	7525.731890
469.593043	7302.575132
469.964238	7205.437139
470.335373	7180.634662
470.706449	7334.029412
471.077467	7528.454113
471.448425	8187.222015
471.819324	8774.166078
472.190164	8810.066655
472.560945	8325.074888
472.931667	7849.852876
473.302330	7658.452868
473.672934	7535.829321
474.043479	7610.887060
474.413965	7515.132864
474.784393	7466.901624
475.154761	7624.979606
475.525070	7635.840772
475.895321	7585.749347
476.265513	7683.537649
476.635645	7850.321703
477.005719	7838.222934
477.375734	7924.890451
477.745691	8037.144344
478.115588	8240.133966
478.485427	8483.692273
478.855207	8956.277761
479.224928	9393.353361
479.594591	9772.901834
479.964194	9787.374987
480.333739	9863.793838
480.703226	9860.983394
481.072653	9964.236308
481.442022	10081.105377
481.811333	10231.205733
482.180584	10066.775897
482.549777	10010.567032
482.918912	9945.127814
483.287988	9935.405949
483.657005	9840.208799
484.025964	9765.181307
484.394864	9817.914297
484.763706	9783.992372
485.132489	9692.956696
485.501213	9673.855764
485.869879	9738.155681
486.238487	9673.989354
486.607036	9759.840204
486.975527	9703.384322
487.343959	9760.954299
487.712333	9802.145567
488.080648	9844.035035
488.448905	9943.791908
488.817104	9954.895049
489.185244	10123.995514
489.553326	10338.007618
489.921350	10809.872221
490.289315	11451.326281
490.657222	11727.072355
491.025070	11893.853889
491.392861	11818.886890
491.760593	11659.813280
492.128267	11407.569065
492.495883	11163.153762
492.863440	10929.309759
493.230939	10700.459018
493.598380	10519.927737
493.965763	10504.103555
494.333088	10370.170180
494.700354	10301.852463
495.067563	10282.504514
495.434713	10278.947980
495.801805	10322.725360
496.168839	10286.315627
496.535815	10250.581408
496.902733	10294.830136
497.269593	10255.587273
497.636395	10264.532801
498.003139	10375.231498
498.369825	10300.771135
498.736453	10394.733202
499.103023	10335.320683
499.469535	10338.665489
499.835989	10392.873016
500.202385	10367.954593
500.568723	10386.884125
500.935003	10448.945770
501.301226	10414.234906
501.667390	10578.836140
502.033497	10682.789774
502.399546	10610.759247
502.765537	10510.382312
503.131470	10613.922571
503.497345	10703.244256
503.863163	10479.921140
504.228923	10610.504669
504.594625	10731.613349
504.960269	10634.130036
505.325856	10787.083685
505.691385	10667.194964
506.056856	10739.114586
506.422270	10840.426655
506.787625	10773.235636
507.152924	10820.710702
507.518164	10884.758562
507.883347	10743.278579
508.248472	10834.752836
508.613540	10937.766294
508.978550	11015.652121
509.343503	10993.917186
509.708398	11048.923737
510.073236	11172.406800
510.438016	11186.960611
510.802738	11103.176634
511.167403	11232.038609
511.532010	11292.260233
511.896561	11388.952084
512.261053	11578.749006
512.625488	11500.255720
512.989866	11489.192908
513.354186	11464.513939
513.718449	11476.910136
514.082655	11613.948863
514.446803	11573.100393
514.810894	11686.881756
515.174927	11676.799448
515.538904	11672.428768
515.902822	11827.325781
516.266684	11696.976666
516.630488	11796.078189
516.994235	11785.602672
517.357925	11896.790361
517.721558	11956.936367
518.085133	12025.833817
518.448651	12056.410936
518.812112	12013.765295
519.175516	12016.089267
519.538863	12119.569032
519.902152	12114.590892
520.265385	12223.265566
520.628560	12250.434865
520.991678	12196.912934
521.354739	12248.473856
521.717743	12319.914568
522.080690	12292.523458
522.443580	12429.826845
522.806413	12445.552724
523.169189	12438.394286
523.531908	12499.578770
523.894569	12461.321454
524.257174	12478.410965
524.619722	12589.419693
524.982213	12562.759551
525.344647	12553.937532
525.707025	12564.471023
526.069345	12667.799553
526.431608	12644.411120
526.793815	12730.884553
527.155964	12619.414559
527.518057	12642.883651
527.880093	12613.735699
528.242072	12716.955845
528.603995	12645.651244
528.965860	12659.895024
529.327669	12694.731918
529.689421	12640.257209
530.051117	12653.986792
530.412755	12688.536340
530.774337	12681.569465
531.135862	12645.774752
531.497331	12702.454966
531.858743	12672.825584
532.220098	12755.631577
532.581396	12688.183459
532.942638	12607.356119
533.303824	12679.232890
533.664953	12657.989468
534.026025	12604.258330
534.387040	12715.317470
534.747999	12687.414683
535.108902	12727.138975
535.469748	12604.281015
535.830537	12641.845173
536.191270	12678.149042
536.551947	12609.347375
536.912567	12664.515242
537.273131	12698.830376
537.633638	12576.998290
537.994089	12640.542035
538.354483	12553.814024
538.714821	12679.953775
539.075103	12762.996703
539.435328	12692.859129
539.795497	12671.693845
540.155609	12666.584635
540.515665	12770.250923
540.875665	12620.327008
541.235609	12721.175290
541.595496	12688.319570
541.955328	12859.154192
542.315102	12719.718397
542.674821	12652.358499
543.034483	12667.378617
543.394090	12665.974656
543.753640	12634.112043
544.113134	12878.691183
544.472571	12637.960964
544.831953	12922.962597
545.191278	12734.491498
545.550548	12666.277125
545.909761	12784.071246
546.268918	12834.195439
546.628019	12887.281310
546.987064	12785.732307
547.346053	12624.400260
547.704986	12828.549347
548.063863	12703.546375
548.422684	12768.864606
548.781449	12714.226060
549.140158	12818.479642
549.498811	12760.201383
549.857408	12631.732618
550.215949	12833.441787
550.574434	12808.833394
550.932864	12746.854928
551.291237	12947.124847
551.649555	12828.559429
552.007817	12890.726938
552.366022	12812.727685
552.724173	12853.462729
553.082267	12941.743415
553.440305	13027.208617
553.798288	12859.300385
554.156215	12935.177312
554.514086	12980.724137
554.871902	12924.164912
555.229661	12950.817492
555.587365	12892.582083
555.945014	12915.330290
556.302606	12895.326991
556.660143	12950.693984
557.017625	12990.750992
557.375050	12950.636011
557.732421	13042.372408
558.089735	13047.443808
558.446994	13018.346268
558.804197	13135.646357
559.161345	13123.701343
559.518437	12946.645937
559.875474	13035.942416
560.232455	13053.619222
560.589381	13103.284670
560.946251	13040.890308
561.303065	13219.140467
561.659825	13167.035101
562.016528	13082.225249
562.373177	13029.023432
562.729770	13158.812979
563.086307	13037.006099
563.442789	13135.979073
563.799216	13183.738964
564.155587	13128.039256
564.511904	13150.865600
564.868164	13164.322960
565.224370	13222.197927
565.580520	13177.107327
565.936615	13233.190163
566.292654	13172.880319
566.648638	13243.990835
567.004567	13245.954365
567.360441	13241.225762
567.716260	13215.772977
568.072023	13290.679482
568.427732	13278.147173
568.783385	13177.422399
569.138982	13292.852219
569.494525	13288.859625
569.850013	13242.448242
570.205445	13215.253738
570.560823	13233.845513
570.916145	13199.318650
571.271412	13204.896687
571.626625	13158.407166
571.981782	13163.052590
572.336884	13113.498047
572.691931	13197.622302
573.046923	13089.476949
573.401860	13062.131210
573.756743	13065.460892
574.111570	13081.753902
574.466342	13058.501579
574.821059	13105.805247
575.175722	12987.698574
575.530330	13001.486129
575.884882	12929.808483
576.239380	12929.107763
576.593823	12922.022421
576.948211	12923.789346
577.302544	12798.002475
577.656823	12813.524188
578.011047	12877.309907
578.365216	12805.135708
578.719330	12752.765681
579.073389	12722.271741
579.427394	12735.968556
579.781344	12728.621075
580.135239	12660.789829
580.489080	12680.185668
580.842866	12554.771843
581.196597	12650.450423
581.550273	12637.076241
581.903895	12591.350455
582.257463	12713.154815
582.610975	12552.689847
582.964434	12613.851646
583.317837	12538.357846
583.671186	12495.598779
584.024481	12552.213457
584.377721	12436.234152
584.730906	12515.929753
585.084037	12527.418542
585.437113	12445.235132
585.790135	12469.369656
586.143103	12376.733413
586.496016	12394.687482
586.848874	12399.476578
587.201679	12406.720716
587.554428	12282.007611
587.907124	12326.281545
588.259765	12261.837955
588.612352	12336.600787
588.964884	12199.466279
589.317362	12253.782191
589.669786	12239.296435
590.022155	12192.406143
590.374470	12296.349694
590.726731	12181.870131
591.078937	12063.042573
591.431090	12091.056265
591.783188	12020.550688
592.135232	11938.294180
592.487222	12005.981753
592.839157	12010.788493
593.191038	11942.213677
593.542866	11890.559495
593.894639	11744.608008
594.246358	11813.218112
594.598022	11815.690798
594.949633	11715.754964
595.301190	11706.678367
595.652692	11655.699699
596.004141	11749.467681
596.355535	11532.927438
596.706876	11512.220898
597.058162	11478.455250
597.409395	11567.184599
597.760573	11595.009248
598.111698	11490.997641
598.462768	11495.229689
598.813785	11499.585246
599.164748	11373.904240
599.515657	11457.627723
599.866511	11332.211377
600.217312	11455.865840
600.568060	11224.257588
600.918753	11387.374203
601.269392	11388.001827
601.619978	11293.911211
601.970510	11331.326654
602.320988	11372.119671
602.671412	11441.979981
603.021783	11364.358815
603.372100	11286.961980
603.722363	11304.351440
604.072572	11307.895371
604.422728	11321.506487
604.772830	11267.608990
605.122878	11273.398756
605.472872	11250.249777
605.822813	11302.639968
606.172701	11266.230235
606.522534	11300.053857
606.872314	11360.913186
607.222041	11290.233689
607.571714	11369.659588
607.921333	11235.887530
608.270899	11287.420725
608.620411	11348.002791
608.969870	11296.414143
609.319276	11282.601382
609.668627	11300.200050
610.017926	11379.116793
610.367171	11407.460680
610.716362	11401.756615
611.065500	11369.024403
611.414585	11382.985878
611.763616	11442.151381
612.112594	11402.406924
612.461518	11433.460431
612.810389	11485.603606
613.159207	11432.167375
613.507971	11414.276320
613.856682	11521.294975
614.205340	11474.772687
614.553945	11616.232505
614.902496	11495.975780
615.250994	11560.926006
615.599439	11550.815972
615.947830	11583.245715
616.296169	11545.764736
616.644454	11560.583208
616.992686	11577.609705
617.340864	11670.838284
617.688990	11555.990717
618.037063	11686.226406
618.385082	11658.628609
618.733048	11700.674353
619.080961	11689.518279
619.428821	11666.278560
619.776628	11681.432268
620.124382	11632.001234
620.472083	11647.165025
620.819731	11667.944661
621.167326	11590.285686
621.514868	11573.491082
621.862357	11469.973509
622.209793	11459.472785
622.557176	11388.034594
622.904506	11323.953967
623.251783	11241.367264
623.599007	11181.654797
623.946179	11139.692232
624.293297	11107.559917
624.640363	10970.221243
624.987376	10951.717688
625.334336	10893.968750
625.681243	10812.140740
626.028097	10784.837851
626.374899	10753.701164
626.721647	10720.013654
627.068343	10688.312358
627.414987	10615.278642
627.761577	10559.193284
628.108115	10603.187434
628.454600	10474.295212
628.801032	10492.481175
629.147412	10470.065684
629.493739	10442.160377
629.840014	10362.711793
630.186236	10411.704246
630.532405	10313.305964
630.878521	10349.982879
631.224585	10305.232557
631.570597	10225.035361
631.916556	10233.517102
632.262462	10217.408095
632.608316	10197.220794
632.954117	10173.943266
633.299866	10157.037757
633.645562	10127.418457
633.991206	10017.682621
634.336797	9926.309187
634.682336	9912.120859
635.027823	9861.638744
635.373257	9820.376900
635.718639	9758.030430
636.063968	9728.123785
636.409245	9612.414181
636.754470	9599.047561
637.099642	9544.867760
637.444762	9441.536709
637.789829	9443.659035
638.134845	9370.499290
638.479808	9352.399027
638.824719	9326.671498
639.169577	9241.372655
639.514383	9242.401050
639.859137	9170.763733
640.203839	9200.365389
640.548489	9129.305284
640.893086	9138.500349
641.237632	9068.433351
641.582125	9069.413856
641.926566	9063.596364
642.270955	9046.088437
642.615292	9039.524855
642.959576	9014.084672
643.303809	9012.360597
643.647990	9026.407772
643.992118	9003.430193
644.336195	8976.379362
644.680219	8972.190163
645.024192	9014.185495
645.368112	9086.901618
645.711981	9060.203668
646.055797	9195.891365
646.399562	9157.273606
646.743274	9312.712543
647.086935	9382.585456
647.430544	9364.281027
647.774101	9382.159479
648.117606	9410.999920
648.461059	9478.221186
648.804460	9412.539992
649.147810	9290.032392
649.491108	9259.140201
649.834354	9195.152836
650.177548	9049.274446
650.520690	8959.604922
650.863781	8951.191236
651.206820	8925.962782
651.549807	8837.679575
651.892742	8743.203311
652.235626	8704.131848
652.578458	8670.419132
652.921238	8552.856903
653.263967	8593.433151
653.606644	8532.079788
653.949269	8510.801078
654.291843	8429.522554
654.634365	8489.550093
654.976836	8419.601563
655.319255	8413.166530
655.661622	8413.678208
656.003938	8364.141309
656.346203	8337.849171
656.688416	8358.233077
657.030577	8320.905853
657.372687	8284.120554
657.714746	8316.394021
658.056753	8332.417328
658.398708	8230.172646
658.740612	8220.644865
659.082465	8270.411136
659.424266	8226.351451
659.766016	8239.629850
660.107715	8210.476858
660.449362	8227.967141
660.790958	8224.435813
661.132503	8213.027682
661.473996	8215.485244
661.815438	8233.945949
662.156829	8263.003160
662.498168	8211.661529
662.839456	8198.683078
663.180693	8216.599339
663.521879	8243.524142
663.863013	8228.274651
664.204097	8219.830719
664.545129	8299.324674
664.886110	8285.615256
665.227040	8293.376112
665.567918	8306.306672
665.908746	8320.527767
666.249522	8340.248761
666.590248	8332.432452
666.930922	8351.462807
667.271545	8339.076692
667.612118	8359.831123
667.952639	8324.464908
668.293109	8321.740164
668.633528	8296.292420
668.973896	8289.123899
669.314213	8292.030124
669.654480	8249.906243
669.994695	8241.674038
670.334859	8224.859270
670.674973	8200.636525
671.015035	8216.866520
671.355047	8216.697642
671.695008	8201.584262
672.034918	8177.265736
672.374777	8183.857045
672.714585	8164.108325
673.054342	8190.695370
673.394049	8155.727406
673.733705	8199.472019
674.073310	8144.924214
674.412864	8157.234711
674.752368	8098.948891
675.091820	8146.912949
675.431223	8076.006599
675.770574	8029.791822
676.109875	8001.606730
676.449125	7963.215823
676.788324	7946.101106
677.127473	7858.768157
677.466571	7846.225766
677.805619	7779.158255
678.144616	7778.548276
678.483562	7757.630008
678.822458	7713.761887
679.161303	7696.858898
679.500098	7672.346288
679.838842	7657.989081
680.177535	7667.549630
680.516179	7702.610855
680.854771	7722.150367
681.193314	7840.067997
681.531805	7993.457705
681.870247	8123.073332
682.208638	8268.745034
682.546978	8346.197322
682.885268	8377.636478
683.223508	8303.337432
683.561697	8257.223477
683.899836	8221.022952
684.237925	8134.766289
684.575963	8110.104964
684.913951	8032.514045
685.251889	8046.034419
685.589776	8040.842031
685.927614	8024.349896
686.265401	8048.008031
686.603137	8046.596508
686.940824	8122.576779
687.278460	8169.207452
687.616046	8180.713885
687.953582	8290.094321
688.291068	8273.680324
688.628504	8334.368255
688.965889	8336.054521
689.303224	8294.719580
689.640510	8256.489989
689.977745	8146.716344
690.314930	8033.406329
690.652065	7950.020603
690.989150	7844.940272
691.326185	7685.833895
691.663170	7579.747853
692.000105	7461.046324
692.336990	7345.939138
692.673825	7269.492560
693.010610	7176.130391
693.347345	7075.685401
693.684030	6965.929399
694.020665	6914.227325
694.357251	6802.366642
694.693786	6792.410363
695.030272	6752.481904
695.366707	6660.634602
695.703093	6608.110820
696.039429	6603.281394
696.375716	6555.556791
696.711952	6541.232352
697.048139	6514.297467
697.384276	6480.219267
697.720363	6504.943606
698.056400	6477.996118
698.392388	6438.755777
698.728326	6436.061280
699.064214	6411.440285
699.400053	6406.968781
699.735842	6351.944587
700.071581	6303.909952
700.407270	6263.749600
700.742910	6230.919086
701.078501	6189.150606
701.414042	6147.077136
701.749533	6087.805769
702.084974	6032.837028
702.420366	6072.573923
702.755709	5998.327809
703.091002	5951.223268
703.426246	5954.855419
703.761440	5938.176762
704.096584	5894.311161
704.431679	5883.911261
704.766725	5868.979363
705.101721	5854.475964
705.436668	5866.864599
705.771565	5808.624149
706.106413	5869.480958
706.441212	5869.579261
706.775961	5886.951077
707.110661	5896.103292
707.445311	5955.374658
707.779913	5918.410397
708.114465	5966.147604
708.448967	6008.382391
708.783421	6117.581345
709.117825	6164.448952
709.452180	6197.012285
709.786485	6261.365135
710.120742	6392.165433
710.454949	6389.377675
710.789107	6469.486651
711.123216	6591.822852
711.457275	6624.300485
711.791286	6726.577935
712.125247	6744.340441
712.459159	6718.401183
712.793023	6848.349527
713.126837	6671.001734
713.460602	6734.631178
713.794318	6694.397729
714.127985	6641.838659
714.461602	6491.524055
714.795171	6493.560681
715.128691	6328.974569
715.462162	6238.168265
715.795584	6166.772924
716.128957	6124.528055
716.462281	6059.338374
716.795556	6024.551892
717.128782	5936.402275
717.461960	5837.255382
717.795088	5825.723743
718.128167	5758.063896
718.461198	5673.170866
718.794180	5650.876363
719.127113	5592.814873
719.459997	5555.560746
719.792833	5495.112271
720.125619	5488.175643
720.458357	5430.114153
720.791046	5402.798661
721.123686	5372.897057
721.456278	5326.437783
721.788821	5317.961083
722.121315	5275.368374
722.453761	5285.014622
722.786158	5267.307569
723.118506	5274.670175
723.450805	5250.187811
723.783056	5275.975833
724.115259	5259.829018
724.447412	5243.460391
724.779518	5295.343947
725.111574	5298.837466
725.443582	5336.199978
725.775542	5322.893852
726.107453	5404.868055
726.439315	5379.274117
726.771129	5448.821875
727.102895	5510.603736
727.434612	5558.315737
727.766281	5583.110652
728.097901	5643.899406
728.429473	5653.853164
728.760996	5664.119474
729.092471	5690.777095
729.423897	5680.329304
729.755276	5647.786135
730.086606	5663.408671
730.417887	5746.892699
730.749120	5841.091700
731.080305	5881.925046
731.411442	5958.442200
731.742530	5976.280323
732.073570	5998.302603
732.404562	6057.153033
732.735506	6053.606582
733.066401	6035.531525
733.397249	5965.721626
733.728048	5871.202512
734.058798	5728.989042
734.389501	5605.064877
734.720156	5523.662845
735.050762	5411.151853
735.381320	5337.838353
735.711831	5281.080002
736.042293	5203.960430
736.372707	5201.074370
736.703073	5154.418491
737.033391	5186.903686
737.363661	5171.749978
737.693883	5178.938663
738.024056	5203.698290
738.354182	5233.431016
738.684260	5284.064365
739.014290	5321.008461
739.344272	5354.479202
739.674207	5407.852418
740.004093	5442.959013
740.333931	5450.303975
740.663722	5470.357685
740.993464	5479.462008
741.323159	5462.982477
741.652806	5413.667389
741.982405	5386.465323
742.311956	5335.353064
742.641460	5323.634902
742.970915	5270.120533
743.300323	5208.010997
743.629683	5175.750133
743.958996	5127.435715
744.288260	5079.665741
744.617477	5017.929250
744.946647	5002.669678
745.275768	4950.818890
745.604842	4912.445627
745.933869	4880.525041
746.262847	4870.851066
746.591778	4858.966546
746.920662	4832.659285
747.249498	4829.344726
747.578286	4849.537068
747.907027	4869.926015
748.235720	4914.756996
748.564365	4920.897121
748.892963	4911.860853
749.221514	4929.898101
749.550017	4906.008073
749.878473	4903.477414
750.206881	4865.091548
750.535242	4849.098487
750.863555	4832.946631
751.191821	4811.423424
751.520039	4816.078930
751.848210	4798.056805
752.176334	4799.669974
752.504411	4781.973003
752.832440	4753.321606
753.160421	4765.067494
753.488356	4743.085543
753.816243	4724.944951
754.144082	4691.685938
754.471875	4683.884753
754.799620	4671.649872
755.127318	4665.600487
755.454969	4659.437677
755.782572	4649.846882
756.110129	4656.975073
756.437638	4640.767764
756.765100	4637.551508
757.092515	4638.179131
757.419882	4641.639883
757.747203	4637.286847
758.074477	4653.645391
758.401703	4647.727077
758.728882	4672.433772
759.056014	4685.692006
759.383099	4701.564079
759.710138	4737.472218
760.037129	4753.777830
760.364073	4765.427937
760.690970	4764.359212
761.017820	4765.740488
761.344623	4799.342299
761.671379	4858.066700
761.998088	4953.568839
762.324751	5179.334394
762.651366	5643.901926
762.977935	6337.945303
763.304456	6898.723257
763.630931	7202.994700
763.957359	7141.414485
764.283740	6846.454053
764.610074	6531.298758
764.936362	6125.795905
765.262602	5805.417975
765.588796	5457.757321
765.914943	5203.458835
766.241044	4977.907530
766.567097	4807.377898
766.893104	4656.929703
767.219064	4558.256678
767.544978	4459.820588
767.870845	4379.837641
768.196665	4331.954241
768.522438	4281.565388
768.848165	4242.239346
769.173846	4198.540104
769.499479	4166.987522
769.825066	4134.658603
770.150607	4095.261985
770.476101	4080.781271
770.801548	4059.212694
771.126949	4026.107437
771.452303	4009.665714
771.777611	3971.751196
772.102872	3969.094507
772.428087	3940.838840
772.753256	3917.488216
773.078378	3895.186151
773.403453	3869.302347
773.728482	3840.512317
774.053465	3826.520594
774.378401	3805.919919
774.703291	3783.002834
775.028135	3760.620111
775.352932	3750.804984
775.677683	3730.983167
776.002388	3711.489025
776.327046	3710.758058
776.651658	3691.619318
776.976224	3671.681554
777.300743	3670.328004
777.625216	3657.611694
777.949643	3644.950836
778.274024	3649.593738
778.598359	3633.865338
778.922647	3632.879793
779.246889	3621.784213
779.571086	3621.660705
779.895236	3624.478710
780.219339	3623.702372
780.543397	3621.290180
780.867409	3633.247797
781.191374	3632.413486
781.515294	3628.441057
781.839167	3647.461330
782.162995	3645.155002
782.486776	3635.150833
782.810511	3628.526757
783.134201	3614.461937
783.457844	3613.831793
783.781441	3605.793673
784.104993	3593.770521
784.428498	3591.610387
784.751958	3587.970674
785.075372	3579.690579
785.398739	3572.312850
785.722061	3580.260229
786.045337	3580.698809
786.368568	3604.583796
786.691752	3598.572220
787.014891	3644.343377
787.337983	3690.016231
787.661030	3777.323974
787.984031	3876.710322
788.306987	3954.512970
788.629897	4002.446781
788.952760	4013.819624
789.275579	3990.635358
789.598351	3942.172225
789.921078	3890.157600
790.243759	3829.187365
790.566395	3779.726084
790.888984	3730.784042
791.211529	3696.494113
791.534027	3647.915034
791.856480	3612.357256
792.178888	3595.245059
792.501249	3577.182605
792.823566	3544.951987
793.145836	3537.927140
793.468062	3529.848691
793.790241	3508.166688
794.112375	3517.137421
794.434464	3541.753375
794.756507	3540.606513
795.078505	3558.303483
795.400457	3597.516099
795.722364	3648.338491
796.044226	3694.273485
796.366042	3739.616143
796.687812	3734.126327
797.009538	3761.701438
797.331218	3750.668873
797.652852	3743.712081
797.974442	3723.146694
798.295986	3709.638922
798.617484	3682.855272
798.938938	3655.980880
799.260346	3644.040907
799.581709	3607.051441
799.903026	3594.549380
800.224299	3578.463058
800.545526	3541.433262
800.866708	3529.427754
801.187845	3513.785054
801.508936	3492.181189
801.829983	3485.201712
802.150984	3454.501085
802.471940	3447.481278
802.792851	3438.991975
803.113717	3433.817230
803.434538	3424.228956
803.755314	3413.846699
804.076045	3410.484250
804.396731	3397.881365
804.717372	3397.533526
805.037967	3396.447157
805.358518	3401.069895
805.679024	3413.718150
805.999485	3411.618509
806.319901	3416.266453
806.640272	3416.233686
806.960598	3428.110644
807.280879	3424.443205
807.601115	3438.835699
807.921306	3431.039555
808.241453	3432.088115
808.561554	3441.157150
808.881611	3434.800255
809.201623	3438.843261
809.521590	3427.566200
809.841513	3429.212136
810.161390	3437.835030
810.481223	3413.786206
810.801011	3411.555495
811.120755	3409.344949
811.440453	3397.215933
811.760107	3390.680077
812.079716	3379.864281
812.399281	3373.678786
812.718801	3368.889689
813.038276	3362.986498
813.357707	3357.148842
813.677093	3369.366078
813.996434	3351.638861
814.315731	3358.225128
814.634983	3357.058101
814.954191	3360.231508
815.273354	3374.550905
815.592473	3384.945764
815.911547	3403.333373
816.230577	3417.161258
816.549562	3443.571863
816.868502	3460.573154
817.187399	3479.283397
817.506250	3507.249198
817.825058	3521.051877
818.143821	3566.457550
818.462539	3609.521607
818.781213	3668.921522
819.099843	3748.360025
819.418429	3902.135382
819.736970	4055.444432
820.055466	4244.202876
820.373919	4481.434535
820.692327	4819.491791
821.010691	5331.403320
821.329011	6406.245376
821.647286	8163.067326
821.965517	10333.420168
822.283704	11969.501443
822.601847	13057.188359
822.919945	12646.530925
823.237999	11961.385186
823.556010	11068.894268
823.873976	10111.765675
824.191897	9132.372826
824.509775	8365.928398
824.827609	7565.567087
825.145398	7012.504619
825.463144	6628.066227
825.780845	6496.033367
826.098502	6555.438324
826.416116	6935.064935
826.733685	7443.276257
827.051210	7729.127324
827.368692	7636.360011
827.686129	7191.629418
828.003522	6640.303628
828.320872	6072.798254
828.638177	5605.395073
828.955439	5242.631121
829.272656	4901.776025
829.589830	4619.736070
829.906960	4356.068600
830.224046	4145.174450
830.541088	3975.128769
830.858086	3855.366077
831.175041	3759.937034
831.491952	3717.961867
831.808819	3699.019731
832.125642	3735.003488
832.442421	3834.266327
832.759157	4053.881674
833.075849	4428.280608
833.392497	4898.224532
833.709101	5283.769457
834.025662	5395.695676
834.342179	5270.486017
834.658653	4999.279502
834.975083	4726.989138
835.291469	4479.365141
835.607811	4255.333743
835.924110	4100.406483
836.240366	3937.466308
836.556578	3776.935805
836.872746	3637.056389
837.188871	3520.620858
837.504952	3429.789348
837.820990	3350.749097
838.136984	3297.446457
838.452935	3267.239863
838.768842	3254.911722
839.084706	3284.604118
839.400526	3423.069490
839.716303	3650.707833
840.032037	3859.913197
840.347727	3927.852828
840.663373	3833.114424
840.978977	3685.151517
841.294537	3553.683266
841.610054	3449.638892
841.925527	3370.356665
842.240957	3303.843681
842.556344	3243.364959
842.871687	3184.670804
843.186987	3120.796865
843.502244	3068.714184
843.817458	3029.282278
844.132629	2996.292968
844.447756	2979.208497
844.762840	2953.823767
845.077881	2935.637804
845.392879	2920.968047
845.707833	2908.337436
846.022745	2897.239336
846.337613	2897.093142
846.652438	2889.105434
846.967221	2883.950854
847.281960	2876.489946
847.596656	2871.297558
847.911309	2868.114069
848.225919	2861.600898
848.540485	2856.620238
848.855009	2854.281143
849.169490	2849.315607
849.483928	2847.712520
849.798323	2847.460462
850.112675	2841.761437
850.426984	2843.694720
850.741251	2839.041735
851.055474	2836.165757
851.369654	2837.146261
851.683792	2837.053000
851.997887	2837.020232
852.311938	2836.853874
852.625947	2835.487722
852.939914	2834.837413
853.253837	2834.671055
853.567718	2835.764985
853.881555	2833.451095
854.195350	2837.892352
854.509103	2835.142402
854.822812	2831.926146
855.136479	2833.292299
855.450103	2834.844974
855.763685	2831.671568
856.077224	2831.283399
856.390720	2835.517968
856.704173	2835.724656
857.017584	2839.094667
857.330953	2837.594924
857.644278	2842.978876
857.957561	2842.061386
858.270802	2845.701099
858.584000	2847.336954
858.897155	2843.747652
859.210268	2841.123732
859.523339	2840.521314
859.836367	2838.582990
860.149352	2836.143072
860.462295	2836.551405
860.775195	2830.880107
861.088054	2829.952535
861.400869	2830.050837
861.713642	2827.545384
862.026373	2831.961434
862.339062	2833.647700
862.651708	2839.296313
862.964312	2843.011644
863.276873	2841.085923
863.589392	2850.671677
863.901869	2855.952286
864.214303	2866.440406
864.526696	2869.888555
864.839045	2877.573794
865.151353	2884.981770
865.463619	2887.061246
865.775842	2888.145094
866.088023	2895.129613
866.400162	2895.830333
866.712258	2897.370406
867.024313	2898.396280
867.336325	2900.934501
867.648296	2901.743607
867.960224	2900.614388
868.272110	2902.038514
868.583954	2901.660428
868.895755	2908.687796
869.207515	2905.632857
869.519233	2912.274577
869.830909	2914.442273
870.142542	2920.403438
870.454134	2921.875454
870.765684	2923.470980
871.077191	2931.125972
871.388657	2937.475305
871.700081	2942.234154
872.011463	2951.444342
872.322803	2954.456432
872.634101	2957.705455
872.945357	2963.744758
873.256571	2977.600369
873.567744	2985.164620
873.878874	2985.875423
874.189963	2994.478152
874.501010	2995.945128
874.812015	2995.766167
875.122979	3005.581293
875.433900	3008.467354
875.744780	3008.966428
876.055618	3016.787778
876.366415	3015.666122
876.677169	3022.678367
876.987882	3031.205478
877.298554	3036.672610
877.609183	3053.704148
877.919771	3072.966397
878.230317	3096.803493
878.540822	3128.933287
878.851285	3183.249199
879.161707	3248.995927
879.472087	3358.421733
879.782425	3517.092051
880.092722	3797.208805
880.402977	4219.017271
880.713191	4768.003966
881.023363	5371.137695
881.333494	5817.181508
881.643583	6099.201298
881.953631	6182.518968
882.263637	6129.049970
882.573602	5987.854812
882.883526	5816.523637
883.193408	5618.673472
883.503248	5392.572681
883.813048	5176.070247
884.122806	4958.080672
884.432522	4717.579825
884.742197	4485.336388
885.051831	4278.205458
885.361424	4077.784305
885.670975	3908.015887
885.980485	3762.792848
886.289954	3632.857108
886.599382	3530.594781
886.908768	3443.604631
887.218113	3365.953217
887.527417	3301.451654
887.836680	3244.254722
888.145901	3196.184800
888.455082	3157.057884
888.764221	3127.302474
889.073319	3093.098245
889.382376	3078.030236
889.691392	3059.498954
890.000366	3050.074517
890.309300	3041.300389
890.618193	3038.757127
890.927044	3034.487270
891.235855	3034.842671
891.544625	3036.922147
891.853353	3044.161244
892.162041	3056.877554
892.470687	3084.099785
892.779293	3117.237810
893.087858	3161.347906
893.396381	3241.492170
893.704864	3347.086699
894.013306	3506.288858
894.321707	3696.438661
894.630068	3847.350642
894.938387	3926.990791
895.246665	3935.366668
895.554903	3873.846947
895.863100	3785.558699
896.171256	3710.528686
896.479371	3639.178715
896.787446	3565.318249
897.095480	3489.234635
897.403473	3437.146913
897.711425	3378.505690
898.019336	3328.784790
898.327207	3272.207920
898.635038	3229.146384
898.942827	3174.696882
899.250576	3132.968731
899.558284	3093.362905
899.865952	3066.440623
900.173579	3036.854091
900.481165	3015.328364
900.788711	2994.909171
901.096216	2982.182778
901.403681	2966.744244
901.711105	2959.774849
902.018489	2953.826288
902.325832	2962.711321
902.633135	2973.426294
902.940397	3006.970131
903.247619	3099.964296
903.554800	3277.085237
903.861941	3551.177813
904.169041	3816.861744
904.476101	3986.234431
904.783121	4012.592103
905.090100	3945.688430
905.397039	3839.599868
905.703938	3732.087180
906.010796	3629.779483
906.317614	3546.577760
906.624391	3457.503092
906.931129	3385.240672
907.237826	3317.323727
907.544483	3249.787389
907.851099	3179.717871
908.157675	3104.264401
908.464211	3032.599358
908.770707	2975.173053
909.077163	2928.537339
909.383578	2890.743809
909.689954	2860.738861
909.996289	2843.697241
910.302584	2826.368274
910.608839	2821.049857
910.915054	2810.342446
911.221229	2808.658701
911.527363	2808.207517
911.833458	2808.094092
912.139513	2810.738177
912.445527	2809.762713
912.751502	2823.867862
913.057436	2842.293279
913.363331	2858.014117
913.669186	2890.232132
913.975000	2926.039448
914.280775	2986.495485
914.586510	3065.001374
914.892205	3178.049249
915.197859	3324.469562
915.503475	3510.084847
915.809050	3681.315199
916.114585	3816.387875
916.420081	3891.049884
916.725536	3925.972477
917.030952	3888.786406
917.336328	3847.695961
917.641665	3803.648879
917.946961	3742.502204
918.252218	3684.924665
918.557435	3608.422635
918.862612	3542.199518
919.167750	3483.152483
919.472848	3407.018457
919.777906	3338.133610
920.082925	3271.292951
920.387904	3195.600026
920.692843	3141.831079
920.997743	3086.932914
921.302603	3040.987837
921.607423	3004.772188
921.912204	2969.274903
922.216946	2943.580142
922.521647	2917.751791
922.826310	2899.633884
923.130932	2877.954402
923.435516	2856.700897
923.740059	2844.997858
924.044564	2827.870538
924.349028	2814.627427
924.653454	2799.418266
924.957840	2786.228087
925.262186	2777.527055
925.566493	2766.401229
925.870761	2752.717017
926.174989	2748.547982
926.479178	2741.646643
926.783328	2733.898389
927.087438	2726.596278
927.391509	2722.001266
927.695541	2713.809391
927.999533	2708.606920
928.303486	2703.646425
928.607400	2702.217258
928.911275	2699.953780
929.215110	2696.644262
929.518906	2689.543797
929.822663	2690.105886
930.126381	2687.633200
930.430060	2690.191585
930.733699	2689.485824
931.037299	2689.697552
931.340861	2689.135464
931.644383	2690.410876
931.947866	2689.095134
932.251309	2688.984229
932.554714	2689.503468
932.858080	2688.863241
933.161407	2688.772501
933.464694	2687.282840
933.767943	2685.238652
934.071153	2684.817715
934.374323	2682.811336
934.677455	2682.168589
934.980548	2679.584998
935.283602	2681.578774
935.586617	2678.957374
935.889593	2679.227076
936.192530	2681.369566
936.495428	2679.214473
936.798287	2685.157993
937.101108	2689.427851
937.403890	2694.945393
937.706632	2707.006354
938.009336	2718.963971
938.312002	2729.535271
938.614628	2739.073134
938.917216	2749.803230
939.219765	2757.808582
939.522275	2764.079777
939.824747	2768.768050
940.127179	2762.968203
940.429573	2764.604057
940.731929	2769.456168
941.034246	2764.861156
941.336524	2763.434510
941.638763	2765.970210
941.940964	2765.554315
942.243126	2758.196751
942.545250	2756.664240
942.847335	2744.996489
943.149381	2742.317116
943.451389	2737.822927
943.753359	2731.037534
944.055290	2726.944117
944.357182	2724.128633
944.659036	2716.390462
944.960851	2715.420040
945.262628	2713.925338
945.564367	2712.334854
945.866067	2709.552137
946.167729	2709.824359
946.469352	2708.601879
946.770937	2704.637012
947.072484	2702.360931
947.373992	2707.097095
947.675462	2702.262628
947.976893	2703.641384
948.278286	2698.446475
948.579641	2696.934129
948.880958	2696.543439
949.182236	2698.196938
949.483476	2697.944880
949.784678	2697.763398
950.085841	2693.415403
950.386967	2695.131916
950.688054	2696.359437
950.989103	2699.202648
951.290114	2702.484439
951.591087	2708.556509
951.892021	2711.485419
952.192917	2718.606049
952.493776	2719.415154
952.794596	2721.106461
953.095378	2724.418499
953.396122	2728.090980
953.696828	2724.484034
953.997496	2723.027141
954.298126	2720.191492
954.598718	2717.484392
954.899272	2714.994062
955.199788	2709.665563
955.500266	2705.824203
955.800706	2697.090404
956.101108	2691.328366
956.401472	2685.639423
956.701798	2675.826817
957.002087	2670.475633
957.302337	2668.219716
957.602550	2664.249808
957.902724	2655.072387
958.202861	2653.030720
958.502960	2648.276912
958.803022	2644.337250
959.103045	2638.308030
959.403031	2637.312402
959.702979	2632.566156
960.002889	2629.889303
960.302762	2626.340331
960.602596	2626.420989
960.902393	2624.943931
961.202153	2617.777931
961.501875	2617.334309
961.801559	2621.193313
962.101205	2617.498147
962.400814	2616.023609
962.700385	2613.981942
962.999918	2615.123763
963.299414	2609.361725
963.598873	2608.623196
963.898293	2609.984307
964.197677	2609.202928
964.497022	2606.445417
964.796331	2607.960284
965.095601	2607.730911
965.394835	2608.683689
965.694030	2606.581528
965.993189	2604.804522
966.292309	2607.531786
966.591393	2605.106991
966.890439	2603.607248
967.189447	2606.326950
967.488419	2603.992896
967.787353	2603.027515
968.086249	2603.753441
968.385108	2604.149172
968.683930	2605.043976
968.982714	2608.368617
969.281462	2606.455499
969.580172	2609.482712
969.878844	2609.263422
970.177480	2610.309462
970.476078	2610.599328
970.774639	2613.734926
971.073162	2615.068311
971.371649	2615.262395
971.670098	2612.734257
971.968510	2611.857096
972.266885	2616.436984
972.565223	2617.626696
972.863524	2619.733899
973.161788	2621.876389
973.460014	2621.573920
973.758204	2623.865124
974.056356	2623.023252
974.354471	2625.034672
974.652550	2622.546862
974.950591	2622.922428
975.248595	2622.473766
975.546563	2623.171966
975.844493	2624.306225
976.142386	2621.231121
976.440243	2619.159207
976.738062	2618.478651
977.035845	2617.299021
977.333590	2614.554113
977.631299	2618.093003
977.928971	2617.588888
978.226606	2616.210132
978.524204	2611.100923
978.821765	2613.424895
979.119290	2611.557147
979.416777	2613.840790
979.714228	2612.285594
980.011642	2612.073865
980.309020	2616.840276
980.606360	2616.462190
980.903664	2621.054681
981.200931	2628.177831
981.498162	2633.402987
981.795356	2644.780872
982.092513	2659.995074
982.389633	2676.497291
982.686717	2693.284333
982.983764	2711.954247
983.280775	2724.511761
983.577749	2731.584500
983.874686	2732.786815
984.171587	2726.087121
984.468451	2723.329610
984.765279	2717.179402
985.062070	2710.799822
985.358824	2701.871939
985.655543	2691.764425
985.952224	2682.566840
986.248869	2667.733245
986.545478	2653.262613
986.842050	2644.115439
987.138586	2633.178656
987.435086	2624.669188
987.731549	2614.297014
988.027975	2611.471447
988.324366	2608.255191
988.620719	2604.832248
988.917037	2603.123297
989.213318	2601.570621
989.509563	2595.417893
989.805772	2597.336052
990.101944	2594.749940
990.398080	2596.317739
990.694180	2592.950248
990.990244	2592.526791
991.286271	2595.790938
991.582262	2594.321442
991.878217	2595.738006
992.174136	2596.257245
992.470019	2595.949735
992.765865	2596.330342
993.061676	2599.251691
993.357450	2598.848398
993.653188	2600.113728
993.948890	2603.624892
994.244556	2608.192177
994.540186	2609.991869
994.835780	2615.869854
995.131337	2620.923611
995.426859	2631.149592
995.722345	2638.146713
996.017795	2647.833290
996.313208	2657.630773
996.608586	2662.409787
996.903928	2667.594613
997.199234	2666.977072
997.494504	2668.222237
997.789738	2666.626712
998.084936	2661.441885
998.380099	2656.315032
998.675225	2653.328148
998.970316	2645.113588
999.265371	2640.115284
999.560390	2635.459778
999.855373	2629.975003
1000.150320	2623.040896
1000.445232	2614.375152
1000.740108	2612.061262
1001.034948	2606.410129
1001.329752	2601.653800
1001.624521	2599.755806
1001.919254	2595.669951
1002.213951	2591.158118
1002.508613	2589.993612
1002.803239	2593.330855
1003.097829	2588.738364
1003.392384	2590.633838
1003.686903	2589.237438
1003.981386	2590.003694
1004.275834	2585.774166
1004.570246	2586.827767
1004.864623	2585.144022
1005.158964	2587.488158
1005.453270	2583.480441
1005.747540	2584.627303
1006.041775	2585.096131
1006.335974	2584.155955
1006.630138	2582.915832
1006.924266	2581.375759
1007.218359	2585.146542
1007.512416	2584.337437
1007.806438	2581.784092
1008.100425	2580.733012
1008.394376	2582.404154
1008.688292	2582.628486
1008.982172	2582.762076
1009.276017	2582.386510
1009.569827	2580.995152
1009.863602	2580.420460
1010.157341	2581.882395
1010.451045	2582.749473
1010.744714	2582.008424
1011.038347	2579.669328
1011.331945	2581.222004
1011.625508	2583.132601
1011.919036	2579.598752
1012.212528	2580.014647
1012.505986	2579.888619
1012.799408	2580.869123
1013.092795	2581.148907
1013.386147	2581.756366
1013.679464	2578.411561
1013.972745	2576.508525
1014.265992	2580.546489
1014.559204	2580.453228
1014.852380	2582.041191
1015.145521	2578.895511
1015.438628	2580.095306
1015.731699	2581.960533
1016.024736	2580.047415
1016.317737	2580.251582
1016.610703	2579.588670
1016.903635	2577.123546
1017.196531	2577.718402
1017.489393	2577.884760
1017.782219	2576.140521
1018.075011	2578.252764
1018.367768	2580.102868
1018.660490	2581.486664
1018.953177	2581.486664
1019.245829	2581.486664
