Dividing Wavelength (nm)	Counts (n)	Blue Motor Position (mm): 44.500000	Red Motor Position (mm): 0.000000	
326.493990	2153.449853
326.888308	2153.449853
327.282561	2153.449853
327.676750	2125.080760
328.070874	2129.332973
328.464933	2136.715743
328.858929	2141.320837
329.252859	2155.826757
329.646726	2168.815290
330.040528	2182.479338
330.434265	2203.052286
330.827938	2222.236397
331.221547	2238.274828
331.615091	2260.287027
332.008571	2281.714451
332.401986	2300.757410
332.795338	2321.526963
333.188625	2341.379027
333.581847	2361.089939
333.975006	2379.979142
334.368100	2396.589744
334.761129	2416.441808
335.154095	2435.147009
335.546996	2455.518312
335.939833	2489.185658
336.332606	2497.848881
336.725315	2514.507374
337.117960	2519.195647
337.510540	2527.989940
337.903056	2538.566281
338.295508	2544.852599
338.687896	2552.742005
339.080220	2559.550083
339.472480	2565.549057
339.864676	2571.764799
340.256807	2572.402505
340.648875	2574.398802
341.040879	2576.425346
341.432818	2575.843093
341.824694	2577.690676
342.216506	2578.852662
342.608253	2579.200501
342.999937	2577.678073
343.391557	2578.837538
343.783113	2577.438618
344.174605	2575.487691
344.566033	2571.815211
344.957397	2572.117680
345.348697	2569.176167
345.739934	2567.706670
346.131106	2566.622822
346.522215	2565.339849
346.913260	2562.622667
347.304241	2563.663665
347.695159	2558.927501
348.086012	2555.615463
348.476802	2556.371636
348.867528	2555.509599
349.258191	2554.007335
349.648789	2554.360216
350.039324	2552.293342
350.429796	2554.014897
350.820203	2549.324103
351.210548	2549.356870
351.600828	2548.779658
351.991045	2547.471479
352.381198	2544.852599
352.771288	2547.035419
353.161314	2548.630944
353.551276	2546.032229
353.941175	2546.483413
354.331010	2547.350491
354.720782	2547.678166
355.110490	2547.537014
355.500135	2549.646737
355.889717	2549.261088
356.279235	2547.693290
356.668689	2547.789072
357.058080	2549.732436
357.447408	2547.305121
357.836672	2545.142466
358.225873	2545.560882
358.615010	2547.174051
359.004084	2550.387786
359.393095	2550.128167
359.782043	2552.868034
360.170927	2551.058260
360.559748	2554.864331
360.948505	2553.170503
361.337199	2554.655123
361.725830	2555.562531
362.114398	2556.923642
362.502903	2555.963303
362.891344	2555.260062
363.279722	2555.963302
363.668037	2556.560679
364.056289	2555.166800
364.444478	2558.798952
364.832603	2559.862635
365.220665	2558.352809
365.608665	2560.228119
365.996601	2559.514795
366.384474	2560.981771
366.772284	2560.026473
367.160031	2563.129303
367.547715	2559.597974
367.935336	2560.407080
368.322893	2562.864642
368.710388	2560.598643
369.097820	2565.375137
369.485189	2563.366237
369.872495	2561.155691
370.259738	2562.345403
370.646918	2562.950342
371.034035	2562.103428
371.421090	2565.770867
371.808081	2565.682647
372.195010	2566.816907
372.581875	2563.182235
372.968678	2565.788511
373.355418	2565.423028
373.742096	2566.552246
374.128710	2565.889334
374.515262	2566.607699
374.901751	2568.354459
375.288177	2565.801114
375.674540	2568.291444
376.060841	2565.980075
376.447079	2569.372772
376.833254	2567.144582
377.219367	2563.772050
377.605417	2564.170301
377.991404	2567.401681
378.377329	2567.588203
378.763191	2565.705332
379.148991	2571.051476
379.534727	2571.038873
379.920402	2571.424521
380.306013	2571.427042
380.691563	2573.509038
381.077049	2571.792526
381.462474	2575.485171
381.847835	2575.185222
382.233134	2575.568350
382.618371	2576.780747
383.003545	2577.824266
383.388657	2581.406006
383.773706	2582.661253
384.158693	2583.465317
384.543618	2586.006059
384.928480	2590.686770
385.313280	2589.723910
385.698017	2595.821185
386.082692	2599.526433
386.467305	2600.020467
386.851856	2605.893411
387.236344	2610.261571
387.620770	2612.840121
388.005133	2615.403547
388.389435	2624.976699
388.773674	2627.855197
389.157851	2631.971300
389.541965	2639.583442
389.926018	2643.903711
390.310008	2653.902839
390.693936	2659.208654
391.077802	2664.688388
391.461606	2676.119204
391.845348	2683.577592
392.229027	2690.239476
392.612645	2701.503935
392.996200	2709.985676
393.379694	2720.473797
393.763125	2734.399984
394.146494	2745.044380
394.529801	2753.808426
394.913047	2772.490942
395.296230	2777.126283
395.679351	2787.377470
396.062410	2805.477733
396.445408	2808.676345
396.828343	2822.249652
397.211217	2832.047134
397.594028	2836.700119
397.976778	2851.778210
398.359466	2868.666076
398.742092	2872.078937
399.124656	2890.537122
399.507158	2906.683937
399.889598	2918.480237
400.271977	2936.764502
400.654294	2948.149948
401.036549	2964.362299
401.418742	2972.130717
401.800874	2999.478977
402.182944	3012.712006
402.564952	3042.011192
402.946898	3040.594628
403.328783	3053.351267
403.710606	3070.975141
404.092367	3100.849019
404.474067	3126.082514
404.855705	3124.207205
405.237282	3129.525622
405.618797	3162.056188
406.000250	3189.023841
406.381642	3221.330075
406.762972	3230.729307
407.144240	3222.093810
407.525447	3249.132039
407.906593	3250.720002
408.287677	3272.139865
408.668700	3296.602064
409.049661	3297.380922
409.430560	3314.924138
409.811399	3320.701300
410.192176	3343.348683
410.572891	3351.142307
410.953545	3389.172772
411.334138	3359.535828
411.714669	3413.135897
412.095139	3360.536498
412.475547	3410.403591
412.855894	3409.118097
413.236180	3436.874690
413.616405	3413.060279
413.996568	3440.738735
414.376670	3442.888787
414.756711	3438.429886
415.136691	3463.532312
415.516609	3486.164572
415.896466	3494.411900
416.276262	3521.238400
416.655997	3550.855179
417.035670	3562.318763
417.415283	3624.761015
417.794834	3648.177174
418.174324	3633.671254
418.553753	3631.306953
418.933121	3674.176925
419.312428	3663.101510
419.691674	3661.304339
420.070859	3697.547714
420.449983	3679.434849
420.829045	3726.156263
421.208047	3712.668655
421.586988	3756.803957
421.965867	3792.379380
422.344686	3798.431285
422.723444	3830.641738
423.102141	3743.351638
423.480777	3842.233871
423.859352	3812.284376
424.237866	3910.019746
424.616319	3897.089187
424.994712	3954.747384
425.373044	3940.985034
425.751314	4009.484232
426.129524	3940.425466
426.507673	4042.148388
426.885762	4016.607382
427.263789	4040.492369
427.641756	4048.036456
428.019662	4076.859253
428.397508	4075.762802
428.775292	4116.702013
429.153016	4121.070173
429.530679	4135.008963
429.908282	4142.621105
430.285824	4120.561016
430.663305	4195.608673
431.040726	4153.149555
431.418086	4142.837875
431.795385	4219.168506
432.172624	4251.918362
432.549802	4218.561047
432.926920	4239.915374
433.303977	4232.764498
433.680974	4274.371661
434.057910	4296.043581
434.434786	4300.704128
434.811601	4295.675577
435.188355	4402.101897
435.565050	4372.449830
435.941683	4367.539746
436.318257	4460.649857
436.694770	4466.434581
437.071222	4519.545658
437.447614	4456.405206
437.823946	4459.417295
438.200218	4476.416066
438.576429	4456.092654
438.952580	4482.467971
439.328670	4489.704548
439.704700	4530.273233
440.080670	4493.954240
440.456580	4556.464548
440.832429	4589.093416
441.208218	4497.306607
441.583947	4541.502403
441.959616	4559.960588
442.335224	4586.401440
442.710773	4609.706694
443.086261	4661.146628
443.461689	4616.338332
443.837057	4627.880054
444.212365	4702.088359
444.587612	4703.593143
444.962800	4670.218184
445.337927	4711.563208
445.712995	4600.078090
446.088002	4794.197802
446.462949	4816.497346
446.837837	4835.242876
447.212664	4818.599507
447.587431	5050.333787
447.962139	5350.216906
448.336786	5688.001940
448.711374	5665.919166
449.085901	5312.665351
449.460369	5249.615640
449.834776	5186.107184
450.209124	5424.014357
450.583412	5436.181182
450.957640	5560.551489
451.331808	5417.279376
451.705917	5265.533083
452.079965	5259.400520
452.453954	5300.680008
452.827883	5266.344709
453.201752	5267.055512
453.575562	5301.350481
453.949311	5433.879895
454.323001	5440.400628
454.696632	5432.163383
455.070202	5586.233647
455.443713	5619.427124
455.817164	5708.988264
456.190556	5782.248832
456.563888	5757.113639
456.937160	5834.460062
457.310373	5673.541390
457.683526	5736.291153
458.056619	5725.041818
458.429653	5706.026586
458.802628	5752.579121
459.175542	5789.097239
459.548398	5928.119660
459.921194	6113.654286
460.293930	6172.749212
460.666607	6425.326143
461.039224	6645.722868
461.411782	6766.566888
461.784280	6685.931112
462.156719	6685.540422
462.529099	6644.462580
462.901419	6506.763463
463.273680	6374.836467
463.645882	6360.943047
464.018024	6365.419591
464.390106	6434.669922
464.762130	6693.192894
465.134094	7091.237360
465.505999	7729.883497
465.877845	8438.369779
466.249631	8778.090616
466.621358	8703.894914
466.993026	8504.063575
467.364634	8289.015514
467.736184	8003.003130
468.107674	7852.194492
468.479105	7769.380937
468.850477	7706.626134
469.221790	7535.849485
469.593043	7305.241903
469.964238	7208.444187
470.335373	7180.576689
470.706449	7343.098448
471.077467	7533.132303
471.448425	8200.417235
471.819324	8776.850492
472.190164	8814.175195
472.560945	8325.132861
472.931667	7849.361364
473.302330	7658.089904
473.672934	7543.658233
474.043479	7620.329142
474.413965	7521.066302
474.784393	7471.882284
475.154761	7623.411807
475.525070	7631.684341
475.895321	7594.498269
476.265513	7690.655758
476.635645	7855.012497
477.005719	7842.510436
477.375734	7926.773322
477.745691	8042.435035
478.115588	8248.834997
478.485427	8484.440884
478.855207	8960.855128
479.224928	9393.255058
479.594591	9779.233523
479.964194	9782.154872
480.333739	9868.129230
480.703226	9864.280309
481.072653	9972.221495
481.442022	10084.079658
481.811333	10233.779242
482.180584	10072.061547
482.549777	10013.132979
482.918912	9949.317013
483.287988	9937.155229
483.657005	9838.189817
484.025964	9760.177962
484.394864	9819.104009
484.763706	9783.745356
485.132489	9698.249907
485.501213	9681.722484
485.869879	9750.486343
486.238487	9684.800109
486.607036	9757.304504
486.975527	9703.865752
487.343959	9759.131922
487.712333	9807.249736
488.080648	9849.628195
488.448905	9952.107291
488.817104	9956.442684
489.185244	10131.741247
489.553326	10346.002888
489.921350	10816.120731
490.289315	11451.011208
490.657222	11738.742626
491.025070	11910.270406
491.392861	11818.057620
491.760593	11664.771255
492.128267	11400.156048
492.495883	11173.311687
492.863440	10928.898905
493.230939	10707.882117
493.598380	10525.263798
493.965763	10499.132977
494.333088	10373.802331
494.700354	10301.033275
495.067563	10271.492114
495.434713	10281.786150
495.801805	10330.617287
496.168839	10281.319843
496.535815	10244.809287
496.902733	10300.584613
497.269593	10253.812787
497.636395	10264.621021
498.003139	10373.807372
498.369825	10301.083687
498.736453	10391.632892
499.103023	10339.313277
499.469535	10344.392240
499.835989	10392.910825
500.202385	10367.596671
500.568723	10384.819773
500.935003	10449.500297
501.301226	10418.308158
501.667390	10583.199259
502.033497	10685.711122
502.399546	10607.744637
502.765537	10517.530668
503.131470	10613.098342
503.497345	10711.226923
503.863163	10484.962294
504.228923	10611.394432
504.594625	10729.753163
504.960269	10633.973761
505.325856	10783.791812
505.691385	10664.923925
506.056856	10737.456046
506.422270	10846.803714
506.787625	10774.947107
507.152924	10830.745119
507.518164	10883.160516
507.883347	10749.532130
508.248472	10824.277318
508.613540	10933.902250
508.978550	11010.653817
509.343503	10991.613379
509.708398	11045.878880
510.073236	11167.983187
510.438016	11180.633963
510.802738	11108.568148
511.167403	11235.461552
511.532010	11294.969853
511.896561	11394.099102
512.261053	11582.827299
512.625488	11502.793941
512.989866	11487.615027
513.354186	11463.830863
513.718449	11472.980557
514.082655	11620.094029
514.446803	11571.744323
514.810894	11683.383195
515.174927	11681.384378
515.538904	11659.714978
515.902822	11823.464257
516.266684	11696.510360
516.630488	11797.693879
516.994235	11781.307608
517.357925	11899.860423
517.721558	11953.894031
518.085133	12018.851819
518.448651	12055.548898
518.812112	12012.104234
519.175516	12024.061851
519.538863	12117.837395
519.902152	12121.686316
520.265385	12231.054149
520.628560	12249.280441
520.991678	12197.376721
521.354739	12250.482756
521.717743	12327.037718
522.080690	12291.363993
522.443580	12432.274325
522.806413	12444.259668
523.169189	12445.227570
523.531908	12500.980211
523.894569	12465.046866
524.257174	12475.295532
524.619722	12592.053696
524.982213	12564.660066
525.344647	12551.353941
525.707025	12568.418247
526.069345	12668.626303
526.431608	12639.561530
526.793815	12725.823234
527.155964	12623.475208
527.518057	12650.639466
527.880093	12604.621293
528.242072	12724.762071
528.603995	12648.648210
528.965860	12658.995178
529.327669	12694.159747
529.689421	12639.828711
530.051117	12653.477635
530.412755	12689.529447
530.774337	12689.768902
531.135862	12651.559476
531.497331	12705.663660
531.858743	12668.270901
532.220098	12753.738624
532.581396	12683.527953
532.942638	12608.490378
533.303824	12678.378415
533.664953	12656.877894
534.026025	12608.261006
534.387040	12716.429044
534.747999	12684.057275
535.108902	12736.901170
535.469748	12600.346394
535.830537	12627.281279
536.191270	12669.831138
536.551947	12600.918565
536.912567	12666.135973
537.273131	12706.598794
537.633638	12576.940317
537.994089	12635.790747
538.354483	12553.892162
538.714821	12685.199096
539.075103	12760.660128
539.435328	12690.522554
539.795497	12677.309690
540.155609	12670.068073
540.515665	12772.171603
540.875665	12628.934778
541.235609	12724.320970
541.595496	12691.097246
541.955328	12858.856764
542.315102	12713.447202
542.674821	12653.807831
543.034483	12664.144717
543.394090	12668.948937
543.753640	12638.114719
544.113134	12875.900905
544.472571	12628.990231
544.831953	12918.130651
545.191278	12735.540058
545.550548	12671.013289
545.909761	12791.184314
546.268918	12827.957011
546.628019	12902.137590
546.987064	12792.679017
547.346053	12633.131538
547.704986	12818.192296
548.063863	12702.676776
548.422684	12757.438831
548.781449	12724.018501
549.140158	12806.935400
549.498811	12765.388730
549.857408	12638.248310
550.215949	12850.541380
550.574434	12802.025316
550.932864	12747.704363
551.291237	12947.543263
551.649555	12839.324813
552.007817	12892.869429
552.366022	12811.631234
552.724173	12856.056403
553.082267	12948.959827
553.440305	13042.422819
553.798288	12863.512269
554.156215	12936.288887
554.514086	12979.960402
554.871902	12928.681786
555.229661	12947.770115
555.587365	12906.407447
555.945014	12915.660485
556.302606	12891.815827
556.660143	12957.071043
557.017625	12991.237464
557.375050	12956.894603
557.732421	13052.973954
558.089735	13048.971278
558.446994	13028.491591
558.804197	13144.770845
559.161345	13138.008137
559.518437	12950.688943
559.875474	13035.960060
560.232455	13057.896641
560.589381	13101.036315
560.946251	13038.997355
561.303065	13214.984036
561.659825	13167.463599
562.016528	13076.947161
562.373177	13030.336653
562.729770	13160.554698
563.086307	13045.066904
563.442789	13145.960557
563.799216	13193.395295
564.155587	13130.232158
564.511904	13146.885609
564.868164	13162.155264
565.224370	13222.828071
565.580520	13176.532635
565.936615	13236.615627
566.292654	13172.441739
566.648638	13242.886822
567.004567	13249.881423
567.360441	13246.375301
567.716260	13215.175600
568.072023	13293.187456
568.427732	13273.685752
568.783385	13172.361080
569.138982	13289.172177
569.494525	13285.376188
569.850013	13235.786357
570.205445	13221.408987
570.560823	13242.730547
570.916145	13187.098893
571.271412	13194.711036
571.626625	13154.333914
571.981782	13160.542095
572.336884	13119.212195
572.691931	13195.744472
573.046923	13079.092172
573.401860	13063.076427
573.756743	13065.493660
574.111570	13090.964090
574.466342	13064.102301
574.821059	13113.258592
575.175722	12981.132471
575.530330	12999.315913
575.884882	12931.484667
576.239380	12929.851333
576.593823	12919.106114
576.948211	12918.080239
577.302544	12792.321095
577.656823	12814.035865
578.011047	12863.945808
578.365216	12812.790700
578.719330	12752.082605
579.073389	12724.315929
579.427394	12735.497208
579.781344	12726.886918
580.135239	12663.602793
580.489080	12674.093434
580.842866	12546.327910
581.196597	12647.667706
581.550273	12629.312864
581.903895	12601.992331
582.257463	12709.341182
582.610975	12548.974516
582.964434	12615.951286
583.317837	12535.199563
583.671186	12493.874705
584.024481	12554.355948
584.377721	12442.706993
584.730906	12513.837674
585.084037	12538.405737
585.437113	12444.226901
585.790135	12467.819501
586.143103	12382.437478
586.496016	12396.754355
586.848874	12410.635172
587.201679	12409.942014
587.554428	12279.378650
587.907124	12326.929333
588.259765	12270.796085
588.612352	12329.770023
588.964884	12199.088192
589.317362	12250.245822
589.669786	12240.944893
590.022155	12192.106194
590.374470	12287.613374
590.726731	12182.689319
591.078937	12074.168400
591.431090	12094.428797
591.783188	12024.263497
592.135232	11938.710076
592.487222	12003.783810
592.839157	12015.207065
593.191038	11942.889192
593.542866	11900.281360
593.894639	11744.320663
594.246358	11809.840539
594.598022	11811.869604
594.949633	11710.242463
595.301190	11709.065353
595.652692	11664.309989
596.004141	11754.685275
596.355535	11534.280988
596.706876	11513.085456
597.058162	11478.432565
597.409395	11572.407234
597.760573	11599.795823
598.111698	11489.946560
598.462768	11499.678508
598.813785	11508.026658
599.164748	11379.630991
599.515657	11456.795932
599.866511	11334.618528
600.217312	11467.823457
600.568060	11228.446787
600.918753	11392.690100
601.269392	11390.701364
601.619978	11297.326592
601.970510	11330.958650
602.320988	11371.834846
602.671412	11442.224477
603.021783	11375.073787
603.372100	11292.487085
603.722363	11304.056533
604.072572	11313.606999
604.422728	11320.430200
604.772830	11272.335072
605.122878	11271.415062
605.472872	11249.080229
605.822813	11304.732047
606.172701	11269.837180
606.522534	11307.192130
606.872314	11359.917558
607.222041	11297.117384
607.571714	11375.194775
607.921333	11242.395659
608.270899	11285.071547
608.620411	11355.060407
608.969870	11301.780452
609.319276	11290.770572
609.668627	11297.172837
610.017926	11374.267203
610.367171	11414.362020
610.716362	11396.183619
611.065500	11372.414579
611.414585	11384.629295
611.763616	11450.093718
612.112594	11413.026114
612.461518	11443.441916
612.810389	11481.311064
613.159207	11422.500963
613.507971	11425.606314
613.856682	11516.813390
614.205340	11479.924746
614.553945	11627.597787
614.902496	11495.416212
615.250994	11562.881974
615.599439	11552.492156
615.947830	11583.470046
616.296169	11547.781198
616.644454	11570.118550
616.992686	11578.378481
617.340864	11672.912718
617.688990	11556.260418
618.037063	11698.640247
618.385082	11664.057932
618.733048	11712.095087
619.080961	11687.103567
619.428821	11666.742346
619.776628	11677.918584
620.124382	11628.028805
620.472083	11647.361630
620.819731	11671.181082
621.167326	11594.048908
621.514868	11578.010477
621.862357	11472.899898
622.209793	11472.831843
622.557176	11383.391691
622.904506	11329.640388
623.251783	11239.738971
623.599007	11184.954232
623.946179	11132.962292
624.293297	11111.411359
624.640363	10970.271654
624.987376	10963.188833
625.334336	10906.879145
625.681243	10815.921606
626.028097	10784.033787
626.374899	10753.368448
626.721647	10715.625329
627.068343	10685.706081
627.414987	10622.747111
627.761577	10553.521986
628.108115	10598.342885
628.454600	10480.833589
628.801032	10492.216514
629.147412	10468.994439
629.493739	10438.518144
629.840014	10364.483758
630.186236	10414.585266
630.532405	10314.513321
630.878521	10351.379279
631.224585	10306.994440
631.570597	10219.994207
631.916556	10228.218849
632.262462	10214.859792
632.608316	10201.977123
632.954117	10170.248101
633.299866	10153.982818
633.645562	10133.634200
633.991206	10025.551862
634.336797	9923.276933
634.682336	9918.076982
635.027823	9866.269044
635.373257	9826.201953
635.718639	9762.446481
636.063968	9725.756963
636.409245	9610.430487
636.754470	9596.055636
637.099642	9543.206700
637.444762	9448.347308
637.789829	9450.404099
638.134845	9373.433241
638.479808	9353.954223
638.824719	9326.893309
639.169577	9244.399867
639.514383	9236.623888
639.859137	9172.119804
640.203839	9205.792191
640.548489	9127.157753
640.893086	9135.639494
641.237632	9063.550994
641.582125	9076.557171
641.926566	9050.754025
642.270955	9044.346718
642.615292	9041.170791
642.959576	9021.495168
643.303809	9008.360442
643.647990	9023.120940
643.992118	9005.214762
644.336195	8981.387748
644.680219	8981.596956
645.024192	9009.837500
645.368112	9083.546731
645.711981	9058.925735
646.055797	9198.918578
646.399562	9155.378132
646.743274	9316.848810
647.086935	9387.593843
647.430544	9366.267241
647.774101	9380.001865
648.117606	9416.998893
648.461059	9481.873502
648.804460	9404.358200
649.147810	9294.120768
649.491108	9262.326211
649.834354	9191.497999
650.177548	9051.661433
650.520690	8954.042009
650.863781	8954.165517
651.206820	8923.802647
651.549807	8838.460954
651.892742	8740.133248
652.235626	8702.861477
652.578458	8659.099221
652.921238	8553.860093
653.263967	8605.040407
653.606644	8528.157770
653.949269	8516.933641
654.291843	8421.698683
654.634365	8499.314808
654.976836	8427.969879
655.319255	8420.493847
655.661622	8416.256758
656.003938	8363.105352
656.346203	8330.363058
656.688416	8364.302626
657.030577	8317.334196
657.372687	8284.014689
657.714746	8318.216398
658.056753	8330.569745
658.398708	8235.223882
658.740612	8224.597130
659.082465	8272.420036
659.424266	8233.857729
659.766016	8234.787822
660.107715	8208.568781
660.449362	8231.304385
660.790958	8230.628870
661.132503	8215.515491
661.473996	8219.621511
661.815438	8233.111638
662.156829	8268.099767
662.498168	8208.523411
662.839456	8201.594345
663.180693	8227.773057
663.521879	8248.840038
663.863013	8229.935712
664.204097	8223.029331
664.545129	8295.770660
664.886110	8288.680277
665.227040	8292.410731
665.567918	8307.723236
665.908746	8322.680339
666.249522	8338.133997
666.590248	8335.643667
666.930922	8349.063218
667.271545	8339.825304
667.612118	8365.452009
667.952639	8320.391656
668.293109	8319.703538
668.633528	8298.878532
668.973896	8288.355123
669.314213	8294.923746
669.654480	8254.551666
669.994695	8250.304494
670.334859	8226.210299
670.674973	8207.585756
671.015035	8234.848316
671.355047	8215.588588
671.695008	8203.051238
672.034918	8181.412085
672.374777	8190.705452
672.714585	8161.270155
673.054342	8193.644445
673.394049	8160.082963
673.733705	8198.751134
674.073310	8152.047364
674.412864	8160.274527
674.752368	8096.135927
675.091820	8150.043505
675.431223	8082.227383
675.770574	8034.200311
676.109875	8004.414653
676.449125	7968.199004
676.788324	7945.622196
677.127473	7855.589709
677.466571	7844.473965
677.805619	7782.349306
678.144616	7778.074407
678.483562	7759.717045
678.822458	7718.757670
679.161303	7692.243722
679.500098	7672.399220
679.838842	7659.564442
680.177535	7673.866195
680.516179	7709.202163
680.854771	7724.708753
681.193314	7838.454827
681.531805	7989.676840
681.870247	8118.853887
682.208638	8271.517669
682.546978	8343.812856
682.885268	8376.764358
683.223508	8308.537382
683.561697	8261.604240
683.899836	8226.732058
684.237925	8144.800705
684.575963	8116.761808
684.913951	8030.689147
685.251889	8048.267650
685.589776	8044.801857
685.927614	8025.315277
686.265401	8044.585087
686.603137	8053.545738
686.940824	8125.140205
687.278460	8173.419336
687.616046	8188.237808
687.953582	8298.462636
688.291068	8281.176520
688.628504	8337.705498
688.965889	8343.941406
689.303224	8298.664283
689.640510	8260.558201
689.977745	8152.443095
690.314930	8029.786780
690.652065	7957.000081
690.989150	7848.519491
691.326185	7688.069646
691.663170	7578.578305
692.000105	7458.205634
692.336990	7343.113571
692.673825	7263.480984
693.010610	7174.270205
693.347345	7075.939979
693.684030	6964.719522
694.020665	6916.626914
694.357251	6803.258926
694.693786	6795.845909
695.030272	6747.455874
695.366707	6654.370968
695.703093	6607.316838
696.039429	6602.341219
696.375716	6556.375978
696.711952	6546.079422
697.048139	6515.890472
697.384276	6483.947200
697.720363	6504.794892
698.056400	6477.539894
698.392388	6446.650224
698.728326	6440.000942
699.064214	6414.412045
699.400053	6411.654534
699.735842	6352.731007
700.071581	6312.527805
700.407270	6260.853457
700.742910	6231.518983
701.078501	6189.077509
701.414042	6147.787938
701.749533	6093.600576
702.084974	6034.966915
702.420366	6072.498306
702.755709	6002.595146
703.091002	5950.658658
703.426246	5959.334484
703.761440	5940.944355
704.096584	5897.229989
704.431679	5886.429317
704.766725	5868.818046
705.101721	5854.576787
705.436668	5865.712696
705.771565	5810.996012
706.106413	5868.482810
706.441212	5866.080700
706.775961	5888.586931
707.110661	5893.585235
707.445311	5955.420028
707.779913	5921.545995
708.114465	5960.955215
708.448967	6010.892885
708.783421	6123.618126
709.117825	6162.187994
709.452180	6200.767945
709.786485	6259.610813
710.120742	6388.676954
710.454949	6392.011678
710.789107	6470.199974
711.123216	6597.088337
711.457275	6630.843903
711.791286	6729.738738
712.125247	6749.552994
712.459159	6716.823302
712.793023	6850.466811
713.126837	6672.042733
713.460602	6738.396920
713.794318	6689.364137
714.127985	6638.128370
714.461602	6494.163099
714.795171	6493.490105
715.128691	6322.655483
715.462162	6236.355970
715.795584	6164.287635
716.128957	6124.560822
716.462281	6056.996758
716.795556	6027.072468
717.128782	5935.205001
717.461960	5837.066339
717.795088	5823.160316
718.128167	5757.164050
718.461198	5674.317728
718.794180	5650.838554
719.127113	5588.300520
719.459997	5558.018309
719.792833	5494.487167
720.125619	5488.115149
720.458357	5433.680770
720.791046	5403.862345
721.123686	5376.952666
721.456278	5328.693700
721.788821	5317.706505
722.121315	5280.790135
722.453761	5284.901196
722.786158	5271.259834
723.118506	5274.155977
723.450805	5257.477319
723.783056	5277.916678
724.115259	5261.154841
724.447412	5248.773767
724.779518	5294.018123
725.111574	5294.212208
725.443582	5332.177137
725.775542	5321.930992
726.107453	5410.186472
726.439315	5379.228747
726.771129	5446.593685
727.102895	5519.055231
727.434612	5559.785233
727.766281	5587.768678
728.097901	5642.356813
728.429473	5658.594369
728.760996	5671.025855
729.092471	5697.645668
729.423897	5678.373336
729.755276	5655.725953
730.086606	5665.553682
730.417887	5751.023925
730.749120	5844.446588
731.080305	5879.777515
731.411442	5954.646211
731.742530	5975.040199
732.073570	5995.842520
732.404562	6060.165123
732.735506	6057.871398
733.066401	6037.845414
733.397249	5972.635569
733.728048	5875.734509
734.058798	5731.353343
734.389501	5605.702583
734.720156	5519.400550
735.050762	5416.208131
735.381320	5341.793138
735.711831	5279.572697
736.042293	5202.417837
736.372707	5202.478331
736.703073	5159.038708
737.033391	5187.760682
737.363661	5173.317777
737.693883	5183.972255
738.024056	5206.891861
738.354182	5233.332713
738.684260	5282.786432
739.014290	5324.196991
739.344272	5355.956260
739.674207	5417.594448
740.004093	5449.220127
740.333931	5453.943688
740.663722	5470.735771
740.993464	5480.883614
741.323159	5462.579184
741.652806	5420.518317
741.982405	5390.314244
742.311956	5335.242159
742.641460	5323.166075
742.970915	5271.433754
743.300323	5209.009146
743.629683	5179.757851
743.958996	5128.108709
744.288260	5078.667593
744.617477	5015.280124
744.946647	5005.522971
745.275768	4950.231595
745.604842	4916.531482
745.933869	4885.747676
746.262847	4870.770408
746.591778	4858.051577
746.920662	4835.557948
747.249498	4831.257844
747.578286	4849.884907
747.907027	4873.517837
748.235720	4917.484260
748.564365	4925.172020
748.892963	4911.422272
749.221514	4932.154018
749.550017	4905.554369
749.878473	4900.679574
750.206881	4865.404100
750.535242	4847.555894
750.863555	4834.766487
751.191821	4812.431655
751.520039	4815.700843
751.848210	4798.679387
752.176334	4807.536695
752.504411	4785.776554
752.832440	4753.790433
753.160421	4768.137557
753.488356	4747.988065
753.816243	4730.485179
754.144082	4693.803223
754.471875	4687.874826
754.799620	4676.779246
755.127318	4666.943955
755.454969	4660.972708
755.782572	4656.884332
756.110129	4661.615455
756.437638	4639.449502
756.765100	4639.063854
757.092515	4639.217609
757.419882	4641.672651
757.747203	4641.516375
758.074477	4655.858458
758.401703	4645.695492
758.728882	4673.109286
759.056014	4684.071275
759.383099	4709.839133
759.710138	4733.023400
760.037129	4755.600207
760.364073	4769.604532
760.690970	4769.052526
761.017820	4765.800982
761.344623	4803.375222
761.671379	4863.581722
761.998088	4950.748314
762.324751	5183.077450
762.651366	5650.813348
762.977935	6338.739284
763.304456	6902.917497
763.630931	7212.880402
763.957359	7145.089486
764.283740	6855.364292
764.610074	6531.510487
764.936362	6125.695082
765.262602	5806.128778
765.588796	5457.961487
765.914943	5202.954720
766.241044	4981.630422
766.567097	4809.769926
766.893104	4659.185619
767.219064	4556.653591
767.544978	4456.377479
767.870845	4377.914440
768.196665	4331.613963
768.522438	4279.369965
768.848165	4240.832864
769.173846	4195.018858
769.499479	4172.726876
769.825066	4136.896875
770.150607	4093.210236
770.476101	4081.111467
770.801548	4058.506933
771.126949	4025.852859
771.452303	4010.953728
771.777611	3969.906133
772.102872	3972.230105
772.428087	3942.620888
772.753256	3915.307917
773.078378	3896.753950
773.403453	3863.840256
773.728482	3841.434848
774.053465	3825.787107
774.378401	3806.159374
774.703291	3787.421405
775.028135	3758.346550
775.352932	3750.812546
775.677683	3731.928384
776.002388	3713.250909
776.327046	3712.209910
776.651658	3694.094524
776.976224	3677.221782
777.300743	3670.824558
777.625216	3657.435253
777.949643	3651.630365
778.274024	3650.019716
778.598359	3632.489103
778.922647	3632.990698
779.246889	3620.138277
779.571086	3619.528297
779.895236	3621.174234
780.219339	3624.579533
780.543397	3624.380407
780.867409	3637.610916
781.191374	3638.420021
781.515294	3630.175214
781.839167	3646.253974
782.162995	3646.730363
782.486776	3633.976244
782.810511	3626.323772
783.134201	3615.230713
783.457844	3612.180815
783.781441	3601.632201
784.104993	3599.383846
784.428498	3592.379163
784.751958	3590.496292
785.075372	3580.875250
785.398739	3573.457192
785.722061	3576.181936
786.045337	3577.215372
786.368568	3604.856019
786.691752	3600.170266
787.014891	3649.059376
787.337983	3691.405068
787.661030	3782.153399
787.984031	3878.429356
788.306987	3954.379379
788.629897	4001.766226
788.952760	4008.793594
789.275579	3992.424967
789.598351	3943.553502
789.921078	3888.783886
790.243759	3831.168538
790.566395	3781.593831
790.888984	3731.915781
791.211529	3695.304401
791.534027	3649.881084
791.856480	3616.251547
792.178888	3593.941921
792.501249	3575.904672
792.823566	3545.385527
793.145836	3536.949156
793.468062	3528.417003
793.790241	3511.836648
794.112375	3521.505581
794.434464	3543.384189
794.756507	3542.996020
795.078505	3558.830284
795.400457	3598.115996
795.722364	3648.560302
796.044226	3694.777600
796.366042	3741.902307
796.687812	3734.080956
797.009538	3761.865276
797.331218	3751.702310
797.652852	3747.626537
797.974442	3722.224163
798.295986	3710.001885
798.617484	3685.020447
798.938938	3659.529853
799.260346	3643.640136
799.581709	3608.939353
799.903026	3594.914863
800.224299	3577.532965
800.545526	3548.069941
800.866708	3527.073535
801.187845	3513.772451
801.508936	3492.022393
801.829983	3485.660457
802.150984	3455.842032
802.471940	3447.161165
802.792851	3438.205555
803.113717	3434.984258
803.434538	3425.627876
803.755314	3414.582708
804.076045	3405.727921
804.396731	3399.320615
804.717372	3398.171232
805.037967	3395.779204
805.358518	3398.705594
805.679024	3412.583890
805.999485	3409.833941
806.319901	3415.109508
806.640272	3415.462389
806.960598	3428.632404
807.280879	3427.921601
807.601115	3438.049279
807.921306	3433.124072
808.241453	3432.209102
808.561554	3439.428035
808.881611	3434.800255
809.201623	3435.629525
809.521590	3422.726692
809.841513	3428.067794
810.161390	3438.523148
810.481223	3416.957091
810.801011	3413.098088
811.120755	3411.452151
811.440453	3394.065212
811.760107	3391.015314
812.079716	3382.001731
812.399281	3370.797766
812.718801	3372.854557
813.038276	3363.921632
813.357707	3358.457022
813.677093	3365.575131
813.996434	3349.019982
814.315731	3356.201105
814.634983	3355.712113
814.954191	3357.675643
815.273354	3375.271790
815.592473	3380.736401
815.911547	3405.962335
816.230577	3418.867689
816.549562	3449.102009
816.868502	3463.749081
817.187399	3483.326402
817.506250	3507.536544
817.825058	3520.210004
818.143821	3565.472004
818.462539	3611.628809
818.781213	3665.652334
819.099843	3749.842124
819.418429	3902.072367
819.736970	4056.518197
820.055466	4241.800766
820.373919	4485.033918
820.692327	4821.848530
821.010691	5332.593032
821.329011	6421.575524
821.647286	8167.296854
821.965517	10349.458599
822.283704	11977.766415
822.601847	13069.206470
822.919945	12654.770691
823.237999	11979.969399
823.556010	11079.369785
823.873976	10116.935378
824.191897	9140.970514
824.509775	8374.790747
824.827609	7565.859474
825.145398	7015.501585
825.463144	6630.082689
825.780845	6501.651733
826.098502	6561.560805
826.416116	6941.953671
826.733685	7446.898326
827.051210	7741.258861
827.368692	7643.405023
827.686129	7193.018256
828.003522	6641.435367
828.320872	6073.564510
828.638177	5608.301298
828.955439	5244.014918
829.272656	4906.411366
829.589830	4620.043580
829.906960	4357.278477
830.224046	4147.054800
830.541088	3976.121876
830.858086	3858.431098
831.175041	3762.134977
831.491952	3717.175447
831.808819	3694.878423
832.125642	3732.442581
832.442421	3834.624249
832.759157	4049.609296
833.075849	4432.716824
833.392497	4896.553389
833.709101	5291.275735
834.025662	5402.279423
834.342179	5275.491883
834.658653	5003.766129
834.975083	4728.667843
835.291469	4483.516531
835.607811	4258.852469
835.924110	4099.534363
836.240366	3940.972431
836.556578	3776.918161
836.872746	3637.799959
837.188871	3521.606404
837.504952	3426.270623
837.820990	3355.886033
838.136984	3298.948721
838.452935	3265.591406
838.768842	3255.740991
839.084706	3286.257616
839.400526	3420.206115
839.716303	3650.223883
840.032037	3862.146429
840.347727	3930.270061
840.663373	3836.373530
840.978977	3689.577650
841.294537	3553.625293
841.610054	3447.687965
841.925527	3371.843806
842.240957	3304.365441
842.556344	3245.083992
842.871687	3183.037471
843.186987	3124.814664
843.502244	3069.825758
843.817458	3028.694984
844.132629	2995.602329
844.447756	2976.040132
844.762840	2951.270423
845.077881	2935.836930
845.392879	2921.734302
845.707833	2911.425143
846.022745	2897.022566
846.337613	2896.110117
846.652438	2887.459497
846.967221	2881.294166
847.281960	2873.810573
847.596656	2872.414173
847.911309	2867.705736
848.225919	2860.164170
848.540485	2856.466483
848.855009	2855.228880
849.169490	2851.740402
849.483928	2846.094309
849.798323	2842.999041
850.112675	2840.901921
850.426984	2839.462671
850.741251	2836.584172
851.055474	2834.890345
851.369654	2836.536282
851.683792	2836.059892
851.997887	2835.470077
852.311938	2834.124089
852.625947	2836.521158
852.939914	2830.807010
853.253837	2835.583503
853.567718	2835.301199
853.881555	2833.314984
854.195350	2835.626353
854.509103	2834.114007
854.822812	2832.163081
855.136479	2832.589058
855.450103	2833.161229
855.763685	2829.302226
856.077224	2830.612926
856.390720	2831.779953
856.704173	2838.053669
857.017584	2836.264059
857.330953	2839.245902
857.644278	2840.067610
857.957561	2841.574915
858.270802	2842.013495
858.584000	2844.339988
858.897155	2842.822600
859.210268	2840.889318
859.523339	2839.361848
859.836367	2837.121055
860.149352	2836.604337
860.462295	2836.470747
860.775195	2828.921619
861.088054	2828.442709
861.400869	2829.511434
861.713642	2825.821309
862.026373	2830.675940
862.339062	2833.309943
862.651708	2836.866477
862.964312	2839.898731
863.276873	2840.997703
863.589392	2851.155628
863.901869	2855.879189
864.214303	2862.281454
864.526696	2869.008874
864.839045	2878.546737
865.151353	2885.858931
865.463619	2887.056205
865.775842	2889.249107
866.088023	2890.930332
866.400162	2895.595919
866.712258	2896.581465
867.024313	2896.137843
867.336325	2896.084911
867.648296	2899.407032
867.960224	2896.515930
868.272110	2901.610016
868.583954	2901.985582
868.895755	2904.138155
869.207515	2903.439955
869.519233	2908.710481
869.830909	2912.871954
870.142542	2919.029723
870.454134	2918.089548
870.765684	2921.666247
871.077191	2928.668409
871.388657	2932.839964
871.700081	2940.573094
872.011463	2946.630040
872.322803	2952.906277
872.634101	2954.857203
872.945357	2966.724080
873.256571	2975.142807
873.567744	2982.177737
873.878874	2984.156390
874.189963	2991.995384
874.501010	2997.281034
874.812015	2996.114007
875.122979	3006.463495
875.433900	3003.784122
875.744780	3010.763600
876.055618	3016.833149
876.366415	3020.412368
876.677169	3022.229704
876.987882	3029.614994
877.298554	3039.183104
877.609183	3052.794220
877.919771	3068.454564
878.230317	3095.822988
878.540822	3133.064513
878.851285	3182.903880
879.161707	3251.128336
879.472087	3357.905015
879.782425	3517.661701
880.092722	3795.086480
880.402977	4220.668249
880.713191	4769.617135
881.023363	5374.459815
881.333494	5817.965407
881.643583	6105.875785
881.953631	6180.197517
882.263637	6131.162213
882.573602	5989.127703
882.883526	5818.862732
883.193408	5622.023319
883.503248	5397.434874
883.813048	5180.730793
884.122806	4957.619406
884.432522	4712.662179
884.742197	4487.355370
885.051831	4274.709418
885.361424	4076.579469
885.670975	3904.156884
885.980485	3761.010800
886.289954	3634.989516
886.599382	3529.941952
886.908768	3446.261319
887.218113	3362.676467
887.527417	3298.976447
887.836680	3240.867067
888.145901	3196.522557
888.455082	3157.567041
888.764221	3126.342134
889.073319	3093.519181
889.382376	3074.231727
889.691392	3058.462997
890.000366	3048.433622
890.309300	3042.414484
890.618193	3037.615306
890.927044	3032.496014
891.235855	3033.552136
891.544625	3035.878628
891.853353	3043.268960
892.162041	3057.152297
892.470687	3081.674990
892.779293	3116.108592
893.087858	3166.142043
893.396381	3240.252046
893.704864	3351.933768
894.013306	3510.004188
894.321707	3698.044268
894.630068	3847.743852
894.938387	3924.626489
895.246665	3937.514199
895.554903	3872.251422
895.863100	3785.520890
896.171256	3712.799725
896.479371	3638.331801
896.787446	3565.817323
897.095480	3494.232939
897.403473	3436.869649
897.711425	3379.319837
898.019336	3330.599605
898.327207	3274.675565
898.635038	3226.419120
898.942827	3175.873991
899.250576	3135.322949
899.558284	3092.112699
899.865952	3067.688309
900.173579	3034.958618
900.481165	3012.855678
900.788711	2992.943121
901.096216	2983.143118
901.403681	2967.533185
901.711105	2957.148408
902.018489	2950.405865
902.325832	2962.552525
902.633135	2970.877990
902.940397	3006.670183
903.247619	3096.286775
903.554800	3272.706995
903.861941	3553.945406
904.169041	3818.071621
904.476101	3991.197447
904.783121	4009.131351
905.090100	3948.035087
905.397039	3838.790763
905.703938	3734.963158
906.010796	3629.897950
906.317614	3542.565001
906.624391	3456.288174
906.931129	3386.132956
907.237826	3319.388079
907.544483	3251.947523
907.851099	3181.368849
908.157675	3104.566870
908.464211	3030.734131
908.770707	2973.005357
909.077163	2927.065322
909.383578	2889.642317
909.689954	2861.106865
909.996289	2841.469051
910.302584	2827.447081
910.608839	2818.209167
910.915054	2811.222127
911.221229	2803.950263
911.527363	2807.806746
911.833458	2806.221303
912.139513	2808.368834
912.445527	2811.234730
912.751502	2824.069508
913.057436	2841.116170
913.363331	2857.648634
913.669186	2889.332286
913.975000	2924.549787
914.280775	2986.382059
914.586510	3067.504307
914.892205	3179.916996
915.197859	3324.109120
915.503475	3508.685927
915.809050	3684.723019
916.114585	3820.897187
916.420081	3895.823857
916.725536	3929.420627
917.030952	3891.501067
917.336328	3853.021940
917.641665	3806.696257
917.946961	3744.790888
918.252218	3686.678987
918.557435	3610.176957
918.862612	3540.273797
919.167750	3482.343377
919.472848	3409.460896
919.777906	3340.399608
920.082925	3270.488887
920.387904	3194.004501
920.692843	3139.920482
920.997743	3088.979622
921.302603	3039.268804
921.607423	3000.779594
921.912204	2969.395891
922.216946	2943.328085
922.521647	2917.204825
922.826310	2898.030797
923.130932	2877.034391
923.435516	2856.645444
923.740059	2843.440142
924.044564	2826.985816
924.349028	2815.991059
924.653454	2798.720066
924.957840	2785.116512
925.262186	2779.178033
925.566493	2764.929212
925.870761	2753.773138
926.174989	2750.017479
926.479178	2741.140007
926.783328	2731.937380
927.087438	2725.492265
927.391509	2720.017572
927.695541	2712.556664
927.999533	2707.192877
928.303486	2703.147351
928.607400	2702.812114
928.911275	2696.399766
929.215110	2690.249559
929.518906	2692.356761
929.822663	2689.483303
930.126381	2686.733354
930.430060	2689.364836
930.733699	2689.032120
931.037299	2687.446677
931.340861	2689.163190
931.644383	2690.279806
931.947866	2690.441122
932.251309	2687.585309
932.554714	2688.827953
932.858080	2691.232584
933.161407	2688.800227
933.464694	2686.715710
933.767943	2686.027592
934.071153	2685.135308
934.374323	2682.304700
934.677455	2683.194464
934.980548	2678.604493
935.283602	2677.618948
935.586617	2677.815553
935.889593	2681.296469
936.192530	2680.608352
936.495428	2682.518949
936.798287	2686.529187
937.101108	2688.495237
937.403890	2695.053778
937.706632	2704.934440
938.009336	2714.983980
938.312002	2729.242884
938.614628	2739.736045
938.917216	2747.378435
939.219765	2756.180289
939.522275	2762.244797
939.824747	2767.351486
940.127179	2763.742020
940.429573	2764.596496
940.731929	2766.640683
941.034246	2762.895106
941.336524	2767.754778
941.638763	2766.038266
941.940964	2761.617174
942.243126	2758.786566
942.545250	2753.881523
942.847335	2747.575040
943.149381	2741.157651
943.451389	2737.477608
943.753359	2732.726321
944.055290	2723.793396
944.357182	2719.944475
944.659036	2717.073538
944.960851	2713.305276
945.262628	2710.091540
945.564367	2711.742518
945.866067	2710.182281
946.167729	2708.233875
946.469352	2706.776982
946.770937	2704.100129
947.072484	2704.410160
947.373992	2704.639532
947.675462	2702.244984
947.976893	2701.733307
948.278286	2697.287009
948.579641	2695.578058
948.880958	2697.229036
949.182236	2696.934129
949.483476	2697.125692
949.784678	2695.021011
950.085841	2692.656710
950.386967	2693.556556
950.688054	2696.772812
950.989103	2698.670806
951.290114	2702.960828
951.591087	2708.397712
951.892021	2711.911397
952.192917	2716.796275
952.493776	2721.660988
952.794596	2723.576627
953.095378	2724.572255
953.396122	2728.209447
953.696828	2725.850187
953.997496	2726.366905
954.298126	2719.122767
954.598718	2717.640668
954.899272	2714.053887
955.199788	2711.467775
955.500266	2704.788246
955.800706	2697.702905
956.101108	2686.627490
956.401472	2686.234280
956.701798	2676.734225
957.002087	2670.531085
957.302337	2668.759120
957.602550	2662.434992
957.902724	2654.991729
958.202861	2650.109371
958.502960	2648.226500
958.803022	2641.486477
959.103045	2639.517907
959.403031	2637.667803
959.702979	2629.856536
960.002889	2628.351751
960.302762	2625.468211
960.602596	2622.302367
960.902393	2617.672067
961.202153	2619.063425
961.501875	2617.546038
961.801559	2616.714247
962.101205	2613.634103
962.400814	2612.943464
962.700385	2614.607045
962.999918	2612.303238
963.299414	2608.965994
963.598873	2608.721498
963.898293	2610.987497
964.197677	2608.098916
964.497022	2607.287290
964.796331	2604.766713
965.095601	2606.077413
965.394835	2606.412650
965.694030	2602.006681
965.993189	2604.348297
966.292309	2605.651435
966.591393	2603.322422
966.890439	2602.097422
967.189447	2603.929881
967.488419	2606.062289
967.787353	2605.074223
968.086249	2602.941815
968.385108	2603.710591
968.683930	2603.786208
968.982714	2606.609255
969.281462	2605.616147
969.580172	2606.750407
969.878844	2609.034050
970.177480	2609.646550
970.476078	2610.616972
970.774639	2610.410285
971.073162	2610.574122
971.371649	2609.971704
971.670098	2611.524380
971.968510	2610.957250
972.266885	2614.455811
972.565223	2616.273147
972.863524	2618.949999
973.161788	2621.258848
973.460014	2621.664661
973.758204	2620.721965
974.056356	2622.718262
974.354471	2622.970319
974.652550	2619.635596
974.950591	2618.997890
975.248595	2623.393776
975.546563	2620.938734
975.844493	2621.813375
976.142386	2620.225411
976.440243	2617.024278
976.738062	2618.453446
977.035845	2617.442694
977.333590	2618.329937
977.631299	2615.380862
977.928971	2614.004627
978.226606	2612.184771
978.524204	2612.164606
978.821765	2612.454473
979.119290	2611.811725
979.416777	2610.538834
979.714228	2612.232662
980.011642	2611.456324
980.309020	2611.415995
980.606360	2614.556634
980.903664	2617.099896
981.200931	2622.350257
981.498162	2628.956690
981.795356	2642.527476
982.092513	2660.778973
982.389633	2674.218689
982.686717	2697.019828
982.983764	2708.609441
983.280775	2724.942779
983.577749	2728.988305
983.874686	2730.611557
984.171587	2727.533932
984.468451	2722.142418
984.765279	2717.812067
985.062070	2708.687579
985.358824	2701.516537
985.655543	2690.423478
985.952224	2679.698424
986.248869	2672.028308
986.545478	2652.627427
986.842050	2641.045377
987.138586	2630.201855
987.435086	2622.960237
987.731549	2612.290635
988.027975	2611.859616
988.324366	2607.133535
988.620719	2602.979624
988.917037	2603.319902
989.213318	2597.058789
989.509563	2596.658017
989.805772	2594.777667
990.101944	2594.276072
990.398080	2594.054261
990.694180	2591.062336
990.990244	2593.154415
991.286271	2591.929415
991.582262	2593.761874
991.878217	2591.962182
992.174136	2590.230546
992.470019	2591.720207
992.765865	2592.355392
993.061676	2594.598706
993.357450	2593.948397
993.653188	2598.770260
993.948890	2601.008533
994.244556	2605.888370
994.540186	2610.150665
994.835780	2614.415481
995.131337	2622.453601
995.426859	2627.141874
995.722345	2636.611682
996.017795	2649.070893
996.313208	2657.713952
996.608586	2661.608243
996.903928	2665.200065
997.199234	2666.800632
997.494504	2669.686692
997.789738	2666.888852
998.084936	2663.107986
998.380099	2658.384425
998.675225	2650.885709
998.970316	2647.654329
999.265371	2642.194760
999.560390	2632.830816
999.855373	2625.644652
1000.150320	2620.389249
1000.445232	2616.084103
1000.740108	2609.434821
1001.034948	2604.943153
1001.329752	2601.651280
1001.624521	2599.944849
1001.919254	2594.084508
1002.213951	2592.191555
1002.508613	2590.170052
1002.803239	2589.038313
1003.097829	2585.156624
1003.392384	2586.739547
1003.686903	2588.448498
1003.981386	2585.857345
1004.275834	2585.804413
1004.570246	2587.838518
1004.864623	2583.591346
1005.158964	2585.328024
1005.453270	2583.593867
1005.747540	2584.203846
1006.041775	2583.412385
1006.335974	2580.541448
1006.630138	2578.169585
1006.924266	2580.980028
1007.218359	2582.096644
1007.512416	2581.574885
1007.806438	2582.507498
1008.100425	2581.814339
1008.394376	2578.892991
1008.688292	2582.197467
1008.982172	2579.286201
1009.276017	2584.009762
1009.569827	2582.368866
1009.863602	2579.989442
1010.157341	2580.223855
1010.451045	2580.606983
1010.744714	2576.959708
1011.038347	2577.930130
1011.331945	2579.848289
1011.625508	2579.313927
1011.919036	2578.978690
1012.212528	2580.186047
1012.505986	2578.000707
1012.799408	2578.381314
1013.092795	2579.442477
1013.386147	2579.283680
1013.679464	2577.776375
1013.972745	2578.708989
1014.265992	2578.358628
1014.559204	2579.049267
1014.852380	2579.941551
1015.145521	2578.582960
1015.438628	2575.679255
1015.731699	2578.071283
1016.024736	2575.797722
1016.317737	2580.377611
1016.610703	2581.660584
1016.903635	2577.927610
1017.196531	2578.963567
1017.489393	2578.580439
1017.782219	2574.877712
1018.075011	2573.897207
1018.367768	2580.818712
1018.660490	2582.704103
1018.953177	2582.704103
1019.245829	2582.704103
