Dividing Wavelength (nm)	Counts (n)	Blue Motor Position (mm): 10.000000	Red Motor Position (mm): 0.000000	
326.493990	2158.866573
326.888308	2158.866573
327.282561	2158.866573
327.676750	2134.001082
328.070874	2135.614251
328.464933	2141.013327
328.858929	2148.791827
329.252859	2161.810607
329.646726	2174.746208
330.040528	2190.744309
330.434265	2209.784747
330.827938	2228.250494
331.221547	2245.372773
331.615091	2266.066709
332.008571	2287.741150
332.401986	2308.006589
332.795338	2328.826554
333.188625	2345.691734
333.581847	2367.282996
333.975006	2387.850904
334.368100	2408.025602
334.761129	2422.713003
335.154095	2438.509459
335.546996	2459.394959
335.939833	2481.094606
336.332606	2494.224291
336.725315	2505.254336
337.117960	2512.672394
337.510540	2521.932993
337.903056	2531.715353
338.295508	2538.425128
338.687896	2543.922507
339.080220	2556.270813
339.472480	2560.777604
339.864676	2563.862791
340.256807	2568.551064
340.648875	2570.045766
341.040879	2569.302196
341.432818	2570.224727
341.824694	2574.681107
342.216506	2570.814542
342.608253	2569.438307
342.999937	2570.776733
343.391557	2571.348904
343.783113	2569.708008
344.174605	2568.961918
344.566033	2565.407904
344.957397	2564.742472
345.348697	2559.585372
345.739934	2559.766853
346.131106	2558.670402
346.522215	2557.261400
346.913260	2554.541697
347.304241	2554.055226
347.695159	2552.225287
348.086012	2551.151521
348.476802	2549.198074
348.867528	2547.269833
349.258191	2544.736653
349.648789	2547.002652
350.039324	2543.453679
350.429796	2543.103319
350.820203	2543.645243
351.210548	2540.998637
351.600828	2539.821528
351.991045	2540.842362
352.381198	2538.601569
352.771288	2539.249357
353.161314	2543.496529
353.551276	2541.845551
353.941175	2538.694830
354.331010	2539.950077
354.720782	2540.229861
355.110490	2540.549975
355.500135	2537.532844
355.889717	2539.524100
356.279235	2538.946888
356.668689	2542.473175
357.058080	2540.189532
357.447408	2537.852957
357.836672	2537.774819
358.225873	2538.354552
358.615010	2538.800694
359.004084	2541.805222
359.393095	2545.641540
359.782043	2544.436704
360.170927	2544.325799
360.559748	2546.155738
360.948505	2546.133052
361.337199	2545.855789
361.725830	2546.869061
362.114398	2546.944678
362.502903	2547.229503
362.891344	2547.090872
363.279722	2549.808054
363.668037	2547.738660
364.056289	2547.368135
364.444478	2551.272509
364.832603	2548.615821
365.220665	2550.632282
365.608665	2549.603887
365.996601	2551.111192
366.384474	2550.607077
366.772284	2552.205122
367.160031	2551.307797
367.547715	2556.653941
367.935336	2549.072045
368.322893	2554.423230
368.710388	2552.684032
369.097820	2554.246790
369.485189	2553.820812
369.872495	2551.557334
370.259738	2553.014227
370.646918	2553.606563
371.034035	2554.420709
371.421090	2555.517160
371.808081	2554.498847
372.195010	2557.059753
372.581875	2555.103786
372.968678	2554.924825
373.355418	2554.317366
373.742096	2554.667726
374.128710	2557.402552
374.515262	2556.863148
374.901751	2555.885165
375.288177	2558.325083
375.674540	2556.480021
376.060841	2557.969682
376.447079	2558.549414
376.833254	2559.096380
377.219367	2553.276368
377.605417	2556.694270
377.991404	2554.042623
378.377329	2555.973385
378.763191	2554.768549
379.148991	2559.603016
379.534727	2558.188972
379.920402	2561.317008
380.306013	2559.534960
380.691563	2562.053016
381.077049	2560.265927
381.462474	2562.153839
381.847835	2558.662840
382.233134	2560.021431
382.618371	2559.164435
383.003545	2562.499158
383.388657	2561.427913
383.773706	2559.993705
384.158693	2561.511092
384.543618	2560.081925
384.928480	2562.254662
385.313280	2561.349775
385.698017	2563.789694
386.082692	2563.925805
386.467305	2562.426062
386.851856	2565.130641
387.236344	2563.451937
387.620770	2565.256670
388.005133	2562.794066
388.389435	2561.203582
388.773674	2564.558470
389.157851	2563.867832
389.541965	2563.262893
389.926018	2565.385219
390.310008	2565.208779
390.693936	2565.102914
391.077802	2566.219530
391.461606	2565.533933
391.845348	2565.972513
392.229027	2565.007133
392.612645	2565.685168
392.996200	2568.215827
393.379694	2565.047462
393.763125	2569.289593
394.146494	2567.860426
394.529801	2567.603327
394.913047	2568.062072
395.296230	2569.385375
395.679351	2569.718091
396.062410	2569.705488
396.445408	2566.217009
396.828343	2567.328584
397.211217	2563.419169
397.594028	2564.470250
397.976778	2567.426886
398.359466	2568.029304
398.742092	2563.703994
399.124656	2567.741958
399.507158	2570.169274
399.889598	2570.441496
400.271977	2570.224727
400.654294	2570.370920
401.036549	2570.938050
401.418742	2571.744635
401.800874	2571.699264
402.182944	2572.949470
402.564952	2573.975345
402.946898	2571.422001
403.328783	2571.550550
403.710606	2572.846127
404.092367	2572.367217
404.474067	2573.211610
404.855705	2573.047773
405.237282	2576.130438
405.618797	2572.178174
406.000250	2571.091805
406.381642	2572.276476
406.762972	2571.248081
407.144240	2574.013154
407.525447	2573.405695
407.906593	2573.425859
408.287677	2573.042732
408.668700	2576.037177
409.049661	2573.418298
409.430560	2574.771847
409.811399	2573.299831
410.192176	2574.484502
410.572891	2573.151117
410.953545	2573.864440
411.334138	2573.272104
411.714669	2574.544996
412.095139	2575.283525
412.475547	2575.497774
412.855894	2577.695717
413.236180	2575.097002
413.616405	2575.820407
413.996568	2577.365521
414.376670	2575.454924
414.756711	2574.827300
415.136691	2574.943247
415.516609	2576.642116
415.896466	2576.926941
416.276262	2576.271591
416.655997	2572.694892
417.035670	2574.426528
417.415283	2573.526682
417.794834	2574.643298
418.174324	2574.789492
418.553753	2574.988617
418.933121	2577.186560
419.312428	2579.775193
419.691674	2577.357959
420.070859	2578.542631
420.449983	2577.418453
420.829045	2578.043556
421.208047	2580.833835
421.586988	2579.271077
421.965867	2575.006261
422.344686	2577.403330
422.723444	2579.538258
423.102141	2577.068093
423.480777	2578.829976
423.859352	2579.455079
424.237866	2579.666808
424.616319	2581.572364
424.994712	2578.530028
425.373044	2580.475913
425.751314	2577.458782
426.129524	2579.021540
426.507673	2580.773341
426.885762	2580.017168
427.263789	2578.885429
427.641756	2580.435584
428.019662	2581.423650
428.397508	2579.830645
428.775292	2583.210739
429.153016	2579.341653
429.530679	2582.883064
429.908282	2582.525142
430.285824	2582.963723
430.663305	2582.504978
431.040726	2580.299473
431.418086	2582.507498
431.795385	2579.639082
432.172624	2579.263516
432.549802	2583.079669
432.926920	2584.861717
433.303977	2582.812488
433.680974	2581.945409
434.057910	2581.983218
434.434786	2583.961871
434.811601	2581.791654
435.188355	2583.004052
435.565050	2584.297108
435.941683	2582.764597
436.318257	2580.733012
436.694770	2579.152610
437.071222	2578.759400
437.447614	2581.443815
437.823946	2579.384503
438.200218	2581.529514
438.576429	2586.265678
438.952580	2583.651840
439.328670	2581.400965
439.704700	2583.276274
440.080670	2583.785431
440.456580	2584.234093
440.832429	2583.563620
441.208218	2584.428178
441.583947	2582.310893
441.959616	2586.434557
442.335224	2584.145873
442.710773	2585.249886
443.086261	2586.361460
443.461689	2583.306521
443.837057	2586.089238
444.212365	2584.045050
444.587612	2584.914649
444.962800	2584.536562
445.337927	2585.403641
445.712995	2585.426326
446.088002	2584.871799
446.462949	2584.476069
446.837837	2586.139649
447.212664	2584.899526
447.587431	2585.943044
447.962139	2583.979515
448.336786	2586.870617
448.711374	2584.649988
449.085901	2587.654516
449.460369	2586.361460
449.834776	2585.580081
450.209124	2588.468662
450.583412	2587.775504
450.957640	2583.319124
451.331808	2586.890781
451.705917	2583.296439
452.079965	2586.880699
452.453954	2585.635534
452.827883	2584.599577
453.201752	2586.116964
453.575562	2588.332551
453.949311	2586.699217
454.323001	2585.887592
454.696632	2588.007397
455.070202	2588.251893
455.443713	2587.601584
455.817164	2583.112437
456.190556	2583.815677
456.563888	2583.873651
456.937160	2582.363825
457.310373	2586.757191
457.683526	2584.478589
458.056619	2586.759711
458.429653	2587.107551
458.802628	2587.873806
459.175542	2587.848601
459.548398	2588.733323
459.921194	2585.912797
460.293930	2588.756008
460.666607	2588.677870
461.039224	2588.700556
461.411782	2588.216605
461.784280	2589.600402
462.156719	2587.823395
462.529099	2589.295412
462.901419	2588.856831
463.273680	2587.609146
463.645882	2589.086204
464.018024	2587.709969
464.390106	2588.526636
464.762130	2588.337592
465.134094	2589.623087
465.505999	2588.171234
465.877845	2589.716348
466.249631	2589.610484
466.621358	2589.532346
466.993026	2590.439754
467.364634	2592.045361
467.736184	2589.365988
468.107674	2589.519743
468.479105	2588.672829
468.850477	2590.971595
469.221790	2591.304312
469.593043	2586.404310
469.964238	2593.905547
470.335373	2587.422623
470.706449	2589.605443
471.077467	2589.401276
471.448425	2592.481421
471.819324	2590.046544
472.190164	2592.451174
472.560945	2590.386822
472.931667	2588.060329
473.302330	2590.933787
473.672934	2590.943869
474.043479	2588.967737
474.413965	2590.868252
474.784393	2586.505133
475.154761	2588.468662
475.525070	2589.171903
475.895321	2589.499578
476.265513	2587.026892
476.635645	2590.296081
477.005719	2591.503437
477.375734	2591.425299
477.745691	2594.066864
478.115588	2591.516040
478.485427	2591.369847
478.855207	2590.674167
479.224928	2593.192224
479.594591	2589.471852
479.964194	2593.968561
480.333739	2593.013263
480.703226	2591.483272
481.072653	2591.858838
481.442022	2591.763057
481.811333	2595.168356
482.180584	2589.993612
482.549777	2593.325814
482.918912	2594.820516
483.287988	2592.680547
483.657005	2593.555187
484.025964	2591.879003
484.394864	2591.621904
484.763706	2596.945363
485.132489	2592.662902
485.501213	2592.980495
485.869879	2596.244642
486.238487	2592.940166
486.607036	2591.526122
486.975527	2594.671802
487.343959	2592.521750
487.712333	2594.205496
488.080648	2592.315063
488.448905	2592.178952
488.817104	2595.427975
489.185244	2594.845722
489.553326	2596.844540
489.921350	2596.627770
490.289315	2595.175918
490.657222	2598.336721
491.025070	2594.470156
491.392861	2596.940322
491.760593	2593.429158
492.128267	2596.806731
492.495883	2594.984354
492.863440	2598.283789
493.230939	2596.655496
493.598380	2593.202306
493.965763	2592.272213
494.333088	2589.978488
494.700354	2589.774321
495.067563	2591.732810
495.434713	2588.214084
495.801805	2595.385126
496.168839	2593.459405
496.535815	2592.967892
496.902733	2592.395721
497.269593	2594.686926
497.636395	2594.719693
498.003139	2596.219437
498.369825	2595.793459
498.736453	2595.881679
499.103023	2593.562748
499.469535	2595.564087
499.835989	2593.051071
500.202385	2593.353541
500.568723	2595.367482
500.935003	2594.233222
501.301226	2596.587441
501.667390	2595.904364
502.033497	2598.576176
502.399546	2595.259097
502.765537	2595.649786
503.131470	2595.276741
503.497345	2596.123655
503.863163	2594.359251
504.228923	2593.766915
504.594625	2594.308839
504.960269	2595.271700
505.325856	2593.731627
505.691385	2596.030393
506.056856	2597.008377
506.422270	2599.281937
506.787625	2596.847060
507.152924	2597.303285
507.518164	2595.637183
507.883347	2594.603747
508.248472	2596.433686
508.613540	2597.555342
508.978550	2595.798500
509.343503	2597.441916
509.708398	2596.171546
510.073236	2596.015270
510.438016	2595.985023
510.802738	2597.608274
511.167403	2597.366299
511.532010	2597.356217
511.896561	2596.597523
512.261053	2599.634818
512.625488	2593.819847
512.989866	2592.942687
513.354186	2593.719024
513.718449	2594.497882
514.082655	2598.676999
514.446803	2599.218923
514.810894	2601.013574
515.174927	2601.681527
515.538904	2599.672627
515.902822	2601.618512
516.266684	2600.552308
516.630488	2599.327308
516.994235	2601.603389
517.357925	2602.984665
517.721558	2599.236567
518.085133	2601.825200
518.448651	2601.043821
518.812112	2601.754623
519.175516	2601.981475
519.538863	2604.164295
519.902152	2603.637494
520.265385	2601.830241
520.628560	2604.691096
520.991678	2602.626743
521.354739	2603.506424
521.717743	2604.428956
522.080690	2603.995416
522.443580	2604.123966
522.806413	2606.621857
523.169189	2607.052876
523.531908	2604.643205
523.894569	2608.035901
524.257174	2604.028184
524.619722	2606.344594
524.982213	2605.696806
525.344647	2607.352825
525.707025	2608.111518
526.069345	2606.921806
526.431608	2607.652773
526.793815	2607.115891
527.155964	2607.299893
527.518057	2608.822321
527.880093	2608.043463
528.242072	2608.928185
528.603995	2610.553957
528.965860	2609.676797
529.327669	2608.597990
529.689421	2609.901128
530.051117	2609.500356
530.412755	2611.053032
530.774337	2609.255860
531.135862	2612.640995
531.497331	2608.141765
531.858743	2607.312496
532.220098	2607.269646
532.581396	2608.774430
532.942638	2606.881477
533.303824	2610.427929
533.664953	2612.686366
534.026025	2613.198043
534.387040	2610.730398
534.747999	2611.184102
535.108902	2613.132508
535.469748	2611.347939
535.830537	2611.675614
536.191270	2613.762652
536.551947	2613.477827
536.912567	2613.747528
537.273131	2612.540172
537.633638	2612.399020
537.994089	2612.502363
538.354483	2612.663680
538.714821	2613.278701
539.075103	2613.177878
539.435328	2613.654267
539.795497	2614.052518
540.155609	2613.573609
540.515665	2613.553444
540.875665	2615.438836
541.235609	2612.167127
541.595496	2617.069649
541.955328	2614.755759
542.315102	2613.167796
542.674821	2612.739298
543.034483	2614.130656
543.394090	2613.997066
543.753640	2614.022271
544.113134	2612.300717
544.472571	2613.855913
544.831953	2613.283742
545.191278	2615.297683
545.550548	2614.972529
545.909761	2615.088475
546.268918	2616.386572
546.628019	2616.936058
546.987064	2614.765842
547.346053	2613.971860
547.704986	2615.620317
548.063863	2614.334823
548.422684	2613.888681
548.781449	2614.418002
549.140158	2612.940944
549.498811	2615.650564
549.857408	2612.867847
550.215949	2614.612086
550.574434	2610.727877
550.932864	2611.756273
551.291237	2611.355501
551.649555	2617.712396
552.007817	2615.012858
552.366022	2615.274998
552.724173	2615.706017
553.082267	2617.339351
553.440305	2619.139042
553.798288	2616.983949
554.156215	2614.942282
554.514086	2616.426902
554.871902	2614.770883
555.229661	2616.605863
555.587365	2614.528907
555.945014	2614.425564
556.302606	2615.272477
556.660143	2617.939248
557.017625	2615.711058
557.375050	2616.321037
557.732421	2618.292129
558.089735	2618.156017
558.446994	2618.428240
558.804197	2617.944289
559.161345	2616.988990
559.518437	2617.692231
559.875474	2618.032509
560.232455	2620.792541
560.589381	2618.148456
560.946251	2620.132150
561.303065	2618.004783
561.659825	2620.616101
562.016528	2618.241717
562.373177	2617.301542
562.729770	2615.663167
563.086307	2618.461007
563.442789	2618.811367
563.799216	2620.580812
564.155587	2619.754063
564.511904	2618.912191
564.868164	2619.010493
565.224370	2621.773045
565.580520	2621.949486
565.936615	2619.650720
566.292654	2621.334465
566.648638	2624.364198
567.004567	2620.369084
567.360441	2619.660802
567.716260	2621.856224
568.072023	2620.888323
568.427732	2617.561161
568.783385	2617.162910
569.138982	2620.185082
569.494525	2620.137191
569.850013	2618.103085
570.205445	2621.972171
570.560823	2622.970319
570.916145	2624.759929
571.271412	2624.810341
571.626625	2625.868983
571.981782	2622.647686
572.336884	2624.787655
572.691931	2623.076184
573.046923	2622.657768
573.401860	2625.642131
573.756743	2624.429733
574.111570	2625.770680
574.466342	2624.747326
574.821059	2627.744292
575.175722	2623.698766
575.530330	2624.089456
575.884882	2623.194651
576.239380	2626.655403
576.593823	2625.584158
576.948211	2625.697584
577.302544	2625.206071
577.656823	2624.160032
578.011047	2625.395114
578.365216	2628.326545
578.719330	2626.771349
579.073389	2628.240846
579.427394	2625.730351
579.781344	2626.657923
580.135239	2626.766308
580.489080	2627.308232
580.842866	2625.760598
581.196597	2632.019191
581.550273	2629.019704
581.903895	2627.608181
582.257463	2629.443161
582.610975	2628.465177
582.964434	2629.102883
583.317837	2630.824437
583.671186	2630.758902
584.024481	2630.960548
584.377721	2634.131434
584.730906	2630.189252
585.084037	2632.493059
585.437113	2631.908285
585.790135	2634.678399
586.143103	2632.672020
586.496016	2637.193935
586.848874	2631.333594
587.201679	2634.612864
587.554428	2634.564973
587.907124	2634.842237
588.259765	2630.837040
588.612352	2637.667803
588.964884	2636.815848
589.317362	2637.781229
589.669786	2642.419091
590.022155	2643.172743
590.374470	2643.041673
590.726731	2640.755510
591.078937	2642.104019
591.431090	2645.375728
591.783188	2645.847076
592.135232	2646.041160
592.487222	2643.082003
592.839157	2648.642395
593.191038	2643.863382
593.542866	2647.631644
593.894639	2646.265491
594.246358	2647.369504
594.598022	2650.530307
594.949633	2650.558034
595.301190	2650.817653
595.652692	2652.715648
596.004141	2650.744557
596.355535	2654.245638
596.706876	2653.338230
597.058162	2655.999959
597.409395	2655.057264
597.760573	2655.488282
598.111698	2657.668581
598.462768	2659.818633
598.813785	2662.041782
599.164748	2662.676968
599.515657	2662.495486
599.866511	2661.804848
600.217312	2663.397853
600.568060	2665.295847
600.918753	2669.169974
601.269392	2669.621157
601.619978	2668.451609
601.970510	2672.373627
602.320988	2671.302382
602.671412	2675.443690
603.021783	2675.516787
603.372100	2678.231448
603.722363	2677.714730
604.072572	2678.385203
604.422728	2683.353260
604.772830	2681.664474
605.122878	2682.660102
605.472872	2682.430729
605.822813	2687.303004
606.172701	2687.804599
606.522534	2692.107224
606.872314	2695.472194
607.222041	2699.129551
607.571714	2699.638708
607.921333	2697.647452
608.270899	2705.262115
608.620411	2707.074410
608.969870	2708.680017
609.319276	2711.465255
609.668627	2713.065821
610.017926	2716.594629
610.367171	2721.960937
610.716362	2722.830536
611.065500	2725.502347
611.414585	2729.857904
611.763616	2731.508882
612.112594	2734.745303
612.461518	2739.209245
612.810389	2742.115470
613.159207	2746.355080
613.507971	2748.903384
613.856682	2751.983529
614.205340	2754.927562
614.553945	2760.810589
614.902496	2760.800507
615.250994	2771.026487
615.599439	2772.087650
615.947830	2777.945471
616.296169	2783.100051
616.644454	2787.785803
616.992686	2790.432409
617.340864	2800.907927
617.688990	2802.296765
618.037063	2810.549133
618.385082	2817.566420
618.733048	2824.840805
619.080961	2829.380364
619.428821	2837.849502
619.776628	2841.403516
620.124382	2844.778568
620.472083	2847.455421
620.819731	2855.359950
621.167326	2857.951103
621.514868	2861.023686
621.862357	2860.438912
622.209793	2864.822196
622.557176	2866.470653
622.904506	2867.345293
623.251783	2868.103987
623.599007	2870.256560
623.946179	2872.898124
624.293297	2876.885677
624.640363	2880.797612
624.987376	2884.747356
625.334336	2888.215670
625.681243	2887.146946
626.028097	2893.771022
626.374899	2897.851836
626.721647	2900.304357
627.068343	2908.249216
627.414987	2911.097468
627.761577	2914.328847
628.108115	2923.836463
628.454600	2929.361568
628.801032	2934.642177
629.147412	2940.638629
629.493739	2944.212807
629.840014	2947.633230
630.186236	2959.124540
630.532405	2961.561938
630.878521	2974.134576
631.224585	2980.562047
631.570597	2983.800988
631.916556	2992.312977
632.262462	2999.461333
632.608316	3006.380316
632.954117	3015.146883
633.299866	3023.132071
633.645562	3025.796320
633.991206	3029.105838
634.336797	3029.516692
634.682336	3037.612785
635.027823	3038.774771
635.373257	3039.049514
635.718639	3041.867519
636.063968	3047.558982
636.409245	3046.386913
636.754470	3050.261040
637.099642	3055.029972
637.444762	3056.925445
637.789829	3063.761250
638.134845	3066.475911
638.479808	3074.282138
638.824719	3080.303796
639.169577	3079.960998
639.514383	3087.258068
639.859137	3088.961978
640.203839	3101.499328
640.548489	3100.362547
640.893086	3106.810183
641.237632	3108.972838
641.582125	3118.094806
641.926566	3125.240642
642.270955	3137.961993
642.615292	3143.718991
642.959576	3153.261895
643.303809	3161.594923
643.647990	3171.069771
643.992118	3177.290555
644.336195	3185.671473
644.680219	3194.034748
645.024192	3208.369269
645.368112	3227.175293
645.711981	3240.138620
646.055797	3263.375819
646.399562	3274.700771
646.743274	3306.528096
647.086935	3328.986436
647.430544	3339.469516
647.774101	3355.102134
648.117606	3368.819113
648.461059	3388.172103
648.804460	3390.400293
649.147810	3384.734036
649.491108	3387.509191
649.834354	3386.231259
650.177548	3376.973180
650.520690	3375.831358
650.863781	3385.825446
651.206820	3394.518916
651.549807	3388.081362
651.892742	3387.110940
652.235626	3394.342475
652.578458	3397.223495
652.921238	3395.902712
653.263967	3407.681368
653.606644	3409.869229
653.949269	3421.242072
654.291843	3419.765014
654.634365	3440.335442
654.976836	3442.593879
655.319255	3450.909263
655.661622	3459.746405
656.003938	3462.960141
656.346203	3473.521358
656.688416	3485.645333
657.030577	3494.313597
657.372687	3494.517764
657.714746	3509.255577
658.056753	3525.452804
658.398708	3516.943337
658.740612	3528.225439
659.082465	3544.848644
659.424266	3546.360990
659.766016	3564.720872
660.107715	3573.726894
660.449362	3589.619131
660.790958	3603.517592
661.132503	3609.498921
661.473996	3621.879995
661.815438	3635.639825
662.156829	3653.336795
662.498168	3655.988442
662.839456	3667.973785
663.180693	3685.821991
663.521879	3702.939228
663.863013	3712.771999
664.204097	3723.292887
664.545129	3749.083430
664.886110	3758.714555
665.227040	3774.914303
665.567918	3792.454997
665.908746	3805.453613
666.249522	3825.202333
666.590248	3837.480063
666.930922	3851.186960
667.271545	3862.953013
667.612118	3883.651991
667.952639	3887.364801
668.293109	3902.054723
668.633528	3909.651742
668.973896	3916.928647
669.314213	3932.619239
669.654480	3933.400618
669.994695	3947.208338
670.334859	3954.583546
670.674973	3960.103610
671.015035	3979.882577
671.355047	3993.589474
671.695008	4001.456195
672.034918	4008.985158
672.374777	4025.963764
672.714585	4029.479969
673.054342	4054.290007
673.394049	4058.247313
673.733705	4081.890325
674.073310	4084.582301
674.412864	4098.644600
674.752368	4096.953293
675.091820	4121.642343
675.431223	4112.817804
675.770574	4112.641363
676.109875	4112.817804
676.449125	4112.399388
676.788324	4121.586891
677.127473	4111.544912
677.466571	4117.037249
677.805619	4118.284935
678.144616	4128.342037
678.483562	4129.625011
678.822458	4133.148777
679.161303	4143.878873
679.500098	4146.308709
679.838842	4157.283301
680.177535	4170.697812
680.516179	4193.932490
680.854771	4209.877659
681.193314	4262.277933
681.531805	4332.468438
681.870247	4384.939288
682.208638	4449.972693
682.546978	4492.643540
682.885268	4514.597765
683.223508	4501.578985
683.561697	4500.890868
683.899836	4504.286085
684.237925	4486.584073
684.575963	4491.988190
684.913951	4481.726922
685.251889	4500.520343
685.589776	4515.810163
685.927614	4523.513046
686.265401	4543.826375
686.603137	4561.604004
686.940824	4599.752936
687.278460	4633.120333
687.616046	4651.412160
687.953582	4707.439544
688.291068	4714.613106
688.628504	4748.340946
688.965889	4765.014562
689.303224	4765.158235
689.640510	4760.984159
689.977745	4731.453080
690.314930	4699.242628
690.652065	4683.221841
690.989150	4650.484588
691.326185	4605.600674
691.663170	4571.910643
692.000105	4537.078791
692.336990	4505.138040
692.673825	4485.878312
693.010610	4459.311431
693.347345	4427.978139
693.684030	4392.521184
694.020665	4385.158578
694.357251	4350.674566
694.693786	4357.890977
695.030272	4351.322354
695.366707	4318.320440
695.703093	4308.832989
696.039429	4319.414371
696.375716	4309.697547
696.711952	4310.627639
697.048139	4308.497752
697.384276	4303.217143
697.720363	4323.084331
698.056400	4317.770954
698.392388	4311.797187
698.728326	4321.556861
699.064214	4321.566943
699.400053	4326.756811
699.735842	4308.863236
700.071581	4299.816885
700.407270	4287.362714
700.742910	4283.624699
701.078501	4278.512969
701.414042	4262.827419
701.749533	4245.778236
702.084974	4228.315679
702.420366	4253.876850
702.755709	4227.879620
703.091002	4214.583576
703.426246	4225.754773
703.761440	4225.427098
704.096584	4212.241960
704.431679	4218.253536
704.766725	4211.972259
705.101721	4217.308320
705.436668	4234.299529
705.771565	4214.727249
706.106413	4252.435080
706.441212	4255.923558
706.775961	4269.789252
707.110661	4285.656284
707.445311	4325.292356
707.779913	4314.196776
708.114465	4345.134338
708.448967	4373.715159
708.783421	4436.422072
709.117825	4467.634376
709.452180	4492.688911
709.786485	4529.741391
710.120742	4603.332155
710.454949	4611.032518
710.789107	4656.264271
711.123216	4725.212132
711.457275	4742.407507
711.791286	4807.445954
712.125247	4822.579498
712.459159	4815.647911
712.793023	4892.974170
713.126837	4807.539215
713.460602	4852.629816
713.794318	4839.595912
714.127985	4824.341381
714.461602	4749.790277
714.795171	4771.036220
715.128691	4686.165875
715.462162	4650.063651
715.795584	4619.267242
716.128957	4608.358186
716.462281	4581.879525
716.795556	4569.914346
717.128782	4528.400444
717.461960	4479.251715
717.795088	4484.733970
718.128167	4452.866316
718.461198	4410.329060
718.794180	4404.816558
719.127113	4375.204820
719.459997	4362.541442
719.792833	4329.577337
720.125619	4336.269468
720.458357	4304.270744
720.791046	4296.242707
721.123686	4283.380203
721.456278	4269.075929
721.788821	4265.829426
722.121315	4244.782608
722.453761	4255.079165
722.786158	4251.268053
723.118506	4259.613683
723.450805	4247.653546
723.783056	4272.340076
724.115259	4260.531173
724.447412	4257.577057
724.779518	4292.441677
725.111574	4297.860917
725.443582	4326.930731
725.775542	4324.558868
726.107453	4382.239750
726.439315	4367.002863
726.771129	4422.697531
727.102895	4459.006441
727.434612	4489.069362
727.766281	4509.493597
728.097901	4546.362076
728.429473	4564.742123
728.760996	4570.806631
729.092471	4595.742698
729.423897	4595.856124
729.755276	4586.787088
730.086606	4602.656641
730.417887	4665.552597
730.749120	4728.491402
731.080305	4756.253037
731.411442	4815.945339
731.742530	4839.827806
732.073570	4860.708265
732.404562	4907.185183
732.735506	4906.860028
733.066401	4900.752670
733.397249	4863.730437
733.728048	4814.543898
734.058798	4724.748346
734.389501	4653.584897
734.720156	4602.951548
735.050762	4537.141805
735.381320	4495.320393
735.711831	4461.395948
736.042293	4412.912651
736.372707	4413.850306
736.703073	4382.940471
737.033391	4411.644801
737.363661	4402.714397
737.693883	4411.133124
738.024056	4431.660702
738.354182	4449.990337
738.684260	4484.978466
739.014290	4513.609699
739.344272	4535.125344
739.674207	4572.825613
740.004093	4599.503399
740.333931	4604.456332
740.663722	4619.042911
740.993464	4632.112102
741.323159	4621.203046
741.652806	4597.986012
741.982405	4591.911421
742.311956	4556.744332
742.641460	4553.177716
742.970915	4524.833828
743.300323	4491.345443
743.629683	4477.769616
743.958996	4444.099749
744.288260	4414.989606
744.617477	4375.897979
744.946647	4370.819016
745.275768	4336.932380
745.604842	4320.142817
745.933869	4296.885454
746.262847	4295.284888
746.591778	4292.224907
746.920662	4273.078605
747.249498	4274.517854
747.578286	4288.277684
747.907027	4307.827278
748.235720	4341.363554
748.564365	4348.721118
748.892963	4343.690047
749.221514	4359.355432
749.550017	4345.678782
749.878473	4346.273638
750.206881	4320.389834
750.535242	4317.718022
750.863555	4307.108914
751.191821	4293.036533
751.520039	4305.425169
751.848210	4290.828508
752.176334	4296.416627
752.504411	4283.186118
752.832440	4264.937142
753.160421	4275.881487
753.488356	4262.746760
753.816243	4249.556581
754.144082	4227.070514
754.471875	4219.781006
754.799620	4217.091550
755.127318	4210.129717
755.454969	4210.946384
755.782572	4207.190724
756.110129	4210.316240
756.437638	4194.204712
756.765100	4197.539435
757.092515	4203.608984
757.419882	4204.254252
757.747203	4201.905074
758.074477	4216.491653
758.401703	4206.772308
758.728882	4228.476996
759.056014	4240.671548
759.383099	4254.156634
759.710138	4279.306951
760.037129	4301.304025
760.364073	4314.095953
760.690970	4308.878359
761.017820	4318.590142
761.344623	4346.253474
761.671379	4399.167945
761.998088	4474.916323
762.324751	4657.141431
762.651366	5015.355741
762.977935	5546.070774
763.304456	5979.862063
763.630931	6229.918417
763.957359	6195.857861
764.283740	5989.195759
764.610074	5742.335496
764.936362	5432.700265
765.262602	5183.503428
765.588796	4913.146347
765.914943	4717.113518
766.241044	4537.756826
766.567097	4400.733223
766.893104	4285.782313
767.219064	4204.355075
767.544978	4127.046460
767.870845	4060.800658
768.196665	4018.888505
768.522438	3986.357939
768.848165	3951.949543
769.173846	3923.620779
769.499479	3903.935073
769.825066	3873.383161
770.150607	3839.977955
770.476101	3832.680884
770.801548	3818.858041
771.126949	3791.464411
771.452303	3777.772637
771.777611	3749.093513
772.102872	3746.477154
772.428087	3730.136253
772.753256	3707.597255
773.078378	3696.199206
773.403453	3668.356913
773.728482	3649.881084
774.053465	3634.939104
774.378401	3621.761528
774.703291	3601.710339
775.028135	3582.647215
775.352932	3577.331319
775.677683	3564.110893
776.002388	3545.889642
776.327046	3552.843914
776.651658	3535.744320
776.976224	3518.826208
777.300743	3517.833100
777.625216	3508.363293
777.949643	3501.514885
778.274024	3504.284999
778.598359	3486.371259
778.922647	3489.138853
779.246889	3477.912203
779.571086	3479.900938
779.895236	3480.455465
780.219339	3478.534786
780.543397	3479.651401
780.867409	3495.707476
781.191374	3494.759739
781.515294	3487.334120
781.839167	3504.597551
782.162995	3502.013960
782.486776	3498.951459
782.810511	3492.861745
783.134201	3478.902790
783.457844	3482.698779
783.781441	3477.307265
784.104993	3470.100935
784.428498	3466.846870
784.751958	3465.200934
785.075372	3460.288329
785.398739	3454.518729
785.722061	3459.857311
786.045337	3460.489975
786.368568	3484.634582
786.691752	3480.304231
787.014891	3519.796630
787.337983	3560.292219
787.661030	3631.180924
787.984031	3713.855847
788.306987	3777.208028
788.629897	3819.541117
788.952760	3833.220288
789.275579	3823.982373
789.598351	3783.005354
789.921078	3742.426587
790.243759	3689.315510
790.566395	3649.518121
790.888984	3610.572687
791.211529	3576.910382
791.534027	3539.492418
791.856480	3507.249198
792.178888	3490.018534
792.501249	3472.193014
792.823566	3445.749642
793.145836	3443.723098
793.468062	3432.864452
793.790241	3420.432967
794.112375	3429.302877
794.434464	3445.033798
794.756507	3441.197480
795.078505	3455.307669
795.400457	3491.730006
795.722364	3533.659803
796.044226	3574.914085
796.366042	3613.546968
796.687812	3611.243161
797.009538	3634.185452
797.331218	3627.304277
797.652852	3623.614152
797.974442	3602.597582
798.295986	3598.720934
798.617484	3572.043148
798.938938	3548.977349
799.260346	3542.139024
799.581709	3504.675689
799.903026	3499.253928
800.224299	3482.693738
800.545526	3451.534366
800.866708	3440.073302
801.187845	3427.331786
801.508936	3408.142634
801.829983	3401.130389
802.150984	3375.201214
802.471940	3367.198382
802.792851	3361.605222
803.113717	3351.122143
803.434538	3345.765917
803.755314	3335.151767
804.076045	3331.978361
804.396731	3323.239521
804.717372	3322.201043
805.037967	3322.301866
805.358518	3320.441680
805.679024	3334.249401
805.999485	3331.519616
806.319901	3333.820903
806.640272	3336.964062
806.960598	3348.568798
807.280879	3346.080989
807.601115	3356.604398
807.921306	3345.110567
808.241453	3349.826566
808.561554	3359.180427
808.881611	3356.082638
809.201623	3358.567927
809.521590	3351.631299
809.841513	3348.397399
810.161390	3357.330324
810.481223	3341.012109
810.801011	3338.804083
811.120755	3334.821572
811.440453	3328.847804
811.760107	3324.580468
812.079716	3315.942451
812.399281	3307.319557
812.718801	3308.630257
813.038276	3297.315387
813.357707	3297.045685
813.677093	3300.723207
813.996434	3289.000004
814.315731	3296.723052
814.634983	3294.867907
814.954191	3297.237249
815.273354	3313.540341
815.592473	3324.318328
815.911547	3340.573528
816.230577	3354.903008
816.549562	3379.007285
816.868502	3396.414389
817.187399	3415.404416
817.506250	3443.841565
817.825058	3450.901701
818.143821	3493.932990
818.462539	3536.354300
818.781213	3587.524532
819.099843	3665.362468
819.418429	3805.246925
819.736970	3947.263791
820.055466	4116.651601
820.373919	4341.235005
820.692327	4655.225793
821.010691	5125.303307
821.329011	6094.301296
821.647286	7578.313645
821.965517	9417.001413
822.283704	10786.687955
822.601847	11734.016544
822.919945	11483.297278
823.237999	10956.484098
823.556010	10206.841836
823.873976	9375.089260
824.191897	8529.115589
824.509775	7838.243099
824.827609	7125.638194
825.145398	6638.370346
825.463144	6292.789167
825.780845	6183.028124
826.098502	6242.344861
826.416116	6580.099648
826.733685	7032.427259
827.051210	7283.126361
827.368692	7219.186886
827.686129	6826.672565
828.003522	6321.735472
828.320872	5803.633407
828.638177	5384.632863
828.955439	5039.003794
829.272656	4729.872678
829.589830	4472.781394
829.906960	4229.500351
830.224046	4036.260321
830.541088	3879.644274
830.858086	3769.434568
831.175041	3681.032894
831.491952	3634.976913
831.808819	3625.499544
832.125642	3661.011952
832.442421	3757.895367
832.759157	3958.283753
833.075849	4303.519613
833.392497	4730.643975
833.709101	5088.470116
834.025662	5184.332698
834.342179	5077.067026
834.658653	4833.816230
834.975083	4578.549843
835.291469	4353.835369
835.607811	4143.745283
835.924110	3999.369157
836.240366	3849.772917
836.556578	3698.036706
836.872746	3572.373344
837.188871	3464.527940
837.504952	3375.879249
837.820990	3307.864002
838.136984	3254.324427
838.452935	3226.338462
838.768842	3212.878581
839.084706	3243.934609
839.400526	3366.321222
839.716303	3573.943663
840.032037	3774.148047
840.347727	3836.129034
840.663373	3754.182557
840.978977	3617.347998
841.294537	3495.450377
841.610054	3393.845922
841.925527	3322.188440
842.240957	3261.356837
842.556344	3204.260728
842.871687	3145.400216
843.186987	3086.080959
843.502244	3037.940460
843.817458	3003.494256
844.132629	2975.097436
844.447756	2951.532563
844.762840	2929.359047
845.077881	2913.078641
845.392879	2899.364182
845.707833	2890.128788
846.022745	2879.360883
846.337613	2875.438866
846.652438	2869.639018
846.967221	2863.713142
847.281960	2855.392718
847.596656	2852.241996
847.911309	2847.163034
848.225919	2843.525841
848.540485	2838.542661
848.855009	2835.255828
849.169490	2832.752896
849.483928	2830.630570
849.798323	2827.346258
850.112675	2823.031030
850.426984	2824.137564
850.741251	2821.047336
851.055474	2820.205464
851.369654	2820.165134
851.683792	2819.315700
851.997887	2818.597336
852.311938	2819.333344
852.625947	2818.171358
852.939914	2817.392500
853.253837	2821.927018
853.567718	2819.439208
853.881555	2815.796975
854.195350	2817.180771
854.509103	2818.065494
854.822812	2817.153045
855.136479	2813.427632
855.450103	2817.039619
855.763685	2812.167344
856.077224	2816.235555
856.390720	2816.515339
856.704173	2819.411482
857.017584	2820.356698
857.330953	2823.051195
857.644278	2825.226453
857.957561	2830.363389
858.270802	2830.809531
858.584000	2829.899602
858.897155	2826.766525
859.210268	2826.564879
859.523339	2822.668067
859.836367	2821.402738
860.149352	2822.242090
860.462295	2821.969867
860.775195	2816.117088
861.088054	2814.882005
861.400869	2814.957622
861.713642	2813.039463
862.026373	2811.201963
862.339062	2816.540545
862.651708	2819.522387
862.964312	2824.024138
863.276873	2824.558500
863.589392	2833.133503
863.901869	2837.350428
864.214303	2845.149093
864.526696	2851.541276
864.839045	2858.979498
865.151353	2864.570138
865.463619	2865.527957
865.775842	2869.633977
866.088023	2872.862836
866.400162	2873.727394
866.712258	2877.687220
867.024313	2877.024309
867.336325	2876.298383
867.648296	2881.062273
867.960224	2879.280225
868.272110	2881.200905
868.583954	2880.003631
868.895755	2883.751728
869.207515	2883.807181
869.519233	2891.797410
869.830909	2892.823285
870.142542	2896.009294
870.454134	2898.083729
870.765684	2902.598082
871.077191	2910.628640
871.388657	2917.373704
871.700081	2920.232038
872.011463	2926.916608
872.322803	2931.453647
872.634101	2934.075047
872.945357	2944.104422
873.256571	2952.414764
873.567744	2957.980198
873.878874	2962.008080
874.189963	2969.849595
874.501010	2973.627940
874.812015	2972.740697
875.122979	2983.927017
875.433900	2983.692603
875.744780	2985.971205
876.055618	2989.510095
876.366415	2992.844818
876.677169	2998.657269
876.987882	3003.421159
877.298554	3010.536748
877.609183	3028.831095
877.919771	3044.030174
878.230317	3066.274265
878.540822	3105.733897
878.851285	3149.400372
879.161707	3216.674570
879.472087	3318.410095
879.782425	3474.713591
880.092722	3738.348293
880.402977	4128.044609
880.713191	4622.997696
881.023363	5153.291793
881.333494	5543.454415
881.643583	5807.651206
881.953631	5888.382764
882.263637	5860.061562
882.573602	5729.904011
882.883526	5582.147792
883.193408	5398.735491
883.503248	5194.951888
883.813048	5002.420141
884.122806	4794.059170
884.432522	4573.337290
884.742197	4365.314076
885.051831	4168.890558
885.361424	3984.341477
885.670975	3827.874144
885.980485	3688.579502
886.289954	3568.300092
886.599382	3471.830051
886.908768	3394.491189
887.218113	3320.275322
887.527417	3258.611928
887.836680	3204.553115
888.145901	3159.971671
888.455082	3126.657206
888.764221	3090.887699
889.073319	3065.901220
889.382376	3046.765000
889.691392	3029.804038
890.000366	3021.803727
890.309300	3013.042201
890.618193	3013.984897
890.927044	3004.941067
891.235855	3009.498270
891.544625	3008.888290
891.853353	3018.022861
892.162041	3032.997609
892.470687	3056.615414
892.779293	3088.538521
893.087858	3131.983185
893.396381	3207.048486
893.704864	3306.288641
894.013306	3457.540900
894.321707	3631.105307
894.630068	3778.548974
894.938387	3853.241230
895.246665	3857.962271
895.554903	3811.618944
895.863100	3724.633834
896.171256	3654.019872
896.479371	3582.475816
896.787446	3510.904034
897.095480	3441.709157
897.403473	3393.291395
897.711425	3335.721418
898.019336	3288.238790
898.327207	3234.883217
898.635038	3191.620035
898.942827	3144.003816
899.250576	3100.544029
899.558284	3063.746127
899.865952	3038.709236
900.173579	3008.767303
900.481165	2989.074035
900.788711	2971.810604
901.096216	2956.682101
901.403681	2945.178188
901.711105	2938.085285
902.018489	2930.034562
902.325832	2939.159050
902.633135	2947.398816
902.940397	2986.684528
903.247619	3070.922209
903.554800	3235.180645
903.861941	3495.921725
904.169041	3747.064448
904.476101	3906.180907
904.783121	3932.213426
905.090100	3871.268397
905.397039	3766.296450
905.703938	3666.514371
906.010796	3568.690781
906.317614	3488.307062
906.624391	3405.243970
906.931129	3339.620750
907.237826	3275.184722
907.544483	3213.677604
907.851099	3145.765700
908.157675	3072.328691
908.464211	3003.524503
908.770707	2951.691359
909.077163	2903.865932
909.383578	2869.880994
909.689954	2841.075841
909.996289	2824.974395
910.302584	2814.750935
910.608839	2802.090077
910.915054	2797.469860
911.221229	2791.365022
911.527363	2790.651699
911.833458	2792.653037
912.139513	2793.598254
912.445527	2795.990281
912.751502	2806.967394
913.057436	2822.763849
913.363331	2843.581294
913.669186	2868.230016
913.975000	2906.157137
914.280775	2965.940180
914.586510	3041.728887
914.892205	3144.520535
915.197859	3284.258799
915.503475	3457.475365
915.809050	3623.720016
916.114585	3748.796084
916.420081	3820.602280
916.725536	3853.631920
917.030952	3818.583298
917.336328	3779.945374
917.641665	3735.525247
917.946961	3675.732121
918.252218	3620.728092
918.557435	3552.851476
918.862612	3488.463338
919.167750	3428.100562
919.472848	3360.773432
919.777906	3294.895633
920.082925	3229.133781
920.387904	3160.432937
920.692843	3107.687344
920.997743	3058.266392
921.302603	3009.087416
921.607423	2977.398723
921.912204	2944.270780
922.216946	2919.692635
922.521647	2895.429561
922.826310	2875.983310
923.130932	2858.961854
923.435516	2839.606344
923.740059	2826.002791
924.044564	2809.883701
924.349028	2797.984057
924.653454	2783.397479
924.957840	2771.084461
925.262186	2764.888882
925.566493	2752.767428
925.870761	2740.255284
926.174989	2735.632546
926.479178	2729.711711
926.783328	2720.083107
927.087438	2714.515153
927.391509	2710.013402
927.695541	2703.618699
927.999533	2698.257432
928.303486	2695.751978
928.607400	2690.786442
928.911275	2687.378622
929.215110	2682.589525
929.518906	2683.607838
929.822663	2681.798064
930.126381	2677.389575
930.430060	2678.599452
930.733699	2680.505008
931.037299	2681.079700
931.340861	2682.138342
931.644383	2682.743281
931.947866	2680.578105
932.251309	2681.041891
932.554714	2680.358815
932.858080	2683.091120
933.161407	2679.940399
933.464694	2676.880419
933.767943	2677.351767
934.071153	2676.688855
934.374323	2676.313289
934.677455	2676.278001
934.980548	2671.211641
935.283602	2670.906651
935.586617	2670.112670
935.889593	2672.603000
936.192530	2674.594255
936.495428	2674.740449
936.798287	2675.005109
937.101108	2678.009637
937.403890	2687.355936
937.706632	2692.863397
938.009336	2706.116590
938.312002	2716.007334
938.614628	2728.416134
938.917216	2736.870149
939.219765	2745.215780
939.522275	2752.961512
939.824747	2753.561410
940.127179	2748.915987
940.429573	2751.504619
940.731929	2754.778848
941.034246	2751.247520
941.336524	2753.261461
941.638763	2752.159969
941.940964	2751.766759
942.243126	2745.886253
942.545250	2740.754358
942.847335	2738.332084
943.149381	2730.661968
943.451389	2726.520661
943.753359	2718.152345
944.055290	2715.470451
944.357182	2710.469627
944.659036	2706.411498
944.960851	2705.655325
945.262628	2702.111394
945.564367	2700.936805
945.866067	2701.483770
946.167729	2699.447144
946.469352	2698.015456
946.770937	2699.179963
947.072484	2694.703418
947.373992	2694.242152
947.675462	2693.450691
947.976893	2692.492872
948.278286	2691.051102
948.579641	2689.339630
948.880958	2687.812161
949.182236	2689.558921
949.483476	2687.555062
949.784678	2684.858045
950.085841	2684.623631
950.386967	2687.247552
950.688054	2689.074970
950.989103	2691.189734
951.290114	2692.691998
951.591087	2698.060827
951.892021	2703.540561
952.192917	2706.126673
952.493776	2708.674976
952.794596	2712.556664
953.095378	2714.154710
953.396122	2712.780996
953.696828	2712.836448
953.997496	2715.167982
954.298126	2710.111705
954.598718	2711.382076
954.899272	2705.052907
955.199788	2699.978986
955.500266	2695.613346
955.800706	2688.941379
956.101108	2681.772858
956.401472	2678.450738
956.701798	2669.240550
957.002087	2663.291988
957.302337	2660.778973
957.602550	2655.425268
957.902724	2649.731285
958.202861	2646.729277
958.502960	2639.215438
958.803022	2636.830972
959.103045	2634.106228
959.403031	2629.448202
959.702979	2627.109107
960.002889	2625.087604
960.302762	2622.002418
960.602596	2621.289095
960.902393	2618.876902
961.202153	2616.845317
961.501875	2613.316510
961.801559	2613.087137
962.101205	2611.146293
962.400814	2609.059255
962.700385	2609.238216
962.999918	2607.771241
963.299414	2604.875098
963.598873	2609.044132
963.898293	2606.662187
964.197677	2604.459202
964.497022	2605.152361
964.796331	2603.634974
965.095601	2603.430807
965.394835	2602.858636
965.694030	2603.261928
965.993189	2603.733276
966.292309	2601.358893
966.591393	2602.238574
966.890439	2600.993409
967.189447	2600.844695
967.488419	2602.788060
967.787353	2602.188163
968.086249	2600.854777
968.385108	2605.885849
968.683930	2604.328132
968.982714	2606.430294
969.281462	2601.873091
969.580172	2604.413832
969.878844	2606.831065
970.177480	2605.210334
970.476078	2604.718822
970.774639	2610.765686
971.073162	2610.385079
971.371649	2608.880294
971.670098	2609.487753
971.968510	2609.623865
972.266885	2608.671087
972.565223	2613.409771
972.863524	2614.627210
973.161788	2618.576954
973.460014	2616.285749
973.758204	2617.518312
974.056356	2617.961933
974.354471	2617.871192
974.652550	2621.556276
974.950591	2618.473610
975.248595	2616.426902
975.546563	2618.224073
975.844493	2618.874382
976.142386	2619.943107
976.440243	2616.159721
976.738062	2615.753908
977.035845	2615.136366
977.333590	2613.129987
977.631299	2612.076386
977.928971	2615.186778
978.226606	2613.331633
978.524204	2608.993720
978.821765	2610.019595
979.119290	2609.099585
979.416777	2610.927003
979.714228	2610.622013
980.011642	2612.146962
980.309020	2612.686366
980.606360	2611.433639
980.903664	2615.630399
981.200931	2621.450412
981.498162	2629.387708
981.795356	2639.853144
982.092513	2654.212870
982.389633	2670.896569
982.686717	2687.794517
982.983764	2704.087526
983.280775	2714.469782
983.577749	2720.602346
983.874686	2721.855073
984.171587	2719.200905
984.468451	2712.478527
984.765279	2707.921323
985.062070	2699.202648
985.358824	2696.014118
985.655543	2686.690504
985.952224	2673.533092
986.248869	2664.020435
986.545478	2649.658188
986.842050	2638.136631
987.138586	2628.704632
987.435086	2619.862448
987.731549	2612.590584
988.027975	2609.172681
988.324366	2606.266456
988.620719	2602.818307
988.917037	2598.593820
989.213318	2600.035590
989.509563	2595.475866
989.805772	2596.952924
990.101944	2594.001329
990.398080	2592.400763
990.694180	2591.821030
990.990244	2592.168869
991.286271	2592.151225
991.582262	2594.011411
991.878217	2594.888572
992.174136	2594.568459
992.470019	2591.319435
992.765865	2596.166504
993.061676	2595.377564
993.357450	2601.389140
993.653188	2598.198089
993.948890	2601.807556
994.244556	2605.507762
994.540186	2608.320726
994.835780	2610.591766
995.131337	2617.551079
995.426859	2628.510547
995.722345	2632.233440
996.017795	2641.667959
996.313208	2650.368991
996.608586	2658.976761
996.903928	2662.278717
997.199234	2661.946000
997.494504	2662.281237
997.789738	2663.748213
998.084936	2659.851401
998.380099	2653.363436
998.675225	2650.096768
998.970316	2645.209370
999.265371	2638.008081
999.560390	2630.879890
999.855373	2625.763119
1000.150320	2619.045781
1000.445232	2615.186778
1000.740108	2610.914400
1001.034948	2606.175715
1001.329752	2602.115066
1001.624521	2600.247318
1001.919254	2592.131061
1002.213951	2592.720876
1002.508613	2590.316245
1002.803239	2593.184662
1003.097829	2587.835998
1003.392384	2587.727613
1003.686903	2588.635021
1003.981386	2588.014959
1004.275834	2586.053950
1004.570246	2587.848601
1004.864623	2585.138980
1005.158964	2584.554207
1005.453270	2584.032447
1005.747540	2589.413879
1006.041775	2583.389700
1006.335974	2585.222159
1006.630138	2583.225862
1006.924266	2585.355750
1007.218359	2583.064546
1007.512416	2583.107395
1007.806438	2584.100503
1008.100425	2583.919021
1008.394376	2583.626634
1008.688292	2584.632344
1008.982172	2583.500605
1009.276017	2580.430543
1009.569827	2583.298959
1009.863602	2582.999011
1010.157341	2584.521439
1010.451045	2582.041191
1010.744714	2582.063877
1011.038347	2582.038671
1011.331945	2580.458269
1011.625508	2581.431212
1011.919036	2582.754515
1012.212528	2581.060687
1012.505986	2578.656057
1012.799408	2581.811819
1013.092795	2579.727302
1013.386147	2580.269226
1013.679464	2580.349884
1013.972745	2581.098496
1014.265992	2579.744946
1014.559204	2583.649319
1014.852380	2580.455748
1015.145521	2581.158989
1015.438628	2582.779720
1015.731699	2581.963053
1016.024736	2581.194278
1016.317737	2581.315265
1016.610703	2582.545307
1016.903635	2578.572877
1017.196531	2578.779565
1017.489393	2579.913824
1017.782219	2577.461303
1018.075011	2579.374421
1018.367768	2580.682600
1018.660490	2585.529670
1018.953177	2585.529670
1019.245829	2585.529670
