Dividing Wavelength (nm)	Counts (n)	Blue Motor Position (mm): 25.500000	Red Motor Position (mm): 0.000000	
326.493990	2154.296767
326.888308	2154.296767
327.282561	2154.296767
327.676750	2130.890690
328.070874	2132.808849
328.464933	2135.805815
328.858929	2149.769811
329.252859	2158.813641
329.646726	2174.620179
330.040528	2190.696418
330.434265	2206.157637
330.827938	2225.384598
331.221547	2244.107443
331.615091	2262.847933
332.008571	2285.044133
332.401986	2307.628502
332.795338	2326.522747
333.188625	2344.018071
333.581847	2365.016998
333.975006	2385.804196
334.368100	2403.629716
334.761129	2419.509350
335.154095	2435.204983
335.546996	2462.175156
335.939833	2492.061636
336.332606	2501.964983
336.725315	2517.625328
337.117960	2523.480628
337.510540	2533.497400
337.903056	2542.090047
338.295508	2546.743032
338.687896	2553.049516
339.080220	2564.543346
339.472480	2568.130127
339.864676	2572.919223
340.256807	2576.924420
340.648875	2575.049111
341.040879	2581.375759
341.432818	2580.672518
341.824694	2583.946747
342.216506	2582.084041
342.608253	2581.158989
342.999937	2577.839390
343.391557	2577.121025
343.783113	2577.635223
344.174605	2575.437280
344.566033	2575.429718
344.957397	2573.458627
345.348697	2568.697257
345.739934	2570.708677
346.131106	2568.568708
346.522215	2566.703481
346.913260	2564.840774
347.304241	2563.252811
347.695159	2561.551422
348.086012	2559.507234
348.476802	2560.142419
348.867528	2559.812223
349.258191	2558.176369
349.648789	2554.244269
350.039324	2553.977088
350.429796	2555.945658
350.820203	2554.304763
351.210548	2549.697148
351.600828	2550.070194
351.991045	2551.703527
352.381198	2552.351316
352.771288	2551.169165
353.161314	2548.542724
353.551276	2548.255378
353.941175	2547.048022
354.331010	2549.409802
354.720782	2547.864689
355.110490	2548.184802
355.500135	2548.883002
355.889717	2547.070707
356.279235	2549.276212
356.668689	2549.377035
357.058080	2546.957281
357.447408	2546.901828
357.836672	2548.635985
358.225873	2546.609442
358.615010	2548.204967
359.004084	2551.602704
359.393095	2553.873744
359.782043	2554.398024
360.170927	2554.854249
360.559748	2556.429609
360.948505	2558.609908
361.337199	2554.665205
361.725830	2556.651420
362.114398	2557.117727
362.502903	2561.180897
362.891344	2556.374157
363.279722	2558.473797
363.668037	2560.586041
364.056289	2557.611760
364.444478	2561.201061
364.832603	2558.493962
365.220665	2562.680640
365.608665	2558.604867
365.996601	2560.059240
366.384474	2561.017059
366.772284	2560.880948
367.160031	2559.295505
367.547715	2563.807338
367.935336	2563.648542
368.322893	2559.890361
368.710388	2561.148129
369.097820	2566.884962
369.485189	2558.907336
369.872495	2564.099725
370.259738	2562.766340
370.646918	2559.681153
371.034035	2563.721638
371.421090	2565.216340
371.808081	2565.176011
372.195010	2566.053172
372.581875	2563.600651
372.968678	2564.752554
373.355418	2565.523851
373.742096	2567.033676
374.128710	2567.152143
374.515262	2568.787998
374.901751	2565.942267
375.288177	2567.174829
375.674540	2566.378326
376.060841	2565.808676
376.447079	2570.257494
376.833254	2568.261197
377.219367	2563.802297
377.605417	2566.043090
377.991404	2566.965621
378.377329	2566.020404
378.763191	2565.085270
379.148991	2568.162895
379.534727	2570.388564
379.920402	2572.722618
380.306013	2568.417473
380.691563	2569.962587
381.077049	2570.209603
381.462474	2573.015005
381.847835	2572.823442
382.233134	2569.647515
382.618371	2572.450396
383.003545	2572.241188
383.388657	2572.881415
383.773706	2570.920406
384.158693	2574.431570
384.543618	2572.987279
384.928480	2574.056004
385.313280	2574.388720
385.698017	2571.180025
386.082692	2572.757907
386.467305	2572.475602
386.851856	2573.367886
387.236344	2574.360993
387.620770	2576.863926
388.005133	2575.482650
388.389435	2574.849985
388.773674	2575.754872
389.157851	2574.978535
389.541965	2577.615058
389.926018	2575.762434
390.310008	2573.869481
390.693936	2576.138000
391.077802	2577.420974
391.461606	2577.070614
391.845348	2575.916189
392.229027	2575.896025
392.612645	2577.846951
392.996200	2577.461303
393.379694	2579.548341
393.763125	2576.500963
394.146494	2578.572878
394.529801	2578.764441
394.913047	2578.693865
395.296230	2579.387024
395.679351	2580.763259
396.062410	2578.971129
396.445408	2580.735532
396.828343	2581.584967
397.211217	2578.807291
397.594028	2576.498443
397.976778	2576.521128
398.359466	2579.329051
398.742092	2576.906776
399.124656	2581.065728
399.507158	2582.991449
399.889598	2580.526325
400.271977	2582.447004
400.654294	2583.220821
401.036549	2582.588157
401.418742	2584.425657
401.800874	2582.111767
402.182944	2584.473548
402.564952	2583.276274
402.946898	2583.548496
403.328783	2583.122519
403.710606	2584.405492
404.092367	2584.299628
404.474067	2582.603280
404.855705	2583.951789
405.237282	2583.576223
405.618797	2585.580081
406.000250	2587.304156
406.381642	2586.094279
406.762972	2586.053950
407.144240	2589.005545
407.525447	2587.425144
407.906593	2588.393045
408.287677	2586.520257
408.668700	2586.474886
409.049661	2586.139649
409.430560	2585.980853
409.811399	2589.517222
410.192176	2585.380956
410.572891	2589.766760
410.953545	2586.237952
411.334138	2588.516553
411.714669	2586.227870
412.095139	2588.607294
412.475547	2585.859865
412.855894	2588.572006
413.236180	2589.973447
413.616405	2588.831626
413.996568	2592.007552
414.376670	2590.356575
414.756711	2590.318766
415.136691	2589.933118
415.516609	2592.264651
415.896466	2590.810278
416.276262	2590.986719
416.655997	2585.219639
417.035670	2587.374732
417.415283	2588.148549
417.794834	2586.510174
418.174324	2586.684094
418.553753	2590.429671
418.933121	2591.959662
419.312428	2590.858169
419.691674	2590.185175
420.070859	2593.890423
420.449983	2591.400093
420.829045	2592.085690
421.208047	2589.580237
421.586988	2590.951431
421.965867	2594.724734
422.344686	2590.404466
422.723444	2592.015114
423.102141	2591.541246
423.480777	2593.318252
423.859352	2594.412183
424.237866	2594.124837
424.616319	2591.359764
424.994712	2593.630804
425.373044	2593.711462
425.751314	2595.075095
426.129524	2595.191041
426.507673	2595.478387
426.885762	2593.509816
427.263789	2594.913778
427.641756	2597.651124
428.019662	2597.038624
428.397508	2594.964189
428.775292	2596.353027
429.153016	2596.809252
429.530679	2595.780856
429.908282	2597.706577
430.285824	2596.342945
430.663305	2597.578027
431.040726	2598.956783
431.418086	2598.762699
431.795385	2596.481577
432.172624	2599.236567
432.549802	2601.000971
432.926920	2598.858481
433.303977	2598.624067
433.680974	2598.205651
434.057910	2599.844026
434.434786	2599.997781
434.811601	2600.900148
435.188355	2600.809407
435.565050	2598.674478
435.941683	2601.779829
436.318257	2596.431165
436.694770	2596.915116
437.071222	2599.559201
437.447614	2598.021649
437.823946	2598.593820
438.200218	2603.415684
438.576429	2604.660849
438.952580	2603.299737
439.328670	2603.680344
439.704700	2601.210179
440.080670	2605.275869
440.456580	2601.767226
440.832429	2603.811414
441.208218	2602.563729
441.583947	2607.085644
441.959616	2605.200252
442.335224	2605.558174
442.710773	2605.810232
443.086261	2606.047166
443.461689	2604.257556
443.837057	2607.231837
444.212365	2609.218052
444.587612	2609.273504
444.962800	2611.741149
445.337927	2610.463217
445.712995	2608.860130
446.088002	2610.475820
446.462949	2610.717795
446.837837	2611.922631
447.212664	2610.861468
447.587431	2618.196347
447.962139	2616.144597
448.336786	2621.873868
448.711374	2620.974022
449.085901	2621.198354
449.460369	2619.933024
449.834776	2622.554424
450.209124	2627.083901
450.583412	2623.658437
450.957640	2628.997019
451.331808	2630.685805
451.705917	2632.359468
452.079965	2633.967597
452.453954	2633.105559
452.827883	2635.227885
453.201752	2639.560757
453.575562	2640.233751
453.949311	2646.036119
454.323001	2649.469145
454.696632	2651.745226
455.070202	2658.621359
455.443713	2662.755106
455.817164	2667.105621
456.190556	2674.455624
456.563888	2681.619103
456.937160	2683.713703
457.310373	2687.960875
457.683526	2695.303315
458.056619	2702.731456
458.429653	2707.535675
458.802628	2716.032540
459.175542	2724.375650
459.548398	2741.205542
459.921194	2757.904364
460.293930	2771.863319
460.666607	2800.053451
461.039224	2821.100268
461.411782	2843.198166
461.784280	2850.933817
462.156719	2861.142153
462.529099	2870.697661
462.901419	2871.191694
463.273680	2879.035729
463.645882	2891.164745
464.018024	2906.930954
464.390106	2929.686722
464.762130	2973.277580
465.134094	3038.709236
465.505999	3138.456027
465.877845	3242.104670
466.249631	3300.894606
466.621358	3311.690237
466.993026	3311.418015
467.364634	3308.753765
467.736184	3301.063485
468.107674	3307.763178
468.479105	3330.261848
468.850477	3346.602748
469.221790	3350.789427
469.593043	3345.050073
469.964238	3360.438195
470.335373	3380.391082
470.706449	3442.538427
471.077467	3519.605066
471.448425	3679.802853
471.819324	3829.129392
472.190164	3875.283676
472.560945	3812.617092
472.931667	3750.908328
473.302330	3749.239706
473.672934	3763.911984
474.043479	3822.175120
474.413965	3838.047193
474.784393	3860.319010
475.154761	3941.993264
475.525070	3986.418433
475.895321	4015.989841
476.265513	4092.398610
476.635645	4179.638298
477.005719	4225.437181
477.375734	4300.885610
477.745691	4386.935585
478.115588	4502.403214
478.485427	4636.747443
478.855207	4863.264130
479.224928	5080.684054
479.594591	5281.886586
479.964194	5347.590465
480.333739	5438.225370
480.703226	5504.526625
481.072653	5618.267659
481.442022	5739.651082
481.811333	5868.591194
482.180584	5871.210074
482.549777	5917.535757
482.918912	5957.706192
483.287988	6024.662797
483.657005	6053.231016
484.025964	6086.527837
484.394864	6182.342527
484.763706	6235.844293
485.132489	6256.931440
485.501213	6322.000133
485.869879	6421.018477
486.238487	6460.994827
486.607036	6566.148255
486.975527	6607.450428
487.343959	6709.019596
487.712333	6796.163502
488.080648	6889.692029
488.448905	7021.165322
488.817104	7092.285920
489.185244	7268.570029
489.553326	7471.156358
489.921350	7840.756114
490.289315	8312.905542
490.657222	8583.988549
491.025070	8774.534082
491.392861	8793.395559
491.760593	8765.843133
492.128267	8675.644288
492.495883	8589.191020
492.863440	8496.645518
493.230939	8410.139318
493.598380	8342.834873
493.965763	8398.131289
494.333088	8354.338786
494.700354	8365.452009
495.067563	8398.532061
495.434713	8464.359448
495.801805	8555.208602
496.168839	8585.087521
496.535815	8610.822611
496.902733	8702.700160
497.269593	8718.347902
497.636395	8775.002909
498.003139	8904.628619
498.369825	8903.201972
498.736453	9030.720479
499.103023	9025.364253
499.469535	9076.438704
499.835989	9167.509668
500.202385	9189.194192
500.568723	9249.612421
500.935003	9342.972069
501.301226	9357.931693
501.667390	9538.140340
502.033497	9665.323611
502.399546	9635.616091
502.765537	9597.492365
503.131470	9728.456501
503.497345	9838.696453
503.863163	9680.575622
504.228923	9827.908384
504.594625	9968.047420
504.960269	9916.395757
505.325856	10082.264843
505.691385	10003.383388
506.056856	10096.579199
506.422270	10215.615965
506.787625	10191.897336
507.152924	10258.743036
507.518164	10343.270583
507.883347	10242.770140
508.248472	10330.390435
508.613540	10457.203180
508.978550	10549.874712
509.343503	10552.032325
509.708398	10629.411516
510.073236	10765.026117
510.438016	10791.656012
510.802738	10730.189223
511.167403	10869.783814
511.532010	10948.193921
511.896561	11056.626620
512.261053	11261.801581
512.625488	11189.395488
512.989866	11195.520490
513.354186	11185.629747
513.718449	11212.990609
514.082655	11367.804444
514.446803	11331.921511
514.810894	11451.515324
515.174927	11458.729215
515.538904	11451.346445
515.902822	11623.048145
516.266684	11503.688746
516.630488	11616.802156
516.994235	11608.776639
517.357925	11728.050339
517.721558	11793.045935
518.085133	11864.693334
518.448651	11896.051832
518.812112	11875.753626
519.175516	11888.953887
519.538863	11979.621560
519.902152	11992.912562
520.265385	12100.742842
520.628560	12139.428657
520.991678	12087.497211
521.354739	12140.081487
521.717743	12221.024773
522.080690	12193.812625
522.443580	12333.770179
522.806413	12354.166687
523.169189	12340.777383
523.531908	12408.094431
523.894569	12382.790359
524.257174	12404.210222
524.619722	12504.909790
524.982213	12475.424082
525.344647	12472.343937
525.707025	12487.346410
526.069345	12592.870363
526.431608	12578.611460
526.793815	12652.476966
527.155964	12557.824262
527.518057	12584.355854
527.880093	12546.935369
528.242072	12664.961384
528.603995	12579.314701
528.965860	12600.749687
529.327669	12628.274387
529.689421	12579.347468
530.051117	12602.256992
530.412755	12640.579843
530.774337	12644.085966
531.135862	12607.724123
531.497331	12660.189932
531.858743	12623.104683
532.220098	12713.225391
532.581396	12644.030513
532.942638	12566.565623
533.303824	12630.225313
533.664953	12603.035850
534.026025	12562.885580
534.387040	12674.650482
534.747999	12651.912357
535.108902	12692.183615
535.469748	12568.183833
535.830537	12608.490378
536.191270	12643.513795
536.551947	12561.199314
536.912567	12630.555509
537.273131	12667.444152
537.633638	12540.079400
537.994089	12610.859721
538.354483	12517.759692
538.714821	12649.348930
539.075103	12729.808266
539.435328	12651.133499
539.795497	12642.503043
540.155609	12638.737302
540.515665	12731.048390
540.875665	12587.541864
541.235609	12686.414014
541.595496	12657.863439
541.955328	12832.972959
542.315102	12687.875949
542.674821	12618.595371
543.034483	12635.674801
543.394090	12638.674287
543.753640	12604.076848
544.113134	12848.940814
544.472571	12616.614198
544.831953	12898.855799
545.191278	12704.448742
545.550548	12637.923155
545.909761	12758.499993
546.268918	12804.467755
546.628019	12874.307900
546.987064	12765.328236
547.346053	12602.481323
547.704986	12804.561016
548.063863	12686.842512
548.422684	12743.837798
548.781449	12701.502188
549.140158	12796.154892
549.498811	12745.244279
549.857408	12616.659568
550.215949	12821.090960
550.574434	12793.750262
550.932864	12736.341602
551.291237	12923.764140
551.649555	12819.729848
552.007817	12875.706820
552.366022	12790.743213
552.724173	12827.843585
553.082267	12920.394129
553.440305	13006.973425
553.798288	12834.903721
554.156215	12906.299062
554.514086	12948.339765
554.871902	12892.138461
555.229661	12907.730750
555.587365	12876.112633
555.945014	12888.435734
556.302606	12871.505019
556.660143	12935.769648
557.017625	12964.995737
557.375050	12928.800253
557.732421	13028.499152
558.089735	13030.084595
558.446994	13006.610462
558.804197	13110.649795
559.161345	13107.070576
559.518437	12920.142071
559.875474	13024.972865
560.232455	13049.278788
560.589381	13094.293772
560.946251	13029.918237
561.303065	13207.253427
561.659825	13164.088547
562.016528	13071.570771
562.373177	13016.849046
562.729770	13148.294612
563.086307	13031.125593
563.442789	13137.148621
563.799216	13170.798322
564.155587	13113.639200
564.511904	13138.265236
564.868164	13147.823264
565.224370	13205.531873
565.580520	13151.152946
565.936615	13214.626114
566.292654	13148.191268
566.648638	13222.402094
567.004567	13218.023852
567.360441	13218.664078
567.716260	13193.917054
568.072023	13287.185962
568.427732	13269.632664
568.783385	13165.356397
569.138982	13277.834622
569.494525	13274.734312
569.850013	13216.188872
570.205445	13200.382334
570.560823	13215.173079
570.916145	13167.146007
571.271412	13185.120241
571.626625	13138.295483
571.981782	13139.777582
572.336884	13087.962082
572.691931	13174.700176
573.046923	13063.714132
573.401860	13036.844782
573.756743	13039.173796
574.111570	13065.786047
574.466342	13040.479454
574.821059	13092.809152
575.175722	12956.120786
575.530330	12981.916370
575.884882	12924.432093
576.239380	12925.047114
576.593823	12897.482084
576.948211	12889.660734
577.302544	12775.004731
577.656823	12798.751086
578.011047	12850.203623
578.365216	12791.776650
578.719330	12728.845406
579.073389	12698.159903
579.427394	12709.358826
579.781344	12711.289588
580.135239	12631.145324
580.489080	12651.362871
580.842866	12532.532793
581.196597	12628.236578
581.550273	12618.149229
581.903895	12573.943351
582.257463	12690.862832
582.610975	12535.849872
582.964434	12606.826798
583.317837	12521.505269
583.671186	12478.678146
584.024481	12530.443235
584.377721	12415.489803
584.730906	12491.638953
585.084037	12500.743277
585.437113	12419.028693
585.790135	12439.067280
586.143103	12355.757172
586.496016	12361.413346
586.848874	12382.034186
587.201679	12376.834236
587.554428	12255.264290
587.907124	12304.526446
588.259765	12241.567475
588.612352	12308.902167
588.964884	12175.253617
589.317362	12220.828168
589.669786	12212.167466
590.022155	12174.704131
590.374470	12272.469748
590.726731	12155.341059
591.078937	12048.312322
591.431090	12068.749160
591.783188	11993.217552
592.135232	11918.522775
592.487222	11986.916109
592.839157	12004.597956
593.191038	11935.924838
593.542866	11874.233718
593.894639	11727.067314
594.246358	11796.012654
594.598022	11794.669187
594.949633	11696.016327
595.301190	11688.709174
595.652692	11643.719397
596.004141	11736.544683
596.355535	11507.310815
596.706876	11484.613019
597.058162	11458.920779
597.409395	11547.745910
597.760573	11579.535426
598.111698	11477.149591
598.462768	11467.064763
598.813785	11485.739717
599.164748	11353.487567
599.515657	11431.673342
599.866511	11311.058695
600.217312	11441.029724
600.568060	11207.389887
600.918753	11364.157169
601.269392	11368.626152
601.619978	11275.538725
601.970510	11317.602113
602.320988	11362.206242
602.671412	11430.828949
603.021783	11352.680982
603.372100	11279.518716
603.722363	11296.648557
604.072572	11297.288784
604.422728	11303.252469
604.772830	11244.533109
605.122878	11253.292113
605.472872	11223.249357
605.822813	11285.071547
606.172701	11247.310784
606.522534	11299.257354
606.872314	11340.471308
607.222041	11268.009762
607.571714	11348.937925
607.921333	11215.178470
608.270899	11275.263982
608.620411	11334.802530
608.969870	11280.768922
609.319276	11253.254305
609.668627	11267.760225
610.017926	11354.667197
610.367171	11389.859492
610.716362	11368.928621
611.065500	11353.784995
611.414585	11362.377642
611.763616	11424.635892
612.112594	11397.685883
612.461518	11422.427866
612.810389	11472.206740
613.159207	11417.341342
613.507971	11415.604664
613.856682	11520.989986
614.205340	11465.053342
614.553945	11602.838159
614.902496	11480.481794
615.250994	11544.645600
615.599439	11533.696214
615.947830	11571.923283
616.296169	11529.038188
616.644454	11541.106710
616.992686	11551.521734
617.340864	11646.204685
617.688990	11540.365660
618.037063	11673.905826
618.385082	11632.611214
618.733048	11680.454285
619.080961	11667.571616
619.428821	11651.071919
619.776628	11664.647747
620.124382	11604.655495
620.472083	11622.876746
620.819731	11642.333079
621.167326	11564.747201
621.514868	11547.624922
621.862357	11462.366407
622.209793	11453.501538
622.557176	11368.893333
622.904506	11309.120372
623.251783	11228.013247
623.599007	11172.311018
623.946179	11126.970880
624.293297	11100.635893
624.640363	10967.599843
624.987376	10951.725249
625.334336	10878.431913
625.681243	10795.540221
626.028097	10783.257449
626.374899	10743.187838
626.721647	10709.182735
627.068343	10665.755715
627.414987	10601.165931
627.761577	10537.521364
628.108115	10585.137583
628.454600	10459.842224
628.801032	10471.779677
629.147412	10457.755187
629.493739	10428.440877
629.840014	10352.042191
630.186236	10395.103727
630.532405	10298.265682
630.878521	10336.187762
631.224585	10290.822418
631.570597	10210.355521
631.916556	10218.582684
632.262462	10197.760198
632.608316	10185.827787
632.954117	10154.466768
633.299866	10140.028904
633.645562	10117.275656
633.991206	10011.877732
634.336797	9913.119007
634.682336	9909.151619
635.027823	9851.924441
635.373257	9813.029418
635.718639	9755.756870
636.063968	9719.480727
636.409245	9599.092932
636.754470	9584.062731
637.099642	9535.458447
637.444762	9429.846273
637.789829	9434.403477
638.134845	9365.231284
638.479808	9350.100261
638.824719	9317.307555
639.169577	9227.688443
639.514383	9227.801868
639.859137	9165.273917
640.203839	9198.011170
640.548489	9115.699210
640.893086	9124.831260
641.237632	9057.317607
641.582125	9055.832987
641.926566	9044.523159
642.270955	9026.140591
642.615292	9027.680664
642.959576	9009.971090
643.303809	9000.362651
643.647990	9012.592490
643.992118	8988.805806
644.336195	8963.753792
644.680219	8963.468967
645.024192	8998.802414
645.368112	9069.360924
645.711981	9052.321824
646.055797	9191.263585
646.399562	9149.749683
646.743274	9307.462182
647.086935	9381.491526
647.430544	9353.747536
647.774101	9377.821566
648.117606	9391.904029
648.461059	9457.065984
648.804460	9386.578050
649.147810	9271.062530
649.491108	9245.917255
649.834354	9173.223816
650.177548	9032.061426
650.520690	8935.798073
650.863781	8937.983413
651.206820	8912.639012
651.549807	8819.939755
651.892742	8733.355417
652.235626	8689.313376
652.578458	8652.328951
652.921238	8543.324082
653.263967	8586.574661
653.606644	8513.172940
653.949269	8488.856935
654.291843	8420.352695
654.634365	8488.738468
654.976836	8412.473372
655.319255	8399.363851
655.661622	8390.690546
656.003938	8348.649843
656.346203	8312.529976
656.688416	8347.409720
657.030577	8303.360117
657.372687	8272.520859
657.714746	8301.399108
658.056753	8316.394021
658.398708	8216.677477
658.740612	8210.066004
659.082465	8251.746264
659.424266	8214.169503
659.766016	8224.403045
660.107715	8194.635032
660.449362	8214.560192
660.790958	8210.174388
661.132503	8211.595994
661.473996	8207.217752
661.815438	8232.300013
662.156829	8254.037468
662.498168	8206.333029
662.839456	8201.677524
663.180693	8220.501192
663.521879	8237.363852
663.863013	8218.220070
664.204097	8211.986683
664.545129	8291.881410
664.886110	8273.307279
665.227040	8275.381713
665.567918	8288.350082
665.908746	8305.464799
666.249522	8325.170669
666.590248	8323.983478
666.930922	8344.090120
667.271545	8334.348090
667.612118	8349.501798
667.952639	8317.220770
668.293109	8320.749578
668.633528	8290.568189
668.973896	8278.570243
669.314213	8279.580995
669.654480	8237.678924
669.994695	8234.596258
670.334859	8211.321251
670.674973	8190.934825
671.015035	8215.525573
671.355047	8208.931744
671.695008	8193.084877
672.034918	8165.547574
672.374777	8171.107967
672.714585	8145.579564
673.054342	8178.150459
673.394049	8145.975294
673.733705	8186.639762
674.073310	8130.924929
674.412864	8140.742577
674.752368	8076.057011
675.091820	8132.041545
675.431223	8062.055206
675.770574	8013.476127
676.109875	7986.163156
676.449125	7942.736136
676.788324	7923.733506
677.127473	7841.083789
677.466571	7832.869229
677.805619	7768.420598
678.144616	7772.478726
678.483562	7746.635251
678.822458	7709.018161
679.161303	7692.334463
679.500098	7669.737490
679.838842	7649.739233
680.177535	7659.657703
680.516179	7690.749020
680.854771	7707.936834
681.193314	7832.476019
681.531805	7984.880182
681.870247	8108.338040
682.208638	8260.681709
682.546978	8341.030139
682.885268	8363.027214
683.223508	8292.148591
683.561697	8241.709326
683.899836	8204.861012
684.237925	8121.233311
684.575963	8095.699867
684.913951	8014.617948
685.251889	8025.471553
685.589776	8025.814351
685.927614	8013.357660
686.265401	8039.483440
686.603137	8035.538737
686.940824	8109.522711
687.278460	8159.379722
687.616046	8172.723657
687.953582	8286.084083
688.291068	8260.033921
688.628504	8318.551634
688.965889	8325.732758
689.303224	8283.233311
689.640510	8236.746310
689.977745	8129.397460
690.314930	8008.805498
690.652065	7939.585415
690.989150	7827.233219
691.326185	7676.931217
691.663170	7567.301244
692.000105	7442.010927
692.336990	7324.483987
692.673825	7246.124292
693.010610	7160.102042
693.347345	7066.523103
693.684030	6950.846267
694.020665	6903.139307
694.357251	6790.963552
694.693786	6777.012159
695.030272	6746.198106
695.366707	6650.280072
695.703093	6593.327636
696.039429	6597.879798
696.375716	6545.756788
696.711952	6535.412340
697.048139	6507.391086
697.384276	6471.336754
697.720363	6497.182750
698.056400	6469.957998
698.392388	6432.136742
698.728326	6435.138749
699.064214	6407.724954
699.400053	6399.243213
699.735842	6345.396128
700.071581	6292.922758
700.407270	6253.422797
700.742910	6221.202262
701.078501	6176.978740
701.414042	6133.677749
701.749533	6086.079174
702.084974	6026.427201
702.420366	6067.346247
702.755709	5994.163816
703.091002	5946.439213
703.426246	5946.532474
703.761440	5933.806081
704.096584	5890.212703
704.431679	5877.214088
704.766725	5857.082240
705.101721	5845.250652
705.436668	5863.504670
705.771565	5803.038550
706.106413	5863.202201
706.441212	5859.706161
706.775961	5875.963882
707.110661	5888.612137
707.445311	5944.473163
707.779913	5914.574079
708.114465	5950.134378
708.448967	5999.625906
708.783421	6104.965857
709.117825	6152.551829
709.452180	6191.608168
709.786485	6249.856180
710.120742	6378.582044
710.454949	6383.139247
710.789107	6459.510207
711.123216	6583.157108
711.457275	6615.055009
711.791286	6720.969651
712.125247	6740.095789
712.459159	6706.035233
712.793023	6840.293763
713.126837	6671.767990
713.460602	6730.263018
713.794318	6686.397418
714.127985	6635.433873
714.461602	6486.480380
714.795171	6488.101111
715.128691	6320.991902
715.462162	6237.253296
715.795584	6164.305279
716.128957	6120.033866
716.462281	6052.928547
716.795556	6011.162587
717.128782	5928.041522
717.461960	5832.766235
717.795088	5819.389533
718.128167	5753.058031
718.461198	5671.963509
718.794180	5642.329086
719.127113	5589.389409
719.459997	5552.031939
719.792833	5487.389223
720.125619	5484.427545
720.458357	5424.392444
720.791046	5395.002517
721.123686	5367.003948
721.456278	5324.408719
721.788821	5318.203059
722.121315	5274.213950
722.453761	5279.817193
722.786158	5263.284729
723.118506	5263.375469
723.450805	5239.475359
723.783056	5265.943937
724.115259	5251.614457
724.447412	5238.328497
724.779518	5287.333553
725.111574	5284.452534
725.443582	5325.560623
725.775542	5316.078212
726.107453	5402.715482
726.439315	5370.409248
726.771129	5443.435403
727.102895	5508.539384
727.434612	5547.699067
727.766281	5576.395835
728.097901	5632.609742
728.429473	5643.153315
728.760996	5660.366335
729.092471	5680.173028
729.423897	5667.681049
729.755276	5636.950175
730.086606	5651.007433
730.417887	5739.570423
730.749120	5833.827398
731.080305	5872.377101
731.411442	5945.814110
731.742530	5971.728161
732.073570	5995.908055
732.404562	6062.209311
732.735506	6052.666407
733.066401	6032.542120
733.397249	5963.415298
733.728048	5866.332758
734.058798	5723.083330
734.389501	5601.921718
734.720156	5513.235219
735.050762	5403.063322
735.381320	5334.485986
735.711831	5274.987767
736.042293	5199.002455
736.372707	5193.462227
736.703073	5150.746010
737.033391	5180.093087
737.363661	5162.567516
737.693883	5176.067726
738.024056	5201.407086
738.354182	5229.619903
738.684260	5274.433240
739.014290	5315.251463
739.344272	5350.426114
739.674207	5410.544394
740.004093	5437.073466
740.333931	5439.384835
740.663722	5464.855265
740.993464	5472.588395
741.323159	5457.187670
741.652806	5412.094549
741.982405	5384.380806
742.311956	5332.832487
742.641460	5317.038552
742.970915	5264.439153
743.300323	5198.780645
743.629683	5167.648999
743.958996	5116.945074
744.288260	5068.013114
744.617477	5001.190099
744.946647	4990.465044
745.275768	4935.934883
745.604842	4905.012445
745.933869	4870.684708
746.262847	4861.688769
746.591778	4849.393395
746.920662	4827.171989
747.249498	4823.257533
747.578286	4837.851673
747.907027	4865.850242
748.235720	4904.926746
748.564365	4915.742541
748.892963	4903.868103
749.221514	4920.037604
749.550017	4898.146394
749.878473	4895.378800
750.206881	4856.403119
750.535242	4840.639431
750.863555	4832.984439
751.191821	4807.652641
751.520039	4811.519206
751.848210	4789.882574
752.176334	4795.894150
752.504411	4775.762302
752.832440	4747.090739
753.160421	4766.232001
753.488356	4739.944904
753.816243	4718.580494
754.144082	4690.105536
754.471875	4677.810162
754.799620	4669.376312
755.127318	4660.120753
755.454969	4658.598325
755.782572	4645.251870
756.110129	4648.470647
756.437638	4635.323317
756.765100	4629.803254
757.092515	4637.140653
757.419882	4634.736023
757.747203	4632.545642
758.074477	4647.817817
758.401703	4639.744409
758.728882	4669.698946
759.056014	4677.197662
759.383099	4699.335889
759.710138	4732.337803
760.037129	4754.818828
760.364073	4763.895426
760.690970	4762.867030
761.017820	4765.490951
761.344623	4798.714675
761.671379	4856.529148
761.998088	4947.839568
762.324751	5177.128889
762.651366	5640.708355
762.977935	6329.024981
763.304456	6886.216154
763.630931	7187.465425
763.957359	7118.096628
764.283740	6831.048287
764.610074	6509.780593
764.936362	6107.035251
765.262602	5788.484739
765.588796	5445.245177
765.914943	5192.373338
766.241044	4967.442095
766.567097	4801.794820
766.893104	4650.668590
767.219064	4549.936254
767.544978	4454.663487
767.870845	4372.520406
768.196665	4323.167510
768.522438	4275.226137
768.848165	4234.682657
769.173846	4198.756874
769.499479	4167.678160
769.825066	4133.436123
770.150607	4092.580092
770.476101	4076.599634
770.801548	4054.216911
771.126949	4021.383876
771.452303	4003.167666
771.777611	3966.543684
772.102872	3965.480000
772.428087	3941.237091
772.753256	3909.918923
773.078378	3894.795462
773.403453	3862.995863
773.728482	3836.129034
774.053465	3821.605469
774.378401	3802.323056
774.703291	3781.372021
775.028135	3755.490737
775.352932	3750.338678
775.677683	3727.663567
776.002388	3708.159343
776.327046	3711.468861
776.651658	3689.580171
776.976224	3672.813293
777.300743	3670.131399
777.625216	3655.643123
777.949643	3643.158706
778.274024	3647.123573
778.598359	3627.480717
778.922647	3631.654792
779.246889	3619.939151
779.571086	3616.957308
779.895236	3619.671970
780.219339	3616.435549
780.543397	3618.658698
780.867409	3631.125471
781.191374	3632.758805
781.515294	3624.123309
781.839167	3643.977893
782.162995	3639.834065
782.486776	3633.290647
782.810511	3623.788072
783.134201	3610.393726
783.457844	3608.178139
783.781441	3602.602623
784.104993	3596.734720
784.428498	3588.883123
784.751958	3586.291970
785.075372	3579.740990
785.398739	3571.092891
785.722061	3579.176381
786.045337	3576.345773
786.368568	3600.717231
786.691752	3598.660441
787.014891	3644.270280
787.337983	3690.175027
787.661030	3776.209879
787.984031	3871.923747
788.306987	3948.569450
788.629897	3997.887058
788.952760	4001.791431
789.275579	3989.687621
789.598351	3939.709622
789.921078	3892.128691
790.243759	3829.507478
790.566395	3780.822535
790.888984	3734.378384
791.211529	3692.536808
791.534027	3649.016526
791.856480	3610.965897
792.178888	3593.490737
792.501249	3572.595155
792.823566	3540.475443
793.145836	3539.421842
793.468062	3527.519677
793.790241	3511.546782
794.112375	3519.784027
794.434464	3538.605175
794.756507	3539.026111
795.078505	3556.443298
795.400457	3595.325717
795.722364	3646.753048
796.044226	3693.529915
796.366042	3737.629929
796.687812	3731.575503
797.009538	3761.782097
797.331218	3747.056886
797.652852	3741.559508
797.974442	3720.217783
798.295986	3707.544323
798.617484	3679.679345
798.938938	3657.815860
799.260346	3642.568891
799.581709	3606.867439
799.903026	3592.366560
800.224299	3572.612799
800.545526	3540.762789
800.866708	3521.187988
801.187845	3507.808766
801.508936	3489.421157
801.829983	3483.487719
802.150984	3454.138122
802.471940	3442.944239
802.792851	3437.156995
803.113717	3431.636931
803.434538	3421.494130
803.755314	3412.407450
804.076045	3407.265473
804.396731	3396.119482
804.717372	3393.868607
805.037967	3392.555386
805.358518	3395.484297
805.679024	3411.550454
805.999485	3407.837644
806.319901	3413.057759
806.640272	3414.870054
806.960598	3426.038730
807.280879	3428.382867
807.601115	3436.443672
807.921306	3426.797424
808.241453	3429.633073
808.561554	3436.592386
808.881611	3431.823454
809.201623	3433.245059
809.521590	3424.417999
809.841513	3425.869851
810.161390	3431.233639
810.481223	3412.004158
810.801011	3409.768406
811.120755	3409.234044
811.440453	3396.782394
811.760107	3388.172103
812.079716	3384.555075
812.399281	3370.943960
812.718801	3370.921274
813.038276	3365.174359
813.357707	3357.156404
813.677093	3365.728886
813.996434	3349.587111
814.315731	3354.403934
814.634983	3357.365612
814.954191	3357.259748
815.273354	3374.911348
815.592473	3383.751011
815.911547	3405.158271
816.230577	3417.506577
816.549562	3444.050773
816.868502	3460.197588
817.187399	3484.253975
817.506250	3510.556195
817.825058	3518.705220
818.143821	3562.669123
818.462539	3603.384002
818.781213	3660.154956
819.099843	3739.832913
819.418429	3899.617325
819.736970	4048.369172
820.055466	4236.250456
820.373919	4470.127227
820.692327	4808.640707
821.010691	5321.280683
821.329011	6396.533593
821.647286	8130.176318
821.965517	10292.312079
822.283704	11909.408369
822.601847	12979.090803
822.919945	12569.237434
823.237999	11889.871377
823.556010	11001.398259
823.873976	10052.580008
824.191897	9096.734389
824.509775	8324.202768
824.827609	7524.088473
825.145398	6980.299208
825.463144	6596.536330
825.780845	6469.907587
826.098502	6534.905704
826.416116	6909.899495
826.733685	7412.910867
827.051210	7705.408695
827.368692	7606.685259
827.686129	7167.542785
828.003522	6615.312108
828.320872	6049.298916
828.638177	5588.381178
828.955439	5224.878698
829.272656	4891.174478
829.589830	4606.480356
829.906960	4341.746682
830.224046	4135.770177
830.541088	3967.032676
830.858086	3847.809387
831.175041	3756.859410
831.491952	3709.401988
831.808819	3692.539328
832.125642	3728.152559
832.442421	3834.460412
832.759157	4045.087381
833.075849	4424.971091
833.392497	4883.784147
833.709101	5275.325525
834.025662	5383.667482
834.342179	5257.739459
834.658653	4987.223582
834.975083	4714.802149
835.291469	4473.577896
835.607811	4251.729318
835.924110	4090.530862
836.240366	3932.679733
836.556578	3765.318466
836.872746	3630.757467
837.188871	3519.584901
837.504952	3424.569234
837.820990	3351.732122
838.136984	3297.496869
838.452935	3265.198196
838.768842	3252.691093
839.084706	3286.159314
839.400526	3423.172834
839.716303	3647.042915
840.032037	3855.141745
840.347727	3923.255296
840.663373	3830.470338
840.978977	3682.668749
841.294537	3551.374417
841.610054	3446.737708
841.925527	3370.596120
842.240957	3303.664720
842.556344	3240.650297
842.871687	3182.374559
843.186987	3120.128912
843.502244	3071.615368
843.817458	3028.110210
844.132629	2994.997391
844.447756	2976.945019
844.762840	2953.589353
845.077881	2937.172836
845.392879	2922.704724
845.707833	2910.830286
846.022745	2900.316960
846.337613	2898.189593
846.652438	2887.903119
846.967221	2882.846841
847.281960	2876.820142
847.596656	2873.704709
847.911309	2865.588451
848.225919	2860.900178
848.540485	2856.675691
848.855009	2855.516226
849.169490	2851.541276
849.483928	2849.744105
849.798323	2845.539782
850.112675	2841.025429
850.426984	2844.198835
850.741251	2840.690192
851.055474	2837.221878
851.369654	2837.647856
851.683792	2837.748679
851.997887	2835.676765
852.311938	2833.574604
852.625947	2837.660459
852.939914	2832.331959
853.253837	2838.184739
853.567718	2834.837413
853.881555	2834.088801
854.195350	2839.782785
854.509103	2835.827999
854.822812	2834.033349
855.136479	2835.321363
855.450103	2833.924964
855.763685	2832.468070
856.077224	2830.907833
856.390720	2834.570232
856.704173	2837.630212
857.017584	2838.497290
857.330953	2840.377641
857.644278	2846.220338
857.957561	2847.281501
858.270802	2844.155986
858.584000	2847.321830
858.897155	2843.793022
859.210268	2841.456448
859.523339	2837.592403
859.836367	2839.326560
860.149352	2839.039214
860.462295	2837.327743
860.775195	2832.803307
861.088054	2829.619818
861.400869	2828.780466
861.713642	2828.485559
862.026373	2832.100066
862.339062	2835.081909
862.651708	2836.196004
862.964312	2842.890656
863.276873	2842.348732
863.589392	2852.516739
863.901869	2858.417410
864.214303	2865.981661
864.526696	2873.089688
864.839045	2879.852396
865.151353	2886.194168
865.463619	2887.167110
865.775842	2889.145763
866.088023	2892.026783
866.400162	2892.205743
866.712258	2893.486197
867.024313	2897.783780
867.336325	2895.318656
867.648296	2899.686816
867.960224	2899.220509
868.272110	2900.430386
868.583954	2901.675551
868.895755	2903.644122
869.207515	2907.636715
869.519233	2910.058990
869.830909	2913.239958
870.142542	2917.262799
870.454134	2920.317738
870.765684	2923.561720
871.077191	2928.935590
871.388657	2934.753082
871.700081	2937.490428
872.011463	2945.694906
872.322803	2950.741101
872.634101	2957.143367
872.945357	2964.677371
873.256571	2975.432673
873.567744	2981.620689
873.878874	2983.168323
874.189963	2994.372288
874.501010	2997.283554
874.812015	2996.391270
875.122979	3008.464833
875.433900	3005.568691
875.744780	3006.985255
876.055618	3014.133611
876.366415	3014.539424
876.677169	3018.650485
876.987882	3028.465611
877.298554	3036.433155
877.609183	3050.802964
877.919771	3070.539081
878.230317	3091.096907
878.540822	3129.951600
878.851285	3181.636030
879.161707	3248.345619
879.472087	3355.293698
879.782425	3513.958974
880.092722	3788.911066
880.402977	4214.064338
880.713191	4752.114249
881.023363	5347.933263
881.333494	5783.549450
881.643583	6069.070321
881.953631	6144.382639
882.263637	6090.336429
882.573602	5945.216733
882.883526	5777.870590
883.193408	5573.406431
883.503248	5357.864337
883.813048	5143.590092
884.122806	4926.034057
884.432522	4685.076985
884.742197	4463.422492
885.051831	4256.606635
885.361424	4057.637334
885.670975	3892.552148
885.980485	3746.625868
886.289954	3621.073411
886.599382	3520.908204
886.908768	3434.873352
887.218113	3356.995087
887.527417	3296.997794
887.836680	3236.808938
888.145901	3192.560210
888.455082	3154.885147
888.764221	3118.964405
889.073319	3088.319231
889.382376	3072.913465
889.691392	3057.595919
890.000366	3046.273487
890.309300	3039.520862
890.618193	3039.117569
890.927044	3031.792773
891.235855	3033.055582
891.544625	3034.583052
891.853353	3044.173847
892.162041	3056.237328
892.470687	3085.070207
892.779293	3114.316461
893.087858	3160.692556
893.396381	3238.250708
893.704864	3345.896987
894.013306	3502.601254
894.321707	3687.041950
894.630068	3836.386133
894.938387	3917.160541
895.246665	3923.083896
895.554903	3867.001060
895.863100	3779.342956
896.171256	3703.108107
896.479371	3633.837612
896.787446	3555.578740
897.095480	3486.522494
897.403473	3431.173145
897.711425	3370.301213
898.019336	3325.399655
898.327207	3268.671551
898.635038	3224.407700
898.942827	3170.656397
899.250576	3131.786580
899.558284	3091.573296
899.865952	3062.715211
900.173579	3033.786549
900.481165	3010.229237
900.788711	2993.681650
901.096216	2975.982159
901.403681	2966.184676
901.711105	2959.419448
902.018489	2950.743622
902.325832	2960.336938
902.633135	2968.838844
902.940397	3006.186232
903.247619	3098.187290
903.554800	3272.654062
903.861941	3546.711350
904.169041	3809.559632
904.476101	3980.742093
904.783121	3997.733302
905.090100	3932.044547
905.397039	3828.844566
905.703938	3725.316910
906.010796	3618.124336
906.317614	3536.571069
906.624391	3448.522276
906.931129	3380.103736
907.237826	3313.162254
907.544483	3249.608428
907.851099	3173.066068
908.157675	3104.040069
908.464211	3030.063657
908.770707	2974.222796
909.077163	2926.389808
909.383578	2889.460835
909.689954	2861.091742
909.996289	2839.187928
910.302584	2828.183090
910.608839	2819.514826
910.915054	2811.068372
911.221229	2805.323977
911.527363	2805.921354
911.833458	2807.756334
912.139513	2812.159782
912.445527	2812.860502
912.751502	2824.540856
913.057436	2838.797239
913.363331	2857.250383
913.669186	2887.615773
913.975000	2926.369643
914.280775	2984.075731
914.586510	3064.283009
914.892205	3175.579083
915.197859	3323.771363
915.503475	3503.284330
915.809050	3676.256401
916.114585	3808.949653
916.420081	3882.275756
916.725536	3916.038884
917.030952	3876.307030
917.336328	3837.036441
917.641665	3790.246972
917.946961	3730.234556
918.252218	3671.873118
918.557435	3594.377980
918.862612	3532.628887
919.167750	3473.246615
919.472848	3399.398753
919.777906	3330.145902
920.082925	3263.922784
920.387904	3188.776824
920.692843	3135.257414
920.997743	3085.574323
921.302603	3033.726055
921.607423	3000.343535
921.912204	2965.380612
922.216946	2938.561674
922.521647	2916.816657
922.826310	2892.687174
923.130932	2876.157230
923.435516	2855.420444
923.740059	2842.406705
924.044564	2825.092862
924.349028	2812.222797
924.653454	2799.922381
924.957840	2787.077521
925.262186	2779.026798
925.566493	2764.898965
925.870761	2753.725247
926.174989	2750.077972
926.479178	2742.301993
926.783328	2732.335632
927.087438	2726.162739
927.391509	2721.867676
927.695541	2717.365925
927.999533	2708.838813
928.303486	2704.778164
928.607400	2704.037114
928.911275	2697.327339
929.215110	2693.453212
929.518906	2695.136957
929.822663	2694.607636
930.126381	2688.971626
930.430060	2687.963395
930.733699	2688.807789
931.037299	2691.411545
931.340861	2692.245856
931.644383	2691.240145
931.947866	2691.724096
932.251309	2692.835671
932.554714	2692.419775
932.858080	2693.052440
933.161407	2691.000691
933.464694	2687.423992
933.767943	2688.976667
934.071153	2685.702438
934.374323	2684.371573
934.677455	2685.727644
934.980548	2681.823270
935.283602	2681.813188
935.586617	2682.118177
935.889593	2680.177333
936.192530	2681.593897
936.495428	2685.399969
936.798287	2684.495082
937.101108	2690.378108
937.403890	2696.530836
937.706632	2706.167002
938.009336	2718.888354
938.312002	2728.552246
938.614628	2741.288721
938.917216	2750.791296
939.219765	2756.518047
939.522275	2765.685385
939.824747	2768.697474
940.127179	2763.893255
940.429573	2765.680344
940.731929	2767.255704
941.034246	2763.673964
941.336524	2764.858636
941.638763	2764.924171
941.940964	2767.238060
942.243126	2757.622059
942.545250	2757.690115
942.847335	2749.467993
943.149381	2740.769482
943.451389	2735.085581
943.753359	2731.032493
944.055290	2724.703325
944.357182	2720.715772
944.659036	2717.512119
944.960851	2715.604042
945.262628	2710.119267
945.564367	2710.469627
945.866067	2710.968701
946.167729	2713.091027
946.469352	2709.342929
946.770937	2707.049204
947.072484	2704.634491
947.373992	2705.214224
947.675462	2705.327650
947.976893	2704.195911
948.278286	2699.101825
948.579641	2697.728110
948.880958	2697.418079
949.182236	2699.482432
949.483476	2696.961855
949.784678	2696.709797
950.085841	2695.540250
950.386967	2700.556198
950.688054	2696.578727
950.989103	2701.501414
951.290114	2703.711960
951.591087	2709.973073
951.892021	2713.214535
952.192917	2714.857951
952.493776	2722.810371
952.794596	2722.891030
953.095378	2728.138871
953.396122	2726.576113
953.696828	2728.280023
953.997496	2724.975547
954.298126	2719.946996
954.598718	2720.781307
954.899272	2713.867364
955.199788	2710.716643
955.500266	2707.006354
955.800706	2700.407484
956.101108	2690.080680
956.401472	2686.408199
956.701798	2680.794875
957.002087	2672.073678
957.302337	2672.103925
957.602550	2666.455312
957.902724	2657.872748
958.202861	2655.357212
958.502960	2651.442756
958.803022	2645.295069
959.103045	2638.890283
959.403031	2638.582773
959.702979	2636.107566
960.002889	2631.084057
960.302762	2629.516258
960.602596	2623.963427
960.902393	2624.626338
961.202153	2623.363529
961.501875	2621.110134
961.801559	2619.701131
962.101205	2616.986470
962.400814	2616.676439
962.700385	2617.954371
962.999918	2611.564709
963.299414	2613.714761
963.598873	2611.741149
963.898293	2611.284925
964.197677	2613.361880
964.497022	2610.385079
964.796331	2609.482712
965.095601	2608.555140
965.394835	2609.190325
965.694030	2606.475664
965.993189	2611.615120
966.292309	2608.497167
966.591393	2606.057248
966.890439	2608.880294
967.189447	2605.666559
967.488419	2606.725201
967.787353	2609.465068
968.086249	2606.629419
968.385108	2609.860799
968.683930	2606.649584
968.982714	2609.228134
969.281462	2609.117229
969.580172	2612.671242
969.878844	2611.410954
970.177480	2611.577312
970.476078	2613.724843
970.774639	2617.109978
971.073162	2616.978908
971.371649	2615.418671
971.670098	2614.375152
971.968510	2614.912035
972.266885	2619.905298
972.565223	2623.381173
972.863524	2621.271451
973.161788	2620.679115
973.460014	2621.256327
973.758204	2624.906122
974.056356	2624.759929
974.354471	2624.041565
974.652550	2626.118520
974.950591	2626.355454
975.248595	2625.627007
975.546563	2626.005094
975.844493	2623.872686
976.142386	2623.287912
976.440243	2621.485700
976.738062	2621.647017
977.035845	2621.611728
977.333590	2619.028137
977.631299	2618.634927
977.928971	2616.651233
978.226606	2616.789865
978.524204	2614.846500
978.821765	2615.401027
979.119290	2616.628548
979.416777	2614.506222
979.714228	2616.623507
980.011642	2616.608383
980.309020	2620.472428
980.606360	2616.981429
980.903664	2621.689866
981.200931	2626.554580
981.498162	2633.324849
981.795356	2644.818680
982.092513	2660.380722
982.389633	2678.448217
982.686717	2696.684592
982.983764	2710.474668
983.280775	2723.637121
983.577749	2729.464694
983.874686	2731.642473
984.171587	2729.323542
984.468451	2723.947152
984.765279	2716.314845
985.062070	2709.113556
985.358824	2700.420087
985.655543	2691.522450
985.952224	2683.529701
986.248869	2672.696261
986.545478	2656.501554
986.842050	2643.986890
987.138586	2633.221506
987.435086	2623.895371
987.731549	2615.872375
988.027975	2614.337343
988.324366	2611.897425
988.620719	2608.237547
988.917037	2603.503904
989.213318	2602.271342
989.509563	2601.225302
989.805772	2598.987030
990.101944	2600.401074
990.398080	2596.567276
990.694180	2598.024170
990.990244	2598.233377
991.286271	2597.436875
991.582262	2596.209354
991.878217	2598.256063
992.174136	2596.607605
992.470019	2598.981989
992.765865	2595.354879
993.061676	2599.314705
993.357450	2601.230343
993.653188	2602.483070
993.948890	2606.987341
994.244556	2607.340222
994.540186	2614.206273
994.835780	2617.644340
995.131337	2626.196658
995.426859	2633.019860
995.722345	2636.989768
996.017795	2651.455359
996.313208	2659.158242
996.608586	2664.038079
996.903928	2667.813903
997.199234	2667.466064
997.494504	2670.107628
997.789738	2667.009839
998.084936	2664.451454
998.380099	2662.790394
998.675225	2656.574651
998.970316	2650.235400
999.265371	2642.615696
999.560390	2636.876342
999.855373	2631.431896
1000.150320	2624.817902
1000.445232	2620.553086
1000.740108	2610.299379
1001.034948	2610.140583
1001.329752	2604.597834
1001.624521	2604.186980
1001.919254	2597.066350
1002.213951	2596.731114
1002.508613	2593.721545
1002.803239	2592.050402
1003.097829	2588.524115
1003.392384	2593.945876
1003.686903	2593.512337
1003.981386	2593.789600
1004.275834	2585.287694
1004.570246	2591.057295
1004.864623	2587.047057
1005.158964	2589.197109
1005.453270	2587.074783
1005.747540	2587.881368
1006.041775	2587.374732
1006.335974	2586.469845
1006.630138	2586.764752
1006.924266	2589.912953
1007.218359	2588.375401
1007.512416	2586.976481
1007.806438	2585.905236
1008.100425	2585.519587
1008.394376	2584.314752
1008.688292	2586.583271
1008.982172	2582.230235
1009.276017	2586.167376
1009.569827	2585.391038
1009.863602	2585.544793
1010.157341	2584.876840
1010.451045	2583.220821
1010.744714	2585.781727
1011.038347	2587.105030
1011.331945	2584.602097
1011.625508	2583.472879
1011.919036	2582.956161
1012.212528	2583.321644
1012.505986	2582.257961
1012.799408	2582.618403
1013.092795	2584.229052
1013.386147	2584.344999
1013.679464	2583.903898
1013.972745	2582.507498
1014.265992	2583.954309
1014.559204	2585.716192
1014.852380	2581.176633
1015.145521	2584.027406
1015.438628	2580.760738
1015.731699	2584.783579
1016.024736	2582.303331
1016.317737	2582.333578
1016.610703	2585.043198
1016.903635	2580.080182
1017.196531	2581.080852
1017.489393	2581.433732
1017.782219	2579.044225
1018.075011	2584.508836
1018.367768	2586.616038
1018.660490	2581.428691
1018.953177	2581.428691
1019.245829	2581.428691
