Dividing Wavelength (nm)	Counts (n)	Blue Motor Position (mm): 47.000000	Red Motor Position (mm): 0.000000	
326.493990	2150.959523
326.888308	2150.959523
327.282561	2150.959523
327.676750	2129.411111
328.070874	2129.464043
328.464933	2132.307254
328.858929	2143.317134
329.252859	2153.684267
329.646726	2168.326298
330.040528	2184.773063
330.434265	2203.135465
330.827938	2221.936449
331.221547	2241.400344
331.615091	2261.380957
332.008571	2280.925510
332.401986	2301.584159
332.795338	2321.534525
333.188625	2340.335508
333.581847	2358.957531
333.975006	2380.485778
334.368100	2401.043604
334.761129	2414.405182
335.154095	2436.112390
335.546996	2456.161059
335.939833	2487.048209
336.332606	2502.940446
336.725315	2513.128618
337.117960	2521.176820
337.510540	2531.473377
337.903056	2536.650642
338.295508	2541.437218
338.687896	2553.120092
339.080220	2562.632749
339.472480	2565.738100
339.864676	2570.711198
340.256807	2571.598441
340.648875	2576.828638
341.040879	2576.339646
341.432818	2578.305696
341.824694	2578.071283
342.216506	2577.688155
342.608253	2580.516242
342.999937	2578.139338
343.391557	2574.240006
343.783113	2576.763103
344.174605	2574.050963
344.566033	2573.897207
344.957397	2571.565674
345.348697	2567.689026
345.739934	2566.229612
346.131106	2568.276321
346.522215	2566.799263
346.913260	2562.756257
347.304241	2561.899261
347.695159	2557.155535
348.086012	2557.006821
348.476802	2556.250648
348.867528	2557.319373
349.258191	2552.719320
349.648789	2551.547252
350.039324	2552.313507
350.429796	2549.954247
350.820203	2546.289328
351.210548	2549.626572
351.600828	2547.756304
351.991045	2549.054401
352.381198	2549.455173
352.771288	2549.674463
353.161314	2546.569112
353.551276	2545.833104
353.941175	2545.676828
354.331010	2548.298228
354.720782	2550.216387
355.110490	2549.561037
355.500135	2550.012220
355.889717	2548.877961
356.279235	2547.582384
356.668689	2548.643547
357.058080	2551.849721
357.447408	2545.296221
357.836672	2548.915769
358.225873	2549.830739
358.615010	2545.520552
359.004084	2549.878630
359.393095	2550.672612
359.782043	2553.152859
360.170927	2554.977757
360.559748	2554.254351
360.948505	2555.018086
361.337199	2554.052705
361.725830	2553.510781
362.114398	2553.246121
362.502903	2554.680329
362.891344	2559.308108
363.279722	2556.573282
363.668037	2557.258879
364.056289	2556.994218
364.444478	2559.053530
364.832603	2558.630073
365.220665	2559.149312
365.608665	2559.542522
365.996601	2562.597461
366.384474	2558.572100
366.772284	2562.728531
367.160031	2561.221226
367.547715	2562.559652
367.935336	2561.168294
368.322893	2561.521175
368.710388	2562.884807
369.097820	2565.667524
369.485189	2563.265414
369.872495	2562.486556
370.259738	2562.713407
370.646918	2564.044272
371.034035	2562.723490
371.421090	2566.950497
371.808081	2565.342369
372.195010	2565.501166
372.581875	2566.380847
372.968678	2564.666855
373.355418	2564.465208
373.742096	2567.401681
374.128710	2568.432597
374.515262	2567.252967
374.901751	2567.376475
375.288177	2566.758933
375.674540	2567.726835
376.060841	2569.340004
376.447079	2567.709191
376.833254	2568.727504
377.219367	2566.211968
377.605417	2567.966290
377.991404	2570.343194
378.377329	2568.155333
378.763191	2571.971487
379.148991	2578.945923
379.534727	2578.797209
379.920402	2579.626479
380.306013	2584.274422
380.691563	2586.550503
381.077049	2584.846593
381.462474	2589.514702
381.847835	2594.926381
382.233134	2596.534509
382.618371	2596.652976
383.003545	2604.169336
383.388657	2607.612444
383.773706	2610.576643
384.158693	2616.036212
384.543618	2621.336986
384.928480	2626.342851
385.313280	2632.170425
385.698017	2632.729993
386.082692	2645.098464
386.467305	2649.264978
386.851856	2657.088849
387.236344	2664.731238
387.620770	2672.892866
388.005133	2676.958557
388.389435	2689.926925
388.773674	2692.913808
389.157851	2703.490149
389.541965	2713.252344
389.926018	2716.024978
390.310008	2729.711711
390.693936	2738.584142
391.077802	2748.134608
391.461606	2758.022831
391.845348	2765.599685
392.229027	2778.149638
392.612645	2795.425672
392.996200	2803.302475
393.379694	2816.016265
393.763125	2834.174501
394.146494	2843.901407
394.529801	2855.735516
394.913047	2878.196377
395.296230	2878.145965
395.679351	2889.133160
396.062410	2908.408012
396.445408	2907.256108
396.828343	2921.429312
397.211217	2932.557659
397.594028	2929.822833
397.976778	2945.888991
398.359466	2961.070426
398.742092	2960.687298
399.124656	2979.866368
399.507158	2994.256341
399.889598	3003.368227
400.271977	3018.315248
400.654294	3028.150539
401.036549	3038.381561
401.418742	3047.831204
401.800874	3069.828279
402.182944	3079.189701
402.564952	3108.226748
402.946898	3098.943463
403.328783	3110.943929
403.710606	3127.078142
404.092367	3150.892553
404.474067	3173.759227
404.855705	3169.028104
405.237282	3168.236643
405.618797	3203.277703
406.000250	3224.198492
406.381642	3256.746702
406.762972	3258.395159
407.144240	3251.415681
407.525447	3274.118518
407.906593	3275.635905
408.287677	3294.290695
408.668700	3314.407419
409.049661	3311.516318
409.430560	3329.770336
409.811399	3333.820903
410.192176	3352.581557
410.572891	3360.932228
410.953545	3398.718197
411.334138	3372.292468
411.714669	3417.448604
412.095139	3363.752754
412.475547	3417.458686
412.855894	3407.424269
413.236180	3435.256480
413.616405	3414.794436
413.996568	3444.683438
414.376670	3446.969601
414.756711	3443.413067
415.136691	3468.160091
415.516609	3487.883605
415.896466	3499.296778
416.276262	3520.913245
416.655997	3554.094120
417.035670	3562.265830
417.415283	3625.741519
417.794834	3652.255468
418.174324	3633.356182
418.553753	3631.148157
418.933121	3672.311698
419.312428	3666.514371
419.691674	3662.831808
420.070859	3699.521326
420.449983	3679.205476
420.829045	3727.345975
421.208047	3714.803584
421.586988	3759.571551
421.965867	3792.240748
422.344686	3798.514464
422.723444	3838.014425
423.102141	3741.695619
423.480777	3844.479705
423.859352	3811.117349
424.237866	3909.669386
424.616319	3895.710431
424.994712	3951.064821
425.373044	3946.079120
425.751314	4009.428779
426.129524	3942.731793
426.507673	4048.117115
426.885762	4018.633926
427.263789	4043.023029
427.641756	4045.286507
428.019662	4072.571752
428.397508	4080.231785
428.775292	4116.593628
429.153016	4123.026140
429.530679	4135.467708
429.908282	4144.529182
430.285824	4125.912201
430.663305	4197.746123
431.040726	4155.995286
431.418086	4143.432731
431.795385	4220.489288
432.172624	4253.677724
432.549802	4220.935430
432.926920	4237.152822
433.303977	4233.949169
433.680974	4275.052217
434.057910	4295.052995
434.434786	4302.166063
434.811601	4296.146925
435.188355	4402.671547
435.565050	4373.011918
435.941683	4369.846074
436.318257	4462.462152
436.694770	4465.343172
437.071222	4521.446173
437.447614	4458.499805
437.823946	4459.465186
438.200218	4477.767095
438.576429	4458.812357
438.952580	4480.350687
439.328670	4487.572139
439.704700	4534.147360
440.080670	4497.588912
440.456580	4559.532090
440.832429	4595.772945
441.208218	4494.599508
441.583947	4546.921644
441.959616	4565.984767
442.335224	4585.511676
442.710773	4613.048979
443.086261	4662.520342
443.461689	4615.574597
443.837057	4628.391731
444.212365	4699.900498
444.587612	4706.196899
444.962800	4672.436292
445.337927	4715.749886
445.712995	4603.576651
446.088002	4794.560765
446.462949	4817.843334
446.837837	4837.697918
447.212664	4821.888860
447.587431	5047.596441
447.962139	5350.912585
448.336786	5692.493608
448.711374	5670.887223
449.085901	5310.051513
449.460369	5250.931381
449.834776	5190.515673
450.209124	5422.728863
450.583412	5436.607160
450.957640	5561.005192
451.331808	5420.634264
451.705917	5267.705821
452.079965	5260.759111
452.453954	5302.487262
452.827883	5263.763638
453.201752	5271.968116
453.575562	5300.858969
453.949311	5434.240338
454.323001	5444.549498
454.696632	5435.624135
455.070202	5589.596097
455.443713	5617.382937
455.817164	5713.167380
456.190556	5784.905520
456.563888	5757.877374
456.937160	5836.625238
457.310373	5675.343603
457.683526	5734.163786
458.056619	5731.736470
458.429653	5712.330549
458.802628	5755.233288
459.175542	5790.435666
459.548398	5924.830307
459.921194	6116.515141
460.293930	6176.013359
460.666607	6435.993224
461.039224	6643.671119
461.411782	6769.843638
461.784280	6684.106214
462.156719	6688.562594
462.529099	6652.520864
462.901419	6510.337641
463.273680	6377.803186
463.645882	6366.914293
464.018024	6369.071907
464.390106	6439.660664
464.762130	6701.288987
465.134094	7088.895744
465.505999	7727.420893
465.877845	8439.309954
466.249631	8785.266699
466.621358	8708.366417
466.993026	8510.317127
467.364634	8292.899723
467.736184	8005.831217
468.107674	7855.491407
468.479105	7771.336905
468.850477	7703.427522
469.221790	7528.980913
469.593043	7309.499157
469.964238	7207.516615
470.335373	7180.135588
470.706449	7341.064342
471.077467	7533.107098
471.448425	8199.474539
471.819324	8781.780741
472.190164	8817.716606
472.560945	8324.606060
472.931667	7852.852363
473.302330	7658.548649
473.672934	7539.229579
474.043479	7620.568596
474.413965	7522.346755
474.784393	7469.122253
475.154761	7628.946994
475.525070	7641.161710
475.895321	7598.521110
476.265513	7692.584000
476.635645	7850.120057
477.005719	7843.561516
477.375734	7928.021008
477.745691	8044.464100
478.115588	8248.414061
478.485427	8488.105803
478.855207	8967.716139
479.224928	9397.101459
479.594591	9777.617833
479.964194	9785.897928
480.333739	9871.801711
480.703226	9862.941883
481.072653	9963.790165
481.442022	10082.842055
481.811333	10235.029448
482.180584	10074.929964
482.549777	10019.348722
482.918912	9954.005286
483.287988	9942.607237
483.657005	9847.500828
484.025964	9761.314742
484.394864	9818.244492
484.763706	9784.846848
485.132489	9692.621459
485.501213	9694.360657
485.869879	9750.430891
486.238487	9679.038070
486.607036	9759.202498
486.975527	9710.507473
487.343959	9760.596377
487.712333	9804.953490
488.080648	9845.839768
488.448905	9949.412795
488.817104	9960.097520
489.185244	10124.673549
489.553326	10341.163381
489.921350	10815.553602
490.289315	11446.900148
490.657222	11739.702966
491.025070	11913.053123
491.392861	11821.493166
491.760593	11661.897797
492.128267	11414.334294
492.495883	11174.909733
492.863440	10935.802765
493.230939	10710.150636
493.598380	10526.587101
493.965763	10498.812864
494.333088	10371.082629
494.700354	10301.731475
495.067563	10267.013049
495.434713	10280.472929
495.801805	10319.894752
496.168839	10281.844123
496.535815	10249.210214
496.902733	10292.450711
497.269593	10254.964691
497.636395	10266.307287
498.003139	10368.965344
498.369825	10302.870776
498.736453	10394.771011
499.103023	10340.470222
499.469535	10347.270738
499.835989	10384.817252
500.202385	10359.366987
500.568723	10382.296675
500.935003	10446.563825
501.301226	10412.820862
501.667390	10584.547768
502.033497	10684.022336
502.399546	10610.620615
502.765537	10518.417912
503.131470	10619.692172
503.497345	10710.485873
503.863163	10487.913890
504.228923	10618.247881
504.594625	10735.709286
504.960269	10636.517023
505.325856	10791.068717
505.691385	10675.704432
506.056856	10745.617674
506.422270	10843.814310
506.787625	10773.585996
507.152924	10836.522281
507.518164	10893.966229
507.883347	10757.280384
508.248472	10830.578761
508.613540	10937.680595
508.978550	11006.862869
509.343503	10991.028605
509.708398	11045.052130
510.073236	11171.489310
510.438016	11186.859788
510.802738	11103.171593
511.167403	11238.839125
511.532010	11293.863320
511.896561	11390.512321
512.261053	11581.811507
512.625488	11496.076603
512.989866	11490.327167
513.354186	11465.559978
513.718449	11475.158335
514.082655	11616.870211
514.446803	11576.087277
514.810894	11682.422855
515.174927	11675.687874
515.538904	11659.752786
515.902822	11821.886376
516.266684	11690.007271
516.630488	11794.830504
516.994235	11776.084973
517.357925	11904.493244
517.721558	11954.052827
518.085133	12025.186029
518.448651	12056.390771
518.812112	12010.498627
519.175516	12023.913137
519.538863	12113.781787
519.902152	12115.757919
520.265385	12226.806977
520.628560	12245.423958
520.991678	12201.659181
521.354739	12251.417890
521.717743	12315.001963
522.080690	12290.575052
522.443580	12429.867174
522.806413	12447.604474
523.169189	12438.777414
523.531908	12491.749858
523.894569	12456.343314
524.257174	12473.546252
524.619722	12587.267121
524.982213	12560.289386
525.344647	12548.767829
525.707025	12561.831979
526.069345	12667.338288
526.431608	12645.540339
526.793815	12725.878687
527.155964	12623.838171
527.518057	12648.701142
527.880093	12601.508380
528.242072	12722.256618
528.603995	12643.281902
528.965860	12656.547698
529.327669	12691.765199
529.689421	12636.131025
530.051117	12653.901092
530.412755	12693.154037
530.774337	12691.981968
531.135862	12651.816575
531.497331	12704.647867
531.858743	12671.189729
532.220098	12765.552568
532.581396	12683.666585
532.942638	12604.152466
533.303824	12672.555882
533.664953	12650.369764
534.026025	12601.548710
534.387040	12710.213301
534.747999	12681.589630
535.108902	12722.128068
535.469748	12606.731016
535.830537	12628.014767
536.191270	12680.019310
536.551947	12598.680293
536.912567	12661.200683
537.273131	12693.022967
537.633638	12572.337744
537.994089	12623.311371
538.354483	12553.015001
538.714821	12682.817151
539.075103	12759.702309
539.435328	12687.843181
539.795497	12670.851972
540.155609	12663.547340
540.515665	12774.470369
540.875665	12626.593162
541.235609	12717.669168
541.595496	12679.636183
541.955328	12859.814583
542.315102	12712.126419
542.674821	12650.518478
543.034483	12661.780416
543.394090	12663.330571
543.753640	12627.245991
544.113134	12880.354764
544.472571	12635.158082
544.831953	12912.789548
545.191278	12730.317423
545.550548	12663.401147
545.909761	12787.290023
546.268918	12826.031290
546.628019	12889.461609
546.987064	12779.206533
547.346053	12625.214406
547.704986	12830.933812
548.063863	12704.146273
548.422684	12757.955549
548.781449	12713.258158
549.140158	12812.611739
549.498811	12762.452258
549.857408	12632.105664
550.215949	12834.664266
550.574434	12814.260196
550.932864	12745.430802
551.291237	12953.262452
551.649555	12840.648116
552.007817	12892.261970
552.366022	12812.780617
552.724173	12859.935571
553.082267	12943.805247
553.440305	13036.103733
553.798288	12860.432124
554.156215	12930.299996
554.514086	12981.132471
554.871902	12916.144436
555.229661	12952.823871
555.587365	12898.250860
555.945014	12905.447108
556.302606	12891.377247
556.660143	12943.938838
557.017625	12999.583094
557.375050	12946.393880
557.732421	13044.308211
558.089735	13041.160010
558.446994	13020.166125
558.804197	13137.756080
559.161345	13118.534160
559.518437	12951.205661
559.875474	13033.991489
560.232455	13045.876010
560.589381	13104.928086
560.946251	13039.128425
561.303065	13214.341289
561.659825	13167.340091
562.016528	13086.023759
562.373177	13026.989327
562.729770	13151.778049
563.086307	13043.577243
563.442789	13148.569355
563.799216	13183.620497
564.155587	13125.949697
564.511904	13150.091783
564.868164	13154.066733
565.224370	13226.462743
565.580520	13173.155062
565.936615	13236.116553
566.292654	13171.678004
566.648638	13244.134508
567.004567	13247.116351
567.360441	13241.530752
567.716260	13213.486813
568.072023	13287.301908
568.427732	13275.649281
568.783385	13167.892097
569.138982	13284.342751
569.494525	13288.075726
569.850013	13238.314496
570.205445	13220.534346
570.560823	13229.288310
570.916145	13187.446733
571.271412	13201.922406
571.626625	13158.694512
571.981782	13163.420594
572.336884	13105.901028
572.691931	13193.165922
573.046923	13088.572062
573.401860	13066.932909
573.756743	13058.786405
574.111570	13079.376997
574.466342	13061.443093
574.821059	13111.889919
575.175722	12980.651041
575.530330	12998.960511
575.884882	12925.294130
576.239380	12931.456941
576.593823	12921.669541
576.948211	12918.244077
577.302544	12786.589303
577.656823	12806.953044
578.011047	12876.183209
578.365216	12808.914052
578.719330	12739.966191
579.073389	12715.781256
579.427394	12734.083165
579.781344	12719.163870
580.135239	12651.342707
580.489080	12671.419102
580.842866	12552.641956
581.196597	12643.057570
581.550273	12632.871919
581.903895	12599.764141
582.257463	12709.787324
582.610975	12550.663303
582.964434	12618.996143
583.317837	12538.012527
583.671186	12496.483502
584.024481	12549.803786
584.377721	12441.456787
584.730906	12507.548834
585.084037	12525.724715
585.437113	12446.140019
585.790135	12465.833286
586.143103	12380.516799
586.496016	12398.249057
586.848874	12406.211560
587.201679	12396.595559
587.554428	12278.982919
587.907124	12322.135196
588.259765	12258.465423
588.612352	12328.295486
588.964884	12194.125176
589.317362	12240.856673
589.669786	12226.358314
590.022155	12185.784587
590.374470	12290.925412
590.726731	12180.980368
591.078937	12067.365363
591.431090	12086.471336
591.783188	12012.774708
592.135232	11942.969851
592.487222	11997.467244
592.839157	12008.716579
593.191038	11942.806013
593.542866	11892.323898
593.894639	11748.638411
594.246358	11805.747122
594.598022	11813.570993
594.949633	11713.002494
595.301190	11702.164014
595.652692	11659.770430
596.004141	11752.721746
596.355535	11524.627178
596.706876	11513.884479
597.058162	11480.133954
597.409395	11572.442522
597.760573	11611.246804
598.111698	11495.887560
598.462768	11494.781027
598.813785	11510.786690
599.164748	11380.394725
599.515657	11458.056221
599.866511	11330.013434
600.217312	11470.039044
600.568060	11225.883360
600.918753	11386.139120
601.269392	11390.098947
601.619978	11295.647888
601.970510	11331.001500
602.320988	11375.444312
602.671412	11445.884355
603.021783	11369.331913
603.372100	11291.972887
603.722363	11309.808489
604.072572	11307.698766
604.422728	11318.943060
604.772830	11272.440936
605.122878	11277.761874
605.472872	11256.127762
605.822813	11309.047275
606.172701	11267.737540
606.522534	11313.841412
606.872314	11364.620955
607.222041	11289.835438
607.571714	11371.726461
607.921333	11237.294012
608.270899	11286.848554
608.620411	11351.506393
608.969870	11295.746191
609.319276	11275.221133
609.668627	11292.277877
610.017926	11374.113448
610.367171	11409.890517
610.716362	11397.103630
611.065500	11371.043385
611.414585	11382.290199
611.763616	11443.792276
612.112594	11406.558314
612.461518	11430.254257
612.810389	11479.052627
613.159207	11420.544995
613.507971	11415.801269
613.856682	11521.494101
614.205340	11474.187913
614.553945	11613.260745
614.902496	11491.957981
615.250994	11561.510780
615.599439	11547.798842
615.947830	11580.561301
616.296169	11550.200952
616.644454	11566.882130
616.992686	11578.630539
617.340864	11673.522698
617.688990	11554.619523
618.037063	11695.476923
618.385082	11669.212512
618.733048	11705.957482
619.080961	11690.259329
619.428821	11660.962663
619.776628	11674.883810
620.124382	11621.369441
620.472083	11642.486834
620.819731	11661.421408
621.167326	11589.083371
621.514868	11571.207440
621.862357	11471.468211
622.209793	11470.870834
622.557176	11385.380427
622.904506	11323.228041
623.251783	11246.126113
623.599007	11180.094560
623.946179	11133.713424
624.293297	11104.252921
624.640363	10972.041099
624.987376	10960.864861
625.334336	10897.772300
625.681243	10813.070833
626.028097	10783.310382
626.374899	10749.370813
626.721647	10718.960053
627.068343	10681.945381
627.414987	10618.585638
627.761577	10549.539475
628.108115	10603.280695
628.454600	10468.538215
628.801032	10484.518672
629.147412	10468.820519
629.493739	10436.189131
629.840014	10368.103307
630.186236	10416.178270
630.532405	10301.189551
630.878521	10352.750473
631.224585	10303.206013
631.570597	10225.287418
631.916556	10227.765145
632.262462	10218.257529
632.608316	10191.274753
632.954117	10165.285085
633.299866	10153.183795
633.645562	10132.240321
633.991206	10026.250062
634.336797	9930.067367
634.682336	9922.944216
635.027823	9860.595226
635.373257	9823.603239
635.718639	9759.323486
636.063968	9729.041275
636.409245	9602.339435
636.754470	9600.532181
637.099642	9541.991782
637.444762	9444.092574
637.789829	9446.776989
638.134845	9377.395588
638.479808	9353.258544
638.824719	9327.440274
639.169577	9244.712419
639.514383	9242.380885
639.859137	9179.341257
640.203839	9205.197335
640.548489	9126.635993
640.893086	9133.570100
641.237632	9068.443434
641.582125	9072.252025
641.926566	9058.822392
642.270955	9037.702478
642.615292	9034.334987
642.959576	9017.011062
643.303809	9006.439762
643.647990	9015.589456
643.992118	8998.230243
644.336195	8976.444897
644.680219	8974.299886
645.024192	9019.763532
645.368112	9089.543183
645.711981	9063.724914
646.055797	9201.192138
646.399562	9161.694698
646.743274	9319.873502
647.086935	9381.413388
647.430544	9358.584523
647.774101	9381.660404
648.117606	9411.859437
648.461059	9483.254778
648.804460	9412.814735
649.147810	9293.074728
649.491108	9266.096994
649.834354	9191.641672
650.177548	9046.464003
650.520690	8959.582237
650.863781	8950.551010
651.206820	8927.880941
651.549807	8830.470725
651.892742	8737.766427
652.235626	8699.355355
652.578458	8660.160384
652.921238	8554.858242
653.263967	8597.647555
653.606644	8528.142647
653.949269	8509.560954
654.291843	8428.806710
654.634365	8499.445878
654.976836	8429.215044
655.319255	8424.612470
655.661622	8406.897856
656.003938	8367.556691
656.346203	8337.357659
656.688416	8365.537709
657.030577	8316.441912
657.372687	8279.517980
657.714746	8313.984349
658.056753	8327.111514
658.398708	8230.729693
658.740612	8228.660300
659.082465	8277.481354
659.424266	8226.575783
659.766016	8234.079540
660.107715	8212.604225
660.449362	8229.114003
660.790958	8224.846667
661.132503	8223.760298
661.473996	8219.215698
661.815438	8234.505517
662.156829	8264.959128
662.498168	8204.306485
662.839456	8201.891773
663.180693	8222.905823
663.521879	8246.566478
663.863013	8235.488543
664.204097	8221.852221
664.545129	8296.778891
664.886110	8287.291439
665.227040	8297.963562
665.567918	8306.815828
665.908746	8318.745719
666.249522	8340.722629
666.590248	8337.140889
666.930922	8349.658074
667.271545	8343.654060
667.612118	8362.717183
667.952639	8321.722520
668.293109	8324.641348
668.633528	8301.268038
668.973896	8292.120865
669.314213	8295.667317
669.654480	8248.822394
669.994695	8247.647806
670.334859	8229.902944
670.674973	8204.992082
671.015035	8226.028817
671.355047	8218.368784
671.695008	8204.230868
672.034918	8183.796551
672.374777	8186.022220
672.714585	8161.260073
673.054342	8188.764608
673.394049	8156.428127
673.733705	8197.843726
674.073310	8149.108371
674.412864	8155.175400
674.752368	8097.834796
675.091820	8147.510326
675.431223	8074.222031
675.770574	8036.181484
676.109875	8008.929006
676.449125	7962.880587
676.788324	7940.359232
677.127473	7854.004266
677.466571	7838.923655
677.805619	7783.700335
678.144616	7783.574306
678.483562	7762.577900
678.822458	7711.952113
679.161303	7697.030297
679.500098	7671.786719
679.838842	7656.678381
680.177535	7675.630599
680.516179	7709.222328
680.854771	7720.166673
681.193314	7840.466248
681.531805	7997.520875
681.870247	8115.665357
682.208638	8266.214375
682.546978	8345.478958
682.885268	8379.055563
683.223508	8301.353738
683.561697	8253.119978
683.899836	8224.191317
684.237925	8139.164695
684.575963	8114.342054
684.913951	8031.510855
685.251889	8045.167341
685.589776	8044.582567
685.927614	8022.832509
686.265401	8044.277577
686.603137	8053.850728
686.940824	8125.286399
687.278460	8176.607866
687.616046	8185.427364
687.953582	8299.957338
688.291068	8279.737270
688.628504	8336.732556
688.965889	8339.963935
689.303224	8307.584604
689.640510	8263.668592
689.977745	8150.837487
690.314930	8031.793160
690.652065	7960.231460
690.989150	7839.095054
691.326185	7683.318359
691.663170	7577.151659
692.000105	7452.463760
692.336990	7337.588466
692.673825	7263.758248
693.010610	7169.735687
693.347345	7075.035092
693.684030	6967.235058
694.020665	6915.830412
694.357251	6803.664739
694.693786	6787.953983
695.030272	6752.189517
695.366707	6653.919785
695.703093	6602.225273
696.039429	6603.246106
696.375716	6552.950514
696.711952	6544.284771
697.048139	6515.835019
697.384276	6477.744061
697.720363	6508.411920
698.056400	6476.803885
698.392388	6445.400017
698.728326	6440.638648
699.064214	6412.667806
699.400053	6412.745943
699.735842	6354.397108
700.071581	6311.106200
700.407270	6260.397233
700.742910	6232.524693
701.078501	6188.331418
701.414042	6148.380274
701.749533	6097.845227
702.084974	6038.165527
702.420366	6072.664664
702.755709	6002.075907
703.091002	5950.993895
703.426246	5958.989165
703.761440	5937.581905
704.096584	5890.736983
704.431679	5878.804572
704.766725	5867.023396
705.101721	5851.746179
705.436668	5870.179158
705.771565	5813.151105
706.106413	5875.893306
706.441212	5867.764445
706.775961	5889.154061
707.110661	5899.009517
707.445311	5952.556653
707.779913	5920.038690
708.114465	5963.858920
708.448967	6008.029510
708.783421	6118.612261
709.117825	6163.798643
709.452180	6198.078489
709.786485	6260.525782
710.120742	6393.032511
710.454949	6397.017543
710.789107	6471.326672
711.123216	6600.864161
711.457275	6622.382326
711.791286	6727.767647
712.125247	6746.820688
712.459159	6715.116872
712.793023	6845.181162
713.126837	6670.517784
713.460602	6733.262505
713.794318	6693.618871
714.127985	6643.159442
714.461602	6493.240567
714.795171	6492.340722
715.128691	6327.643705
715.462162	6239.058029
715.795584	6167.125805
716.128957	6124.757427
716.462281	6059.928189
716.795556	6019.684658
717.128782	5932.485299
717.461960	5836.882337
717.795088	5827.498229
718.128167	5750.519810
718.461198	5667.058467
718.794180	5646.914016
719.127113	5588.272794
719.459997	5559.570984
719.792833	5493.357949
720.125619	5486.176825
720.458357	5425.748514
720.791046	5397.888577
721.123686	5368.566706
721.456278	5330.742929
721.788821	5321.308409
722.121315	5279.978510
722.453761	5288.341784
722.786158	5267.902426
723.118506	5273.808137
723.450805	5251.112863
723.783056	5276.749651
724.115259	5259.292135
724.447412	5246.391822
724.779518	5289.965035
725.111574	5297.282270
725.443582	5329.976673
725.775542	5323.087937
726.107453	5404.212705
726.439315	5375.536101
726.771129	5446.956648
727.102895	5510.881000
727.434612	5554.718874
727.766281	5583.879428
728.097901	5640.839425
728.429473	5659.058155
728.760996	5670.622562
729.092471	5685.433472
729.423897	5674.499210
729.755276	5647.755888
730.086606	5664.411861
730.417887	5751.195324
730.749120	5841.124468
731.080305	5879.553183
731.411442	5952.486077
731.742530	5969.414271
732.073570	5993.102653
732.404562	6064.886163
732.735506	6061.067489
733.066401	6036.512029
733.397249	5969.046267
733.728048	5874.474221
734.058798	5733.997428
734.389501	5604.772490
734.720156	5518.162947
735.050762	5411.860135
735.381320	5338.050081
735.711831	5281.387512
736.042293	5202.006983
736.372707	5200.454308
736.703073	5152.800280
737.033391	5186.202966
737.363661	5168.967261
737.693883	5182.200290
738.024056	5206.972520
738.354182	5236.206171
738.684260	5282.289879
739.014290	5318.823121
739.344272	5355.235375
739.674207	5413.591772
740.004093	5443.730310
740.333931	5450.929078
740.663722	5471.973374
740.993464	5476.946473
741.323159	5457.739677
741.652806	5413.584210
741.982405	5386.505652
742.311956	5337.273744
742.641460	5328.403833
742.970915	5269.233290
743.300323	5204.386408
743.629683	5180.624929
743.958996	5127.445797
744.288260	5076.900668
744.617477	5011.506820
744.946647	4998.838401
745.275768	4945.709680
745.604842	4915.901338
745.933869	4884.361359
746.262847	4868.567424
746.591778	4861.338409
746.920662	4829.385055
747.249498	4830.410930
747.578286	4847.979351
747.907027	4870.510788
748.235720	4916.097943
748.564365	4924.531793
748.892963	4908.896654
749.221514	4928.693266
749.550017	4901.929780
749.878473	4902.895161
750.206881	4858.512842
750.535242	4847.409701
750.863555	4834.816899
751.191821	4813.525585
751.520039	4815.446265
751.848210	4798.717196
752.176334	4802.603926
752.504411	4790.633706
752.832440	4750.677520
753.160421	4768.434985
753.488356	4747.816666
753.816243	4726.472420
754.144082	4694.622410
754.471875	4683.100853
754.799620	4670.724820
755.127318	4665.945807
755.454969	4659.223428
755.782572	4653.537006
756.110129	4656.173530
756.437638	4639.331035
756.765100	4636.543277
757.092515	4638.705932
757.419882	4642.244822
757.747203	4637.488493
758.074477	4649.060462
758.401703	4641.103000
758.728882	4673.469729
759.056014	4684.275442
759.383099	4706.297722
759.710138	4730.936362
760.037129	4754.904528
760.364073	4768.608905
760.690970	4764.906177
761.017820	4761.437863
761.344623	4800.252227
761.671379	4860.889746
761.998088	4951.459116
762.324751	5180.604764
762.651366	5639.737933
762.977935	6335.341547
763.304456	6893.064561
763.630931	7206.218518
763.957359	7136.010368
764.283740	6848.261307
764.610074	6526.146699
764.936362	6123.844978
765.262602	5803.164579
765.588796	5458.589111
765.914943	5203.693249
766.241044	4977.259742
766.567097	4803.425634
766.893104	4654.378879
767.219064	4556.081420
767.544978	4455.349084
767.870845	4377.997619
768.196665	4327.633972
768.522438	4276.284779
768.848165	4239.595261
769.173846	4196.931976
769.499479	4171.068336
769.825066	4134.502327
770.150607	4093.537911
770.476101	4077.103749
770.801548	4056.568609
771.126949	4029.815206
771.452303	4008.234026
771.777611	3967.660299
772.102872	3966.276502
772.428087	3941.264818
772.753256	3912.966301
773.078378	3896.403590
773.403453	3862.368239
773.728482	3836.116431
774.053465	3828.050585
774.378401	3802.991009
774.703291	3782.937299
775.028135	3759.228752
775.352932	3750.595776
775.677683	3729.130543
776.002388	3712.414077
776.327046	3710.536247
776.651658	3691.931869
776.976224	3673.322450
777.300743	3670.847243
777.625216	3655.323010
777.949643	3643.839261
778.274024	3646.132986
778.598359	3632.305101
778.922647	3629.628249
779.246889	3621.217083
779.571086	3621.819501
779.895236	3620.055098
780.219339	3621.159110
780.543397	3623.835963
780.867409	3635.985144
781.191374	3634.656800
781.515294	3625.736478
781.839167	3645.807832
782.162995	3642.470588
782.486776	3634.009011
782.810511	3627.263947
783.134201	3610.945732
783.457844	3609.801391
783.781441	3602.106069
784.104993	3594.980398
784.428498	3591.076025
784.751958	3586.246599
785.075372	3579.620002
785.398739	3569.643559
785.722061	3577.515321
786.045337	3576.587748
786.368568	3602.426182
786.691752	3599.923250
787.014891	3645.616268
787.337983	3690.716951
787.661030	3779.786578
787.984031	3874.585476
788.306987	3949.439049
788.629897	4000.200947
788.952760	4011.021784
789.275579	3987.734174
789.598351	3940.806073
789.921078	3887.644585
790.243759	3825.834997
790.566395	3782.171043
790.888984	3728.656675
791.211529	3695.256510
791.534027	3652.474758
791.856480	3610.050928
792.178888	3592.185078
792.501249	3573.323601
792.823566	3541.889487
793.145836	3539.709187
793.468062	3527.703680
793.790241	3513.038963
794.112375	3517.419726
794.434464	3539.671379
794.756507	3536.994526
795.078505	3556.176117
795.400457	3595.769339
795.722364	3646.075013
796.044226	3695.914381
796.366042	3738.829723
796.687812	3731.855287
797.009538	3762.646655
797.331218	3745.852051
797.652852	3741.367944
797.974442	3719.862382
798.295986	3712.172102
798.617484	3678.547606
798.938938	3657.581447
799.260346	3644.426556
799.581709	3608.558746
799.903026	3596.349072
800.224299	3578.188315
800.545526	3544.654559
800.866708	3526.695449
801.187845	3512.597862
801.508936	3491.336796
801.829983	3484.314468
802.150984	3452.963533
802.471940	3446.732667
802.792851	3436.604988
803.113717	3429.272630
803.434538	3422.330961
803.755314	3412.866195
804.076045	3406.915113
804.396731	3397.364647
804.717372	3396.996643
805.037967	3392.827608
805.358518	3395.655696
805.679024	3407.928385
805.999485	3406.602561
806.319901	3410.388468
806.640272	3412.984662
806.960598	3426.878082
807.280879	3429.302877
807.601115	3435.165739
807.921306	3429.164245
808.241453	3434.522992
808.561554	3440.378292
808.881611	3434.306222
809.201623	3435.281686
809.521590	3426.946138
809.841513	3427.450253
810.161390	3433.865121
810.481223	3409.128179
810.801011	3412.921648
811.120755	3408.137593
811.440453	3396.893299
811.760107	3387.534397
812.079716	3383.322513
812.399281	3370.046634
812.718801	3369.897920
813.038276	3361.887527
813.357707	3356.831249
813.677093	3364.627394
813.996434	3346.443952
814.315731	3355.568440
814.634983	3354.141794
814.954191	3353.700693
815.273354	3372.388250
815.592473	3381.353942
815.911547	3404.432345
816.230577	3416.684869
816.549562	3443.009774
816.868502	3461.225984
817.187399	3480.478150
817.506250	3508.711132
817.825058	3517.500384
818.143821	3566.008887
818.462539	3609.405660
818.781213	3663.275430
819.099843	3749.007813
819.418429	3900.151687
819.736970	4053.145666
820.055466	4243.204727
820.373919	4480.292713
820.692327	4818.740659
821.010691	5331.168906
821.329011	6415.969761
821.647286	8153.204309
821.965517	10335.648358
822.283704	11961.062552
822.601847	13058.887228
822.919945	12648.060916
823.237999	11965.713016
823.556010	11068.879144
823.873976	10109.897927
824.191897	9133.882652
824.509775	8365.673820
824.827609	7554.673154
825.145398	7006.223342
825.463144	6625.863243
825.780845	6492.002964
826.098502	6548.428599
826.416116	6930.283400
826.733685	7440.191071
827.051210	7735.764003
827.368692	7636.370093
827.686129	7194.291148
828.003522	6642.005018
828.320872	6074.484520
828.638177	5609.536381
828.955439	5238.822530
829.272656	4903.706787
829.589830	4616.865133
829.906960	4352.542313
830.224046	4142.379130
830.541088	3967.405721
830.858086	3854.579657
831.175041	3756.408227
831.491952	3711.506669
831.808819	3695.392621
832.125642	3730.111048
832.442421	3832.746419
832.759157	4049.483267
833.075849	4424.124177
833.392497	4889.803284
833.709101	5286.282472
834.025662	5394.536210
834.342179	5271.607674
834.658653	4997.207588
834.975083	4728.163727
835.291469	4480.638032
835.607811	4252.709823
835.924110	4094.276440
836.240366	3935.694343
836.556578	3773.286010
836.872746	3635.690236
837.188871	3522.584388
837.504952	3426.620983
837.820990	3350.857482
838.136984	3297.101138
838.452935	3264.409255
838.768842	3251.652616
839.084706	3286.229890
839.400526	3418.708892
839.716303	3644.708860
840.032037	3856.989328
840.347727	3920.714554
840.663373	3833.613498
840.978977	3686.111857
841.294537	3552.871640
841.610054	3445.235444
841.925527	3370.891028
842.240957	3302.679175
842.556344	3241.582911
842.871687	3179.422963
843.186987	3120.993470
843.502244	3067.461457
843.817458	3028.717669
844.132629	2997.578462
844.447756	2973.312868
844.762840	2953.170938
845.077881	2937.306426
845.392879	2918.664239
845.707833	2910.822725
846.022745	2899.472567
846.337613	2895.951321
846.652438	2889.188613
846.967221	2881.664691
847.281960	2873.863505
847.596656	2870.400233
847.911309	2865.071733
848.225919	2857.643593
848.540485	2854.848273
848.855009	2852.191585
849.169490	2849.164372
849.483928	2846.522807
849.798323	2842.389061
850.112675	2840.430573
850.426984	2838.018381
850.741251	2837.146261
851.055474	2834.749192
851.369654	2833.133503
851.683792	2835.487722
851.997887	2835.754903
852.311938	2836.059892
852.625947	2834.991168
852.939914	2834.267762
853.253837	2832.752896
853.567718	2832.667196
853.881555	2833.872032
854.195350	2833.579645
854.509103	2833.325067
854.822812	2833.186435
855.136479	2830.449088
855.450103	2833.062927
855.763685	2829.599654
856.077224	2827.532781
856.390720	2832.490756
856.704173	2834.648369
857.017584	2835.616271
857.330953	2837.857064
857.644278	2838.588031
857.957561	2843.850996
858.270802	2843.049452
858.584000	2842.449555
858.897155	2843.460306
859.210268	2838.504852
859.523339	2836.296827
859.836367	2836.354800
860.149352	2838.512414
860.462295	2834.373627
860.775195	2830.761640
861.088054	2829.982782
861.400869	2829.486228
861.713642	2828.036896
862.026373	2830.386074
862.339062	2832.997392
862.651708	2837.340346
862.964312	2837.859584
863.276873	2842.144565
863.589392	2849.665967
863.901869	2854.807944
864.214303	2863.559387
864.526696	2870.722866
864.839045	2876.253012
865.151353	2881.084958
865.463619	2886.020248
865.775842	2887.852707
866.088023	2891.568038
866.400162	2891.290774
866.712258	2892.480486
867.024313	2896.725138
867.336325	2898.343348
867.648296	2899.911147
867.960224	2898.487021
868.272110	2902.426683
868.583954	2901.857033
868.895755	2906.159657
869.207515	2902.577918
869.519233	2907.861047
869.830909	2908.924730
870.142542	2918.018972
870.454134	2917.910587
870.765684	2920.728592
871.077191	2931.264603
871.388657	2935.025304
871.700081	2939.375820
872.011463	2946.773713
872.322803	2953.483489
872.634101	2957.856690
872.945357	2962.819706
873.256571	2973.370841
873.567744	2981.025833
873.878874	2985.089003
874.189963	2992.091166
874.501010	2995.826661
874.812015	2994.745333
875.122979	3002.838906
875.433900	3003.821931
875.744780	3008.898373
876.055618	3015.557737
876.366415	3016.641585
876.677169	3019.058818
876.987882	3027.404448
877.298554	3037.121272
877.609183	3051.478479
877.919771	3068.179821
878.230317	3090.076073
878.540822	3131.640387
878.851285	3178.258457
879.161707	3246.450145
879.472087	3358.094058
879.782425	3513.623737
880.092722	3790.821663
880.402977	4218.180440
880.713191	4765.435498
881.023363	5367.440008
881.333494	5810.383512
881.643583	6097.807419
881.953631	6172.842473
882.263637	6117.167970
882.573602	5977.722093
882.883526	5812.783101
883.193408	5608.621411
883.503248	5391.637547
883.813048	5175.364485
884.122806	4950.123211
884.432522	4708.276375
884.742197	4481.517714
885.051831	4269.885034
885.361424	4071.082091
885.670975	3901.958941
885.980485	3752.949995
886.289954	3630.669247
886.599382	3523.451466
886.908768	3441.386523
887.218113	3361.330479
887.527417	3296.806231
887.836680	3240.763723
888.145901	3190.193388
888.455082	3155.212822
888.764221	3121.454735
889.073319	3090.494489
889.382376	3072.497570
889.691392	3055.362688
890.000366	3046.233158
890.309300	3039.296530
890.618193	3036.523896
890.927044	3033.169008
891.235855	3031.636497
891.544625	3035.291334
891.853353	3039.498177
892.162041	3056.096176
892.470687	3080.026533
892.779293	3114.969291
893.087858	3164.012156
893.396381	3242.588621
893.704864	3348.798171
894.013306	3505.331039
894.321707	3690.936241
894.630068	3844.182277
894.938387	3918.423350
895.246665	3931.825257
895.554903	3871.117162
895.863100	3786.919810
896.171256	3709.759910
896.479371	3632.804176
896.787446	3560.259451
897.095480	3491.563648
897.403473	3433.383691
897.711425	3378.730022
898.019336	3328.585664
898.327207	3273.586676
898.635038	3224.662278
898.942827	3170.719411
899.250576	3129.906230
899.558284	3089.713110
899.865952	3065.545818
900.173579	3036.125645
900.481165	3014.226872
900.788711	2995.304901
901.096216	2979.112715
901.403681	2964.697536
901.711105	2957.266875
902.018489	2952.167748
902.325832	2959.540435
902.633135	2967.172742
902.940397	3009.127745
903.247619	3095.613781
903.554800	3274.108435
903.861941	3550.731670
904.169041	3818.283349
904.476101	3987.020851
904.783121	4007.215713
905.090100	3941.968059
905.397039	3837.311184
905.703938	3730.930235
906.010796	3626.094400
906.317614	3539.825134
906.624391	3454.662402
906.931129	3381.268243
907.237826	3314.387255
907.544483	3250.402409
907.851099	3178.591173
908.157675	3106.827827
908.464211	3031.021476
908.770707	2973.161633
909.077163	2921.988880
909.383578	2887.104096
909.689954	2858.727441
909.996289	2840.607013
910.302584	2829.650065
910.608839	2821.087666
910.915054	2806.848927
911.221229	2804.663586
911.527363	2804.517393
911.833458	2801.051600
912.139513	2806.463278
912.445527	2812.540389
912.751502	2821.639672
913.057436	2839.750017
913.363331	2858.326669
913.669186	2888.618962
913.975000	2926.765374
914.280775	2985.081441
914.586510	3067.766447
914.892205	3180.136287
915.197859	3323.431085
915.503475	3505.832634
915.809050	3683.661856
916.114585	3817.431394
916.420081	3896.282602
916.725536	3927.913322
917.030952	3887.591653
917.336328	3851.151672
917.641665	3803.658962
917.946961	3740.730238
918.252218	3683.334181
918.557435	3606.471708
918.862612	3540.331770
919.167750	3481.393120
919.472848	3406.100967
919.777906	3335.907940
920.082925	3269.357148
920.387904	3194.228832
920.692843	3138.647590
920.997743	3087.893253
921.302603	3036.634801
921.607423	3002.392764
921.912204	2968.430510
922.216946	2942.531582
922.521647	2916.110895
922.826310	2893.140878
923.130932	2873.339225
923.435516	2855.080166
923.740059	2841.721108
924.044564	2824.026658
924.349028	2813.291521
924.653454	2797.071609
924.957840	2784.806481
925.262186	2777.637961
925.566493	2762.312853
925.870761	2751.575195
926.174989	2749.601583
926.479178	2740.245202
926.783328	2733.757237
927.087438	2725.215002
927.391509	2717.121429
927.695541	2711.024154
927.999533	2707.066848
928.303486	2698.612833
928.607400	2699.258101
928.911275	2696.805579
929.215110	2692.306349
929.518906	2687.403827
929.822663	2688.858200
930.126381	2684.028775
930.430060	2686.083045
930.733699	2686.098168
931.037299	2690.128571
931.340861	2688.563293
931.644383	2688.704445
931.947866	2689.362316
932.251309	2689.309383
932.554714	2687.378622
932.858080	2687.814681
933.161407	2687.940710
933.464694	2686.030113
933.767943	2686.171265
934.071153	2682.322344
934.374323	2683.696059
934.677455	2681.540965
934.980548	2680.873012
935.283602	2677.402178
935.586617	2676.134328
935.889593	2679.050635
936.192530	2679.799247
936.495428	2680.489885
936.798287	2683.577592
937.101108	2690.413396
937.403890	2695.391536
937.706632	2702.244984
938.009336	2713.617827
938.312002	2727.682647
938.614628	2739.141189
938.917216	2750.282139
939.219765	2755.298087
939.522275	2765.380395
939.824747	2765.408121
940.127179	2761.975096
940.429573	2763.943666
940.731929	2765.564397
941.034246	2761.891917
941.336524	2762.348141
941.638763	2763.351331
941.940964	2766.370982
942.243126	2759.656165
942.545250	2753.984867
942.847335	2745.369535
943.149381	2740.260325
943.451389	2737.170098
943.753359	2730.800600
944.055290	2727.163408
944.357182	2718.860627
944.659036	2715.034392
944.960851	2713.902652
945.262628	2710.547765
945.564367	2709.111036
945.866067	2707.981817
946.167729	2706.192208
946.469352	2705.856971
946.770937	2705.070551
947.072484	2703.913606
947.373992	2703.974100
947.675462	2700.780529
947.976893	2700.382278
948.278286	2695.933460
948.579641	2696.505631
948.880958	2695.378933
949.182236	2695.383974
949.483476	2693.700228
949.784678	2692.639066
950.085841	2694.252235
950.386967	2695.872966
950.688054	2695.540250
950.989103	2700.253728
951.290114	2700.069726
951.591087	2706.552650
951.892021	2711.525748
952.192917	2717.343240
952.493776	2718.802654
952.794596	2723.029662
953.095378	2724.640310
953.396122	2724.882286
953.696828	2725.862790
953.997496	2724.095866
954.298126	2718.734598
954.598718	2717.597818
954.899272	2711.445090
955.199788	2707.129862
955.500266	2706.184646
955.800706	2696.397246
956.101108	2688.893488
956.401472	2683.529701
956.701798	2678.392765
957.002087	2667.657628
957.302337	2666.510765
957.602550	2661.121772
957.902724	2656.297387
958.202861	2650.656336
958.502960	2645.088382
958.803022	2643.714667
959.103045	2639.991775
959.403031	2634.592700
959.702979	2629.871659
960.002889	2630.322842
960.302762	2624.873355
960.602596	2623.441667
960.902393	2621.442850
961.202153	2620.021244
961.501875	2618.524022
961.801559	2614.498660
962.101205	2616.565533
962.400814	2611.000100
962.700385	2610.135542
962.999918	2610.863988
963.299414	2607.786364
963.598873	2610.463217
963.898293	2606.916765
964.197677	2610.102774
964.497022	2606.475664
964.796331	2609.260902
965.095601	2605.381734
965.394835	2605.943822
965.694030	2604.907865
965.993189	2604.486929
966.292309	2603.680344
966.591393	2603.387957
966.890439	2604.890221
967.189447	2604.141610
967.488419	2602.150354
967.787353	2604.948194
968.086249	2602.508276
968.385108	2603.990375
968.683930	2605.134717
968.982714	2604.655807
969.281462	2604.398709
969.580172	2606.069851
969.878844	2606.808380
970.177480	2610.763165
970.476078	2609.190325
970.774639	2613.402209
971.073162	2611.176540
971.371649	2610.581684
971.670098	2613.492950
971.968510	2613.059411
972.266885	2613.155193
972.565223	2620.253137
972.863524	2617.331789
973.161788	2619.290277
973.460014	2617.921604
973.758204	2620.979064
974.056356	2619.839763
974.354471	2618.065277
974.652550	2621.662140
974.950591	2621.853704
975.248595	2622.120885
975.546563	2619.847325
975.844493	2618.455966
976.142386	2618.690380
976.440243	2618.193826
976.738062	2621.483179
977.035845	2616.152159
977.333590	2615.668208
977.631299	2615.209463
977.928971	2612.925820
978.226606	2612.603187
978.524204	2613.286263
978.821765	2612.827518
979.119290	2611.237034
979.416777	2612.162086
979.714228	2610.430449
980.011642	2611.743670
980.309020	2616.068980
980.606360	2615.199381
980.903664	2618.090482
981.200931	2623.141719
981.498162	2632.578759
981.795356	2645.761376
982.092513	2655.447953
982.389633	2676.756910
982.686717	2694.907585
982.983764	2710.129349
983.280775	2724.857080
983.577749	2730.649366
983.874686	2731.251783
984.171587	2726.011504
984.468451	2721.986143
984.765279	2715.160420
985.062070	2707.071889
985.358824	2698.985878
985.655543	2689.697552
985.952224	2681.828311
986.248869	2669.202741
986.545478	2651.004176
986.842050	2639.971611
987.138586	2630.559777
987.435086	2622.166255
987.731549	2612.577981
988.027975	2610.317023
988.324366	2605.288472
988.620719	2602.236054
988.917037	2598.001484
989.213318	2601.074068
989.509563	2596.078284
989.805772	2596.519385
990.101944	2594.087028
990.398080	2596.416042
990.694180	2595.664910
990.990244	2594.507965
991.286271	2591.188365
991.582262	2592.897316
991.878217	2590.601071
992.174136	2591.425299
992.470019	2591.190886
992.765865	2595.629622
993.061676	2595.465784
993.357450	2597.842688
993.653188	2600.496856
993.948890	2602.931733
994.244556	2604.189501
994.540186	2607.493977
994.835780	2612.421705
995.131337	2621.352109
995.426859	2628.583644
995.722345	2635.777371
996.017795	2647.455204
996.313208	2656.425937
996.608586	2662.379540
996.903928	2667.098060
997.199234	2666.964469
997.494504	2666.566218
997.789738	2666.215858
998.084936	2663.019766
998.380099	2658.155053
998.675225	2652.640030
998.970316	2648.831439
999.265371	2640.795839
999.560390	2634.585138
999.855373	2626.725979
1000.150320	2620.520319
1000.445232	2611.902466
1000.740108	2608.061107
1001.034948	2606.362238
1001.329752	2601.570621
1001.624521	2599.695312
1001.919254	2592.703232
1002.213951	2592.312542
1002.508613	2590.659044
1002.803239	2590.170052
1003.097829	2585.784248
1003.392384	2588.584609
1003.686903	2587.137798
1003.981386	2589.209712
1004.275834	2587.992273
1004.570246	2587.470514
1004.864623	2584.954978
1005.158964	2585.708631
1005.453270	2585.282653
1005.747540	2584.471027
1006.041775	2581.985739
1006.335974	2584.997828
1006.630138	2581.857189
1006.924266	2581.214442
1007.218359	2581.330389
1007.512416	2582.535224
1007.806438	2582.147056
1008.100425	2582.000862
1008.394376	2580.826273
1008.688292	2579.520614
1008.982172	2579.979359
1009.276017	2582.686459
1009.569827	2579.901222
1009.863602	2580.584298
1010.157341	2580.054977
1010.451045	2580.090265
1010.744714	2579.712178
1011.038347	2582.694021
1011.331945	2576.962229
1011.625508	2578.560275
1011.919036	2578.252764
1012.212528	2580.007086
1012.505986	2579.313927
1012.799408	2577.851992
1013.092795	2580.528845
1013.386147	2577.602455
1013.679464	2575.739749
1013.972745	2577.821746
1014.265992	2577.970460
1014.559204	2577.330233
1014.852380	2577.572208
1015.145521	2578.772003
1015.438628	2574.597928
1015.731699	2577.017682
1016.024736	2576.324523
1016.317737	2579.311407
1016.610703	2578.812332
1016.903635	2575.734708
1017.196531	2572.904100
1017.489393	2575.558267
1017.782219	2576.047259
1018.075011	2579.102199
1018.367768	2581.227045
1018.660490	2580.460790
1018.953177	2580.460790
1019.245829	2580.460790
