Dividing Wavelength (nm)	Counts (n)	Blue Motor Position (mm): 32.000000	Red Motor Position (mm): 0.000000	
326.493990	2155.741058
326.888308	2155.741058
327.282561	2155.741058
327.676750	2129.103601
328.070874	2130.620988
328.464933	2136.652728
328.858929	2145.406692
329.252859	2157.185348
329.646726	2170.125990
330.040528	2187.235666
330.434265	2205.857688
330.827938	2222.743033
331.221547	2241.390261
331.615091	2261.232243
332.008571	2283.035233
332.401986	2302.342853
332.795338	2323.006542
333.188625	2343.907166
333.581847	2362.352748
333.975006	2380.901673
334.368100	2398.018911
334.761129	2414.715213
335.154095	2436.253543
335.546996	2458.240535
335.939833	2489.185658
336.332606	2502.448934
336.725315	2513.915038
337.117960	2520.128260
337.510540	2530.139992
337.903056	2539.070396
338.295508	2546.790923
338.687896	2553.674619
339.080220	2562.761298
339.472480	2568.440158
339.864676	2570.204562
340.256807	2577.378124
340.648875	2579.376942
341.040879	2579.145048
341.432818	2579.109760
341.824694	2578.978690
342.216506	2580.707806
342.608253	2579.767631
342.999937	2579.634040
343.391557	2577.355439
343.783113	2579.497929
344.174605	2576.684965
344.566033	2575.311251
344.957397	2573.574573
345.348697	2568.669531
345.739934	2571.699264
346.131106	2567.384037
346.522215	2565.947308
346.913260	2564.354303
347.304241	2563.847667
347.695159	2559.144271
348.086012	2561.599312
348.476802	2556.863148
348.867528	2556.235525
349.258191	2553.049516
349.648789	2552.883157
350.039324	2552.540359
350.429796	2552.699155
350.820203	2552.149670
351.210548	2548.356201
351.600828	2550.143290
351.991045	2550.808723
352.381198	2547.615152
352.771288	2550.975081
353.161314	2548.013403
353.551276	2546.155738
353.941175	2548.157076
354.331010	2550.710420
354.720782	2549.079607
355.110490	2551.459032
355.500135	2549.835780
355.889717	2552.933569
356.279235	2549.218239
356.668689	2550.433157
357.058080	2551.582540
357.447408	2544.900490
357.836672	2548.056253
358.225873	2547.715975
358.615010	2544.179605
359.004084	2552.822664
359.393095	2554.582026
359.782043	2551.554813
360.170927	2551.887530
360.559748	2552.497509
360.948505	2556.419527
361.337199	2554.524053
361.725830	2556.064126
362.114398	2555.509599
362.502903	2556.480021
362.891344	2556.369115
363.279722	2556.732078
363.668037	2560.684343
364.056289	2559.174517
364.444478	2560.626370
364.832603	2558.352809
365.220665	2557.727706
365.608665	2562.237018
365.996601	2559.729044
366.384474	2562.738613
366.772284	2560.674261
367.160031	2560.815413
367.547715	2563.852708
367.935336	2560.825495
368.322893	2564.480332
368.710388	2561.674930
369.097820	2565.339849
369.485189	2561.465722
369.872495	2564.379509
370.259738	2561.790876
370.646918	2561.443037
371.034035	2563.325908
371.421090	2565.294478
371.808081	2563.116700
372.195010	2562.463870
372.581875	2564.800445
372.968678	2566.973182
373.355418	2564.487894
373.742096	2565.649880
374.128710	2565.596947
374.515262	2567.888152
374.901751	2565.004612
375.288177	2564.777760
375.674540	2566.655590
376.060841	2568.563667
376.447079	2569.965107
376.833254	2568.775395
377.219367	2564.409756
377.605417	2565.773388
377.991404	2565.685168
378.377329	2564.467729
378.763191	2565.160888
379.148991	2568.021743
379.534727	2569.198852
379.920402	2571.265725
380.306013	2570.096177
380.691563	2572.697413
381.077049	2570.857392
381.462474	2571.134655
381.847835	2569.892011
382.233134	2571.681620
382.618371	2571.956363
383.003545	2574.187074
383.388657	2570.680951
383.773706	2570.970818
384.158693	2571.994172
384.543618	2570.867474
384.928480	2574.113977
385.313280	2573.395612
385.698017	2573.816549
386.082692	2574.086251
386.467305	2572.969635
386.851856	2577.045408
387.236344	2575.724626
387.620770	2576.213617
388.005133	2575.437280
388.389435	2574.915520
388.773674	2576.127918
389.157851	2574.476940
389.541965	2575.863257
389.926018	2576.387537
390.310008	2576.808474
390.693936	2579.792837
391.077802	2579.739905
391.461606	2578.918197
391.845348	2579.576067
392.229027	2577.670511
392.612645	2578.111612
392.996200	2579.114802
393.379694	2579.828125
393.763125	2580.415419
394.146494	2579.084555
394.529801	2580.211253
394.913047	2581.733681
395.296230	2578.915676
395.679351	2577.925089
396.062410	2581.058166
396.445408	2578.983732
396.828343	2582.212591
397.211217	2579.447518
397.594028	2576.652198
397.976778	2578.746797
398.359466	2579.702096
398.742092	2576.364852
399.124656	2581.647981
399.507158	2580.521283
399.889598	2582.010944
400.271977	2585.325503
400.654294	2582.535224
401.036549	2584.523960
401.418742	2585.605287
401.800874	2585.204515
402.182944	2583.636717
402.564952	2588.062850
402.946898	2586.923549
403.328783	2585.685946
403.710606	2584.899526
404.092367	2583.477920
404.474067	2584.307190
404.855705	2584.949937
405.237282	2588.191399
405.618797	2585.756522
406.000250	2587.616707
406.381642	2586.144691
406.762972	2587.541090
407.144240	2590.664085
407.525447	2589.189547
407.906593	2588.887078
408.287677	2591.470670
408.668700	2589.421441
409.049661	2590.429671
409.430560	2588.846749
409.811399	2592.244487
410.192176	2589.981009
410.572891	2590.709455
410.953545	2594.674323
411.334138	2591.445464
411.714669	2595.732965
412.095139	2594.563417
412.475547	2592.834302
412.855894	2591.624425
413.236180	2593.073757
413.616405	2595.891762
413.996568	2593.782039
414.376670	2597.031062
414.756711	2596.244642
415.136691	2595.216247
415.516609	2597.759509
415.896466	2598.361927
416.276262	2599.173553
416.655997	2593.552666
417.035670	2595.579210
417.415283	2598.533326
417.794834	2596.463933
418.174324	2599.027359
418.553753	2600.141454
418.933121	2606.329471
419.312428	2604.885180
419.691674	2606.747886
420.070859	2606.344594
420.449983	2610.122939
420.829045	2612.131839
421.208047	2615.547220
421.586988	2617.062087
421.965867	2621.261368
422.344686	2623.088787
422.723444	2629.959879
423.102141	2629.178500
423.480777	2636.798204
423.859352	2641.370531
424.237866	2650.376552
424.616319	2654.343940
424.994712	2661.257883
425.373044	2667.108142
425.751314	2676.308248
426.129524	2680.686490
426.507673	2694.521937
426.885762	2701.181301
427.263789	2711.147662
427.641756	2717.237376
428.019662	2730.664489
428.397508	2741.540778
428.775292	2756.296236
429.153016	2765.778646
429.530679	2779.155348
429.908282	2791.889302
430.285824	2801.550674
430.663305	2824.992039
431.040726	2833.332628
431.418086	2841.554750
431.795385	2870.606920
432.172624	2888.941596
432.549802	2899.006260
432.926920	2920.655495
433.303977	2934.899275
433.680974	2960.468008
434.057910	2980.456183
434.434786	3002.874194
434.811601	3016.374404
435.188355	3063.670509
435.565050	3078.655339
435.941683	3096.206116
436.318257	3137.898979
436.694770	3161.650375
437.071222	3200.709235
437.447614	3204.855584
437.823946	3227.692011
438.200218	3255.549427
438.576429	3274.693209
438.952580	3307.422901
439.328670	3332.646314
439.704700	3377.227758
440.080670	3386.821074
440.456580	3432.693053
440.832429	3473.186121
441.208218	3456.527628
441.583947	3502.878517
441.959616	3537.811193
442.335224	3575.143458
442.710773	3613.115949
443.086261	3665.029752
443.461689	3669.551667
443.837057	3700.224567
444.212365	3764.975668
444.587612	3796.051861
444.962800	3800.346924
445.337927	3856.578474
445.712995	3813.854695
446.088002	3953.466931
446.462949	3997.788755
446.837837	4039.111093
447.212664	4056.747570
447.587431	4240.495107
447.962139	4465.920384
448.336786	4725.512080
448.711374	4746.810955
449.085901	4527.853479
449.460369	4512.203217
449.834776	4498.944982
450.209124	4710.577662
450.583412	4741.505141
450.957640	4862.986866
451.331808	4780.511069
451.705917	4694.808933
452.079965	4707.532805
452.453954	4769.279378
452.827883	4765.647227
453.201752	4793.456752
453.575562	4841.730841
453.949311	4975.616326
454.323001	5006.334597
454.696632	5019.958315
455.070202	5175.830792
455.443713	5221.145724
455.817164	5324.416281
456.190556	5404.394187
456.563888	5399.453856
456.937160	5488.568853
457.310373	5370.580647
457.683526	5439.190751
458.056619	5449.787256
458.429653	5453.134582
458.802628	5510.984343
459.175542	5556.813473
459.548398	5702.999373
459.921194	5886.701540
460.293930	5954.293330
460.666607	6203.694335
461.039224	6416.874648
461.411782	6549.222581
461.784280	6485.464588
462.156719	6504.197515
462.529099	6482.384443
462.901419	6355.808631
463.273680	6244.709162
463.645882	6239.337813
464.018024	6254.889772
464.390106	6332.836093
464.762130	6590.872594
465.134094	6972.009031
465.505999	7600.000689
465.877845	8294.812841
466.249631	8643.199422
466.621358	8580.195081
466.993026	8404.402484
467.364634	8197.624436
467.736184	7922.773167
468.107674	7778.868389
468.479105	7702.746966
468.850477	7639.790516
469.221790	7475.738767
469.593043	7259.127948
469.964238	7165.773340
470.335373	7137.069010
470.706449	7299.074051
471.077467	7488.636559
471.448425	8154.061305
471.819324	8730.282834
472.190164	8759.982792
472.560945	8278.776931
472.931667	7816.102351
473.302330	7625.637477
473.672934	7503.727253
474.043479	7591.367713
474.413965	7493.052610
474.784393	7443.951771
475.154761	7596.106397
475.525070	7611.701207
475.895321	7567.089516
476.265513	7659.592168
476.635645	7830.411666
477.005719	7822.421438
477.375734	7907.775734
477.745691	8013.854214
478.115588	8220.158394
478.485427	8451.358312
478.855207	8930.242722
479.224928	9356.701652
479.594591	9742.201207
479.964194	9746.224048
480.333739	9835.817954
480.703226	9840.566721
481.072653	9938.808728
481.442022	10055.508918
481.811333	10207.940808
482.180584	10041.832268
482.549777	9985.787240
482.918912	9921.462117
483.287988	9913.449203
483.657005	9817.606786
484.025964	9736.809693
484.394864	9802.253952
484.763706	9752.580943
485.132489	9674.415332
485.501213	9663.798662
485.869879	9715.130211
486.238487	9656.451180
486.607036	9736.408921
486.975527	9685.268936
487.343959	9736.171987
487.712333	9784.652763
488.080648	9832.906688
488.448905	9928.860010
488.817104	9934.891751
489.185244	10103.483059
489.553326	10321.422222
489.921350	10785.740218
490.289315	11414.329252
490.657222	11710.542411
491.025070	11875.430992
491.392861	11791.289093
491.760593	11635.025927
492.128267	11385.229192
492.495883	11148.201700
492.863440	10914.687892
493.230939	10686.444610
493.598380	10506.031797
493.965763	10480.412653
494.333088	10352.682417
494.700354	10291.366863
495.067563	10263.731258
495.434713	10264.515157
495.801805	10304.708277
496.168839	10259.254713
496.535815	10226.948478
496.902733	10279.948649
497.269593	10238.893492
497.636395	10246.404812
498.003139	10357.960505
498.369825	10288.425350
498.736453	10374.412311
499.103023	10322.906842
499.469535	10328.419344
499.835989	10369.910560
500.202385	10347.169915
500.568723	10362.522749
500.935003	10431.203429
501.301226	10399.950796
501.667390	10558.714375
502.033497	10662.766311
502.399546	10587.020454
502.765537	10493.920424
503.131470	10598.216856
503.497345	10692.990549
503.863163	10464.147370
504.228923	10600.845818
504.594625	10715.305216
504.960269	10631.669953
505.325856	10780.018508
505.691385	10657.475620
506.056856	10724.157482
506.422270	10820.713223
506.787625	10765.315983
507.152924	10810.116717
507.518164	10874.966120
507.883347	10737.183824
508.248472	10817.096195
508.613540	10917.097563
508.978550	11006.777170
509.343503	10978.534105
509.708398	11026.283915
510.073236	11163.340285
510.438016	11173.619197
510.802738	11081.287944
511.167403	11215.692668
511.532010	11270.225349
511.896561	11369.455422
512.261053	11563.769217
512.625488	11484.708801
512.989866	11477.396608
513.354186	11448.964500
513.718449	11463.384721
514.082655	11602.636513
514.446803	11561.122611
514.810894	11670.538335
515.174927	11668.095896
515.538904	11652.778350
515.902822	11802.911473
516.266684	11681.162567
516.630488	11774.595312
516.994235	11767.225145
517.357925	11878.778318
517.721558	11941.520519
518.085133	12008.527536
518.448651	12040.364943
518.812112	11993.383910
519.175516	12013.941735
519.538863	12100.274015
519.902152	12109.612753
520.265385	12211.963299
520.628560	12245.111406
520.991678	12180.788804
521.354739	12235.916342
521.717743	12309.978453
522.080690	12277.687342
522.443580	12416.833271
522.806413	12433.665684
523.169189	12431.601331
523.531908	12484.848519
523.894569	12445.819906
524.257174	12465.840848
524.619722	12571.132908
524.982213	12547.462170
525.344647	12537.170654
525.707025	12542.756253
526.069345	12645.187458
526.431608	12623.611319
526.793815	12702.613762
527.155964	12598.715581
527.518057	12635.742856
527.880093	12600.928648
528.242072	12712.519629
528.603995	12633.943164
528.965860	12646.651913
529.327669	12672.263495
529.689421	12623.833130
530.051117	12631.117598
530.412755	12670.057990
530.774337	12677.445801
531.135862	12630.542906
531.497331	12693.408615
531.858743	12652.877738
532.220098	12742.680853
532.581396	12674.458918
532.942638	12607.464504
533.303824	12662.085406
533.664953	12638.550779
534.026025	12596.757093
534.387040	12696.937423
534.747999	12667.434070
535.108902	12714.251266
535.469748	12594.775919
535.830537	12619.071760
536.191270	12668.999348
536.551947	12589.238212
536.912567	12647.513950
537.273131	12686.671113
537.633638	12562.941033
537.994089	12622.351031
538.354483	12542.105944
538.714821	12667.008092
539.075103	12744.979619
539.435328	12678.023013
539.795497	12657.538285
540.155609	12656.605671
540.515665	12756.685178
540.875665	12608.467693
541.235609	12710.117519
541.595496	12672.432374
541.955328	12850.606915
542.315102	12704.657950
542.674821	12642.248465
543.034483	12653.094508
543.394090	12654.664827
543.753640	12625.269859
544.113134	12878.139177
544.472571	12625.647946
544.831953	12911.115885
545.191278	12723.279972
545.550548	12664.389213
545.909761	12767.662291
546.268918	12816.211123
546.628019	12883.412224
546.987064	12766.119698
547.346053	12606.184051
547.704986	12812.644506
548.063863	12691.515662
548.422684	12749.325093
548.781449	12708.370760
549.140158	12799.812249
549.498811	12757.325405
549.857408	12626.585600
550.215949	12830.220489
550.574434	12799.139255
550.932864	12738.153897
551.291237	12939.401799
551.649555	12829.434069
552.007817	12888.377761
552.366022	12807.595791
552.724173	12843.829084
553.082267	12941.236779
553.440305	13029.845140
553.798288	12843.365298
554.156215	12912.212336
554.514086	12962.838123
554.871902	12913.061770
555.229661	12926.892176
555.587365	12887.966907
555.945014	12905.434505
556.302606	12888.786094
556.660143	12945.887244
557.017625	12979.022748
557.375050	12928.402002
557.732421	13039.471224
558.089735	13025.066127
558.446994	13004.803209
558.804197	13117.261269
559.161345	13110.463273
559.518437	12921.205754
559.875474	13025.108976
560.232455	13053.089901
560.589381	13095.730501
560.946251	13036.562478
561.303065	13206.628323
561.659825	13159.554029
562.016528	13087.780601
562.373177	13018.023635
562.729770	13143.324034
563.086307	13035.274463
563.442789	13145.227070
563.799216	13186.030169
564.155587	13125.969862
564.511904	13141.605001
564.868164	13155.503462
565.224370	13219.964696
565.580520	13155.989933
565.936615	13216.486300
566.292654	13164.083506
566.648638	13225.951066
567.004567	13232.585225
567.360441	13232.963311
567.716260	13203.654043
568.072023	13284.594809
568.427732	13276.866720
568.783385	13169.611131
569.138982	13287.306950
569.494525	13278.835291
569.850013	13234.218558
570.205445	13213.877503
570.560823	13235.420874
570.916145	13186.022607
571.271412	13195.547867
571.626625	13150.527843
571.981782	13148.791165
572.336884	13093.472064
572.691931	13186.486393
573.046923	13070.192015
573.401860	13047.894992
573.756743	13049.263665
574.111570	13075.386924
574.466342	13056.038976
574.821059	13096.703443
575.175722	12975.141059
575.530330	12994.662928
575.884882	12926.919902
576.239380	12923.718770
576.593823	12918.546546
576.948211	12906.336871
577.302544	12781.283488
577.656823	12799.106488
578.011047	12862.468750
578.365216	12800.623875
578.719330	12732.303637
579.073389	12698.091847
579.427394	12719.783932
579.781344	12710.329248
580.135239	12651.045279
580.489080	12667.986076
580.842866	12543.794731
581.196597	12644.181748
581.550273	12630.311013
581.903895	12596.147113
582.257463	12703.251468
582.610975	12545.206254
582.964434	12613.816357
583.317837	12526.102801
583.671186	12488.528561
584.024481	12536.152341
584.377721	12424.342070
584.730906	12504.173782
585.084037	12507.891633
585.437113	12431.248450
585.790135	12455.738376
586.143103	12368.705375
586.496016	12385.169784
586.848874	12385.469732
587.201679	12393.349056
587.554428	12268.368770
587.907124	12311.876448
588.259765	12255.518868
588.612352	12325.474960
588.964884	12181.325687
589.317362	12234.076321
589.669786	12224.445196
590.022155	12191.448324
590.374470	12285.675051
590.726731	12178.520285
591.078937	12058.089640
591.431090	12082.612333
591.783188	12011.017866
592.135232	11940.224942
592.487222	11997.817604
592.839157	12011.209430
593.191038	11943.426075
593.542866	11885.437682
593.894639	11735.695248
594.246358	11799.468365
594.598022	11799.455762
594.949633	11708.314221
595.301190	11697.611852
595.652692	11650.310705
596.004141	11744.008111
596.355535	11522.116683
596.706876	11503.313180
597.058162	11470.059208
597.409395	11567.814743
597.760573	11592.833990
598.111698	11485.999337
598.462768	11485.069244
598.813785	11494.501243
599.164748	11366.869310
599.515657	11442.789087
599.866511	11317.665128
600.217312	11447.283275
600.568060	11217.852802
600.918753	11375.913140
601.269392	11378.723583
601.619978	11278.074426
601.970510	11327.399596
602.320988	11366.571882
602.671412	11438.158787
603.021783	11360.875378
603.372100	11291.572115
603.722363	11304.366564
604.072572	11305.868827
604.422728	11309.952162
604.772830	11259.127249
605.122878	11266.762077
605.472872	11241.732748
605.822813	11301.112499
606.172701	11247.696433
606.522534	11290.662187
606.872314	11342.886020
607.222041	11273.703745
607.571714	11354.717608
607.921333	11223.819007
608.270899	11277.524940
608.620411	11340.239414
608.969870	11290.929368
609.319276	11268.672674
609.668627	11280.713470
610.017926	11364.830163
610.367171	11391.976776
610.716362	11384.289017
611.065500	11357.747342
611.414585	11371.880217
611.763616	11436.893457
612.112594	11399.208312
612.461518	11428.260481
612.810389	11474.888634
613.159207	11418.982237
613.507971	11405.824826
613.856682	11512.861125
614.205340	11468.584671
614.553945	11606.669436
614.902496	11484.802063
615.250994	11547.662731
615.599439	11541.535208
615.947830	11576.304046
616.296169	11535.223683
616.644454	11547.370344
616.992686	11569.740464
617.340864	11652.617033
617.688990	11550.374871
618.037063	11680.628204
618.385082	11646.945735
618.733048	11695.239989
619.080961	11683.662979
619.428821	11664.433498
619.776628	11676.943121
620.124382	11609.333686
620.472083	11634.630196
620.819731	11652.826241
621.167326	11573.337327
621.514868	11556.474668
621.862357	11462.749535
622.209793	11443.550301
622.557176	11365.800585
622.904506	11314.831999
623.251783	11235.075904
623.599007	11182.549602
623.946179	11129.952723
624.293297	11106.269382
624.640363	10967.574637
624.987376	10957.315889
625.334336	10896.232228
625.681243	10808.543877
626.028097	10782.801225
626.374899	10736.243649
626.721647	10709.149967
627.068343	10675.207878
627.414987	10610.209761
627.761577	10545.869515
628.108115	10596.404562
628.454600	10471.641045
628.801032	10490.578139
629.147412	10470.993257
629.493739	10440.491755
629.840014	10363.823367
630.186236	10404.495396
630.532405	10302.389346
630.878521	10338.990643
631.224585	10294.636051
631.570597	10217.486233
631.916556	10224.609383
632.262462	10206.995592
632.608316	10182.785450
632.954117	10160.085134
633.299866	10141.548812
633.645562	10126.140525
633.991206	10019.552889
634.336797	9916.249564
634.682336	9910.036342
635.027823	9848.715747
635.373257	9822.413526
635.718639	9760.586295
636.063968	9722.906191
636.409245	9609.049210
636.754470	9599.276934
637.099642	9541.185197
637.444762	9442.489487
637.789829	9449.794119
638.134845	9373.375268
638.479808	9353.714768
638.824719	9330.114606
639.169577	9234.753620
639.514383	9245.332481
639.859137	9171.779526
640.203839	9211.183705
640.548489	9129.779153
640.893086	9134.134709
641.237632	9062.086539
641.582125	9063.026714
641.926566	9051.845435
642.270955	9039.076192
642.615292	9032.505048
642.959576	9014.490485
643.303809	8994.714038
643.647990	9014.966874
643.992118	8987.190116
644.336195	8979.890525
644.680219	8973.226120
645.024192	8999.553546
645.368112	9070.923681
645.711981	9056.281650
646.055797	9192.322228
646.399562	9162.365171
646.743274	9318.870313
647.086935	9386.474706
647.430544	9355.985808
647.774101	9384.564109
648.117606	9407.559332
648.461059	9476.998706
648.804460	9401.585565
649.147810	9283.473851
649.491108	9253.191640
649.834354	9184.289149
650.177548	9041.382520
650.520690	8953.769787
650.863781	8950.200650
651.206820	8920.110002
651.549807	8826.745312
651.892742	8739.734997
652.235626	8695.067853
652.578458	8658.683326
652.921238	8556.289929
653.263967	8589.432995
653.606644	8524.777677
653.949269	8506.599276
654.291843	8425.265300
654.634365	8492.970516
654.976836	8418.298425
655.319255	8405.829131
655.661622	8391.905464
656.003938	8351.684618
656.346203	8320.729413
656.688416	8354.681584
657.030577	8313.487795
657.372687	8278.217363
657.714746	8312.030902
658.056753	8324.974064
658.398708	8227.931853
658.740612	8213.095737
659.082465	8265.831248
659.424266	8218.051191
659.766016	8235.783450
660.107715	8202.698357
660.449362	8225.905309
660.790958	8212.168165
661.132503	8214.688742
661.473996	8217.090852
661.815438	8235.049962
662.156829	8260.916123
662.498168	8211.505253
662.839456	8204.520734
663.180693	8232.980568
663.521879	8242.861230
663.863013	8222.908343
664.204097	8221.743837
664.545129	8299.664952
664.886110	8286.124412
665.227040	8286.232797
665.567918	8300.499263
665.908746	8312.827404
666.249522	8335.525199
666.590248	8329.029673
666.930922	8340.977207
667.271545	8340.178184
667.612118	8353.265020
667.952639	8316.547776
668.293109	8319.872417
668.633528	8293.784446
668.973896	8279.845655
669.314213	8287.369577
669.654480	8239.352587
669.994695	8235.425528
670.334859	8218.537663
670.674973	8198.859519
671.015035	8219.833239
671.355047	8214.633289
671.695008	8196.744755
672.034918	8177.951333
672.374777	8181.666663
672.714585	8159.392325
673.054342	8183.252106
673.394049	8147.517887
673.733705	8188.930966
674.073310	8142.207032
674.412864	8146.741550
674.752368	8085.683094
675.091820	8134.640260
675.431223	8065.231133
675.770574	8021.423506
676.109875	7991.877303
676.449125	7958.593085
676.788324	7944.336702
677.127473	7857.936366
677.466571	7837.852409
677.805619	7779.518698
678.144616	7778.049201
678.483562	7764.904393
678.822458	7713.250210
679.161303	7704.776030
679.500098	7678.332658
679.838842	7654.858525
680.177535	7672.008530
680.516179	7703.944240
680.854771	7723.304791
681.193314	7840.015064
681.531805	7996.812593
681.870247	8119.156356
682.208638	8265.435517
682.546978	8340.866302
682.885268	8365.774643
683.223508	8298.197976
683.561697	8242.767969
683.899836	8212.873926
684.237925	8130.319991
684.575963	8104.070703
684.913951	8018.509719
685.251889	8035.667286
685.589776	8032.519086
685.927614	8018.718927
686.265401	8039.871609
686.603137	8043.322278
686.940824	8107.959953
687.278460	8159.909043
687.616046	8177.220366
687.953582	8288.486193
688.291068	8275.001106
688.628504	8325.415165
688.965889	8327.287954
689.303224	8286.381511
689.640510	8242.415088
689.977745	8136.714695
690.314930	8015.041405
690.652065	7943.083975
690.989150	7824.997467
691.326185	7676.106988
691.663170	7569.647901
692.000105	7452.594830
692.336990	7331.912127
692.673825	7263.637260
693.010610	7168.291397
693.347345	7077.071718
693.684030	6963.980993
694.020665	6914.975937
694.357251	6798.356404
694.693786	6787.911133
695.030272	6752.489466
695.366707	6657.299878
695.703093	6601.247289
696.039429	6597.594973
696.375716	6551.977572
696.711952	6541.998607
697.048139	6509.715058
697.384276	6476.534184
697.720363	6498.611917
698.056400	6469.295087
698.392388	6430.079951
698.728326	6430.886536
699.064214	6408.065232
699.400053	6409.446508
699.735842	6344.765984
700.071581	6300.537421
700.407270	6257.551502
700.742910	6226.016564
701.078501	6187.683630
701.414042	6139.593543
701.749533	6082.777218
702.084974	6028.209249
702.420366	6066.191822
702.755709	5994.657849
703.091002	5942.633142
703.426246	5949.872238
703.761440	5935.658705
704.096584	5887.281272
704.431679	5883.265993
704.766725	5867.361153
705.101721	5851.925140
705.436668	5868.558427
705.771565	5810.963244
706.106413	5868.913828
706.441212	5865.972315
706.775961	5881.720880
707.110661	5892.057766
707.445311	5953.582528
707.779913	5915.758750
708.114465	5957.005471
708.448967	6001.344940
708.783421	6115.504389
709.117825	6153.943187
709.452180	6192.888621
709.786485	6258.005206
710.120742	6387.484722
710.454949	6390.527058
710.789107	6462.945753
711.123216	6583.462098
711.457275	6616.494258
711.791286	6719.749692
712.125247	6744.327838
712.459159	6714.002777
712.793023	6844.452715
713.126837	6675.372415
713.460602	6728.997689
713.794318	6687.181318
714.127985	6629.621423
714.461602	6494.856257
714.795171	6489.638663
715.128691	6323.477191
715.462162	6238.344706
715.795584	6166.714951
716.128957	6124.396985
716.462281	6053.377209
716.795556	6018.048803
717.128782	5928.580925
717.461960	5836.153890
717.795088	5822.089071
718.128167	5753.063072
718.461198	5676.588768
718.794180	5651.493904
719.127113	5587.289769
719.459997	5556.442948
719.792833	5493.584801
720.125619	5487.487525
720.458357	5428.715233
720.791046	5397.031581
721.123686	5375.611719
721.456278	5324.796888
721.788821	5317.928316
722.121315	5274.655051
722.453761	5288.397237
722.786158	5267.166417
723.118506	5270.901912
723.450805	5250.840640
723.783056	5270.402838
724.115259	5254.477833
724.447412	5244.929888
724.779518	5287.762051
725.111574	5288.861023
725.443582	5324.804450
725.775542	5315.440506
726.107453	5404.552983
726.439315	5373.108786
726.771129	5444.909940
727.102895	5508.685577
727.434612	5551.427000
727.766281	5582.427576
728.097901	5636.367922
728.429473	5648.817051
728.760996	5658.725439
729.092471	5685.405746
729.423897	5673.473335
729.755276	5641.991329
730.086606	5658.027239
730.417887	5745.329942
730.749120	5837.767059
731.080305	5880.843719
731.411442	5953.118742
731.742530	5980.988761
732.073570	5999.348643
732.404562	6061.707716
732.735506	6055.305451
733.066401	6038.009252
733.397249	5970.684642
733.728048	5875.001022
734.058798	5729.223455
734.389501	5603.517243
734.720156	5517.444582
735.050762	5410.327625
735.381320	5337.578733
735.711831	5275.854846
736.042293	5196.779307
736.372707	5193.394172
736.703073	5151.701309
737.033391	5174.918343
737.363661	5165.317465
737.693883	5176.811296
738.024056	5201.959092
738.354182	5230.139142
738.684260	5281.448006
739.014290	5316.554601
739.344272	5352.790415
739.674207	5410.325104
740.004093	5436.380308
740.333931	5451.337411
740.663722	5467.252334
740.993464	5477.604343
741.323159	5463.597497
741.652806	5418.842133
741.982405	5385.477257
742.311956	5332.509853
742.641460	5317.477133
742.970915	5268.961068
743.300323	5203.494123
743.629683	5166.897867
743.958996	5118.994303
744.288260	5069.926232
744.617477	5010.334752
744.946647	4997.391590
745.275768	4940.865132
745.604842	4913.489146
745.933869	4876.688722
746.262847	4868.272516
746.591778	4854.424467
746.920662	4828.104602
747.249498	4824.094364
747.578286	4840.624308
747.907027	4866.999625
748.235720	4907.364144
748.564365	4922.999282
748.892963	4909.741048
749.221514	4924.320065
749.550017	4899.197474
749.878473	4895.073811
750.206881	4858.049056
750.535242	4843.916181
750.863555	4832.833205
751.191821	4807.468639
751.520039	4812.419052
751.848210	4791.057163
752.176334	4798.795334
752.504411	4784.380154
752.832440	4751.993262
753.160421	4763.923152
753.488356	4744.517230
753.816243	4723.437646
754.144082	4693.972101
754.471875	4678.929298
754.799620	4668.559645
755.127318	4664.466228
755.454969	4657.022964
755.782572	4647.825379
756.110129	4650.199762
756.437638	4640.203154
756.765100	4635.156959
757.092515	4638.736179
757.419882	4642.948063
757.747203	4640.740037
758.074477	4651.228158
758.401703	4640.440089
758.728882	4670.331610
759.056014	4681.452396
759.383099	4705.899471
759.710138	4731.621959
760.037129	4752.144496
760.364073	4765.793420
760.690970	4767.930869
761.017820	4768.364409
761.344623	4800.287515
761.671379	4857.733984
761.998088	4951.501966
762.324751	5175.278785
762.651366	5637.015710
762.977935	6333.630075
763.304456	6892.079016
763.630931	7193.366096
763.957359	7128.614995
764.283740	6833.626837
764.610074	6515.371233
764.936362	6111.942814
765.262602	5796.696779
765.588796	5450.447647
765.914943	5202.995049
766.241044	4973.524247
766.567097	4807.506448
766.893104	4652.122963
767.219064	4554.143097
767.544978	4459.550886
767.870845	4381.526427
768.196665	4327.918797
768.522438	4278.167650
768.848165	4236.590733
769.173846	4199.863407
769.499479	4169.871062
769.825066	4134.562821
770.150607	4093.260647
770.476101	4073.332966
770.801548	4055.280594
771.126949	4022.583670
771.452303	4006.583048
771.777611	3966.122747
772.102872	3962.183086
772.428087	3939.858336
772.753256	3911.103594
773.078378	3896.471645
773.403453	3863.215153
773.728482	3834.772963
774.053465	3824.920028
774.378401	3805.246925
774.703291	3781.641722
775.028135	3754.507712
775.352932	3747.591249
775.677683	3727.834967
776.002388	3709.762430
776.327046	3711.942729
776.651658	3690.364070
776.976224	3670.257428
777.300743	3667.250380
777.625216	3657.563803
777.949643	3647.042915
778.274024	3649.074500
778.598359	3629.519864
778.922647	3632.408445
779.246889	3623.185654
779.571086	3618.898153
779.895236	3617.663070
780.219339	3619.462762
780.543397	3617.544603
780.867409	3630.465080
781.191374	3633.993888
781.515294	3627.916777
781.839167	3646.843789
782.162995	3643.002430
782.486776	3632.322745
782.810511	3626.059112
783.134201	3613.342801
783.457844	3608.974641
783.781441	3600.755040
784.104993	3594.118361
784.428498	3587.065787
784.751958	3584.973708
785.075372	3580.706371
785.398739	3567.430492
785.722061	3575.771082
786.045337	3577.974066
786.368568	3602.390894
786.691752	3597.629525
787.014891	3642.581493
787.337983	3685.605221
787.661030	3773.880866
787.984031	3873.332749
788.306987	3947.725056
788.629897	3994.602746
788.952760	4006.270497
789.275579	3990.350533
789.598351	3938.623253
789.921078	3885.862537
790.243759	3828.416068
790.566395	3781.674490
790.888984	3729.261613
791.211529	3695.259031
791.534027	3648.338491
791.856480	3609.902214
792.178888	3593.226077
792.501249	3571.808735
792.823566	3541.685320
793.145836	3538.678272
793.468062	3530.713248
793.790241	3514.778161
794.112375	3515.917462
794.434464	3541.551729
794.756507	3539.820093
795.078505	3557.852300
795.400457	3597.911829
795.722364	3645.434787
796.044226	3696.005121
796.366042	3739.933736
796.687812	3734.932911
797.009538	3758.951489
797.331218	3750.046291
797.652852	3744.279211
797.974442	3720.742063
798.295986	3709.956515
798.617484	3678.199766
798.938938	3656.817712
799.260346	3643.322543
799.581709	3602.988271
799.903026	3593.581478
800.224299	3575.314857
800.545526	3542.282697
800.866708	3526.375336
801.187845	3510.357069
801.508936	3492.375273
801.829983	3486.378821
802.150984	3452.698872
802.471940	3446.702420
802.792851	3439.697736
803.113717	3430.837908
803.434538	3423.102258
803.755314	3412.712440
804.076045	3407.918303
804.396731	3395.277609
804.717372	3398.035120
805.037967	3391.408524
805.358518	3397.543608
805.679024	3409.286976
805.999485	3405.755648
806.319901	3414.181936
806.640272	3413.604724
806.960598	3425.761467
807.280879	3426.247938
807.601115	3435.682457
807.921306	3427.281374
808.241453	3431.909154
808.561554	3433.862601
808.881611	3431.130295
809.201623	3432.191458
809.521590	3427.293977
809.841513	3424.662495
810.161390	3434.465019
810.481223	3413.019950
810.801011	3410.925351
811.120755	3409.652459
811.440453	3394.685274
811.760107	3385.414592
812.079716	3384.842421
812.399281	3370.548229
812.718801	3371.357334
813.038276	3361.632948
813.357707	3358.308308
813.677093	3366.414483
813.996434	3349.511494
814.315731	3356.831249
814.634983	3357.526929
814.954191	3357.678163
815.273354	3374.326574
815.592473	3382.770507
815.911547	3402.105852
816.230577	3420.634613
816.549562	3443.465999
816.868502	3461.956951
817.187399	3478.597800
817.506250	3509.603417
817.825058	3519.910056
818.143821	3560.824060
818.462539	3605.080350
818.781213	3663.227539
819.099843	3745.529417
819.418429	3899.796286
819.736970	4049.294224
820.055466	4234.861618
820.373919	4474.084532
820.692327	4810.941994
821.010691	5321.757072
821.329011	6401.826804
821.647286	8142.350705
821.965517	10312.537188
822.283704	11927.871595
822.601847	13018.419365
822.919945	12607.446860
823.237999	11925.600555
823.556010	11025.260560
823.873976	10078.786446
824.191897	9106.032797
824.509775	8338.237340
824.827609	7535.289917
825.145398	6994.006105
825.463144	6609.454287
825.780845	6484.443754
826.098502	6539.120109
826.416116	6923.374499
826.733685	7425.160870
827.051210	7720.479224
827.368692	7613.266485
827.686129	7173.899680
828.003522	6627.678058
828.320872	6059.169495
828.638177	5595.446356
828.955439	5226.660746
829.272656	4889.180702
829.589830	4609.195017
829.906960	4347.748176
830.224046	4138.013491
830.541088	3970.647183
830.858086	3852.926158
831.175041	3755.301693
831.491952	3710.700085
831.808819	3695.430430
832.125642	3729.526274
832.442421	3829.487313
832.759157	4047.807084
833.075849	4423.287346
833.392497	4891.202204
833.709101	5277.500783
834.025662	5385.000868
834.342179	5257.827680
834.658653	4993.036033
834.975083	4717.244588
835.291469	4476.509327
835.607811	4247.608175
835.924110	4091.783589
836.240366	3932.480607
836.556578	3767.697891
836.872746	3634.361892
837.188871	3522.642361
837.504952	3427.979574
837.820990	3351.371680
838.136984	3296.690284
838.452935	3268.406890
838.768842	3253.938779
839.084706	3283.500105
839.400526	3421.857093
839.716303	3648.177174
840.032037	3860.316490
840.347727	3923.744287
840.663373	3830.808096
840.978977	3684.849048
841.294537	3551.742422
841.610054	3445.858026
841.925527	3368.115872
842.240957	3303.316881
842.556344	3238.464957
842.871687	3180.418591
843.186987	3121.081690
843.502244	3068.986406
843.817458	3027.835467
844.132629	2996.681136
844.447756	2975.077272
844.762840	2953.400310
845.077881	2935.617640
845.392879	2924.227153
845.707833	2909.428846
846.022745	2896.720097
846.337613	2896.357134
846.652438	2887.517470
846.967221	2882.549413
847.281960	2874.375182
847.596656	2872.056252
847.911309	2867.403267
848.225919	2860.839684
848.540485	2856.738706
848.855009	2855.811133
849.169490	2848.783765
849.483928	2846.931141
849.798323	2844.828980
850.112675	2842.865450
850.426984	2840.664987
850.741251	2838.736745
851.055474	2837.181549
851.369654	2839.457630
851.683792	2836.080057
851.997887	2834.600478
852.311938	2834.882783
852.625947	2837.889831
852.939914	2833.481342
853.253837	2835.001250
853.567718	2833.070488
853.881555	2832.589058
854.195350	2833.574604
854.509103	2835.170129
854.822812	2831.437154
855.136479	2829.675271
855.450103	2834.411435
855.763685	2829.758450
856.077224	2831.386743
856.390720	2835.419666
856.704173	2835.197855
857.017584	2836.218689
857.330953	2836.697598
857.644278	2842.386541
857.957561	2844.660101
858.270802	2842.467199
858.584000	2843.714885
858.897155	2842.701613
859.210268	2841.020388
859.523339	2839.177846
859.836367	2837.000068
860.149352	2837.365551
860.462295	2834.146775
860.775195	2830.280210
861.088054	2832.155519
861.400869	2830.842298
861.713642	2827.958758
862.026373	2828.150322
862.339062	2832.868842
862.651708	2836.682475
862.964312	2842.230265
863.276873	2843.336798
863.589392	2847.863754
863.901869	2855.301977
864.214303	2863.665251
864.526696	2869.253370
864.839045	2879.706203
865.151353	2884.333982
865.463619	2886.350443
865.775842	2886.627707
866.088023	2891.842780
866.400162	2893.355127
866.712258	2892.059550
867.024313	2896.389901
867.336325	2896.757905
867.648296	2898.996178
867.960224	2897.753533
868.272110	2903.137486
868.583954	2897.824109
868.895755	2904.533885
869.207515	2901.310067
869.519233	2911.712488
869.830909	2913.338260
870.142542	2914.318765
870.454134	2916.166348
870.765684	2922.044333
871.077191	2932.028338
871.388657	2935.111004
871.700081	2940.157199
872.011463	2947.461831
872.322803	2952.712193
872.634101	2957.982719
872.945357	2964.977320
873.256571	2973.935450
873.567744	2980.609938
873.878874	2984.605052
874.189963	2990.785507
874.501010	2994.551249
874.812015	2996.938235
875.122979	3002.710356
875.433900	3004.494925
875.744780	3008.555574
876.055618	3012.520442
876.366415	3016.203005
876.677169	3018.806761
876.987882	3025.733306
877.298554	3032.559028
877.609183	3049.409085
877.919771	3068.378947
878.230317	3094.214860
878.540822	3129.568472
878.851285	3177.976152
879.161707	3246.087182
879.472087	3354.620703
879.782425	3511.710619
880.092722	3788.472486
880.402977	4210.928740
880.713191	4751.103498
881.023363	5349.695147
881.333494	5789.223268
881.643583	6072.964612
881.953631	6149.872456
882.263637	6099.672646
882.573602	5954.013546
882.883526	5786.332167
883.193408	5584.517134
883.503248	5370.641141
883.813048	5155.462010
884.122806	4932.378349
884.432522	4692.021175
884.742197	4469.101352
885.051831	4266.295733
885.361424	4067.092018
885.670975	3895.322262
885.980485	3747.823142
886.289954	3622.810088
886.599382	3525.294008
886.908768	3434.782611
887.218113	3360.586909
887.527417	3294.893113
887.836680	3238.843044
888.145901	3189.195240
888.455082	3154.018068
888.764221	3119.939868
889.073319	3091.215374
889.382376	3074.267015
889.691392	3055.526525
890.000366	3046.021430
890.309300	3039.714946
890.618193	3035.797970
890.927044	3029.743544
891.235855	3032.359903
891.544625	3034.036086
891.853353	3039.422559
892.162041	3057.921073
892.470687	3081.410330
892.779293	3116.022892
893.087858	3164.256652
893.396381	3239.246336
893.704864	3343.736852
894.013306	3504.910103
894.321707	3691.490768
894.630068	3844.772092
894.938387	3922.640275
895.246665	3927.280657
895.554903	3870.786966
895.863100	3784.000982
896.171256	3707.415773
896.479371	3635.486069
896.787446	3560.834143
897.095480	3487.722288
897.403473	3434.817899
897.711425	3372.083260
898.019336	3322.261537
898.327207	3271.948301
898.635038	3226.111610
898.942827	3170.787467
899.250576	3130.226343
899.558284	3091.729572
899.865952	3066.359965
900.173579	3036.228988
900.481165	3012.417098
900.788711	2995.340189
901.096216	2979.571460
901.403681	2961.577062
901.711105	2957.539097
902.018489	2950.325206
902.325832	2957.360136
902.633135	2967.881024
902.940397	3008.742097
903.247619	3096.533791
903.554800	3278.711009
903.861941	3549.678069
904.169041	3812.856547
904.476101	3979.789315
904.783121	3999.278416
905.090100	3935.951442
905.397039	3830.409845
905.703938	3723.988566
906.010796	3618.842700
906.317614	3537.382695
906.624391	3449.016309
906.931129	3381.651370
907.237826	3312.426246
907.544483	3247.198756
907.851099	3173.502128
908.157675	3101.872373
908.464211	3030.169521
908.770707	2969.968062
909.077163	2927.682864
909.383578	2888.770197
909.689954	2858.682070
909.996289	2841.640450
910.302584	2829.647545
910.608839	2817.455514
910.915054	2809.309010
911.221229	2804.308185
911.527363	2804.620737
911.833458	2804.938329
912.139513	2809.913948
912.445527	2808.555357
912.751502	2821.014569
913.057436	2837.428566
913.363331	2855.916997
913.669186	2884.205432
913.975000	2924.842173
914.280775	2983.864003
914.586510	3064.653534
914.892205	3175.175791
915.197859	3323.302535
915.503475	3504.058148
915.809050	3674.544929
916.114585	3809.247081
916.420081	3886.228021
916.725536	3918.004934
917.030952	3881.093605
917.336328	3842.054910
917.641665	3794.625214
917.946961	3730.169021
918.252218	3675.923685
918.557435	3598.557097
918.862612	3537.034855
919.167750	3473.876759
919.472848	3397.899009
919.777906	3333.543639
920.082925	3264.212650
920.387904	3190.631969
920.692843	3136.701705
920.997743	3086.585074
921.302603	3034.356200
921.607423	2998.135509
921.912204	2965.189048
922.216946	2938.763320
922.521647	2915.745411
922.826310	2894.396125
923.130932	2873.714791
923.435516	2855.060001
923.740059	2840.730522
924.044564	2824.626556
924.349028	2815.915442
924.653454	2797.343831
924.957840	2785.786986
925.262186	2774.588062
925.566493	2765.115734
925.870761	2752.038981
926.174989	2749.697365
926.479178	2740.522465
926.783328	2731.813872
927.087438	2728.585013
927.391509	2720.327603
927.695541	2715.586398
927.999533	2709.983155
928.303486	2706.787064
928.607400	2699.855477
928.911275	2698.839685
929.215110	2694.463963
929.518906	2690.620083
929.822663	2689.931966
930.126381	2687.318128
930.430060	2690.627645
930.733699	2689.871472
931.037299	2690.877182
931.340861	2690.925073
931.644383	2689.846266
931.947866	2692.329035
932.251309	2692.127388
932.554714	2689.458097
932.858080	2690.562110
933.161407	2687.043385
933.464694	2687.308045
933.767943	2685.301666
934.071153	2685.997345
934.374323	2683.249917
934.677455	2682.947447
934.980548	2679.393434
935.283602	2677.787826
935.586617	2677.082065
935.889593	2679.965605
936.192530	2678.062569
936.495428	2681.167920
936.798287	2683.539783
937.101108	2686.998014
937.403890	2696.372040
937.706632	2703.913606
938.009336	2716.123281
938.312002	2727.591906
938.614628	2739.489029
938.917216	2750.582088
939.219765	2756.553335
939.522275	2763.563059
939.824747	2765.695467
940.127179	2765.342586
940.429573	2763.759664
940.731929	2767.066661
941.034246	2763.384098
941.336524	2761.387801
941.638763	2767.104470
941.940964	2767.953904
942.243126	2756.495361
942.545250	2754.504106
942.847335	2748.444639
943.149381	2741.109760
943.451389	2737.230592
943.753359	2729.903275
944.055290	2724.940259
944.357182	2722.578478
944.659036	2716.433312
944.960851	2718.190154
945.262628	2711.021633
945.564367	2711.341746
945.866067	2709.312682
946.167729	2709.789071
946.469352	2708.642208
946.770937	2705.665407
947.072484	2706.212372
947.373992	2704.679862
947.675462	2704.747917
947.976893	2700.462936
948.278286	2700.039479
948.579641	2697.302133
948.880958	2698.144006
949.182236	2697.680219
949.483476	2697.833975
949.784678	2695.772143
950.085841	2695.865404
950.386967	2698.156608
950.688054	2694.826926
950.989103	2701.269521
951.290114	2700.198276
951.591087	2706.146837
951.892021	2711.074565
952.192917	2715.543548
952.493776	2721.885320
952.794596	2721.161914
953.095378	2724.484034
953.396122	2726.964282
953.696828	2721.252655
953.997496	2723.271637
954.298126	2720.070504
954.598718	2717.668394
954.899272	2712.561706
955.199788	2709.942826
955.500266	2704.926878
955.800706	2697.914633
956.101108	2689.175793
956.401472	2682.849145
956.701798	2676.988803
957.002087	2668.912875
957.302337	2666.561177
957.602550	2664.673265
957.902724	2658.926349
958.202861	2651.835966
958.502960	2648.223980
958.803022	2646.046201
959.103045	2639.643936
959.403031	2635.227885
959.702979	2634.030611
960.002889	2629.911988
960.302762	2628.699591
960.602596	2623.444188
960.902393	2623.519805
961.202153	2621.581482
961.501875	2618.831532
961.801559	2617.558641
962.101205	2616.018568
962.400814	2616.633589
962.700385	2613.256016
962.999918	2614.491099
963.299414	2609.391972
963.598873	2612.222579
963.898293	2612.058742
964.197677	2609.260902
964.497022	2610.480861
964.796331	2606.916765
965.095601	2606.543720
965.394835	2609.391972
965.694030	2608.073710
965.993189	2605.560695
966.292309	2606.773092
966.591393	2606.722681
966.890439	2605.495160
967.189447	2603.776126
967.488419	2604.431476
967.787353	2605.348966
968.086249	2606.241250
968.385108	2606.279059
968.683930	2608.567743
968.982714	2605.979110
969.281462	2607.347784
969.580172	2609.008844
969.878844	2612.091509
970.177480	2611.267281
970.476078	2612.767024
970.774639	2615.809360
971.073162	2614.360029
971.371649	2615.290122
971.670098	2611.968001
971.968510	2612.976232
972.266885	2614.294494
972.565223	2618.980246
972.863524	2622.536780
973.161788	2620.588374
973.460014	2621.949486
973.758204	2621.760442
974.056356	2623.156842
974.354471	2621.727675
974.652550	2624.182717
974.950591	2624.139867
975.248595	2623.983591
975.546563	2625.039713
975.844493	2622.040227
976.142386	2621.906636
976.440243	2619.784310
976.738062	2619.733899
977.035845	2620.908487
977.333590	2619.239866
977.631299	2618.120729
977.928971	2618.206429
978.226606	2614.337343
978.524204	2613.669391
978.821765	2613.008999
979.119290	2611.231993
979.416777	2613.911366
979.714228	2611.632764
980.011642	2613.218207
980.309020	2614.649895
980.606360	2620.172479
980.903664	2620.790020
981.200931	2628.974334
981.498162	2631.593213
981.795356	2645.781541
982.092513	2659.248983
982.389633	2677.611386
982.686717	2695.777184
982.983764	2711.739997
983.280775	2726.848336
983.577749	2728.227091
983.874686	2731.917216
984.171587	2726.659292
984.468451	2721.638303
984.765279	2716.382900
985.062070	2708.874102
985.358824	2702.643235
985.655543	2690.771318
985.952224	2683.058353
986.248869	2671.211641
986.545478	2652.176244
986.842050	2642.242651
987.138586	2631.154633
987.435086	2623.497120
987.731549	2616.789865
988.027975	2616.008486
988.324366	2608.487084
988.620719	2605.376692
988.917037	2601.868049
989.213318	2602.528441
989.509563	2598.051896
989.805772	2594.727255
990.101944	2596.668099
990.398080	2595.178438
990.694180	2597.865373
990.990244	2597.227667
991.286271	2594.059302
991.582262	2596.592482
991.878217	2595.710280
992.174136	2595.672471
992.470019	2598.452668
992.765865	2597.177256
993.061676	2596.244642
993.357450	2601.676486
993.653188	2602.929212
993.948890	2605.792588
994.244556	2606.589090
994.540186	2610.594287
994.835780	2615.479165
995.131337	2624.575927
995.426859	2630.307719
995.722345	2637.118318
996.017795	2648.319762
996.313208	2659.841319
996.608586	2666.178049
996.903928	2666.548574
997.199234	2668.955725
997.494504	2666.951866
997.789738	2665.187462
998.084936	2662.382060
998.380099	2658.608757
998.675225	2654.066677
998.970316	2647.876140
999.265371	2641.191570
999.560390	2632.165384
999.855373	2628.339148
1000.150320	2621.253807
1000.445232	2615.118722
1000.740108	2609.228134
1001.034948	2608.945829
1001.329752	2603.854264
1001.624521	2601.971393
1001.919254	2593.071236
1002.213951	2594.341607
1002.508613	2592.791452
1002.803239	2591.815989
1003.097829	2590.676688
1003.392384	2591.642069
1003.686903	2589.857500
1003.981386	2590.903540
1004.275834	2589.187027
1004.570246	2589.529825
1004.864623	2585.799372
1005.158964	2586.343816
1005.453270	2584.975143
1005.747540	2584.735688
1006.041775	2583.276274
1006.335974	2587.475555
1006.630138	2584.554207
1006.924266	2586.865576
1007.218359	2586.479927
1007.512416	2584.637386
1007.806438	2586.729464
1008.100425	2584.939855
1008.394376	2583.056984
1008.688292	2585.491861
1008.982172	2583.077148
1009.276017	2584.120667
1009.569827	2584.261820
1009.863602	2584.665112
1010.157341	2584.284505
1010.451045	2581.877354
1010.744714	2582.774679
1011.038347	2583.682087
1011.331945	2583.442632
1011.625508	2582.809967
1011.919036	2579.379462
1012.212528	2580.662436
1012.505986	2580.720409
1012.799408	2579.492888
1013.092795	2580.516242
1013.386147	2580.793506
1013.679464	2580.917014
1013.972745	2579.802919
1014.265992	2584.236614
1014.559204	2580.549010
1014.852380	2578.648495
1015.145521	2581.839545
1015.438628	2580.675039
1015.731699	2581.363156
1016.024736	2582.346181
1016.317737	2583.006572
1016.610703	2582.857858
1016.903635	2578.086406
1017.196531	2577.436097
1017.489393	2579.177816
1017.782219	2577.388206
1018.075011	2577.834348
1018.367768	2582.212591
1018.660490	2583.246027
1018.953177	2583.246027
1019.245829	2583.246027
