Dividing Wavelength (nm)	Counts (n)	Blue Motor Position (mm): 22.500000	Red Motor Position (mm): 0.000000	
326.493990	2157.334062
326.888308	2157.334062
327.282561	2157.334062
327.676750	2131.994702
328.070874	2132.816410
328.464933	2135.921761
328.858929	2147.768473
329.252859	2159.690802
329.646726	2174.506753
330.040528	2188.059895
330.434265	2206.697041
330.827938	2225.422407
331.221547	2246.716240
331.615091	2264.322470
332.008571	2281.850562
332.401986	2307.807463
332.795338	2328.183807
333.188625	2346.309276
333.581847	2367.451875
333.975006	2382.235059
334.368100	2400.678120
334.761129	2418.969947
335.154095	2436.808070
335.546996	2462.147429
335.939833	2487.801861
336.332606	2501.539006
336.725315	2514.157014
337.117960	2522.028775
337.510540	2532.060672
337.903056	2538.709953
338.295508	2548.056253
338.687896	2553.856100
339.080220	2564.271124
339.472480	2568.528378
339.864676	2569.382854
340.256807	2573.342680
340.648875	2576.879050
341.040879	2578.083886
341.432818	2578.948443
341.824694	2581.859710
342.216506	2580.896849
342.608253	2578.656057
342.999937	2577.945254
343.391557	2576.022054
343.783113	2577.846951
344.174605	2576.203535
344.566033	2573.503997
344.957397	2572.987279
345.348697	2571.180025
345.739934	2566.983265
346.131106	2569.276990
346.522215	2566.000240
346.913260	2563.250290
347.304241	2562.562173
347.695159	2560.586041
348.086012	2557.659651
348.476802	2556.106975
348.867528	2556.200237
349.258191	2555.807027
349.648789	2552.673950
350.039324	2549.553475
350.429796	2552.084135
350.820203	2552.270657
351.210548	2549.356870
351.600828	2549.878630
351.991045	2548.530121
352.381198	2544.313196
352.771288	2550.155893
353.161314	2547.050543
353.551276	2546.372507
353.941175	2546.410316
354.331010	2547.640357
354.720782	2548.434339
355.110490	2548.492313
355.500135	2547.302600
355.889717	2547.960471
356.279235	2547.642878
356.668689	2550.551624
357.058080	2551.668239
357.447408	2546.135573
357.836672	2546.233876
358.225873	2546.382590
358.615010	2544.867723
359.004084	2552.777293
359.393095	2554.801317
359.782043	2553.757798
360.170927	2550.896943
360.559748	2553.964485
360.948505	2556.422047
361.337199	2552.689073
361.725830	2555.665874
362.114398	2555.595298
362.502903	2555.754095
362.891344	2555.370967
363.279722	2556.167469
363.668037	2558.425906
364.056289	2555.985988
364.444478	2558.032696
364.832603	2560.233160
365.220665	2558.383056
365.608665	2557.636966
365.996601	2557.553787
366.384474	2560.288612
366.772284	2558.115875
367.160031	2560.424724
367.547715	2562.297512
367.935336	2560.780125
368.322893	2559.482028
368.710388	2559.419013
369.097820	2562.529405
369.485189	2562.426062
369.872495	2560.848181
370.259738	2560.812892
370.646918	2561.052347
371.034035	2563.537636
371.421090	2561.402707
371.808081	2564.014025
372.195010	2564.752554
372.581875	2562.010167
372.968678	2562.594940
373.355418	2563.736762
373.742096	2565.884293
374.128710	2562.476473
374.515262	2564.346741
374.901751	2566.859757
375.288177	2568.039387
375.674540	2566.297668
376.060841	2564.079560
376.447079	2564.412276
376.833254	2567.131979
377.219367	2562.055537
377.605417	2566.254818
377.991404	2562.680640
378.377329	2562.506720
378.763191	2566.191804
379.148991	2569.604665
379.534727	2566.872359
379.920402	2567.994016
380.306013	2568.667010
380.691563	2570.696075
381.077049	2568.288924
381.462474	2569.317319
381.847835	2569.372772
382.233134	2569.952504
382.618371	2569.992834
383.003545	2570.847309
383.388657	2567.694067
383.773706	2571.217834
384.158693	2571.472412
384.543618	2568.384706
384.928480	2570.733883
385.313280	2569.307237
385.698017	2571.106929
386.082692	2572.331929
386.467305	2573.085582
386.851856	2571.253122
387.236344	2572.694892
387.620770	2571.903431
388.005133	2571.961404
388.389435	2574.050963
388.773674	2574.703792
389.157851	2572.276476
389.541965	2574.429049
389.926018	2571.603482
390.310008	2573.874522
390.693936	2574.567681
391.077802	2576.160685
391.461606	2577.665470
391.845348	2576.962229
392.229027	2577.047928
392.612645	2575.641447
392.996200	2573.428380
393.379694	2576.069945
393.763125	2578.930799
394.146494	2575.797722
394.529801	2578.116653
394.913047	2572.992320
395.296230	2578.656057
395.679351	2578.020871
396.062410	2577.504153
396.445408	2581.411047
396.828343	2578.086406
397.211217	2574.242526
397.594028	2575.255798
397.976778	2575.530541
398.359466	2576.049780
398.742092	2574.673545
399.124656	2579.197981
399.507158	2580.410378
399.889598	2579.064390
400.271977	2582.104206
400.654294	2580.813670
401.036549	2582.983887
401.418742	2581.408527
401.800874	2579.119843
402.182944	2580.221335
402.564952	2579.639082
402.946898	2582.184864
403.328783	2582.724268
403.710606	2579.634040
404.092367	2583.369535
404.474067	2580.803588
404.855705	2583.170410
405.237282	2580.949782
405.618797	2582.774679
406.000250	2584.579412
406.381642	2579.931468
406.762972	2582.812488
407.144240	2582.535224
407.525447	2583.024216
407.906593	2583.646799
408.287677	2584.397931
408.668700	2583.326686
409.049661	2584.851635
409.430560	2582.096644
409.811399	2583.964392
410.192176	2582.109247
410.572891	2584.534042
410.953545	2586.026223
411.334138	2584.886923
411.714669	2585.499423
412.095139	2585.799372
412.475547	2588.627459
412.855894	2584.967581
413.236180	2587.566296
413.616405	2586.726944
413.996568	2587.896492
414.376670	2585.630493
414.756711	2584.392890
415.136691	2589.280288
415.516609	2587.072263
415.896466	2587.702407
416.276262	2587.233580
416.655997	2586.391707
417.035670	2583.248548
417.415283	2584.367684
417.794834	2586.225349
418.174324	2587.662078
418.553753	2587.473035
418.933121	2586.386666
419.312428	2590.714497
419.691674	2588.138467
420.070859	2587.863724
420.449983	2587.034454
420.829045	2588.894640
421.208047	2588.992942
421.586988	2589.265165
421.965867	2589.459249
422.344686	2588.234249
422.723444	2590.255752
423.102141	2590.709455
423.480777	2591.856318
423.859352	2590.482603
424.237866	2591.362285
424.616319	2592.483942
424.994712	2589.625607
425.373044	2591.911771
425.751314	2590.858169
426.129524	2590.558221
426.507673	2591.851277
426.885762	2588.289702
427.263789	2592.670464
427.641756	2591.871441
428.019662	2591.127871
428.397508	2592.050402
428.775292	2590.916143
429.153016	2594.162646
429.530679	2591.213571
429.908282	2594.886051
430.285824	2591.243818
430.663305	2593.277923
431.040726	2592.052923
431.418086	2593.285485
431.795385	2595.576689
432.172624	2593.119127
432.549802	2593.252717
432.926920	2592.753643
433.303977	2595.352358
433.680974	2592.993098
434.057910	2597.961155
434.434786	2594.636514
434.811601	2595.669951
435.188355	2593.711462
435.565050	2594.399580
435.941683	2598.760178
436.318257	2592.418407
436.694770	2592.685588
437.071222	2592.950248
437.447614	2593.058633
437.823946	2593.608119
438.200218	2595.213726
438.576429	2596.476535
438.952580	2595.395208
439.328670	2595.382605
439.704700	2596.758840
440.080670	2596.708428
440.456580	2596.090887
440.832429	2597.109200
441.208218	2599.143306
441.583947	2597.883017
441.959616	2598.082143
442.335224	2597.701536
442.710773	2597.091556
443.086261	2599.602051
443.461689	2600.665734
443.837057	2598.311515
444.212365	2597.520054
444.587612	2599.997781
444.962800	2599.874273
445.337927	2601.610951
445.712995	2597.434355
446.088002	2598.256063
446.462949	2599.717997
446.837837	2601.850405
447.212664	2601.298399
447.587431	2602.155395
447.962139	2602.052052
448.336786	2602.175560
448.711374	2601.500045
449.085901	2603.657659
449.460369	2603.766044
449.834776	2602.795622
450.209124	2601.119438
450.583412	2604.612958
450.957640	2603.806373
451.331808	2606.752927
451.705917	2602.490632
452.079965	2603.342587
452.453954	2602.904007
452.827883	2600.844695
453.201752	2605.842999
453.575562	2605.548092
453.949311	2606.914244
454.323001	2606.271497
454.696632	2609.243257
455.070202	2608.454317
455.443713	2610.498505
455.817164	2606.707557
456.190556	2604.738987
456.563888	2605.222937
456.937160	2604.885180
457.310373	2608.219903
457.683526	2610.226282
458.056619	2613.082096
458.429653	2611.042949
458.802628	2610.501025
459.175542	2610.407764
459.548398	2611.768876
459.921194	2611.988166
460.293930	2612.935903
460.666607	2613.624020
461.039224	2614.118053
461.411782	2617.624176
461.784280	2616.477313
462.156719	2614.044957
462.529099	2620.245576
462.901419	2616.474793
463.273680	2616.144597
463.645882	2616.063939
464.018024	2617.800616
464.390106	2620.149794
464.762130	2620.071656
465.134094	2625.395114
465.505999	2627.381329
465.877845	2632.266207
466.249631	2634.607823
466.621358	2636.644449
466.993026	2639.071765
467.364634	2638.834831
467.736184	2633.594551
468.107674	2635.555560
468.479105	2637.317443
468.850477	2634.688482
469.221790	2639.641415
469.593043	2636.170581
469.964238	2639.880870
470.335373	2641.390696
470.706449	2645.461427
471.077467	2647.082158
471.448425	2654.729589
471.819324	2667.695436
472.190164	2668.549912
472.560945	2665.426917
472.931667	2660.262255
473.302330	2662.558501
473.672934	2664.327946
474.043479	2671.549398
474.413965	2670.064779
474.784393	2674.551406
475.154761	2677.951664
475.525070	2685.223528
475.895321	2686.687983
476.265513	2692.134950
476.635645	2702.910417
477.005719	2710.366283
477.375734	2715.656974
477.745691	2727.201216
478.115588	2737.467526
478.485427	2751.391193
478.855207	2777.116201
479.224928	2800.923050
479.594591	2822.481545
479.964194	2831.149809
480.333739	2843.974504
480.703226	2854.392048
481.072653	2876.126983
481.442022	2893.312277
481.811333	2914.638878
482.180584	2927.055240
482.549777	2940.525203
482.918912	2951.666153
483.287988	2972.813793
483.657005	2983.677480
484.025964	2994.397494
484.394864	3020.092255
484.763706	3030.905530
485.132489	3044.453631
485.501213	3070.173598
485.869879	3093.062957
486.238487	3109.343363
486.607036	3139.002992
486.975527	3158.083759
487.343959	3184.559899
487.712333	3215.106771
488.080648	3240.919999
488.448905	3277.359980
488.817104	3305.040955
489.185244	3348.651977
489.553326	3408.263622
489.921350	3497.587827
490.289315	3610.744086
490.657222	3685.055735
491.025070	3737.990371
491.392861	3770.641925
491.760593	3785.951909
492.128267	3790.647744
492.495883	3795.850214
492.863440	3800.941780
493.230939	3810.988799
493.598380	3824.322651
493.965763	3859.930842
494.333088	3880.821383
494.700354	3909.452616
495.067563	3951.997434
495.434713	3996.462932
495.801805	4050.710788
496.168839	4088.592539
496.535815	4129.574599
496.902733	4188.326727
497.269593	4229.056729
497.636395	4271.793111
498.003139	4344.910006
498.369825	4386.073548
498.736453	4458.444352
499.103023	4497.490610
499.469535	4547.995409
499.835989	4612.204586
500.202385	4659.263757
500.568723	4722.303386
500.935003	4792.572029
501.301226	4845.259649
501.667390	4948.870484
502.033497	5037.284761
502.399546	5070.773146
502.765537	5099.036375
503.131470	5186.676834
503.497345	5284.845744
503.863163	5273.868631
504.228923	5373.330597
504.594625	5477.228777
504.960269	5508.708263
505.325856	5627.815604
505.691385	5646.997195
506.056856	5739.701493
506.422270	5842.082287
506.787625	5885.106014
507.152924	5971.655064
507.518164	6059.461882
507.883347	6074.303039
508.248472	6173.283574
508.613540	6286.263393
508.978550	6384.717128
509.343503	6445.556293
509.708398	6539.094903
510.073236	6667.026785
510.438016	6746.669454
510.802738	6768.757269
511.167403	6900.585963
511.532010	7004.542117
511.896561	7124.793801
512.261053	7293.576673
512.625488	7321.925601
512.989866	7389.371199
513.354186	7452.178934
513.718449	7526.092332
514.082655	7681.531270
514.446803	7732.643529
514.810894	7863.237140
515.174927	7931.176770
515.538904	7998.350145
515.902822	8159.392325
516.266684	8163.581524
516.630488	8291.271430
516.994235	8358.832974
517.357925	8497.938573
517.721558	8597.841640
518.085133	8712.616110
518.448651	8799.147516
518.812112	8846.552006
519.175516	8918.499354
519.538863	9050.285197
519.902152	9120.591650
520.265385	9262.971478
520.628560	9343.982821
520.991678	9367.882931
521.354739	9482.957350
521.717743	9594.288712
522.080690	9644.906938
522.443580	9807.761413
522.806413	9882.534327
523.169189	9939.655641
523.531908	10040.377895
523.894569	10085.249206
524.257174	10149.286983
524.619722	10289.862078
524.982213	10334.660292
525.344647	10386.543847
525.707025	10448.338311
526.069345	10585.722357
526.431608	10625.265167
526.793815	10739.769936
527.155964	10713.729856
527.518057	10785.329364
527.880093	10801.612291
528.242072	10947.798190
528.603995	10940.211254
528.965860	10997.214101
529.327669	11073.499362
529.689421	11082.328942
530.051117	11138.321038
530.412755	11215.617050
530.774337	11263.553382
531.135862	11270.923549
531.497331	11357.192815
531.858743	11368.548014
532.220098	11478.414921
532.581396	11460.153341
532.942638	11439.073756
533.303824	11527.051973
533.664953	11546.941846
534.026025	11537.509847
534.387040	11665.071204
534.747999	11683.612567
535.108902	11752.988927
535.469748	11686.909482
535.830537	11735.007131
536.191270	11802.881226
536.551947	11770.002821
536.912567	11852.372754
537.273131	11911.611353
537.633638	11829.543889
537.994089	11901.856720
538.354483	11853.509534
538.714821	11983.846047
539.075103	12087.240112
539.435328	12049.486911
539.795497	12044.347454
540.155609	12080.366499
540.515665	12191.299610
540.875665	12077.903895
541.235609	12182.240656
541.595496	12168.760611
541.955328	12347.986233
542.315102	12236.632186
542.674821	12189.590658
543.034483	12229.506515
543.394090	12241.438926
543.753640	12232.828635
544.113134	12473.614307
544.472571	12269.356836
544.831953	12540.296170
545.191278	12386.571224
545.550548	12329.729694
545.909761	12448.837036
546.268918	12505.416426
546.628019	12582.082294
546.987064	12492.069972
547.346053	12365.075744
547.704986	12545.685163
548.063863	12453.159826
548.422684	12515.465967
548.781449	12487.016215
549.140158	12595.648039
549.498811	12549.463508
549.857408	12429.476485
550.215949	12638.538176
550.574434	12616.747788
550.932864	12566.111919
551.291237	12761.234819
551.649555	12667.718895
552.007817	12718.271586
552.366022	12657.268583
552.724173	12696.692927
553.082267	12785.628963
553.440305	12886.681412
553.798288	12723.653018
554.156215	12804.959267
554.514086	12851.416021
554.871902	12790.077781
555.229661	12815.137357
555.587365	12782.269034
555.945014	12787.847071
556.302606	12785.931432
556.660143	12850.561545
557.017625	12881.131102
557.375050	12849.724713
557.732421	12952.982668
558.089735	12959.566415
558.446994	12935.767127
558.804197	13051.063357
559.161345	13053.977144
559.518437	12862.609903
559.875474	12957.764202
560.232455	12990.526661
560.589381	13041.391903
560.946251	12987.043224
561.303065	13156.937670
561.659825	13108.219959
562.016528	13030.795398
562.373177	12974.425216
562.729770	13094.550871
563.086307	12986.556752
563.442789	13099.476078
563.799216	13133.897076
564.155587	13074.376173
564.511904	13104.907921
564.868164	13113.359416
565.224370	13164.612827
565.580520	13124.830561
565.936615	13183.807020
566.292654	13116.618522
566.648638	13195.411756
567.004567	13189.649717
567.360441	13190.935212
567.716260	13167.148527
568.072023	13255.257814
568.427732	13236.237541
568.783385	13140.785813
569.138982	13254.068102
569.494525	13244.968819
569.850013	13199.752190
570.205445	13180.487420
570.560823	13199.820245
570.916145	13148.985250
571.271412	13164.080985
571.626625	13114.350002
571.981782	13125.901806
572.336884	13069.133373
572.691931	13149.517092
573.046923	13047.847101
573.401860	13031.110470
573.756743	13029.585521
574.111570	13051.428841
574.466342	13025.978575
574.821059	13083.009149
575.175722	12958.911065
575.530330	12969.046304
575.884882	12902.104823
576.239380	12912.383735
576.593823	12890.852967
576.948211	12884.609498
577.302544	12768.239503
577.656823	12791.196917
578.011047	12837.661232
578.365216	12782.304322
578.719330	12734.667939
579.073389	12692.453316
579.427394	12711.377808
579.781344	12699.266436
580.135239	12630.830252
580.489080	12653.034014
580.842866	12531.252340
581.196597	12633.809574
581.550273	12615.111934
581.903895	12574.384452
582.257463	12683.200278
582.610975	12529.538348
582.964434	12596.106784
583.317837	12509.998835
583.671186	12474.191519
584.024481	12522.601720
584.377721	12416.009042
584.730906	12483.205103
585.084037	12500.017351
585.437113	12413.904361
585.790135	12444.864607
586.143103	12347.923218
586.496016	12356.026873
586.848874	12383.047458
587.201679	12375.364739
587.554428	12258.984662
587.907124	12299.649129
588.259765	12242.202661
588.612352	12316.095894
588.964884	12169.007627
589.317362	12222.219527
589.669786	12211.544883
590.022155	12168.511074
590.374470	12272.830191
590.726731	12164.949498
591.078937	12048.203937
591.431090	12063.879405
591.783188	12002.266423
592.135232	11918.031262
592.487222	11984.178763
592.839157	12006.042247
593.191038	11934.228490
593.542866	11874.092566
593.894639	11732.310114
594.246358	11793.638271
594.598022	11802.180506
594.949633	11703.091586
595.301190	11694.493898
595.652692	11644.498255
596.004141	11740.403686
596.355535	11514.065961
596.706876	11497.591470
597.058162	11460.372631
597.409395	11556.262939
597.760573	11583.535581
598.111698	11480.670837
598.462768	11485.472536
598.813785	11490.019657
599.164748	11363.758918
599.515657	11443.182297
599.866511	11316.719911
600.217312	11445.501227
600.568060	11216.955477
600.918753	11374.657892
601.269392	11375.225022
601.619978	11282.155240
601.970510	11321.385499
602.320988	11360.477127
602.671412	11437.223653
603.021783	11364.454597
603.372100	11292.078751
603.722363	11303.469238
604.072572	11304.716924
604.422728	11316.193111
604.772830	11262.749318
605.122878	11266.663774
605.472872	11238.826523
605.822813	11293.402054
606.172701	11258.734039
606.522534	11304.346399
606.872314	11353.558143
607.222041	11285.600868
607.571714	11352.098729
607.921333	11227.183978
608.270899	11278.669282
608.620411	11344.380722
608.969870	11289.797629
609.319276	11273.474373
609.668627	11276.695670
610.017926	11367.945596
610.367171	11393.111036
610.716362	11381.163501
611.065500	11356.983607
611.414585	11372.472552
611.763616	11440.107193
612.112594	11406.389435
612.461518	11430.355081
612.810389	11480.383491
613.159207	11413.197513
613.507971	11416.325549
613.856682	11516.052175
614.205340	11470.207922
614.553945	11605.416710
614.902496	11483.388019
615.250994	11546.029397
615.599439	11540.312728
615.947830	11569.957233
616.296169	11537.930783
616.644454	11548.459233
616.992686	11566.551934
617.340864	11655.402271
617.688990	11544.706094
618.037063	11681.250787
618.385082	11640.482976
618.733048	11683.728514
619.080961	11676.033193
619.428821	11650.598051
619.776628	11660.508959
620.124382	11610.195723
620.472083	11632.621296
620.819731	11654.988896
621.167326	11572.407234
621.514868	11551.105839
621.862357	11462.762138
622.209793	11457.300048
622.557176	11371.590350
622.904506	11323.457413
623.251783	11240.207799
623.599007	11180.288644
623.946179	11120.757658
624.293297	11102.264185
624.640363	10969.603701
624.987376	10962.263781
625.334336	10890.427339
625.681243	10810.162088
626.028097	10776.623291
626.374899	10743.563404
626.721647	10715.900072
627.068343	10667.068936
627.414987	10613.418456
627.761577	10535.169666
628.108115	10584.522562
628.454600	10460.661412
628.801032	10477.594648
629.147412	10460.500095
629.493739	10436.320201
629.840014	10344.011632
630.186236	10397.586495
630.532405	10298.162338
630.878521	10335.343368
631.224585	10289.519280
631.570597	10215.958763
631.916556	10216.707374
632.262462	10213.226458
632.608316	10184.663280
632.954117	10157.604887
633.299866	10147.222630
633.645562	10125.051636
633.991206	10019.444504
634.336797	9920.433722
634.682336	9913.721425
635.027823	9856.703455
635.373257	9819.386313
635.718639	9753.914328
636.063968	9719.566426
636.409245	9602.687274
636.754470	9595.780893
637.099642	9537.694198
637.444762	9447.200446
637.789829	9448.085168
638.134845	9376.793170
638.479808	9351.514304
638.824719	9317.322678
639.169577	9233.450481
639.514383	9232.285975
639.859137	9167.202158
640.203839	9193.884985
640.548489	9114.562430
640.893086	9129.020459
641.237632	9060.586795
641.582125	9064.380264
641.926566	9054.928100
642.270955	9039.686172
642.615292	9026.803503
642.959576	9012.264815
643.303809	9006.265842
643.647990	9009.194753
643.992118	8991.296136
644.336195	8961.202968
644.680219	8963.189183
645.024192	8995.870983
645.368112	9077.520031
645.711981	9052.518429
646.055797	9197.388587
646.399562	9148.570053
646.743274	9310.444024
647.086935	9378.451710
647.430544	9349.026495
647.774101	9376.155464
648.117606	9401.794773
648.461059	9464.216860
648.804460	9394.900995
649.147810	9280.645764
649.491108	9241.929702
649.834354	9172.061830
650.177548	9041.732880
650.520690	8945.603117
650.863781	8945.499774
651.206820	8918.753932
651.549807	8822.097369
651.892742	8733.436075
652.235626	8690.944190
652.578458	8660.432606
652.921238	8552.824136
653.263967	8584.222963
653.606644	8525.717852
653.949269	8501.290941
654.291843	8422.870752
654.634365	8488.204105
654.976836	8412.954802
655.319255	8410.509842
655.661622	8397.400322
656.003938	8353.590174
656.346203	8320.694125
656.688416	8346.240172
657.030577	8303.735683
657.372687	8269.448275
657.714746	8302.203173
658.056753	8317.760173
658.398708	8222.714259
658.740612	8212.422743
659.082465	8252.941017
659.424266	8217.103454
659.766016	8226.331287
660.107715	8194.340124
660.449362	8222.936069
660.790958	8213.632620
661.132503	8209.851755
661.473996	8209.294707
661.815438	8227.621822
662.156829	8255.723734
662.498168	8203.504942
662.839456	8199.114097
663.180693	8216.241417
663.521879	8235.415446
663.863013	8221.529587
664.204097	8219.205616
664.545129	8294.485166
664.886110	8283.737426
665.227040	8283.606356
665.567918	8296.337790
665.908746	8307.632495
666.249522	8327.277872
666.590248	8323.111358
666.930922	8340.165582
667.271545	8327.900454
667.612118	8350.568003
667.952639	8307.463617
668.293109	8312.943351
668.633528	8295.848798
668.973896	8272.296527
669.314213	8279.999410
669.654480	8239.395437
669.994695	8231.087615
670.334859	8215.064308
670.674973	8198.030249
671.015035	8215.180254
671.355047	8210.489461
671.695008	8199.189714
672.034918	8167.533789
672.374777	8176.958226
672.714585	8150.819843
673.054342	8182.823608
673.394049	8148.949575
673.733705	8190.876852
674.073310	8138.010271
674.412864	8145.498905
674.752368	8080.125222
675.091820	8135.356104
675.431223	8068.805311
675.770574	8020.788321
676.109875	7982.624266
676.449125	7947.147145
676.788324	7934.796318
677.127473	7846.412289
677.466571	7838.981628
677.805619	7776.478882
678.144616	7774.550641
678.483562	7755.167404
678.822458	7707.094961
679.161303	7695.165070
679.500098	7671.857296
679.838842	7646.979201
680.177535	7659.882035
680.516179	7692.331942
680.854771	7711.034623
681.193314	7831.855957
681.531805	7986.203485
681.870247	8105.764531
682.208638	8263.638346
682.546978	8335.358841
682.885268	8368.927885
683.223508	8295.352244
683.561697	8239.912155
683.899836	8207.452165
684.237925	8125.417469
684.575963	8096.642563
684.913951	8010.769027
685.251889	8033.880197
685.589776	8028.415587
685.927614	8010.166610
686.265401	8040.884881
686.603137	8036.640229
686.940824	8111.100592
687.278460	8161.920464
687.616046	8173.918410
687.953582	8282.305738
688.291068	8258.657686
688.628504	8317.898805
688.965889	8326.975403
689.303224	8283.555944
689.640510	8235.680106
689.977745	8132.833006
690.314930	8010.378338
690.652065	7941.511135
690.989150	7826.882859
691.326185	7674.387955
691.663170	7565.836789
692.000105	7444.518901
692.336990	7328.252249
692.673825	7254.376660
693.010610	7154.103069
693.347345	7062.775006
693.684030	6953.593696
694.020665	6903.439256
694.357251	6795.767772
694.693786	6781.246728
695.030272	6740.544452
695.366707	6648.790411
695.703093	6593.741011
696.039429	6590.980979
696.375716	6544.466252
696.711952	6531.974273
697.048139	6502.642319
697.384276	6474.265664
697.720363	6490.674620
698.056400	6467.450024
698.392388	6435.947854
698.728326	6431.466268
699.064214	6407.687146
699.400053	6401.602473
699.735842	6342.915880
700.071581	6296.504497
700.407270	6252.407004
700.742910	6225.336008
701.078501	6180.341189
701.414042	6138.171937
701.749533	6085.501962
702.084974	6027.621954
702.420366	6066.141411
702.755709	5992.054093
703.091002	5941.851763
703.426246	5945.378050
703.761440	5933.480927
704.096584	5893.988528
704.431679	5879.132247
704.766725	5857.546026
705.101721	5845.190158
705.436668	5861.500812
705.771565	5806.784128
706.106413	5865.906780
706.441212	5858.904617
706.775961	5879.633842
707.110661	5884.511158
707.445311	5944.760508
707.779913	5911.314973
708.114465	5948.743020
708.448967	5997.778323
708.783421	6108.787052
709.117825	6150.699205
709.452180	6185.533578
709.786485	6245.477938
710.120742	6376.273195
710.454949	6373.188009
710.789107	6460.417615
711.123216	6579.613177
711.457275	6611.546366
711.791286	6718.330607
712.125247	6741.156952
712.459159	6706.483896
712.793023	6841.125553
713.126837	6664.942268
713.460602	6725.612554
713.794318	6687.312388
714.127985	6629.061855
714.461602	6487.387788
714.795171	6487.486090
715.128691	6317.773126
715.462162	6230.329271
715.795584	6168.733933
716.128957	6122.022601
716.462281	6050.929729
716.795556	6015.001426
717.128782	5927.182005
717.461960	5827.026881
717.795088	5822.520089
718.128167	5748.760447
718.461198	5669.251368
718.794180	5645.116844
719.127113	5585.288431
719.459997	5552.014295
719.792833	5488.790664
720.125619	5486.078523
720.458357	5419.691568
720.791046	5393.336416
721.123686	5362.182085
721.456278	5323.067772
721.788821	5313.083767
722.121315	5274.206388
722.453761	5282.546978
722.786158	5264.159369
723.118506	5267.572230
723.450805	5243.336883
723.783056	5268.293115
724.115259	5245.504579
724.447412	5234.134257
724.779518	5280.820382
725.111574	5288.366990
725.443582	5324.300334
725.775542	5311.442871
726.107453	5393.817846
726.439315	5371.387232
726.771129	5444.995640
727.102895	5508.468808
727.434612	5547.326022
727.766281	5576.017749
728.097901	5629.713599
728.429473	5646.425024
728.760996	5653.452392
729.092471	5676.104817
729.423897	5665.190719
729.755276	5637.139218
730.086606	5650.231095
730.417887	5738.748715
730.749120	5831.763045
731.080305	5869.591863
731.411442	5945.862001
731.742530	5968.345547
732.073570	5997.274208
732.404562	6055.930554
732.735506	6049.072064
733.066401	6031.743098
733.397249	5962.399506
733.728048	5860.747159
734.058798	5720.633329
734.389501	5600.555565
734.720156	5512.403428
735.050762	5409.805865
735.381320	5334.649823
735.711831	5278.657727
736.042293	5198.626889
736.372707	5195.309810
736.703073	5147.076050
737.033391	5180.753478
737.363661	5162.849821
737.693883	5173.456408
738.024056	5204.421696
738.354182	5222.262339
738.684260	5272.973826
739.014290	5313.166946
739.344272	5347.161967
739.674207	5404.661368
740.004093	5434.941058
740.333931	5441.529846
740.663722	5458.216066
740.993464	5468.459690
741.323159	5451.090395
741.652806	5411.093880
741.982405	5382.046752
742.311956	5328.842414
742.641460	5316.128624
742.970915	5260.048308
743.300323	5202.042271
743.629683	5166.176982
743.958996	5118.684272
744.288260	5067.390531
744.617477	5006.611860
744.946647	4986.714426
745.275768	4939.745995
745.604842	4905.277106
745.933869	4866.649265
746.262847	4861.610631
746.591778	4853.012943
746.920662	4827.108974
747.249498	4822.735773
747.578286	4839.797559
747.907027	4862.704562
748.235720	4905.143515
748.564365	4915.591307
748.892963	4902.232249
749.221514	4919.775464
749.550017	4896.835694
749.878473	4893.357298
750.206881	4855.641905
750.535242	4840.722610
750.863555	4823.867512
751.191821	4804.713648
751.520039	4813.321419
751.848210	4791.004231
752.176334	4799.982526
752.504411	4780.553919
752.832440	4747.443620
753.160421	4759.287811
753.488356	4737.452053
753.816243	4723.598962
754.144082	4691.880022
754.471875	4678.369730
754.799620	4668.035365
755.127318	4657.663191
755.454969	4658.464734
755.782572	4648.473167
756.110129	4651.281090
756.437638	4635.293071
756.765100	4635.136795
757.092515	4635.081342
757.419882	4636.404645
757.747203	4635.320797
758.074477	4647.044000
758.401703	4638.065705
758.728882	4670.671888
759.056014	4678.044576
759.383099	4702.068194
759.710138	4730.457452
760.037129	4749.094598
760.364073	4759.713789
760.690970	4764.258389
761.017820	4763.734109
761.344623	4799.528822
761.671379	4857.187019
761.998088	4947.968117
762.324751	5176.702911
762.651366	5639.117871
762.977935	6325.975083
763.304456	6878.820781
763.630931	7182.361257
763.957359	7117.355578
764.283740	6820.028324
764.610074	6503.620303
764.936362	6106.715138
765.262602	5789.987003
765.588796	5442.911122
765.914943	5190.495508
766.241044	4963.910766
766.567097	4797.923214
766.893104	4649.942664
767.219064	4549.217889
767.544978	4454.590390
767.870845	4373.921847
768.196665	4321.105678
768.522438	4274.429634
768.848165	4233.072008
769.173846	4193.534238
769.499479	4164.693797
769.825066	4132.705156
770.150607	4091.982715
770.476101	4076.758430
770.801548	4049.372362
771.126949	4022.467724
771.452303	4002.280423
771.777611	3965.290957
772.102872	3960.204433
772.428087	3939.618881
772.753256	3909.238367
773.078378	3891.720358
773.403453	3857.090151
773.728482	3834.611646
774.053465	3821.955830
774.378401	3800.165442
774.703291	3780.789767
775.028135	3753.660798
775.352932	3746.822473
775.677683	3730.045513
776.002388	3710.818552
776.327046	3711.070610
776.651658	3690.855583
776.976224	3670.874969
777.300743	3671.303468
777.625216	3656.487516
777.949643	3646.143069
778.274024	3647.141217
778.598359	3628.315028
778.922647	3629.933238
779.246889	3619.114922
779.571086	3619.487968
779.895236	3619.114922
780.219339	3619.477885
780.543397	3616.755662
780.867409	3632.960451
781.191374	3636.048158
781.515294	3624.166158
781.839167	3641.898417
782.162995	3637.865494
782.486776	3632.063126
782.810511	3623.904018
783.134201	3606.564970
783.457844	3609.471195
783.781441	3603.139506
784.104993	3592.111982
784.428498	3586.954881
784.751958	3585.129984
785.075372	3578.987338
785.398739	3567.559042
785.722061	3577.714446
786.045337	3574.795618
786.368568	3603.217644
786.691752	3597.770677
787.014891	3643.705671
787.337983	3688.788710
787.661030	3778.042338
787.984031	3871.235629
788.306987	3950.359059
788.629897	3996.798168
788.952760	4004.309488
789.275579	3991.426819
789.598351	3939.034107
789.921078	3886.878329
790.243759	3825.504802
790.566395	3777.938995
790.888984	3728.921335
791.211529	3694.293650
791.534027	3649.056856
791.856480	3610.376082
792.178888	3592.157352
792.501249	3572.285124
792.823566	3540.291441
793.145836	3537.480998
793.468062	3526.818957
793.790241	3506.971934
794.112375	3515.390661
794.434464	3536.971841
794.756507	3537.508724
795.078505	3555.659398
795.400457	3594.856890
795.722364	3641.537975
796.044226	3692.783824
796.366042	3733.576841
796.687812	3731.313363
797.009538	3757.940738
797.331218	3745.957915
797.652852	3738.549939
797.974442	3720.162331
798.295986	3703.665155
798.617484	3677.960311
798.938938	3656.921056
799.260346	3639.629898
799.581709	3603.598251
799.903026	3587.786672
800.224299	3570.346800
800.545526	3543.850495
800.866708	3523.632948
801.187845	3508.512007
801.508936	3487.777741
801.829983	3481.998058
802.150984	3452.872792
802.471940	3443.544137
802.792851	3443.037501
803.113717	3430.777415
803.434538	3421.453801
803.755314	3411.169847
804.076045	3406.166502
804.396731	3397.904050
804.717372	3395.890109
805.037967	3394.707959
805.358518	3394.292064
805.679024	3407.784712
805.999485	3406.479053
806.319901	3409.067686
806.640272	3413.062800
806.960598	3423.074532
807.280879	3425.365736
807.601115	3433.529885
807.921306	3424.057557
808.241453	3431.463012
808.561554	3437.497273
808.881611	3434.089453
809.201623	3433.005605
809.521590	3423.288781
809.841513	3425.491765
810.161390	3434.255811
810.481223	3407.774630
810.801011	3412.001637
811.120755	3407.245308
811.440453	3393.480438
811.760107	3388.048595
812.079716	3383.849313
812.399281	3368.919936
812.718801	3370.971686
813.038276	3361.239738
813.357707	3356.773276
813.677093	3363.271323
813.996434	3345.647450
814.315731	3355.034078
814.634983	3355.477700
814.954191	3356.228832
815.273354	3373.618292
815.592473	3379.524003
815.911547	3397.939338
816.230577	3414.998603
816.549562	3443.579425
816.868502	3458.234059
817.187399	3481.950167
817.506250	3508.494363
817.825058	3516.325795
818.143821	3559.588978
818.462539	3606.030607
818.781213	3661.367353
819.099843	3747.598810
819.418429	3897.799989
819.736970	4047.943195
820.055466	4231.892378
820.373919	4467.473059
820.692327	4807.604750
821.010691	5319.959901
821.329011	6394.416308
821.647286	8119.519319
821.965517	10276.180387
822.283704	11893.843806
822.601847	12956.082977
822.919945	12547.900750
823.237999	11872.408820
823.556010	10987.580456
823.873976	10034.010918
824.191897	9080.857275
824.509775	8318.150863
824.827609	7516.191506
825.145398	6968.573484
825.463144	6591.651452
825.780845	6461.703109
826.098502	6526.857502
826.416116	6903.852631
826.733685	7413.036895
827.051210	7686.988319
827.368692	7595.317457
827.686129	7151.239694
828.003522	6605.312979
828.320872	6041.654006
828.638177	5589.054172
828.955439	5220.271083
829.272656	4887.350763
829.589830	4601.469449
829.906960	4342.454964
830.224046	4133.620125
830.541088	3967.178869
830.858086	3851.625541
831.175041	3754.885798
831.491952	3708.653376
831.808819	3688.844162
832.125642	3726.970409
832.442421	3826.205522
832.759157	4045.455385
833.075849	4420.512190
833.392497	4883.383375
833.709101	5269.137508
834.025662	5371.959403
834.342179	5244.836626
834.658653	4983.709898
834.975083	4710.565059
835.291469	4468.171259
835.607811	4243.171960
835.924110	4086.460131
836.240366	3927.169752
836.556578	3764.106069
836.872746	3632.862149
837.188871	3517.598687
837.504952	3424.412958
837.820990	3348.311699
838.136984	3290.676188
838.452935	3263.516971
838.768842	3252.681011
839.084706	3286.154273
839.400526	3420.732916
839.716303	3643.443531
840.032037	3857.153166
840.347727	3918.360335
840.663373	3829.701562
840.978977	3679.089530
841.294537	3547.885939
841.610054	3445.172429
841.925527	3370.031511
842.240957	3305.131696
842.556344	3241.661049
842.871687	3182.419929
843.186987	3122.036988
843.502244	3066.906930
843.817458	3029.985519
844.132629	2994.926815
844.447756	2975.667087
844.762840	2950.554579
845.077881	2935.942794
845.392879	2924.839653
845.707833	2910.026222
846.022745	2898.340828
846.337613	2895.399314
846.652438	2885.881616
846.967221	2883.245093
847.281960	2874.309647
847.596656	2872.235213
847.911309	2864.691126
848.225919	2861.459746
848.540485	2859.493696
848.855009	2853.192254
849.169490	2850.860720
849.483928	2848.463652
849.798323	2847.243692
850.112675	2843.367045
850.426984	2841.257322
850.741251	2837.957887
851.055474	2838.882939
851.369654	2839.364369
851.683792	2836.901765
851.997887	2832.455467
852.311938	2834.018225
852.625947	2833.670386
852.939914	2835.326405
853.253837	2835.739779
853.567718	2833.856908
853.881555	2832.415138
854.195350	2833.599809
854.509103	2834.040910
854.822812	2834.950839
855.136479	2833.143585
855.450103	2836.508555
855.763685	2830.517144
856.077224	2833.332628
856.390720	2833.899758
856.704173	2837.534430
857.017584	2835.797752
857.330953	2841.433762
857.644278	2841.128773
857.957561	2845.018023
858.270802	2843.666994
858.584000	2845.466686
858.897155	2846.401820
859.210268	2842.779751
859.523339	2838.532578
859.836367	2838.429235
860.149352	2837.305057
860.462295	2837.690706
860.775195	2833.715756
861.088054	2828.624191
861.400869	2830.141578
861.713642	2828.677123
862.026373	2831.064109
862.339062	2834.734069
862.651708	2833.589727
862.964312	2840.944771
863.276873	2840.284379
863.589392	2851.246368
863.901869	2857.925897
864.214303	2865.369161
864.526696	2872.560367
864.839045	2879.663353
865.151353	2885.042264
865.463619	2887.787172
865.775842	2890.005280
866.088023	2891.368912
866.400162	2892.102400
866.712258	2893.115672
867.024313	2897.584655
867.336325	2895.003584
867.648296	2898.890313
867.960224	2898.779408
868.272110	2897.481311
868.583954	2902.114131
868.895755	2904.052455
869.207515	2903.689492
869.519233	2909.363311
869.830909	2911.084865
870.142542	2916.357912
870.454134	2916.325144
870.765684	2924.653130
871.077191	2931.612443
871.388657	2937.041766
871.700081	2939.527055
872.011463	2946.561985
872.322803	2952.006431
872.634101	2956.956844
872.945357	2960.962041
873.256571	2973.726242
873.567744	2981.812253
873.878874	2983.274188
874.189963	2989.653768
874.501010	2996.177021
874.812015	2995.786332
875.122979	3004.696571
875.433900	3004.762106
875.744780	3007.824607
876.055618	3016.109743
876.366415	3013.657222
876.677169	3019.288191
876.987882	3027.500230
877.298554	3034.567928
877.609183	3051.211298
877.919771	3067.158988
878.230317	3089.145980
878.540822	3132.706591
878.851285	3179.100329
879.161707	3245.331009
879.472087	3350.323120
879.782425	3513.530476
880.092722	3785.374697
880.402977	4205.610323
880.713191	4746.503445
881.023363	5336.941028
881.333494	5773.182317
881.643583	6062.441204
881.953631	6132.407378
882.263637	6075.613739
882.573602	5936.412358
882.883526	5769.792141
883.193408	5566.837807
883.503248	5350.277400
883.813048	5132.935614
884.122806	4922.137245
884.432522	4680.159340
884.742197	4459.122388
885.051831	4251.217641
885.361424	4054.584915
885.670975	3886.434708
885.980485	3740.863829
886.289954	3617.698358
886.599382	3517.752442
886.908768	3436.070626
887.218113	3354.958461
887.527417	3292.899336
887.836680	3235.553691
888.145901	3191.226825
888.455082	3153.221566
888.764221	3120.028089
889.073319	3091.026331
889.382376	3071.040676
889.691392	3054.692214
890.000366	3044.007489
890.309300	3035.772764
890.618193	3038.714277
890.927044	3031.066847
891.235855	3034.424255
891.544625	3032.574152
891.853353	3042.263249
892.162041	3055.042574
892.470687	3076.230544
892.779293	3114.371914
893.087858	3157.960251
893.396381	3237.335739
893.704864	3342.779033
894.013306	3497.970954
894.321707	3682.857792
894.630068	3833.520237
894.938387	3910.770878
895.246665	3918.763627
895.554903	3861.899412
895.863100	3775.030249
896.171256	3701.557952
896.479371	3626.709421
896.787446	3549.703275
897.095480	3481.879591
897.403473	3430.401849
897.711425	3370.152498
898.019336	3321.477638
898.327207	3265.099893
898.635038	3221.675394
898.942827	3169.408711
899.250576	3127.370529
899.558284	3088.422575
899.865952	3062.473235
900.173579	3032.652290
900.481165	3014.138652
900.788711	2991.133347
901.096216	2978.343939
901.403681	2964.238791
901.711105	2956.959365
902.018489	2946.670370
902.325832	2958.186886
902.633135	2970.245326
902.940397	3006.667662
903.247619	3096.690067
903.554800	3270.123403
903.861941	3541.516441
904.169041	3803.348931
904.476101	3972.792194
904.783121	3993.236593
905.090100	3922.912497
905.397039	3822.187723
905.703938	3717.097309
906.010796	3617.516877
906.317614	3531.897920
906.624391	3447.541772
906.931129	3374.432438
907.237826	3309.530103
907.544483	3244.342942
907.851099	3172.035152
908.157675	3099.182917
908.464211	3028.120292
908.770707	2971.125007
909.077163	2926.155394
909.383578	2889.758263
909.689954	2859.637369
909.996289	2843.036849
910.302584	2825.838953
910.608839	2818.753611
910.915054	2810.574339
911.221229	2802.642084
911.527363	2804.295582
911.833458	2807.315233
912.139513	2808.613330
912.445527	2811.456541
912.751502	2823.855259
913.057436	2839.792867
913.363331	2857.961185
913.669186	2884.830535
913.975000	2924.784200
914.280775	2981.484578
914.586510	3065.082032
914.892205	3172.977848
915.197859	3321.109633
915.503475	3496.070439
915.809050	3672.783046
916.114585	3801.198879
916.420081	3876.765775
916.725536	3906.133017
917.030952	3871.044065
917.336328	3833.424455
917.641665	3783.474182
917.946961	3724.154924
918.252218	3668.361954
918.557435	3592.842949
918.862612	3529.193341
919.167750	3467.545070
919.472848	3393.165366
919.777906	3329.026765
920.082925	3259.136208
920.387904	3189.984181
920.692843	3131.481590
920.997743	3083.719178
921.302603	3034.991385
921.607423	2999.499141
921.912204	2963.454891
922.216946	2938.589400
922.521647	2911.881367
922.826310	2894.282699
923.130932	2874.508773
923.435516	2853.958509
923.740059	2840.765810
924.044564	2826.269972
924.349028	2813.576346
924.653454	2797.018677
924.957840	2785.907973
925.262186	2775.331633
925.566493	2767.326280
925.870761	2753.616862
926.174989	2750.466141
926.479178	2742.566653
926.783328	2733.860581
927.087438	2727.458315
927.391509	2721.000597
927.695541	2714.404247
927.999533	2708.125490
928.303486	2700.883873
928.607400	2701.385467
928.911275	2696.593851
929.215110	2692.911288
929.518906	2691.111596
929.822663	2689.594209
930.126381	2690.413396
930.430060	2688.134795
930.733699	2688.316276
931.037299	2691.777028
931.340861	2692.026565
931.644383	2691.313242
931.947866	2692.583613
932.251309	2690.912470
932.554714	2691.988757
932.858080	2690.052954
933.161407	2690.552028
933.464694	2688.472552
933.767943	2685.231090
934.071153	2684.641275
934.374323	2685.092458
934.677455	2682.962571
934.980548	2681.120029
935.283602	2682.637416
935.586617	2677.439987
935.889593	2680.021057
936.192530	2679.494257
936.495428	2680.036181
936.798287	2684.714372
937.101108	2687.275278
937.403890	2694.957996
937.706632	2705.060469
938.009336	2717.459187
938.312002	2728.859756
938.614628	2738.405181
938.917216	2748.094278
939.219765	2755.550145
939.522275	2762.234715
939.824747	2764.470467
940.127179	2762.988367
940.429573	2764.465426
940.731929	2765.761002
941.034246	2763.472318
941.336524	2764.750251
941.638763	2767.994233
941.940964	2765.440889
942.243126	2757.090217
942.545250	2756.482758
942.847335	2749.538569
943.149381	2742.402816
943.451389	2737.684296
943.753359	2729.636094
944.055290	2726.432440
944.357182	2723.311966
944.659036	2718.807695
944.960851	2715.407437
945.262628	2711.195553
945.564367	2713.698486
945.866067	2709.622713
946.167729	2710.734287
946.469352	2709.511807
946.770937	2709.461396
947.072484	2702.297916
947.373992	2705.572146
947.675462	2702.592824
947.976893	2699.560570
948.278286	2698.106197
948.579641	2700.538554
948.880958	2697.029911
949.182236	2697.297092
949.483476	2696.924046
949.784678	2697.428162
950.085841	2695.444468
950.386967	2701.075437
950.688054	2700.480580
950.989103	2700.430169
951.290114	2701.670293
951.591087	2706.393854
951.892021	2711.583722
952.192917	2717.275184
952.493776	2720.577140
952.794596	2722.008828
953.095378	2721.681153
953.396122	2725.953531
953.696828	2723.662326
953.997496	2723.138046
954.298126	2722.160062
954.598718	2718.845504
954.899272	2713.133877
955.199788	2708.886704
955.500266	2706.655994
955.800706	2698.854808
956.101108	2688.744774
956.401472	2686.819053
956.701798	2679.481654
957.002087	2672.202228
957.302337	2667.982782
957.602550	2664.199396
957.902724	2659.173366
958.202861	2654.101965
958.502960	2646.411685
958.803022	2645.721047
959.103045	2640.967239
959.403031	2637.440952
959.702979	2634.058337
960.002889	2634.338121
960.302762	2627.978706
960.602596	2624.848149
960.902393	2624.064250
961.202153	2621.634414
961.501875	2622.153652
961.801559	2622.645165
962.101205	2618.702983
962.400814	2616.684001
962.700385	2615.418671
962.999918	2616.000924
963.299414	2613.838269
963.598873	2613.618979
963.898293	2612.489761
964.197677	2610.795933
964.497022	2610.962291
964.796331	2609.999431
965.095601	2609.601179
965.394835	2610.054883
965.694030	2608.114039
965.993189	2611.058073
966.292309	2607.463730
966.591393	2608.025819
966.890439	2605.963987
967.189447	2605.071703
967.488419	2605.162443
967.787353	2606.173195
968.086249	2605.875767
968.385108	2608.880294
968.683930	2607.433483
968.982714	2608.655963
969.281462	2609.439862
969.580172	2609.633947
969.878844	2611.930192
970.177480	2611.453803
970.476078	2611.597476
970.774639	2616.074021
971.073162	2615.441356
971.371649	2614.906994
971.670098	2615.582508
971.968510	2615.431274
972.266885	2617.745163
972.565223	2623.023252
972.863524	2620.023765
973.161788	2622.783797
973.460014	2624.371760
973.758204	2625.390073
974.056356	2627.651031
974.354471	2624.694394
974.652550	2625.803448
974.950591	2624.044085
975.248595	2627.550208
975.546563	2624.160032
975.844493	2622.967799
976.142386	2620.873199
976.440243	2622.269599
976.738062	2622.662809
977.035845	2619.759104
977.333590	2619.136522
977.631299	2616.918414
977.928971	2620.167438
978.226606	2615.877416
978.524204	2615.632920
978.821765	2615.713578
979.119290	2616.071500
979.416777	2613.097220
979.714228	2614.707868
980.011642	2615.685852
980.309020	2617.228445
980.606360	2617.646861
980.903664	2622.413272
981.200931	2626.426030
981.498162	2632.654376
981.795356	2647.374545
982.092513	2658.432316
982.389633	2676.754390
982.686717	2695.270548
982.983764	2710.734287
983.280775	2725.799776
983.577749	2728.519478
983.874686	2730.135168
984.171587	2727.609550
984.468451	2721.844990
984.765279	2716.095554
985.062070	2707.639019
985.358824	2700.639377
985.655543	2690.985567
985.952224	2680.200018
986.248869	2672.514779
986.545478	2654.916111
986.842050	2641.622589
987.138586	2634.910292
987.435086	2623.323200
987.731549	2615.464041
988.027975	2614.150821
988.324366	2609.858278
988.620719	2606.478185
988.917037	2603.125817
989.213318	2602.480550
989.509563	2601.638677
989.805772	2597.111721
990.101944	2598.263624
990.398080	2598.036772
990.694180	2596.572317
990.990244	2598.941660
991.286271	2596.209354
991.582262	2597.361258
991.878217	2598.737493
992.174136	2598.765219
992.470019	2594.833119
992.765865	2598.094746
993.061676	2601.200097
993.357450	2602.523399
993.653188	2602.251177
993.948890	2602.964500
994.244556	2607.385592
994.540186	2611.373145
994.835780	2616.646192
995.131337	2623.671040
995.426859	2629.733027
995.722345	2638.396250
996.017795	2651.011738
996.313208	2657.212357
996.608586	2664.096052
996.903928	2667.070333
997.199234	2669.149809
997.494504	2670.584017
997.789738	2666.596465
998.084936	2663.874242
998.380099	2659.468273
998.675225	2654.238076
998.970316	2649.743887
999.265371	2642.398926
999.560390	2635.636218
999.855373	2629.256638
1000.150320	2625.193468
1000.445232	2617.382200
1000.740108	2610.916921
1001.034948	2608.582866
1001.329752	2606.463061
1001.624521	2604.449120
1001.919254	2595.740527
1002.213951	2596.640373
1002.508613	2592.930084
1002.803239	2591.531163
1003.097829	2589.302973
1003.392384	2593.560228
1003.686903	2592.937645
1003.981386	2592.367995
1004.275834	2587.760380
1004.570246	2591.059816
1004.864623	2588.647623
1005.158964	2588.609815
1005.453270	2588.743405
1005.747540	2586.913467
1006.041775	2586.726944
1006.335974	2587.084866
1006.630138	2586.605956
1006.924266	2587.019331
1007.218359	2587.402458
1007.512416	2587.190730
1007.806438	2586.232911
1008.100425	2587.674681
1008.394376	2586.583271
1008.688292	2586.724423
1008.982172	2588.304825
1009.276017	2585.648137
1009.569827	2585.575040
1009.863602	2586.227870
1010.157341	2584.019844
1010.451045	2584.332396
1010.744714	2584.017324
1011.038347	2585.817016
1011.331945	2584.725606
1011.625508	2586.104361
1011.919036	2583.614031
1012.212528	2583.334247
1012.505986	2582.535224
1012.799408	2582.144535
1013.092795	2582.124370
1013.386147	2584.271902
1013.679464	2583.152766
1013.972745	2581.121181
1014.265992	2581.877354
1014.559204	2582.250399
1014.852380	2583.029257
1015.145521	2581.804257
1015.438628	2583.999680
1015.731699	2583.306521
1016.024736	2584.362643
1016.317737	2582.613362
1016.610703	2582.109247
1016.903635	2581.189236
1017.196531	2582.162179
1017.489393	2583.099834
1017.782219	2580.556572
1018.075011	2584.034968
1018.367768	2583.349371
1018.660490	2585.063363
1018.953177	2585.063363
1019.245829	2585.063363
