Dividing Wavelength (nm)	Counts (n)	Blue Motor Position (mm): 39.000000	Red Motor Position (mm): 0.000000	
326.493990	2153.318783
326.888308	2153.318783
327.282561	2153.318783
327.676750	2126.880452
328.070874	2129.834568
328.464933	2136.957718
328.858929	2146.218318
329.252859	2157.646614
329.646726	2175.081444
330.040528	2186.174503
330.434265	2205.530013
330.827938	2225.505586
331.221547	2242.156517
331.615091	2264.083015
332.008571	2283.859462
332.401986	2304.356793
332.795338	2326.164825
333.188625	2344.307938
333.581847	2364.175125
333.975006	2383.540718
334.368100	2401.653583
334.761129	2420.792324
335.154095	2432.976793
335.546996	2459.710032
335.939833	2493.798314
336.332606	2505.042608
336.725315	2516.919566
337.117960	2524.012469
337.510540	2534.329191
337.903056	2540.756662
338.295508	2546.833773
338.687896	2554.695452
339.080220	2565.143244
339.472480	2568.969479
339.864676	2571.316137
340.256807	2574.487022
340.648875	2574.529872
341.040879	2579.097157
341.432818	2581.655543
341.824694	2579.538258
342.216506	2582.593198
342.608253	2581.516911
342.999937	2582.736871
343.391557	2579.266036
343.783113	2577.912486
344.174605	2577.363001
344.566033	2573.771178
344.957397	2574.797053
345.348697	2571.429562
345.739934	2572.815880
346.131106	2566.695919
346.522215	2568.873698
346.913260	2561.692574
347.304241	2564.026628
347.695159	2562.577296
348.086012	2561.284240
348.476802	2559.741647
348.867528	2558.861966
349.258191	2553.742674
349.648789	2556.013714
350.039324	2552.270657
350.429796	2555.076059
350.820203	2551.390976
351.210548	2552.454659
351.600828	2551.864844
351.991045	2551.907694
352.381198	2552.426933
352.771288	2550.314690
353.161314	2550.269319
353.551276	2549.140101
353.941175	2548.570450
354.331010	2549.112374
354.720782	2548.681356
355.110490	2549.503064
355.500135	2549.984494
355.889717	2552.525236
356.279235	2549.760163
356.668689	2550.284443
357.058080	2554.035061
357.447408	2549.613969
357.836672	2548.469627
358.225873	2549.485420
358.615010	2547.912580
359.004084	2552.706717
359.393095	2554.327448
359.782043	2554.350133
360.170927	2556.888354
360.559748	2555.030689
360.948505	2556.411965
361.337199	2557.929353
361.725830	2556.701832
362.114398	2558.854404
362.502903	2558.042778
362.891344	2558.045299
363.279722	2557.074877
363.668037	2558.788869
364.056289	2559.056050
364.444478	2558.972871
364.832603	2558.496482
365.220665	2561.811041
365.608665	2560.374312
365.996601	2562.327759
366.384474	2559.620660
366.772284	2562.012687
367.160031	2561.574107
367.547715	2564.155177
367.935336	2562.819272
368.322893	2563.225085
368.710388	2564.770198
369.097820	2567.068964
369.485189	2567.530230
369.872495	2565.969993
370.259738	2564.462688
370.646918	2562.849519
371.034035	2564.094684
371.421090	2566.902606
371.808081	2565.533933
372.195010	2566.083419
372.581875	2563.288099
372.968678	2568.626681
373.355418	2565.811197
373.742096	2567.573080
374.128710	2566.658110
374.515262	2567.207596
374.901751	2568.732545
375.288177	2567.525189
375.674540	2569.261866
376.060841	2566.635425
376.447079	2567.570559
376.833254	2571.379151
377.219367	2565.246587
377.605417	2567.157185
377.991404	2564.535785
378.377329	2568.024263
378.763191	2566.456464
379.148991	2569.221537
379.534727	2572.173133
379.920402	2573.100705
380.306013	2570.219686
380.691563	2573.138514
381.077049	2571.905952
381.462474	2572.044583
381.847835	2573.670355
382.233134	2575.117167
382.618371	2571.464851
383.003545	2576.064903
383.388657	2575.429718
383.773706	2575.964080
384.158693	2576.768144
384.543618	2574.421487
384.928480	2575.701940
385.313280	2578.867785
385.698017	2576.223700
386.082692	2579.034143
386.467305	2576.808474
386.851856	2576.130438
387.236344	2576.558937
387.620770	2579.949112
388.005133	2579.583629
388.389435	2582.079000
388.773674	2577.652867
389.157851	2579.051787
389.541965	2579.734863
389.926018	2579.916345
390.310008	2579.999524
390.693936	2582.653692
391.077802	2581.010275
391.461606	2582.497416
391.845348	2582.870461
392.229027	2581.763928
392.612645	2582.414237
392.996200	2583.792992
393.379694	2583.898857
393.763125	2586.210226
394.146494	2585.459094
394.529801	2588.279619
394.913047	2587.581419
395.296230	2589.159301
395.679351	2591.657192
396.062410	2593.466967
396.445408	2593.724065
396.828343	2597.010898
397.211217	2592.834302
397.594028	2594.271031
397.976778	2596.839498
398.359466	2599.360075
398.742092	2603.272011
399.124656	2610.627054
399.507158	2611.670573
399.889598	2618.231635
400.271977	2622.115844
400.654294	2626.680609
401.036549	2632.387195
401.418742	2637.824079
401.800874	2643.079482
402.182944	2649.479227
402.564952	2657.426606
402.946898	2664.486742
403.328783	2671.221723
403.710606	2679.413598
404.092367	2692.071936
404.474067	2704.032073
404.855705	2709.284956
405.237282	2716.435832
405.618797	2734.934346
406.000250	2746.644947
406.381642	2763.207658
406.762972	2776.483536
407.144240	2782.507715
407.525447	2800.774336
407.906593	2811.098619
408.287677	2827.121927
408.668700	2845.267560
409.049661	2859.052595
409.430560	2875.741335
409.811399	2888.228273
410.192176	2910.122004
410.572891	2924.300249
410.953545	2956.205712
411.334138	2954.622790
411.714669	2993.265755
412.095139	2982.787716
412.475547	3020.820702
412.855894	3027.437216
413.236180	3059.171279
413.616405	3063.307546
413.996568	3089.733275
414.376670	3105.552415
414.756711	3115.826287
415.136691	3146.723519
415.516609	3171.520955
415.896466	3196.091538
416.276262	3225.161352
416.655997	3256.071187
417.035670	3275.772016
417.415283	3336.172601
417.794834	3367.362220
418.174324	3368.221737
418.553753	3385.691855
418.933121	3431.092487
419.312428	3434.717076
419.691674	3445.434569
420.070859	3487.588698
420.449983	3486.824963
420.829045	3536.860936
421.208047	3534.789021
421.586988	3588.011003
421.965867	3627.357209
422.344686	3641.474960
422.723444	3685.620344
423.102141	3607.757203
423.480777	3714.755693
423.859352	3691.768032
424.237866	3790.988022
424.616319	3787.678504
424.994712	3849.440200
425.373044	3848.734439
425.751314	3914.052669
426.129524	3863.235318
426.507673	3963.829022
426.885762	3947.364614
427.263789	3981.205880
427.641756	3987.605624
428.019662	4019.811036
428.397508	4026.475441
428.775292	4067.265937
429.153016	4079.876384
429.530679	4096.814661
429.908282	4107.945528
430.285824	4092.723764
430.663305	4162.294208
431.040726	4129.630052
431.418086	4123.583188
431.795385	4197.292419
432.172624	4232.560331
432.549802	4202.129406
432.926920	4223.093044
433.303977	4217.303279
433.680974	4262.845063
434.057910	4283.289462
434.434786	4290.584012
434.811601	4287.350112
435.188355	4391.757449
435.565050	4363.085886
435.941683	4363.005228
436.318257	4452.568888
436.694770	4457.952840
437.071222	4513.355121
437.447614	4449.428249
437.823946	4452.548723
438.200218	4469.912978
438.576429	4452.914207
438.952580	4474.266014
439.328670	4483.095595
439.704700	4528.702914
440.080670	4491.252182
440.456580	4553.926327
440.832429	4585.277263
441.208218	4491.778982
441.583947	4540.327814
441.959616	4558.901946
442.335224	4581.229216
442.710773	4605.530098
443.086261	4656.528931
443.461689	4613.091829
443.837057	4624.749497
444.212365	4703.363771
444.587612	4702.438719
444.962800	4671.216333
445.337927	4708.213361
445.712995	4598.580868
446.088002	4791.223521
446.462949	4813.326460
446.837837	4833.904450
447.212664	4819.237213
447.587431	5048.493766
447.962139	5344.560732
448.336786	5682.895251
448.711374	5662.972611
449.085901	5304.380215
449.460369	5246.159929
449.834776	5188.705899
450.209124	5418.806845
450.583412	5433.895019
450.957640	5554.938164
451.331808	5408.361575
451.705917	5264.756746
452.079965	5256.766517
452.453954	5292.452845
452.827883	5259.161065
453.201752	5267.489051
453.575562	5300.974915
453.949311	5432.821253
454.323001	5434.053815
454.696632	5431.535759
455.070202	5581.779787
455.443713	5612.049396
455.817164	5706.538263
456.190556	5783.471312
456.563888	5755.795377
456.937160	5830.061656
457.310373	5673.402759
457.683526	5731.247478
458.056619	5725.177929
458.429653	5703.669846
458.802628	5755.760089
459.175542	5786.727897
459.548398	5920.699081
459.921194	6109.553307
460.293930	6176.676271
460.666607	6424.746410
461.039224	6638.156097
461.411782	6770.335150
461.784280	6676.995666
462.156719	6678.694535
462.529099	6638.403113
462.901419	6500.759448
463.273680	6368.764397
463.645882	6359.856678
464.018024	6357.164702
464.390106	6429.613644
464.762130	6686.457912
465.134094	7079.206647
465.505999	7719.745737
465.877845	8425.015763
466.249631	8779.197149
466.621358	8697.623718
466.993026	8498.601485
467.364634	8283.460163
467.736184	8001.921802
468.107674	7848.154007
468.479105	7763.684433
468.850477	7699.674383
469.221790	7527.115686
469.593043	7301.040101
469.964238	7201.373969
470.335373	7181.968047
470.706449	7336.607962
471.077467	7527.448403
471.448425	8186.143208
471.819324	8770.632229
472.190164	8802.567939
472.560945	8312.194739
472.931667	7844.408430
473.302330	7656.149060
473.672934	7533.475102
474.043479	7609.198274
474.413965	7511.311669
474.784393	7463.292158
475.154761	7620.041796
475.525070	7629.367930
475.895321	7582.492761
476.265513	7683.184768
476.635645	7845.686362
477.005719	7839.331988
477.375734	7923.118486
477.745691	8034.356586
478.115588	8229.605516
478.485427	8480.667580
478.855207	8951.382800
479.224928	9390.840346
479.594591	9773.756309
479.964194	9777.254870
480.333739	9860.769145
480.703226	9855.337302
481.072653	9961.932500
481.442022	10074.882073
481.811333	10226.683818
482.180584	10062.001925
482.549777	10001.366926
482.918912	9937.162791
483.287988	9928.355895
483.657005	9839.815589
484.025964	9750.390561
484.394864	9813.031939
484.763706	9780.390468
485.132489	9688.359163
485.501213	9680.406743
485.869879	9736.580320
486.238487	9679.748872
486.607036	9756.787786
486.975527	9698.746461
487.343959	9753.528680
487.712333	9799.057861
488.080648	9841.950518
488.448905	9943.683523
488.817104	9949.140572
489.185244	10118.331778
489.553326	10331.703655
489.921350	10805.592282
490.289315	11438.214239
490.657222	11725.451624
491.025070	11900.805640
491.392861	11811.776342
491.760593	11654.298258
492.128267	11396.821325
492.495883	11165.649133
492.863440	10928.122567
493.230939	10700.857269
493.598380	10518.143169
493.965763	10490.265588
494.333088	10364.889571
494.700354	10296.589498
495.067563	10270.735941
495.434713	10277.412949
495.801805	10318.465585
496.168839	10275.136868
496.535815	10250.629299
496.902733	10298.137133
497.269593	10253.893446
497.636395	10260.857800
498.003139	10369.033400
498.369825	10292.717892
498.736453	10388.472089
499.103023	10326.649899
499.469535	10337.760602
499.835989	10389.734898
500.202385	10358.809940
500.568723	10383.206604
500.935003	10437.671230
501.301226	10409.193752
501.667390	10575.282127
502.033497	10675.845584
502.399546	10596.318862
502.765537	10511.814000
503.131470	10612.775709
503.497345	10700.214522
503.863163	10481.952725
504.228923	10617.925247
504.594625	10732.384645
504.960269	10636.983329
505.325856	10788.175095
505.691385	10670.358288
506.056856	10734.292722
506.422270	10834.737713
506.787625	10767.670202
507.152924	10824.675569
507.518164	10888.045394
507.883347	10748.907027
508.248472	10825.255302
508.613540	10933.567013
508.978550	11015.722697
509.343503	10991.174799
509.708398	11042.513909
510.073236	11171.842191
510.438016	11189.705519
510.802738	11102.445667
511.167403	11232.139432
511.532010	11289.046497
511.896561	11387.026363
512.261053	11582.633215
512.625488	11498.577016
512.989866	11487.090747
513.354186	11461.017899
513.718449	11472.864610
514.082655	11615.514141
514.446803	11569.490927
514.810894	11674.377174
515.174927	11681.780108
515.538904	11667.556492
515.902822	11825.195894
516.266684	11694.962725
516.630488	11794.717078
516.994235	11780.851384
517.357925	11898.136349
517.721558	11954.796397
518.085133	12018.761078
518.448651	12051.795759
518.812112	12009.376970
519.175516	12024.311388
519.538863	12106.058739
519.902152	12118.185235
520.265385	12228.253788
520.628560	12246.359092
520.991678	12194.427646
521.354739	12243.765418
521.717743	12316.615133
522.080690	12295.898511
522.443580	12429.950353
522.806413	12450.417438
523.169189	12423.787543
523.531908	12493.844458
523.894569	12450.946759
524.257174	12467.953092
524.619722	12577.086511
524.982213	12555.999364
525.344647	12548.369578
525.707025	12558.898028
526.069345	12660.719253
526.431608	12638.737302
526.793815	12717.409548
527.155964	12614.474228
527.518057	12647.166111
527.880093	12606.126077
528.242072	12729.208369
528.603995	12646.752736
528.965860	12655.393274
529.327669	12684.601719
529.689421	12633.154224
530.051117	12646.861121
530.412755	12690.973738
530.774337	12697.955736
531.135862	12642.462714
531.497331	12699.561343
531.858743	12664.180005
532.220098	12753.428593
532.581396	12684.775639
532.942638	12601.720109
533.303824	12677.977643
533.664953	12659.950477
534.026025	12603.096344
534.387040	12718.634549
534.747999	12683.046523
535.108902	12729.233575
535.469748	12603.665994
535.830537	12633.076086
536.191270	12673.584278
536.551947	12605.213628
536.912567	12667.008092
537.273131	12698.054038
537.633638	12577.434350
537.994089	12634.112043
538.354483	12543.741798
538.714821	12680.283971
539.075103	12759.142741
539.435328	12694.978934
539.795497	12679.237932
540.155609	12662.486177
540.515665	12774.767797
540.875665	12623.003860
541.235609	12719.501627
541.595496	12681.922346
541.955328	12857.609078
542.315102	12712.716234
542.674821	12659.968121
543.034483	12665.735201
543.394090	12663.388544
543.753640	12644.562355
544.113134	12878.807130
544.472571	12639.387610
544.831953	12917.356833
545.191278	12738.511818
545.550548	12663.935509
545.909761	12780.678550
546.268918	12819.510558
546.628019	12880.158159
546.987064	12779.047737
547.346053	12629.287659
547.704986	12825.514572
548.063863	12705.792209
548.422684	12768.932661
548.781449	12723.509345
549.140158	12816.962255
549.498811	12759.107453
549.857408	12632.672793
550.215949	12838.170389
550.574434	12806.496819
550.932864	12743.096748
551.291237	12944.851287
551.649555	12832.877177
552.007817	12887.147719
552.366022	12798.743525
552.724173	12847.015093
553.082267	12951.611474
553.440305	13037.711861
553.798288	12859.496990
554.156215	12935.205039
554.514086	12987.779232
554.871902	12923.756578
555.229661	12945.289867
555.587365	12900.184143
555.945014	12905.764700
556.302606	12889.811969
556.660143	12954.890744
557.017625	12987.265034
557.375050	12942.129063
557.732421	13040.204712
558.089735	13045.210577
558.446994	13022.951362
558.804197	13131.295841
559.161345	13126.393319
559.518437	12941.090586
559.875474	13039.337633
560.232455	13061.296899
560.589381	13112.220115
560.946251	13043.494064
561.303065	13218.205333
561.659825	13169.666583
562.016528	13081.917739
562.373177	13021.784335
562.729770	13159.533864
563.086307	13039.209084
563.442789	13143.250937
563.799216	13182.032534
564.155587	13119.940642
564.511904	13137.660298
564.868164	13158.495387
565.224370	13221.565262
565.580520	13168.237416
565.936615	13233.117066
566.292654	13179.897605
566.648638	13242.881781
567.004567	13243.186771
567.360441	13243.577461
567.716260	13214.757184
568.072023	13287.145633
568.427732	13282.031382
568.783385	13189.097711
569.138982	13298.248774
569.494525	13292.516982
569.850013	13235.937592
570.205445	13226.780336
570.560823	13237.777613
570.916145	13199.021222
571.271412	13203.764948
571.626625	13163.405470
571.981782	13167.511490
572.336884	13115.857307
572.691931	13200.478116
573.046923	13087.596599
573.401860	13072.248806
573.756743	13060.618864
574.111570	13087.387391
574.466342	13055.010580
574.821059	13109.507974
575.175722	12992.051610
575.530330	12998.796674
575.884882	12938.635544
576.239380	12928.563318
576.593823	12922.488728
576.948211	12924.674068
577.302544	12800.790233
577.656823	12820.055002
578.011047	12878.706307
578.365216	12810.249958
578.719330	12756.629725
579.073389	12717.956514
579.427394	12731.459244
579.781344	12725.503121
580.135239	12656.018377
580.489080	12671.615707
580.842866	12549.526523
581.196597	12646.553611
581.550273	12648.585196
581.903895	12604.848145
582.257463	12712.295298
582.610975	12554.524827
582.964434	12613.912139
583.317837	12538.367928
583.671186	12498.505004
584.024481	12549.297150
584.377721	12443.226232
584.730906	12507.730316
585.084037	12531.940457
585.437113	12452.408694
585.790135	12468.484933
586.143103	12374.472455
586.496016	12394.601783
586.848874	12399.713513
587.201679	12398.730488
587.554428	12286.867284
587.907124	12337.974501
588.259765	12273.248607
588.612352	12330.445538
588.964884	12196.751618
589.317362	12251.785894
589.669786	12242.109399
590.022155	12197.510311
590.374470	12291.227882
590.726731	12173.842094
591.078937	12075.184193
591.431090	12090.821852
591.783188	12021.233764
592.135232	11941.681836
592.487222	12009.631548
592.839157	12018.735872
593.191038	11953.939401
593.542866	11904.634396
593.894639	11744.867628
594.246358	11813.500417
594.598022	11818.692805
594.949633	11721.917775
595.301190	11705.236597
595.652692	11665.053560
596.004141	11750.765778
596.355535	11537.388859
596.706876	11508.394663
597.058162	11483.987916
597.409395	11577.987792
597.760573	11604.229518
598.111698	11497.727581
598.462768	11498.478713
598.813785	11507.494817
599.164748	11376.437420
599.515657	11455.102105
599.866511	11331.200626
600.217312	11457.113525
600.568060	11225.205325
600.918753	11392.450645
601.269392	11392.024667
601.619978	11292.978597
601.970510	11327.898670
602.320988	11373.463139
602.671412	11438.446133
603.021783	11370.887109
603.372100	11297.926490
603.722363	11308.676750
604.072572	11314.267390
604.422728	11325.224338
604.772830	11268.985225
605.122878	11274.311204
605.472872	11252.851012
605.822813	11307.814713
606.172701	11269.181830
606.522534	11309.546349
606.872314	11356.061076
607.222041	11293.840634
607.571714	11371.476924
607.921333	11242.375495
608.270899	11293.727208
608.620411	11348.186793
608.969870	11298.297014
609.319276	11283.564242
609.668627	11295.390789
610.017926	11377.647297
610.367171	11409.729200
610.716362	11404.766184
611.065500	11375.671164
611.414585	11388.677341
611.763616	11442.448809
612.112594	11407.596792
612.461518	11431.746439
612.810389	11485.517907
613.159207	11425.969277
613.507971	11421.160016
613.856682	11522.809842
614.205340	11477.545322
614.553945	11613.878286
614.902496	11497.346974
615.250994	11562.788713
615.599439	11554.795963
615.947830	11588.012126
616.296169	11551.390664
616.644454	11564.512787
616.992686	11577.685322
617.340864	11678.745333
617.688990	11560.442056
618.037063	11686.019718
618.385082	11661.476861
618.733048	11704.606453
619.080961	11685.883607
619.428821	11673.038747
619.776628	11688.086592
620.124382	11633.382511
620.472083	11654.852785
620.819731	11677.038903
621.167326	11598.318765
621.514868	11582.295458
621.862357	11478.102369
622.209793	11470.444857
622.557176	11392.443083
622.904506	11328.528814
623.251783	11250.882442
623.599007	11188.830879
623.946179	11140.052675
624.293297	11113.931936
624.640363	10977.120062
624.987376	10963.461055
625.334336	10898.145346
625.681243	10819.359673
626.028097	10790.219283
626.374899	10755.223593
626.721647	10729.153266
627.068343	10692.506598
627.414987	10624.317430
627.761577	10552.528879
628.108115	10603.999060
628.454600	10478.640687
628.801032	10497.449232
629.147412	10476.974586
629.493739	10447.476274
629.840014	10363.105003
630.186236	10417.874619
630.532405	10309.439399
630.878521	10345.234112
631.224585	10307.294388
631.570597	10231.770342
631.916556	10231.311597
632.262462	10216.586387
632.608316	10195.164003
632.954117	10176.279841
633.299866	10162.136884
633.645562	10130.730496
633.991206	10029.118478
634.336797	9931.481410
634.682336	9917.073793
635.027823	9865.490186
635.373257	9830.141615
635.718639	9764.115103
636.063968	9727.907015
636.409245	9607.431000
636.754470	9606.929405
637.099642	9547.789109
637.444762	9451.132546
637.789829	9458.638824
638.134845	9373.718067
638.479808	9356.835242
638.824719	9331.374895
639.169577	9246.282738
639.514383	9245.524045
639.859137	9180.725053
640.203839	9208.416111
640.548489	9134.447261
640.893086	9141.401533
641.237632	9068.292199
641.582125	9076.789064
641.926566	9061.516888
642.270955	9042.199187
642.615292	9038.342704
642.959576	9019.655147
643.303809	9009.615689
643.647990	9027.496662
643.992118	8998.381477
644.336195	8980.162747
644.680219	8979.986307
645.024192	9008.322633
645.368112	9086.997400
645.711981	9061.504285
646.055797	9208.683293
646.399562	9159.584975
646.743274	9319.661774
647.086935	9387.966888
647.430544	9359.870017
647.774101	9386.101661
648.117606	9414.420343
648.461059	9479.126073
648.804460	9409.943798
649.147810	9295.975913
649.491108	9266.202858
649.834354	9196.627373
650.177548	9052.483141
650.520690	8964.774625
650.863781	8956.030744
651.206820	8931.001415
651.549807	8842.728291
651.892742	8747.599197
652.235626	8703.650418
652.578458	8664.936877
652.921238	8557.577944
653.263967	8592.790404
653.606644	8533.226650
653.949269	8515.622941
654.291843	8437.404398
654.634365	8496.411104
654.976836	8423.324455
655.319255	8419.823374
655.661622	8412.296931
656.003938	8364.547122
656.346203	8332.515631
656.688416	8361.834981
657.030577	8322.521543
657.372687	8285.544680
657.714746	8316.588105
658.056753	8333.423038
658.398708	8236.093481
658.740612	8232.199190
659.082465	8266.660517
659.424266	8221.723672
659.766016	8238.183039
660.107715	8213.541879
660.449362	8235.672545
660.790958	8223.730051
661.132503	8218.124288
661.473996	8220.939773
661.815438	8235.932164
662.156829	8268.742514
662.498168	8215.558341
662.839456	8207.802526
663.180693	8227.891524
663.521879	8246.085048
663.863013	8237.885611
664.204097	8223.276347
664.545129	8308.368504
664.886110	8299.712842
665.227040	8299.017163
665.567918	8308.207187
665.908746	8322.897109
666.249522	8345.297476
666.590248	8341.690531
666.930922	8349.796706
667.271545	8341.128442
667.612118	8360.148715
667.952639	8318.397879
668.293109	8324.568252
668.633528	8304.806928
668.973896	8285.763970
669.314213	8293.492059
669.654480	8248.159483
669.994695	8239.017350
670.334859	8221.174186
670.674973	8202.993265
671.015035	8228.118376
671.355047	8216.201088
671.695008	8207.777320
672.034918	8181.651540
672.374777	8188.232766
672.714585	8153.605081
673.054342	8188.557921
673.394049	8161.411307
673.733705	8206.713636
674.073310	8152.160790
674.412864	8164.088160
674.752368	8094.283303
675.091820	8147.207856
675.431223	8078.113802
675.770574	8031.455402
676.109875	8003.965990
676.449125	7967.127759
676.788324	7948.873741
677.127473	7867.219651
677.466571	7853.361519
677.805619	7789.452291
678.144616	7786.538504
678.483562	7769.017974
678.822458	7717.172228
679.161303	7706.421967
679.500098	7679.071187
679.838842	7665.573497
680.177535	7678.826691
680.516179	7708.957667
680.854771	7729.210503
681.193314	7843.869027
681.531805	7997.170515
681.870247	8129.949466
682.208638	8277.859441
682.546978	8347.351746
682.885268	8380.749391
683.223508	8311.325140
683.561697	8258.985361
683.899836	8227.032007
684.237925	8143.205180
684.575963	8112.108823
684.913951	8030.933643
685.251889	8052.103968
685.589776	8043.344964
685.927614	8034.308695
686.265401	8050.793268
686.603137	8047.065335
686.940824	8118.211139
687.278460	8168.718460
687.616046	8187.247221
687.953582	8300.554715
688.291068	8277.380531
688.628504	8335.855395
688.965889	8342.368566
689.303224	8295.574055
689.640510	8252.038651
689.977745	8147.207856
690.314930	8029.194445
690.652065	7952.896581
690.989150	7837.718819
691.326185	7687.036210
691.663170	7580.556958
692.000105	7455.047351
692.336990	7344.252872
692.673825	7265.182374
693.010610	7173.423291
693.347345	7079.713282
693.684030	6969.763197
694.020665	6918.661020
694.357251	6806.432333
694.693786	6797.993441
695.030272	6756.046000
695.366707	6658.850033
695.703093	6607.611745
696.039429	6607.238700
696.375716	6555.927316
696.711952	6545.983640
697.048139	6520.130082
697.384276	6485.204968
697.720363	6504.837742
698.056400	6474.595860
698.392388	6444.779956
698.728326	6446.037723
699.064214	6420.751296
699.400053	6408.952475
699.735842	6349.539957
700.071581	6302.621938
700.407270	6258.063179
700.742910	6233.139714
701.078501	6189.601789
701.414042	6152.241798
701.749533	6091.190904
702.084974	6034.787954
702.420366	6077.269758
702.755709	6003.941134
703.091002	5951.321570
703.426246	5948.851405
703.761440	5941.022493
704.096584	5894.510287
704.431679	5886.608278
704.766725	5869.435588
705.101721	5857.604000
705.436668	5867.935844
705.771565	5814.093801
706.106413	5870.680753
706.441212	5870.353078
706.775961	5889.126335
707.110661	5897.005658
707.445311	5960.075534
707.779913	5920.121869
708.114465	5965.157017
708.448967	6010.424058
708.783421	6122.322550
709.117825	6169.601011
709.452180	6192.623961
709.786485	6260.825731
710.120742	6391.888169
710.454949	6392.979579
710.789107	6466.756866
711.123216	6597.181598
711.457275	6626.841227
711.791286	6728.216310
712.125247	6754.558859
712.459159	6720.115176
712.793023	6852.072419
713.126837	6679.942221
713.460602	6735.374748
713.794318	6692.991248
714.127985	6639.053422
714.461602	6494.362224
714.795171	6498.455641
715.128691	6330.496998
715.462162	6238.443008
715.795584	6166.735115
716.128957	6131.137007
716.462281	6067.925979
716.795556	6023.868815
717.128782	5937.997801
717.461960	5842.634293
717.795088	5830.331357
718.128167	5755.475264
718.461198	5676.457698
718.794180	5654.286703
719.127113	5594.642292
719.459997	5567.644392
719.792833	5496.508670
720.125619	5491.142362
720.458357	5434.366367
720.791046	5402.740688
721.123686	5374.265731
721.456278	5331.105892
721.788821	5324.144058
722.121315	5282.294920
722.453761	5288.132576
722.786158	5274.846615
723.118506	5272.817551
723.450805	5257.285756
723.783056	5276.056492
724.115259	5261.301035
724.447412	5250.243264
724.779518	5292.735149
725.111574	5293.723216
725.443582	5334.254093
725.775542	5325.585828
726.107453	5409.039610
726.439315	5380.151278
726.771129	5452.340601
727.102895	5515.017267
727.434612	5558.109050
727.766281	5585.013688
728.097901	5647.587010
728.429473	5657.558412
728.760996	5668.170041
729.092471	5691.165264
729.423897	5675.562893
729.755276	5651.498945
730.086606	5661.079658
730.417887	5749.667855
730.749120	5841.820147
731.080305	5887.467795
731.411442	5956.690399
731.742530	5982.372557
732.073570	6002.121277
732.404562	6061.743004
732.735506	6054.138423
733.066401	6037.313573
733.397249	5970.057018
733.728048	5876.873810
734.058798	5732.351491
734.389501	5604.127222
734.720156	5519.433317
735.050762	5415.358696
735.381320	5343.413869
735.711831	5282.521772
736.042293	5207.731213
736.372707	5203.360533
736.703073	5158.670704
737.033391	5186.465106
737.363661	5169.491541
737.693883	5181.439075
738.024056	5207.000246
738.354182	5236.821192
738.684260	5285.390188
739.014290	5323.755890
739.344272	5352.649263
739.674207	5412.510444
740.004093	5446.084529
740.333931	5453.323626
740.663722	5473.193334
740.993464	5487.117001
741.323159	5463.872240
741.652806	5420.457823
741.982405	5391.738370
742.311956	5332.502292
742.641460	5322.586342
742.970915	5270.463332
743.300323	5214.677923
743.629683	5179.276420
743.958996	5129.842866
744.288260	5077.160288
744.617477	5019.504611
744.946647	5005.207899
745.275768	4951.317964
745.604842	4920.806380
745.933869	4883.595103
746.262847	4873.981623
746.591778	4859.463100
746.920662	4838.154142
747.249498	4834.466538
747.578286	4853.569991
747.907027	4872.771746
748.235720	4921.091206
748.564365	4923.510959
748.892963	4914.701543
749.221514	4931.841466
749.550017	4907.086880
749.878473	4905.690481
750.206881	4862.016444
750.535242	4849.441286
750.863555	4835.071477
751.191821	4812.313188
751.520039	4818.012212
751.848210	4796.720899
752.176334	4806.364626
752.504411	4787.624137
752.832440	4756.870578
753.160421	4769.032362
753.488356	4750.072582
753.816243	4728.236824
754.144082	4693.132749
754.471875	4682.911810
754.799620	4674.500645
755.127318	4666.061753
755.454969	4663.765507
755.782572	4654.094054
756.110129	4659.107481
756.437638	4638.776508
756.765100	4637.312053
757.092515	4640.737517
757.419882	4644.888907
757.747203	4639.671313
758.074477	4655.956760
758.401703	4645.632477
758.728882	4677.069112
759.056014	4687.514383
759.383099	4711.870718
759.710138	4737.333586
760.037129	4759.877626
760.364073	4769.982619
760.690970	4769.531436
761.017820	4773.675264
761.344623	4803.251714
761.671379	4863.193554
761.998088	4952.981545
762.324751	5183.485784
762.651366	5650.488194
762.977935	6343.914029
763.304456	6902.461272
763.630931	7206.818415
763.957359	7141.273333
764.283740	6849.501430
764.610074	6532.702720
764.936362	6128.576101
765.262602	5808.745137
765.588796	5458.710099
765.914943	5204.298188
766.241044	4978.522551
766.567097	4810.226150
766.893104	4657.852234
767.219064	4557.563519
767.544978	4463.258654
767.870845	4378.020305
768.196665	4334.520188
768.522438	4283.496149
768.848165	4242.516610
769.173846	4200.891803
769.499479	4173.772915
769.825066	4134.761946
770.150607	4097.064198
770.476101	4080.519131
770.801548	4059.545410
771.126949	4031.188920
771.452303	4009.993389
771.777611	3972.719097
772.102872	3970.957214
772.428087	3945.438893
772.753256	3918.191457
773.078378	3899.551790
773.403453	3866.257490
773.728482	3840.103983
774.053465	3829.184844
774.378401	3809.148778
774.703291	3785.745222
775.028135	3759.044750
775.352932	3754.200201
775.677683	3732.001480
776.002388	3715.635374
776.327046	3714.314592
776.651658	3695.385059
776.976224	3674.295392
777.300743	3672.142820
777.625216	3660.096982
777.949643	3650.881753
778.274024	3652.510046
778.598359	3631.526243
778.922647	3633.756954
779.246889	3624.962661
779.571086	3621.421250
779.895236	3621.083493
780.219339	3623.901498
780.543397	3622.124491
780.867409	3635.170997
781.191374	3638.122593
781.515294	3630.989360
781.839167	3646.387565
782.162995	3643.869508
782.486776	3636.194352
782.810511	3631.183445
783.134201	3616.014613
783.457844	3612.873974
783.781441	3607.179991
784.104993	3598.398301
784.428498	3591.345726
784.751958	3589.089810
785.075372	3580.880291
785.398739	3571.246646
785.722061	3579.393151
786.045337	3577.863160
786.368568	3606.524641
786.691752	3602.441306
787.014891	3647.184067
787.337983	3693.020758
787.661030	3780.444448
787.984031	3878.439438
788.306987	3953.978608
788.629897	4003.414683
788.952760	4015.223586
789.275579	3996.062160
789.598351	3940.707770
789.921078	3896.317890
790.243759	3829.792303
790.566395	3782.947381
790.888984	3734.045668
791.211529	3697.124257
791.534027	3652.953667
791.856480	3614.303141
792.178888	3597.412755
792.501249	3577.424580
792.823566	3543.369065
793.145836	3536.931512
793.468062	3530.088145
793.790241	3516.340919
794.112375	3521.084645
794.434464	3544.142882
794.756507	3543.754713
795.078505	3563.029565
795.400457	3596.896037
795.722364	3650.657422
796.044226	3699.402859
796.366042	3742.073706
796.687812	3738.267635
797.009538	3762.213115
797.331218	3751.972011
797.652852	3744.611927
797.974442	3722.682908
798.295986	3713.752503
798.617484	3683.014068
798.938938	3661.258968
799.260346	3643.062924
799.581709	3608.934312
799.903026	3594.408227
800.224299	3576.595310
800.545526	3546.774365
800.866708	3527.837270
801.187845	3515.597349
801.508936	3495.037003
801.829983	3487.858400
802.150984	3456.832618
802.471940	3446.720064
802.792851	3439.876697
803.113717	3432.577107
803.434538	3423.671908
803.755314	3414.529776
804.076045	3411.537851
804.396731	3400.769946
804.717372	3400.825399
805.037967	3399.928074
805.358518	3399.308012
805.679024	3415.164961
805.999485	3413.387954
806.319901	3416.614293
806.640272	3421.400868
806.960598	3432.113320
807.280879	3428.040068
807.601115	3440.650514
807.921306	3435.332097
808.241453	3434.714556
808.561554	3442.750155
808.881611	3436.506686
809.201623	3437.648507
809.521590	3430.865635
809.841513	3427.445212
810.161390	3435.987447
810.481223	3415.235537
810.801011	3416.258892
811.120755	3410.045669
811.440453	3396.971437
811.760107	3390.596898
812.079716	3385.381824
812.399281	3369.900441
812.718801	3372.645349
813.038276	3366.790049
813.357707	3361.275027
813.677093	3368.635111
813.996434	3351.406968
814.315731	3358.605736
814.634983	3359.316538
814.954191	3357.209336
815.273354	3374.649208
815.592473	3385.833008
815.911547	3405.793456
816.230577	3420.044798
816.549562	3445.787450
816.868502	3463.834781
817.187399	3485.622648
817.506250	3513.424611
817.825058	3525.803165
818.143821	3569.968713
818.462539	3613.670476
818.781213	3666.710976
819.099843	3753.287752
819.418429	3904.348448
819.736970	4054.363104
820.055466	4241.752875
820.373919	4482.326819
820.692327	4823.459179
821.010691	5332.252754
821.329011	6415.929432
821.647286	8162.119589
821.965517	10345.350059
822.283704	11977.542084
822.601847	13069.004823
822.919945	12650.742809
823.237999	11966.761576
823.556010	11067.823022
823.873976	10110.586045
824.191897	9132.944997
824.509775	8367.402936
824.827609	7566.300575
825.145398	7007.201326
825.463144	6630.067565
825.780845	6493.114539
826.098502	6554.606533
826.416116	6945.137160
826.733685	7447.349509
827.051210	7738.420691
827.368692	7641.814539
827.686129	7190.769902
828.003522	6634.886908
828.320872	6070.479324
828.638177	5605.682418
828.955439	5238.305811
829.272656	4900.268720
829.589830	4619.312613
829.906960	4354.001727
830.224046	4147.369872
830.541088	3973.623984
830.858086	3858.247096
831.175041	3763.884258
831.491952	3714.569170
831.808819	3698.593754
832.125642	3737.879466
832.442421	3835.589630
832.759157	4057.075245
833.075849	4437.601702
833.392497	4896.671856
833.709101	5291.104336
834.025662	5399.942848
834.342179	5275.537253
834.658653	5003.330069
834.975083	4727.765476
835.291469	4477.147033
835.607811	4257.367849
835.924110	4100.479580
836.240366	3938.136782
836.556578	3776.335908
836.872746	3642.026967
837.188871	3525.094883
837.504952	3428.970161
837.820990	3353.110878
838.136984	3301.129020
838.452935	3271.683640
838.768842	3254.634458
839.084706	3287.772483
839.400526	3426.943617
839.716303	3651.852175
840.032037	3862.874875
840.347727	3932.195782
840.663373	3838.223633
840.978977	3688.778627
841.294537	3557.862382
841.610054	3454.329685
841.925527	3377.391595
842.240957	3305.542550
842.556344	3246.006523
842.871687	3185.706762
843.186987	3123.161166
843.502244	3073.304154
843.817458	3032.556508
844.132629	3001.024090
844.447756	2977.451655
844.762840	2954.068263
845.077881	2937.820624
845.392879	2924.476690
845.707833	2912.594690
846.022745	2900.223699
846.337613	2897.476270
846.652438	2889.947307
846.967221	2883.310627
847.281960	2877.069679
847.596656	2873.840820
847.911309	2865.845550
848.225919	2863.539222
848.540485	2857.598222
848.855009	2855.798530
849.169490	2848.624968
849.483928	2847.205884
849.798323	2845.035667
850.112675	2841.842096
850.426984	2844.110615
850.741251	2840.337312
851.055474	2836.586693
851.369654	2839.389575
851.683792	2838.777074
851.997887	2838.530058
852.311938	2837.128617
852.625947	2836.314471
852.939914	2833.899758
853.253837	2839.238340
853.567718	2836.669872
853.881555	2833.975375
854.195350	2835.996878
854.509103	2836.042248
854.822812	2834.729028
855.136479	2833.536795
855.450103	2837.574759
855.763685	2832.004284
856.077224	2833.665344
856.390720	2836.921930
856.704173	2838.804801
857.017584	2841.055676
857.330953	2841.461489
857.644278	2843.054493
857.957561	2848.985411
858.270802	2844.957529
858.584000	2846.031295
858.897155	2845.038187
859.210268	2842.951150
859.523339	2840.314626
859.836367	2840.299503
860.149352	2839.008967
860.462295	2839.190449
860.775195	2834.287927
861.088054	2829.887000
861.400869	2834.174501
861.713642	2828.840960
862.026373	2832.619305
862.339062	2833.849347
862.651708	2836.684996
862.964312	2842.114318
863.276873	2844.503825
863.589392	2852.299970
863.901869	2857.986391
864.214303	2865.152391
864.526696	2870.296889
864.839045	2879.118908
865.151353	2885.458159
865.463619	2885.942110
865.775842	2887.935886
866.088023	2894.867473
866.400162	2894.091135
866.712258	2896.722617
867.024313	2896.677247
867.336325	2899.026425
867.648296	2900.732855
867.960224	2899.759913
868.272110	2902.015829
868.583954	2901.287382
868.895755	2908.050090
869.207515	2905.269894
869.519233	2915.551327
869.830909	2913.759197
870.142542	2918.235741
870.454134	2919.969898
870.765684	2923.100455
871.077191	2934.450613
871.388657	2935.433638
871.700081	2942.380348
872.011463	2949.543827
872.322803	2954.002728
872.634101	2961.198975
872.945357	2967.538226
873.256571	2981.179588
873.567744	2984.262254
873.878874	2987.105465
874.189963	2995.564521
874.501010	2994.987309
874.812015	2996.862618
875.122979	3007.572549
875.433900	3007.975842
875.744780	3011.567664
876.055618	3016.719723
876.366415	3017.712830
876.677169	3023.928573
876.987882	3030.000643
877.298554	3039.833413
877.609183	3054.309087
877.919771	3071.426324
878.230317	3095.462546
878.540822	3132.787249
878.851285	3180.781554
879.161707	3251.420722
879.472087	3359.808051
879.782425	3520.895601
880.092722	3802.678457
880.402977	4224.123960
880.713191	4765.828708
881.023363	5371.598960
881.333494	5810.748995
881.643583	6100.070897
881.953631	6177.364388
882.263637	6131.381503
882.573602	5990.876984
882.883526	5819.485315
883.193408	5614.335559
883.503248	5392.708792
883.813048	5177.020504
884.122806	4958.257112
884.432522	4716.102767
884.742197	4489.326461
885.051831	4280.020274
885.361424	4077.822114
885.670975	3909.150147
885.980485	3760.050460
886.289954	3636.766522
886.599382	3531.023279
886.908768	3444.436421
887.218113	3366.245604
887.527417	3303.110193
887.836680	3242.462592
888.145901	3194.264120
888.455082	3159.699449
888.764221	3125.144860
889.073319	3097.078236
889.382376	3078.962849
889.691392	3061.333934
890.000366	3050.956719
890.309300	3043.400030
890.618193	3039.089843
890.927044	3033.557177
891.235855	3038.074051
891.544625	3037.597662
891.853353	3045.431615
892.162041	3057.721948
892.470687	3085.513829
892.779293	3117.479785
893.087858	3163.767660
893.396381	3241.532499
893.704864	3352.425281
894.013306	3510.505783
894.321707	3699.720452
894.630068	3853.977239
894.938387	3926.809309
895.246665	3936.551339
895.554903	3880.206362
895.863100	3793.027168
896.171256	3715.348029
896.479371	3639.173673
896.787446	3566.671799
897.095480	3498.815347
897.403473	3442.329219
897.711425	3380.373438
898.019336	3329.921570
898.327207	3275.454423
898.635038	3230.615881
898.942827	3178.409691
899.250576	3138.304792
899.558284	3095.263420
899.865952	3066.604461
900.173579	3038.126983
900.481165	3017.980011
900.788711	2997.240704
901.096216	2981.991214
901.403681	2970.073926
901.711105	2960.518419
902.018489	2952.097172
902.325832	2964.319449
902.633135	2971.775316
902.940397	3009.465503
903.247619	3101.247270
903.554800	3278.269908
903.861941	3556.675191
904.169041	3821.232424
904.476101	3988.165192
904.783121	4015.410108
905.090100	3944.034932
905.397039	3839.993078
905.703938	3736.583889
906.010796	3630.462560
906.317614	3545.753531
906.624391	3458.148359
906.931129	3388.169582
907.237826	3318.291628
907.544483	3253.170003
907.851099	3182.674507
908.157675	3107.669700
908.464211	3036.712939
908.770707	2975.757827
909.077163	2927.642534
909.383578	2891.807492
909.689954	2860.088552
909.996289	2843.835872
910.302584	2830.827175
910.608839	2820.008859
910.915054	2812.179947
911.221229	2807.872281
911.527363	2807.418577
911.833458	2808.925882
912.139513	2809.619041
912.445527	2813.644402
912.751502	2823.663695
913.057436	2839.734894
913.363331	2860.252390
913.669186	2890.844632
913.975000	2927.695467
914.280775	2986.923983
914.586510	3068.215109
914.892205	3177.431707
915.197859	3324.535097
915.503475	3507.561749
915.809050	3684.435673
916.114585	3819.175633
916.420081	3894.014083
916.725536	3924.490378
917.030952	3888.572157
917.336328	3849.185622
917.641665	3802.181904
917.946961	3742.111514
918.252218	3684.723019
918.557435	3613.950260
918.862612	3543.258160
919.167750	3483.830518
919.472848	3407.630957
919.777906	3339.209896
920.082925	3268.989144
920.387904	3196.497351
920.692843	3141.936943
920.997743	3090.305446
921.302603	3038.159750
921.607423	3005.588855
921.912204	2966.860191
922.216946	2945.183229
922.521647	2918.707089
922.826310	2896.533574
923.130932	2880.618651
923.435516	2858.011597
923.740059	2842.978876
924.044564	2828.160404
924.349028	2817.379897
924.653454	2801.913637
924.957840	2784.965278
925.262186	2780.261881
925.566493	2766.020622
925.870761	2755.381266
926.174989	2751.159300
926.479178	2745.072107
926.783328	2734.077350
927.087438	2727.354972
927.391509	2722.855742
927.695541	2714.580688
927.999533	2708.611962
928.303486	2704.931919
928.607400	2703.008719
928.911275	2698.053265
929.215110	2696.682071
929.518906	2694.257276
929.822663	2692.190403
930.126381	2690.368026
930.430060	2690.814168
930.733699	2689.596729
931.037299	2691.961030
931.340861	2690.448684
931.644383	2692.336596
931.947866	2689.677388
932.251309	2690.877182
932.554714	2691.918181
932.858080	2691.340968
933.161407	2691.111596
933.464694	2688.457428
933.767943	2685.084897
934.071153	2685.316790
934.374323	2683.756552
934.677455	2684.757222
934.980548	2681.351922
935.283602	2682.163548
935.586617	2680.031140
935.889593	2682.365194
936.192530	2682.735719
936.495428	2684.419464
936.798287	2684.739577
937.101108	2693.296936
937.403890	2696.903882
937.706632	2706.247660
938.009336	2719.231152
938.312002	2728.597616
938.614628	2741.369379
938.917216	2751.986049
939.219765	2761.090373
939.522275	2766.817124
939.824747	2771.018926
940.127179	2765.715632
940.429573	2766.928029
940.731929	2767.318719
941.034246	2763.815117
941.336524	2765.899634
941.638763	2767.217896
941.940964	2765.072885
942.243126	2760.855959
942.545250	2755.877820
942.847335	2754.589805
943.149381	2742.617065
943.451389	2737.175139
943.753359	2731.145919
944.055290	2725.129302
944.357182	2721.534959
944.659036	2721.474466
944.960851	2715.725030
945.262628	2710.946016
945.564367	2711.805532
945.866067	2711.896273
946.167729	2710.451983
946.469352	2709.456355
946.770937	2707.717157
947.072484	2706.555171
947.373992	2704.412680
947.675462	2701.377906
947.976893	2703.933771
948.278286	2698.403625
948.579641	2701.067875
948.880958	2699.812627
949.182236	2700.155426
949.483476	2696.233408
949.784678	2694.809282
950.085841	2695.015970
950.386967	2696.283820
950.688054	2699.240457
950.989103	2700.296578
951.290114	2703.144830
951.591087	2709.839482
951.892021	2712.455841
952.192917	2719.954558
952.493776	2725.507389
952.794596	2726.492934
953.095378	2724.017728
953.396122	2727.849005
953.696828	2726.760115
953.997496	2723.511092
954.298126	2722.896071
954.598718	2721.577809
954.899272	2714.242930
955.199788	2710.262939
955.500266	2706.839996
955.800706	2697.397915
956.101108	2692.732327
956.401472	2686.382994
956.701798	2677.878567
957.002087	2669.507731
957.302337	2668.585200
957.602550	2663.536484
957.902724	2657.605567
958.202861	2655.228663
958.502960	2652.166162
958.803022	2643.790285
959.103045	2641.630150
959.403031	2637.317443
959.702979	2633.246712
960.002889	2631.610857
960.302762	2627.424179
960.602596	2627.446864
960.902393	2623.590381
961.202153	2619.958230
961.501875	2619.996039
961.801559	2617.059567
962.101205	2617.445215
962.400814	2617.828343
962.700385	2612.454473
962.999918	2614.791047
963.299414	2610.430449
963.598873	2610.682507
963.898293	2612.217538
964.197677	2610.743001
964.497022	2611.862137
964.796331	2609.928854
965.095601	2611.053032
965.394835	2611.839452
965.694030	2607.620006
965.993189	2609.712085
966.292309	2605.774944
966.591393	2606.500870
966.890439	2605.391816
967.189447	2605.321240
967.488419	2605.147320
967.787353	2607.975407
968.086249	2605.757300
968.385108	2606.319388
968.683930	2605.124635
968.982714	2606.750407
969.281462	2608.623196
969.580172	2609.596138
969.878844	2608.426591
970.177480	2609.928854
970.476078	2611.884822
970.774639	2613.908845
971.073162	2615.436315
971.371649	2615.285080
971.670098	2615.101078
971.968510	2616.779782
972.266885	2616.535287
972.565223	2619.968312
972.863524	2620.180041
973.161788	2619.933024
973.460014	2623.623149
973.758204	2622.105762
974.056356	2623.126595
974.354471	2621.074846
974.652550	2624.654065
974.950591	2623.393776
975.248595	2623.786986
975.546563	2624.011318
975.844493	2624.011318
976.142386	2622.030144
976.440243	2621.180710
976.738062	2623.421503
977.035845	2619.686008
977.333590	2618.564351
977.631299	2618.755915
977.928971	2616.689042
978.226606	2616.462190
978.524204	2616.804988
978.821765	2615.083434
979.119290	2614.360029
979.416777	2614.158383
979.714228	2614.024792
980.011642	2614.765842
980.309020	2618.965123
980.606360	2615.700976
980.903664	2620.943776
981.200931	2625.813530
981.498162	2633.977679
981.795356	2645.249699
982.092513	2662.019097
982.389633	2680.373938
982.686717	2695.310877
982.983764	2714.361397
983.280775	2725.192317
983.577749	2731.871845
983.874686	2732.149109
984.171587	2729.157184
984.468451	2724.388252
984.765279	2716.128322
985.062070	2711.213197
985.358824	2703.517876
985.655543	2691.295598
985.952224	2683.265040
986.248869	2670.279028
986.545478	2657.860145
986.842050	2646.043681
987.138586	2633.350055
987.435086	2623.958386
987.731549	2617.233486
988.027975	2612.494802
988.324366	2607.110849
988.620719	2606.382403
988.917037	2602.967021
989.213318	2601.147164
989.509563	2598.271186
989.805772	2598.308995
990.101944	2597.467122
990.398080	2595.238932
990.694180	2595.163315
990.990244	2595.662389
991.286271	2594.152563
991.582262	2596.831937
991.878217	2595.433017
992.174136	2598.760178
992.470019	2597.494848
992.765865	2597.572986
993.061676	2602.291506
993.357450	2599.160950
993.653188	2604.202104
993.948890	2603.554315
994.244556	2608.141765
994.540186	2610.843824
994.835780	2617.230966
995.131337	2623.590381
995.426859	2630.469036
995.722345	2640.576549
996.017795	2648.470996
996.313208	2657.807213
996.608586	2662.671927
996.903928	2666.067144
997.199234	2669.759789
997.494504	2669.774912
997.789738	2670.095026
998.084936	2664.764005
998.380099	2659.029693
998.675225	2655.079949
998.970316	2648.281953
999.265371	2643.397075
999.560390	2635.306023
999.855373	2627.850156
1000.150320	2622.640124
1000.445232	2615.706017
1000.740108	2615.393465
1001.034948	2607.231837
1001.329752	2604.557505
1001.624521	2603.410642
1001.919254	2595.140630
1002.213951	2594.641555
1002.508613	2591.831112
1002.803239	2591.092583
1003.097829	2587.780545
1003.392384	2591.059816
1003.686903	2589.953282
1003.981386	2589.126533
1004.275834	2588.990422
1004.570246	2587.160483
1004.864623	2586.739547
1005.158964	2588.554362
1005.453270	2586.643765
1005.747540	2586.984043
1006.041775	2583.644278
1006.335974	2582.749473
1006.630138	2588.453539
1006.924266	2585.683425
1007.218359	2585.779207
1007.512416	2585.786769
1007.806438	2584.637386
1008.100425	2583.762745
1008.394376	2581.093454
1008.688292	2585.325503
1008.982172	2584.498754
1009.276017	2585.239803
1009.569827	2583.475400
1009.863602	2585.451532
1010.157341	2587.709969
1010.451045	2581.645461
1010.744714	2582.893146
1011.038347	2579.634040
1011.331945	2582.827611
1011.625508	2581.295101
1011.919036	2582.469689
1012.212528	2582.177302
1012.505986	2580.168403
1012.799408	2582.913311
1013.092795	2582.459607
1013.386147	2581.834504
1013.679464	2582.809967
1013.972745	2582.154617
1014.265992	2580.100347
1014.559204	2579.855851
1014.852380	2580.929617
1015.145521	2581.874833
1015.438628	2580.188567
1015.731699	2584.188723
1016.024736	2583.561099
1016.317737	2580.339802
1016.610703	2584.841552
1016.903635	2577.879719
1017.196531	2578.421643
1017.489393	2578.484657
1017.782219	2581.965574
1018.075011	2579.049267
1018.367768	2581.935327
1018.660490	2582.467169
1018.953177	2582.467169
1019.245829	2582.467169
