Dividing Wavelength (nm)	Counts (n)	Blue Motor Position (mm): 37.000000	Red Motor Position (mm): 0.000000	
326.493990	2155.577220
326.888308	2155.577220
327.282561	2155.577220
327.676750	2130.484877
328.070874	2130.799949
328.464933	2136.627523
328.858929	2145.114305
329.252859	2155.481438
329.646726	2172.500373
330.040528	2184.778104
330.434265	2203.374920
330.827938	2222.967365
331.221547	2242.869840
331.615091	2261.696029
332.008571	2282.962137
332.401986	2304.545837
332.795338	2324.092911
333.188625	2340.595128
333.581847	2362.786287
333.975006	2379.732126
334.368100	2399.853891
334.761129	2418.107909
335.154095	2432.223140
335.546996	2459.400001
335.939833	2490.355206
336.332606	2501.695281
336.725315	2516.236490
337.117960	2521.875020
337.510540	2531.571680
337.903056	2539.824048
338.295508	2545.999462
338.687896	2551.650595
339.080220	2563.882955
339.472480	2567.701629
339.864676	2572.130283
340.256807	2575.500294
340.648875	2576.034657
341.040879	2580.090265
341.432818	2582.071438
341.824694	2581.441294
342.216506	2580.818712
342.608253	2579.558423
342.999937	2579.291242
343.391557	2580.859041
343.783113	2575.054152
344.174605	2576.548854
344.566033	2576.032136
344.957397	2572.334450
345.348697	2572.357135
345.739934	2570.018039
346.131106	2568.772874
346.522215	2567.570559
346.913260	2564.432441
347.304241	2562.030331
347.695159	2560.545711
348.086012	2558.814075
348.476802	2559.789538
348.867528	2555.504557
349.258191	2555.617983
349.648789	2555.083621
350.039324	2551.320400
350.429796	2554.072870
350.820203	2551.496840
351.210548	2548.280584
351.600828	2548.532642
351.991045	2550.657488
352.381198	2549.868547
352.771288	2549.447611
353.161314	2546.556509
353.551276	2551.275029
353.941175	2548.583053
354.331010	2548.303269
354.720782	2548.295708
355.110490	2548.643547
355.500135	2550.717982
355.889717	2548.431819
356.279235	2547.499205
356.668689	2550.997766
357.058080	2551.809392
357.447408	2546.392672
357.836672	2550.087838
358.225873	2547.070707
358.615010	2550.395348
359.004084	2553.840977
359.393095	2552.268137
359.782043	2550.954916
360.170927	2556.943807
360.559748	2553.765359
360.948505	2554.468600
361.337199	2556.699311
361.725830	2555.746533
362.114398	2554.297201
362.502903	2558.796431
362.891344	2558.186451
363.279722	2556.631255
363.668037	2558.148643
364.056289	2557.256358
364.444478	2558.420865
364.832603	2560.467573
365.220665	2559.431616
365.608665	2560.260886
365.996601	2561.891699
366.384474	2561.402708
366.772284	2559.489590
367.160031	2560.911195
367.547715	2561.589230
367.935336	2560.699467
368.322893	2562.978068
368.710388	2564.316494
369.097820	2568.609037
369.485189	2562.237018
369.872495	2564.997050
370.259738	2562.358006
370.646918	2562.610064
371.034035	2564.651731
371.421090	2565.463357
371.808081	2566.073337
372.195010	2565.969993
372.581875	2563.731721
372.968678	2563.043603
373.355418	2565.614592
373.742096	2565.768347
374.128710	2566.874880
374.515262	2569.614747
374.901751	2567.641135
375.288177	2568.533420
375.674540	2567.406722
376.060841	2568.639284
376.447079	2568.029304
376.833254	2570.862433
377.219367	2565.937225
377.605417	2566.310271
377.991404	2565.796073
378.377329	2567.837740
378.763191	2564.530743
379.148991	2569.834037
379.534727	2569.256825
379.920402	2570.590210
380.306013	2570.877556
380.691563	2571.822772
381.077049	2573.289748
381.462474	2571.522824
381.847835	2570.607854
382.233134	2571.598441
382.618371	2574.139183
383.003545	2573.350242
383.388657	2573.289748
383.773706	2574.557598
384.158693	2572.440314
384.543618	2573.090623
384.928480	2574.088771
385.313280	2573.017526
385.698017	2574.209759
386.082692	2572.702454
386.467305	2577.289904
386.851856	2577.118505
387.236344	2575.132290
387.620770	2578.540110
388.005133	2576.032136
388.389435	2577.627661
388.773674	2574.996179
389.157851	2575.802763
389.541965	2577.105902
389.926018	2579.901222
390.310008	2578.419122
390.693936	2577.610017
391.077802	2578.444328
391.461606	2578.494740
391.845348	2579.560944
392.229027	2580.304514
392.612645	2578.915676
392.996200	2581.370718
393.379694	2580.465831
393.763125	2582.308372
394.146494	2583.540935
394.529801	2581.705955
394.913047	2583.155286
395.296230	2582.724268
395.679351	2584.085379
396.062410	2582.915832
396.445408	2581.874833
396.828343	2584.150914
397.211217	2583.283836
397.594028	2579.858372
397.976778	2582.913311
398.359466	2583.903898
398.742092	2581.055646
399.124656	2588.849270
399.507158	2586.343816
399.889598	2589.549990
400.271977	2590.704414
400.654294	2591.516040
401.036549	2591.790783
401.418742	2592.478900
401.800874	2596.088367
402.182944	2594.576020
402.564952	2597.386464
402.946898	2597.449478
403.328783	2600.832092
403.710606	2603.292175
404.092367	2605.248143
404.474067	2608.537496
404.855705	2612.242744
405.237282	2613.263578
405.618797	2618.304732
406.000250	2626.531895
406.381642	2632.689664
406.762972	2634.698564
407.144240	2639.691827
407.525447	2648.881850
407.906593	2649.872437
408.287677	2663.957421
408.668700	2668.514624
409.049661	2677.185408
409.430560	2687.512212
409.811399	2695.383974
410.192176	2704.367310
410.572891	2713.756459
410.953545	2730.558625
411.334138	2732.985940
411.714669	2753.316914
412.095139	2752.981677
412.475547	2771.878442
412.855894	2779.820780
413.236180	2801.139820
413.616405	2807.398412
413.996568	2825.337358
414.376670	2835.066785
414.756711	2847.483147
415.136691	2871.133720
415.516609	2887.146946
415.896466	2905.312743
416.276262	2927.776125
416.655997	2949.702624
417.035670	2967.734831
417.415283	3010.894670
417.794834	3035.588762
418.174324	3043.087478
418.553753	3063.408369
418.933121	3102.764657
419.312428	3110.086933
419.691674	3124.532360
420.070859	3161.693225
420.449983	3170.064061
420.829045	3211.154506
421.208047	3220.150445
421.586988	3266.103083
421.965867	3302.762354
422.344686	3322.150632
422.723444	3364.914740
423.102141	3326.796055
423.480777	3406.562232
423.859352	3403.519896
424.237866	3487.014006
424.616319	3498.374247
424.994712	3557.915315
425.373044	3567.032241
425.751314	3633.961120
426.129524	3599.474587
426.507673	3694.825491
426.885762	3691.294163
427.263789	3725.329513
427.641756	3747.273656
428.019662	3788.084317
428.397508	3802.973365
428.775292	3848.137062
429.153016	3869.191441
429.530679	3901.722007
429.908282	3920.621293
430.285824	3915.373452
430.663305	3989.632168
431.040726	3965.754743
431.418086	3971.463850
431.795385	4050.816652
432.172624	4095.796348
432.549802	4075.420004
432.926920	4104.242801
433.303977	4107.774129
433.680974	4154.843383
434.057910	4182.766334
434.434786	4200.682595
434.811601	4202.129406
435.188355	4307.066064
435.565050	4290.508394
435.941683	4295.466369
436.318257	4385.415677
436.694770	4398.729365
437.071222	4460.175989
437.447614	4398.694077
437.823946	4409.842588
438.200218	4428.963685
438.576429	4416.771654
438.952580	4444.445068
439.328670	4456.808498
439.704700	4499.247452
440.080670	4467.853666
440.456580	4527.495557
440.832429	4565.427719
441.208218	4473.136795
441.583947	4526.205022
441.959616	4548.713774
442.335224	4566.713214
442.710773	4595.394858
443.086261	4645.544257
443.461689	4604.453812
443.837057	4617.906131
444.212365	4693.057132
444.587612	4698.693142
444.962800	4666.618801
445.337927	4706.597671
445.712995	4597.386114
446.088002	4786.820073
446.462949	4809.722035
446.837837	4829.495961
447.212664	4818.178570
447.587431	5043.450092
447.962139	5348.122307
448.336786	5683.691754
448.711374	5661.745090
449.085901	5307.089835
449.460369	5242.860494
449.834776	5183.067368
450.209124	5420.619140
450.583412	5429.209266
450.957640	5551.404315
451.331808	5415.373820
451.705917	5266.480820
452.079965	5260.633082
452.453954	5295.868227
452.827883	5259.788688
453.201752	5260.978401
453.575562	5297.380573
453.949311	5431.984422
454.323001	5437.156645
454.696632	5428.201036
455.070202	5584.378502
455.443713	5615.984016
455.817164	5703.521132
456.190556	5779.967710
456.563888	5750.471919
456.937160	5835.869065
457.310373	5673.589281
457.683526	5730.650102
458.056619	5723.025357
458.429653	5707.682605
458.802628	5757.605151
459.175542	5786.619512
459.548398	5924.290903
459.921194	6113.155212
460.293930	6170.757956
460.666607	6427.818993
461.039224	6637.367156
461.411782	6758.415342
461.784280	6679.448188
462.156719	6683.793662
462.529099	6644.306304
462.901419	6500.136866
463.273680	6371.831939
463.645882	6359.176122
464.018024	6368.028388
464.390106	6435.685714
464.762130	6696.194901
465.134094	7088.615960
465.505999	7722.654482
465.877845	8424.282275
466.249631	8773.551057
466.621358	8694.382257
466.993026	8496.910178
467.364634	8284.097868
467.736184	8000.018767
468.107674	7848.045622
468.479105	7763.833148
468.850477	7696.861419
469.221790	7523.183586
469.593043	7306.638302
469.964238	7208.547531
470.335373	7180.894281
470.706449	7335.874474
471.077467	7529.530399
471.448425	8185.160183
471.819324	8775.542313
472.190164	8802.938463
472.560945	8311.856982
472.931667	7845.252823
473.302330	7659.342631
473.672934	7531.990482
474.043479	7616.946527
474.413965	7515.180755
474.784393	7465.515307
475.154761	7618.020293
475.525070	7632.571584
475.895321	7583.080056
476.265513	7684.177876
476.635645	7855.012497
477.005719	7838.623706
477.375734	7925.409690
477.745691	8035.626957
478.115588	8241.820232
478.485427	8476.301941
478.855207	8959.191547
479.224928	9384.160817
479.594591	9769.083160
479.964194	9770.356051
480.333739	9855.705306
480.703226	9860.025575
481.072653	9961.713210
481.442022	10073.067257
481.811333	10221.972860
482.180584	10063.375639
482.549777	10002.097893
482.918912	9940.290827
483.287988	9928.164331
483.657005	9839.634108
484.025964	9753.231252
484.394864	9820.991921
484.763706	9777.585066
485.132489	9690.380666
485.501213	9675.292492
485.869879	9737.613757
486.238487	9675.027832
486.607036	9757.254092
486.975527	9699.421975
487.343959	9758.201829
487.712333	9807.945415
488.080648	9844.735756
488.448905	9942.597155
488.817104	9948.011354
489.185244	10118.135173
489.553326	10337.962248
489.921350	10811.341717
490.289315	11442.090887
490.657222	11733.043602
491.025070	11901.244220
491.392861	11816.391519
491.760593	11659.178095
492.128267	11405.784497
492.495883	11168.225163
492.863440	10934.436612
493.230939	10712.157016
493.598380	10523.459065
493.965763	10503.148257
494.333088	10364.387976
494.700354	10302.356578
495.067563	10271.603019
495.434713	10275.247773
495.801805	10315.120780
496.168839	10280.372106
496.535815	10247.385316
496.902733	10303.959665
497.269593	10256.371173
497.636395	10260.212532
498.003139	10374.591272
498.369825	10300.148553
498.736453	10391.322861
499.103023	10336.301188
499.469535	10344.392240
499.835989	10388.262881
500.202385	10366.795127
500.568723	10379.035049
500.935003	10445.497621
501.301226	10413.264483
501.667390	10572.814482
502.033497	10683.482933
502.399546	10604.051992
502.765537	10510.677220
503.131470	10616.649835
503.497345	10701.167300
503.863163	10476.384771
504.228923	10611.122210
504.594625	10727.671167
504.960269	10636.562393
505.325856	10795.177258
505.691385	10670.315439
506.056856	10732.888761
506.422270	10841.843219
506.787625	10774.291757
507.152924	10828.128760
507.518164	10896.698534
507.883347	10752.367779
508.248472	10828.579943
508.613540	10944.027407
508.978550	11012.423262
509.343503	10998.098823
509.708398	11044.474918
510.073236	11168.457056
510.438016	11194.214832
510.802738	11105.919022
511.167403	11223.607279
511.532010	11287.413163
511.896561	11390.479554
512.261053	11584.931981
512.625488	11497.997283
512.989866	11484.328194
513.354186	11453.680499
513.718449	11477.394087
514.082655	11612.439037
514.446803	11570.461349
514.810894	11680.073678
515.174927	11680.875221
515.538904	11657.958136
515.902822	11828.175216
516.266684	11700.157634
516.630488	11796.514249
516.994235	11791.311778
517.357925	11901.115671
517.721558	11963.643622
518.085133	12028.389682
518.448651	12055.818600
518.812112	12013.646827
519.175516	12030.517049
519.538863	12115.624329
519.902152	12119.168260
520.265385	12223.200031
520.628560	12249.161973
520.991678	12201.596166
521.354739	12252.468970
521.717743	12321.991523
522.080690	12298.514870
522.443580	12427.434817
522.806413	12449.250411
523.169189	12435.062083
523.531908	12498.389058
523.894569	12462.848923
524.257174	12474.849390
524.619722	12586.510948
524.982213	12557.194118
525.344647	12553.725804
525.707025	12561.723594
526.069345	12666.743432
526.431608	12645.517653
526.793815	12721.412225
527.155964	12618.582768
527.518057	12648.111327
527.880093	12608.722272
528.242072	12732.875808
528.603995	12637.212353
528.965860	12653.386895
529.327669	12684.304291
529.689421	12637.940799
530.051117	12650.102583
530.412755	12691.298892
530.774337	12692.415508
531.135862	12652.391267
531.497331	12708.542159
531.858743	12673.947241
532.220098	12757.816917
532.581396	12689.226978
532.942638	12610.506840
533.303824	12683.848067
533.664953	12669.775686
534.026025	12613.314763
534.387040	12725.266187
534.747999	12692.788553
535.108902	12736.089544
535.469748	12610.489196
535.830537	12643.576809
536.191270	12684.813448
536.551947	12610.632869
536.912567	12672.719720
537.273131	12709.454608
537.633638	12584.436513
537.994089	12645.086635
538.354483	12545.952344
538.714821	12678.169207
539.075103	12766.187753
539.435328	12693.179242
539.795497	12678.055781
540.155609	12670.360460
540.515665	12773.217642
540.875665	12632.161116
541.235609	12723.675703
541.595496	12689.252184
541.955328	12871.094165
542.315102	12718.639590
542.674821	12661.482988
543.034483	12672.651664
543.394090	12667.618072
543.753640	12644.816933
544.113134	12877.866955
544.472571	12649.316163
544.831953	12926.335128
545.191278	12744.929207
545.550548	12675.318434
545.909761	12787.806741
546.268918	12820.957369
546.628019	12899.170871
546.987064	12776.711162
547.346053	12625.151392
547.704986	12829.033297
548.063863	12710.563662
548.422684	12764.861930
548.781449	12724.174777
549.140158	12821.469046
549.498811	12775.634875
549.857408	12641.658650
550.215949	12843.372860
550.574434	12815.633911
550.932864	12746.232346
551.291237	12946.595526
551.649555	12841.820184
552.007817	12896.683062
552.366022	12808.515801
552.724173	12864.026467
553.082267	12944.722737
553.440305	13041.530535
553.798288	12862.103267
554.156215	12932.891149
554.514086	12981.681957
554.871902	12928.795212
555.229661	12944.213581
555.587365	12901.699010
555.945014	12914.238880
556.302606	12893.542423
556.660143	12955.223461
557.017625	12987.292761
557.375050	12947.301287
557.732421	13045.994477
558.089735	13043.118498
558.446994	13023.233667
558.804197	13134.847334
559.161345	13130.814411
559.518437	12945.393211
559.875474	13042.556410
560.232455	13073.010020
560.589381	13112.585598
560.946251	13053.601578
561.303065	13227.370151
561.659825	13174.690093
562.016528	13091.977362
562.373177	13028.892362
562.729770	13152.831650
563.086307	13044.182182
563.442789	13152.198985
563.799216	13188.588554
564.155587	13130.620326
564.511904	13148.153459
564.868164	13167.622396
565.224370	13224.458885
565.580520	13177.460207
565.936615	13243.075866
566.292654	13182.685363
566.648638	13251.295467
567.004567	13248.394283
567.360441	13252.160025
567.716260	13218.966547
568.072023	13301.475113
568.427732	13277.912759
568.783385	13185.294160
569.138982	13292.443885
569.494525	13284.516671
569.850013	13238.843817
570.205445	13229.174884
570.560823	13247.718768
570.916145	13201.249412
571.271412	13202.111450
571.626625	13168.088702
571.981782	13172.678673
572.336884	13115.033079
572.691931	13206.300648
573.046923	13094.465171
573.401860	13072.808374
573.756743	13061.964852
574.111570	13088.914861
574.466342	13064.732446
574.821059	13109.712141
575.175722	12986.962565
575.530330	13000.167868
575.884882	12939.484978
576.239380	12937.050101
576.593823	12922.027462
576.948211	12928.651539
577.302544	12806.254844
577.656823	12821.592554
578.011047	12879.091955
578.365216	12816.400166
578.719330	12756.339859
579.073389	12727.106208
579.427394	12737.685069
579.781344	12732.359090
580.135239	12653.263386
580.489080	12678.698528
580.842866	12562.489850
581.196597	12659.698419
581.550273	12644.955565
581.903895	12601.442845
582.257463	12711.420658
582.610975	12564.276939
582.964434	12621.935136
583.317837	12533.747711
583.671186	12497.905107
584.024481	12552.967110
584.377721	12441.050974
584.730906	12511.992612
585.084037	12528.479705
585.437113	12447.299484
585.790135	12473.579019
586.143103	12379.468239
586.496016	12395.854509
586.848874	12409.450501
587.201679	12409.533680
587.554428	12287.263014
587.907124	12334.448214
588.259765	12264.618151
588.612352	12344.976664
588.964884	12193.878160
589.317362	12251.871594
589.669786	12245.799524
590.022155	12203.781507
590.374470	12309.398721
590.726731	12186.964217
591.078937	12075.622773
591.431090	12095.568098
591.783188	12030.834642
592.135232	11951.133999
592.487222	12012.235304
592.839157	12020.805266
593.191038	11953.828496
593.542866	11900.883778
593.894639	11751.539595
594.246358	11815.330356
594.598022	11824.278404
594.949633	11727.145452
595.301190	11716.095242
595.652692	11675.766012
596.004141	11757.672159
596.355535	11538.699559
596.706876	11516.568894
597.058162	11483.251908
597.409395	11584.437948
597.760573	11607.657502
598.111698	11498.874444
598.462768	11501.805875
598.813785	11507.777121
599.164748	11382.859850
599.515657	11456.596807
599.866511	11326.945892
600.217312	11457.229472
600.568060	11227.700696
600.918753	11390.131714
601.269392	11386.779347
601.619978	11287.680344
601.970510	11332.818836
602.320988	11370.236800
602.671412	11442.753798
603.021783	11368.905936
603.372100	11295.032867
603.722363	11314.791670
604.072572	11319.706795
604.422728	11330.041160
604.772830	11270.588312
605.122878	11277.489652
605.472872	11248.941598
605.822813	11313.443161
606.172701	11268.655030
606.522534	11309.868983
606.872314	11354.883966
607.222041	11289.951384
607.571714	11371.224867
607.921333	11244.104611
608.270899	11292.066148
608.620411	11353.721980
608.969870	11295.461365
609.319276	11285.217741
609.668627	11298.168465
610.017926	11377.932122
610.367171	11415.609706
610.716362	11406.520505
611.065500	11381.080322
611.414585	11389.405788
611.763616	11446.411156
612.112594	11415.922257
612.461518	11439.918149
612.810389	11488.429173
613.159207	11429.911459
613.507971	11421.913668
613.856682	11527.291428
614.205340	11480.058337
614.553945	11621.651746
614.902496	11494.236582
615.250994	11561.835935
615.599439	11550.236240
615.947830	11586.353586
616.296169	11551.617516
616.644454	11563.799464
616.992686	11578.232288
617.340864	11680.303050
617.688990	11559.630430
618.037063	11694.486336
618.385082	11662.283446
618.733048	11705.350023
619.080961	11697.533714
619.428821	11672.690908
619.776628	11686.123062
620.124382	11631.484516
620.472083	11651.402115
620.819731	11673.245435
621.167326	11597.020668
621.514868	11577.594582
621.862357	11473.008283
622.209793	11475.201185
622.557176	11392.100285
622.904506	11331.682056
623.251783	11254.363359
623.599007	11190.529748
623.946179	11138.585699
624.293297	11123.187494
624.640363	10979.370937
624.987376	10967.680501
625.334336	10899.816488
625.681243	10820.146093
626.028097	10790.698193
626.374899	10745.446275
626.721647	10722.435928
627.068343	10684.602069
627.414987	10627.584098
627.761577	10558.298480
628.108115	10605.498803
628.454600	10479.205296
628.801032	10500.267237
629.147412	10482.867695
629.493739	10450.763106
629.840014	10374.104800
630.186236	10410.522096
630.532405	10310.740017
630.878521	10348.893990
631.224585	10310.561056
631.570597	10235.069777
631.916556	10236.471218
632.262462	10222.431605
632.608316	10195.708448
632.954117	10173.474439
633.299866	10153.584567
633.645562	10133.583789
633.991206	10026.789465
634.336797	9932.850084
634.682336	9917.552702
635.027823	9866.541267
635.373257	9829.531636
635.718639	9766.512171
636.063968	9728.542201
636.409245	9608.759344
636.754470	9611.050548
637.099642	9547.063183
637.444762	9449.766393
637.789829	9456.771076
638.134845	9379.480105
638.479808	9360.767342
638.824719	9339.125669
639.169577	9246.991021
639.514383	9249.740970
639.859137	9179.855454
640.203839	9214.699910
640.548489	9140.904979
640.893086	9140.413467
641.237632	9069.562570
641.582125	9074.190349
641.926566	9066.215244
642.270955	9047.739415
642.615292	9036.343887
642.959576	9016.617852
643.303809	9012.007716
643.647990	9026.349799
643.992118	9003.682251
644.336195	8987.391762
644.680219	8977.742994
645.024192	9010.306327
645.368112	9088.459335
645.711981	9063.727434
646.055797	9195.344399
646.399562	9162.508844
646.743274	9327.740223
647.086935	9393.882682
647.430544	9366.862097
647.774101	9387.150221
648.117606	9420.492412
648.461059	9480.625816
648.804460	9409.628726
649.147810	9299.189648
649.491108	9267.271583
649.834354	9195.946817
650.177548	9055.427174
650.520690	8963.037948
650.863781	8959.461249
651.206820	8930.860263
651.549807	8837.470367
651.892742	8745.292869
652.235626	8708.472282
652.578458	8670.315788
652.921238	8560.970641
653.263967	8600.407587
653.606644	8532.694809
653.949269	8511.791664
654.291843	8440.613093
654.634365	8500.985951
654.976836	8419.422602
655.319255	8413.428670
655.661622	8401.977689
656.003938	8362.114765
656.346203	8330.582348
656.688416	8356.884568
657.030577	8320.270668
657.372687	8282.623331
657.714746	8314.438053
658.056753	8334.786670
658.398708	8240.829645
658.740612	8224.728200
659.082465	8269.163450
659.424266	8223.714928
659.766016	8237.152123
660.107715	8212.553813
660.449362	8236.844613
660.790958	8221.408600
661.132503	8223.646872
661.473996	8218.409113
661.815438	8237.300837
662.156829	8264.447451
662.498168	8216.460707
662.839456	8207.610962
663.180693	8228.756082
663.521879	8254.309690
663.863013	8238.994665
664.204097	8229.204744
664.545129	8306.639388
664.886110	8294.681771
665.227040	8294.124723
665.567918	8305.550499
665.908746	8323.643200
666.249522	8341.614913
666.590248	8343.868309
666.930922	8349.693362
667.271545	8344.548865
667.612118	8363.533850
667.952639	8323.365936
668.293109	8322.652613
668.633528	8295.579096
668.973896	8284.818753
669.314213	8289.418806
669.654480	8246.442970
669.994695	8241.149758
670.334859	8222.149649
670.674973	8207.507618
671.015035	8231.397646
671.355047	8216.090183
671.695008	8203.197432
672.034918	8183.957868
672.374777	8191.111265
672.714585	8161.527254
673.054342	8193.084877
673.394049	8158.401738
673.733705	8205.614665
674.073310	8150.290522
674.412864	8160.229157
674.752368	8094.802542
675.091820	8146.887743
675.431223	8076.268739
675.770574	8030.651338
676.109875	8007.595621
676.449125	7966.265721
676.788324	7951.061601
677.127473	7861.412242
677.466571	7848.433791
677.805619	7792.983620
678.144616	7792.850029
678.483562	7766.741893
678.822458	7717.084007
679.161303	7706.300979
679.500098	7684.944131
679.838842	7660.728948
680.177535	7679.603028
680.516179	7710.805250
680.854771	7729.724701
681.193314	7845.928338
681.531805	8006.496650
681.870247	8131.635732
682.208638	8269.985158
682.546978	8347.510543
682.885268	8378.927013
683.223508	8304.698544
683.561697	8252.283147
683.899836	8226.134682
684.237925	8140.893811
684.575963	8111.766024
684.913951	8032.030094
685.251889	8044.771610
685.589776	8040.985704
685.927614	8028.586986
686.265401	8044.128863
686.603137	8044.620376
686.940824	8116.650902
687.278460	8173.197525
687.616046	8185.306377
687.953582	8297.114128
688.291068	8275.893391
688.628504	8324.832912
688.965889	8333.569232
689.303224	8295.717728
689.640510	8249.828105
689.977745	8144.931775
690.314930	8023.134978
690.652065	7948.392310
690.989150	7836.100608
691.326185	7685.949841
691.663170	7574.058911
692.000105	7454.228163
692.336990	7342.687593
692.673825	7271.004906
693.010610	7174.486975
693.347345	7080.461894
693.684030	6972.871068
694.020665	6928.138389
694.357251	6810.200595
694.693786	6795.001516
695.030272	6756.902996
695.366707	6654.832233
695.703093	6605.421364
696.039429	6607.130315
696.375716	6553.769702
696.711952	6546.303753
697.048139	6514.413414
697.384276	6483.299412
697.720363	6501.482854
698.056400	6477.917980
698.392388	6445.488238
698.728326	6444.059071
699.064214	6414.417086
699.400053	6412.690491
699.735842	6350.230595
700.071581	6306.004552
700.407270	6260.515700
700.742910	6235.695579
701.078501	6189.795873
701.414042	6151.299102
701.749533	6093.419094
702.084974	6037.847935
702.420366	6077.738585
702.755709	6001.634806
703.091002	5948.276713
703.426246	5959.541172
703.761440	5938.905208
704.096584	5895.301748
704.431679	5886.620881
704.766725	5862.897211
705.101721	5852.083936
705.436668	5865.253951
705.771565	5814.650848
706.106413	5869.294435
706.441212	5871.399117
706.775961	5886.131889
707.110661	5894.870729
707.445311	5958.036387
707.779913	5924.734525
708.114465	5961.376152
708.448967	6004.735116
708.783421	6121.765502
709.117825	6164.247306
709.452180	6194.728643
709.786485	6256.006388
710.120742	6389.491101
710.454949	6393.065279
710.789107	6468.801054
711.123216	6589.037614
711.457275	6620.968283
711.791286	6727.077009
712.125247	6747.113075
712.459159	6718.481842
712.793023	6848.828436
713.126837	6679.107910
713.460602	6733.141517
713.794318	6687.977820
714.127985	6634.201311
714.461602	6492.277707
714.795171	6500.472103
715.128691	6326.806873
715.462162	6241.681949
715.795584	6170.329458
716.128957	6127.116687
716.462281	6065.284415
716.795556	6020.299678
717.128782	5939.936124
717.461960	5839.123130
717.795088	5831.856306
718.128167	5757.121201
718.461198	5677.455846
718.794180	5655.577239
719.127113	5598.339978
719.459997	5559.087033
719.792833	5491.840562
720.125619	5491.538092
720.458357	5432.574237
720.791046	5402.418054
721.123686	5374.482500
721.456278	5327.355273
721.788821	5321.187422
722.121315	5281.989930
722.453761	5288.770282
722.786158	5274.009783
723.118506	5275.751502
723.450805	5253.346094
723.783056	5281.805928
724.115259	5260.610397
724.447412	5244.990381
724.779518	5294.411333
725.111574	5295.293535
725.443582	5332.141849
725.775542	5321.827648
726.107453	5405.654475
726.439315	5379.586668
726.771129	5450.346824
727.102895	5512.703377
727.434612	5554.378596
727.766281	5587.241878
728.097901	5641.698942
728.429473	5656.799718
728.760996	5664.684083
729.092471	5689.060582
729.423897	5671.850083
729.755276	5647.433255
730.086606	5663.068393
730.417887	5749.009984
730.749120	5843.624880
731.080305	5883.487804
731.411442	5958.142251
731.742530	5980.877855
732.073570	5997.508622
732.404562	6063.746863
732.735506	6057.072375
733.066401	6037.288367
733.397249	5970.041895
733.728048	5879.838009
734.058798	5727.688424
734.389501	5605.193427
734.720156	5518.878790
735.050762	5416.046814
735.381320	5343.242470
735.711831	5283.184683
736.042293	5204.023445
736.372707	5200.706365
736.703073	5159.769676
737.033391	5180.264487
737.363661	5170.368702
737.693883	5181.519734
738.024056	5209.094845
738.354182	5238.600719
738.684260	5282.050424
739.014290	5319.533923
739.344272	5355.782340
739.674207	5410.809055
740.004093	5440.914826
740.333931	5451.060148
740.663722	5471.502027
740.993464	5479.610722
741.323159	5467.330472
741.652806	5421.650056
741.982405	5385.704109
742.311956	5334.244010
742.641460	5320.542154
742.970915	5269.679432
743.300323	5203.794072
743.629683	5179.016801
743.958996	5125.772134
744.288260	5077.611471
744.617477	5016.724415
744.946647	5000.590202
745.275768	4949.984579
745.604842	4912.211213
745.933869	4877.144947
746.262847	4872.484400
746.591778	4856.501422
746.920662	4833.667516
747.249498	4831.003266
747.578286	4847.054300
747.907027	4873.285944
748.235720	4911.202982
748.564365	4922.532976
748.892963	4913.577366
749.221514	4927.944654
749.550017	4903.122013
749.878473	4904.692332
750.206881	4860.501577
750.535242	4848.163353
750.863555	4834.527032
751.191821	4808.900327
751.520039	4817.107325
751.848210	4799.296929
752.176334	4803.912105
752.504411	4785.098519
752.832440	4754.317233
753.160421	4767.603194
753.488356	4746.314402
753.816243	4726.197677
754.144082	4695.187019
754.471875	4683.531872
754.799620	4675.145912
755.127318	4667.513605
755.454969	4661.025640
755.782572	4652.185977
756.110129	4653.718488
756.437638	4641.329852
756.765100	4640.409842
757.092515	4638.378257
757.419882	4641.665089
757.747203	4639.817506
758.074477	4655.760155
758.401703	4644.314215
758.728882	4672.658103
759.056014	4688.532696
759.383099	4710.376016
759.710138	4734.644131
760.037129	4753.871091
760.364073	4770.769039
760.690970	4768.389614
761.017820	4769.390283
761.344623	4804.320438
761.671379	4861.966033
761.998088	4951.607830
762.324751	5186.039128
762.651366	5645.802441
762.977935	6343.452763
763.304456	6903.524956
763.630931	7202.382200
763.957359	7139.075390
764.283740	6848.306677
764.610074	6524.329363
764.936362	6124.959073
765.262602	5806.325383
765.588796	5460.605572
765.914943	5206.828847
766.241044	4976.213702
766.567097	4809.243125
766.893104	4657.637985
767.219064	4555.040422
767.544978	4463.538438
767.870845	4376.916292
768.196665	4328.276719
768.522438	4279.725366
768.848165	4239.567535
769.173846	4202.462122
769.499479	4174.279551
769.825066	4136.980054
770.150607	4094.659568
770.476101	4080.173812
770.801548	4056.664391
771.126949	4028.131460
771.452303	4006.877956
771.777611	3971.741113
772.102872	3968.786997
772.428087	3942.409160
772.753256	3916.800098
773.078378	3896.948034
773.403453	3863.142057
773.728482	3842.281762
774.053465	3828.426151
774.378401	3806.429076
774.703291	3786.004841
775.028135	3757.333278
775.352932	3751.054521
775.677683	3728.233218
776.002388	3709.248233
776.327046	3713.749983
776.651658	3691.057229
776.976224	3673.735824
777.300743	3671.928571
777.625216	3655.514574
777.949643	3645.389416
778.274024	3651.085920
778.598359	3631.831233
778.922647	3630.734782
779.246889	3620.415540
779.571086	3620.947382
779.895236	3623.730099
780.219339	3622.182464
780.543397	3621.136425
780.867409	3633.714104
781.191374	3635.884321
781.515294	3628.798979
781.839167	3646.989982
782.162995	3645.230620
782.486776	3636.136378
782.810511	3628.945172
783.134201	3614.081330
783.457844	3614.920682
783.781441	3607.905917
784.104993	3595.524843
784.428498	3592.895881
784.751958	3588.678956
785.075372	3585.445056
785.398739	3574.634301
785.722061	3577.817790
786.045337	3576.607913
786.368568	3606.456585
786.691752	3597.367385
787.014891	3645.749859
787.337983	3691.841128
787.661030	3778.806073
787.984031	3874.053634
788.306987	3952.274698
788.629897	4002.867718
788.952760	4014.772402
789.275579	3993.279443
789.598351	3944.539047
789.921078	3889.822363
790.243759	3828.000173
790.566395	3783.882515
790.888984	3730.955441
791.211529	3693.587888
791.534027	3648.610713
791.856480	3613.962863
792.178888	3596.149946
792.501249	3571.861667
792.823566	3542.643139
793.145836	3538.789177
793.468062	3531.910523
793.790241	3514.858820
794.112375	3520.648585
794.434464	3541.876884
794.756507	3538.015360
795.078505	3557.522105
795.400457	3600.571038
795.722364	3648.779592
796.044226	3694.928835
796.366042	3742.083788
796.687812	3739.308633
797.009538	3762.621449
797.331218	3753.476796
797.652852	3743.737287
797.974442	3720.472362
798.295986	3712.008264
798.617484	3680.861495
798.938938	3657.203360
799.260346	3643.773726
799.581709	3607.845423
799.903026	3593.513423
800.224299	3577.482553
800.545526	3541.682799
800.866708	3527.297867
801.187845	3515.713295
801.508936	3491.704800
801.829983	3488.213801
802.150984	3456.953606
802.471940	3444.968263
802.792851	3440.733693
803.113717	3434.154988
803.434538	3422.628389
803.755314	3415.714447
804.076045	3410.204466
804.396731	3395.912795
804.717372	3396.369019
805.037967	3395.973288
805.358518	3396.563103
805.679024	3410.680855
805.999485	3410.554826
806.319901	3414.930548
806.640272	3417.191505
806.960598	3429.396138
807.280879	3429.093669
807.601115	3440.232099
807.921306	3427.964451
808.241453	3433.968465
808.561554	3442.770320
808.881611	3435.299330
809.201623	3439.906944
809.521590	3424.027310
809.841513	3426.636107
810.161390	3434.848146
810.481223	3413.745876
810.801011	3413.980290
811.120755	3410.461565
811.440453	3397.634349
811.760107	3391.166548
812.079716	3382.836042
812.399281	3369.310626
812.718801	3372.012684
813.038276	3363.344420
813.357707	3360.813761
813.677093	3366.520347
813.996434	3351.306145
814.315731	3355.979294
814.634983	3355.500385
814.954191	3358.295705
815.273354	3374.114845
815.592473	3384.572719
815.911547	3403.691295
816.230577	3417.740991
816.549562	3441.701595
816.868502	3463.093731
817.187399	3485.385714
817.506250	3508.247346
817.825058	3520.885519
818.143821	3564.773804
818.462539	3610.010598
818.781213	3665.808610
819.099843	3752.317330
819.418429	3905.394488
819.736970	4058.247313
820.055466	4242.446034
820.373919	4480.781705
820.692327	4821.417512
821.010691	5334.049926
821.329011	6411.299132
821.647286	8152.836305
821.965517	10331.363378
822.283704	11961.642284
822.601847	13048.900702
822.919945	12636.216725
823.237999	11948.593258
823.556010	11050.151257
823.873976	10091.616183
824.191897	9123.633986
824.509775	8351.309052
824.827609	7548.825415
825.145398	7003.004565
825.463144	6619.728159
825.780845	6494.992368
826.098502	6558.392440
826.416116	6937.361180
826.733685	7440.017151
827.051210	7729.669248
827.368692	7632.024618
827.686129	7184.375198
828.003522	6635.486806
828.320872	6060.084464
828.638177	5602.075473
828.955439	5235.250872
829.272656	4899.086569
829.589830	4614.662148
829.906960	4349.368907
830.224046	4141.622957
830.541088	3971.917554
830.858086	3853.037064
831.175041	3758.762446
831.491952	3714.065055
831.808819	3696.489072
832.125642	3733.077767
832.442421	3834.155422
832.759157	4053.732960
833.075849	4431.519550
833.392497	4895.983739
833.709101	5281.274086
834.025662	5391.801384
834.342179	5267.650368
834.658653	4996.751363
834.975083	4724.458479
835.291469	4476.224502
835.607811	4255.129577
835.924110	4095.922377
836.240366	3934.928087
836.556578	3776.618213
836.872746	3639.098056
837.188871	3524.719317
837.504952	3425.033020
837.820990	3352.720188
838.136984	3297.635500
838.452935	3268.091818
838.768842	3252.275198
839.084706	3286.539921
839.400526	3422.404058
839.716303	3647.383193
840.032037	3860.525698
840.347727	3925.627158
840.663373	3835.914785
840.978977	3686.235365
841.294537	3555.487999
841.610054	3449.444807
841.925527	3373.555277
842.240957	3303.044658
842.556344	3243.485946
842.871687	3182.067048
843.186987	3124.696197
843.502244	3068.444482
843.817458	3031.099614
844.132629	2996.965962
844.447756	2976.614823
844.762840	2954.131277
845.077881	2937.268618
845.392879	2921.484765
845.707833	2910.379103
846.022745	2900.770664
846.337613	2897.587175
846.652438	2888.114847
846.967221	2884.336502
847.281960	2875.131355
847.596656	2870.042311
847.911309	2866.805890
848.225919	2860.272554
848.540485	2860.940507
848.855009	2854.097141
849.169490	2848.819053
849.483928	2846.923579
849.798323	2844.269412
850.112675	2841.857219
850.426984	2841.393433
850.741251	2837.574759
851.055474	2836.962259
851.369654	2835.785150
851.683792	2836.768175
851.997887	2836.581652
852.311938	2836.541323
852.625947	2835.880932
852.939914	2833.511589
853.253837	2836.745489
853.567718	2836.785819
853.881555	2833.708194
854.195350	2835.465036
854.509103	2835.079388
854.822812	2832.173163
855.136479	2833.065447
855.450103	2832.999912
855.763685	2833.773729
856.077224	2832.780622
856.390720	2834.391271
856.704173	2835.621312
857.017584	2838.179698
857.330953	2837.171467
857.644278	2844.239165
857.957561	2845.015502
858.270802	2843.435101
858.584000	2846.825277
858.897155	2846.953826
859.210268	2840.821262
859.523339	2838.991323
859.836367	2838.855212
860.149352	2838.434276
860.462295	2837.022753
860.775195	2830.885148
861.088054	2830.370950
861.400869	2831.033862
861.713642	2828.679643
862.026373	2831.550580
862.339062	2834.315653
862.651708	2836.619461
862.964312	2838.313288
863.276873	2838.930830
863.589392	2849.857531
863.901869	2859.060157
864.214303	2862.178111
864.526696	2868.797146
864.839045	2876.472302
865.151353	2885.659805
865.463619	2888.858417
865.775842	2891.870507
866.088023	2894.905281
866.400162	2891.066443
866.712258	2896.704973
867.024313	2896.755385
867.336325	2897.929974
867.648296	2899.344017
867.960224	2898.010632
868.272110	2901.834347
868.583954	2907.467837
868.895755	2902.378792
869.207515	2903.487846
869.519233	2913.353384
869.830909	2914.868251
870.142542	2917.419074
870.454134	2920.113571
870.765684	2924.078439
871.077191	2930.127823
871.388657	2936.366251
871.700081	2943.318002
872.011463	2947.119032
872.322803	2953.992646
872.634101	2960.304170
872.945357	2966.532516
873.256571	2973.620378
873.567744	2981.449290
873.878874	2986.162769
874.189963	2993.505209
874.501010	2997.175169
874.812015	2996.008142
875.122979	3007.262518
875.433900	3006.803773
875.744780	3010.750997
876.055618	3014.236955
876.366415	3015.650998
876.677169	3024.835981
876.987882	3028.052237
877.298554	3038.217723
877.609183	3051.037378
877.919771	3069.024215
878.230317	3091.926177
878.540822	3130.090232
878.851285	3180.027902
879.161707	3247.871750
879.472087	3352.692462
879.782425	3518.891743
880.092722	3795.436840
880.402977	4219.856623
880.713191	4766.733595
881.023363	5363.129822
881.333494	5805.949817
881.643583	6089.058496
881.953631	6171.713255
882.263637	6120.893383
882.573602	5972.983408
882.883526	5807.799920
883.193408	5607.154435
883.503248	5385.232761
883.813048	5165.440974
884.122806	4948.777223
884.432522	4703.424265
884.742197	4478.987054
885.051831	4273.401239
885.361424	4070.209971
885.670975	3903.796442
885.980485	3755.924276
886.289954	3632.499186
886.599382	3525.422557
886.908768	3444.423818
887.218113	3363.961962
887.527417	3301.002991
887.836680	3243.312027
888.145901	3194.438040
888.455082	3156.528563
888.764221	3125.326341
889.073319	3094.681167
889.382376	3073.861202
889.691392	3059.080539
890.000366	3048.794064
890.309300	3041.658311
890.618193	3036.468443
890.927044	3033.577341
891.235855	3033.950387
891.544625	3035.974410
891.853353	3041.638146
892.162041	3053.784807
892.470687	3081.632140
892.779293	3117.305866
893.087858	3164.652382
893.396381	3241.708940
893.704864	3351.195239
894.013306	3510.503263
894.321707	3698.152653
894.630068	3854.098227
894.938387	3927.205040
895.246665	3933.259465
895.554903	3873.781412
895.863100	3789.679842
896.171256	3713.518090
896.479371	3638.573776
896.787446	3562.354051
897.095480	3489.496775
897.403473	3437.827468
897.711425	3380.650701
898.019336	3325.739933
898.327207	3272.449896
898.635038	3226.661095
898.942827	3176.136131
899.250576	3132.880510
899.558284	3092.153028
899.865952	3066.465829
900.173579	3035.591282
900.481165	3017.034795
900.788711	2994.125271
901.096216	2980.166316
901.403681	2965.204172
901.711105	2962.015642
902.018489	2953.942234
902.325832	2962.497072
902.633135	2968.536374
902.940397	3010.614886
903.247619	3099.203082
903.554800	3272.611213
903.861941	3552.972463
904.169041	3816.665139
904.476101	3983.857527
904.783121	4006.220085
905.090100	3938.081329
905.397039	3834.888910
905.703938	3728.737333
906.010796	3625.986015
906.317614	3539.036193
906.624391	3457.006538
906.931129	3384.998697
907.237826	3312.380875
907.544483	3252.915425
907.851099	3180.305165
908.157675	3105.670883
908.464211	3030.179604
908.770707	2975.415029
909.077163	2924.907708
909.383578	2887.822460
909.689954	2862.367154
909.996289	2843.392251
910.302584	2829.859273
910.608839	2818.947696
910.915054	2809.137610
911.221229	2806.843885
911.527363	2806.987558
911.833458	2806.606951
912.139513	2809.457724
912.445527	2812.915955
912.751502	2825.150836
913.057436	2839.079544
913.363331	2859.672657
913.669186	2887.164590
913.975000	2927.710590
914.280775	2986.500526
914.586510	3066.980027
914.892205	3178.747449
915.197859	3324.320848
915.503475	3506.513189
915.809050	3679.923841
916.114585	3812.846465
916.420081	3891.155748
916.725536	3921.745470
917.030952	3885.665932
917.336328	3849.813246
917.641665	3798.479176
917.946961	3736.122624
918.252218	3678.850075
918.557435	3606.002881
918.862612	3540.041904
919.167750	3477.655104
919.472848	3402.912437
919.777906	3339.119155
920.082925	3269.339504
920.387904	3192.555169
920.692843	3142.345277
920.997743	3085.239086
921.302603	3038.396684
921.607423	3004.721777
921.912204	2964.508493
922.216946	2940.560491
922.521647	2916.463776
922.826310	2895.379150
923.130932	2876.101778
923.435516	2856.673171
923.740059	2845.131449
924.044564	2827.300888
924.349028	2815.943168
924.653454	2799.531692
924.957840	2786.359157
925.262186	2776.869185
925.566493	2765.445930
925.870761	2751.297932
926.174989	2749.614186
926.479178	2740.842579
926.783328	2732.174315
927.087438	2728.443861
927.391509	2722.649054
927.695541	2715.742674
927.999533	2707.447455
928.303486	2701.589634
928.607400	2701.619881
928.911275	2698.753985
929.215110	2693.823737
929.518906	2690.967923
929.822663	2689.019517
930.126381	2690.713345
930.430060	2690.622604
930.733699	2689.337110
931.037299	2690.420958
931.340861	2688.464990
931.644383	2688.555731
931.947866	2692.132430
932.251309	2690.037830
932.554714	2689.390042
932.858080	2689.185875
933.161407	2688.384332
933.464694	2687.048426
933.767943	2687.799558
934.071153	2683.925431
934.374323	2682.279494
934.677455	2686.244362
934.980548	2678.569205
935.283602	2682.077848
935.586617	2678.302024
935.889593	2681.629186
936.192530	2679.756397
936.495428	2683.411233
936.798287	2685.563806
937.101108	2689.286698
937.403890	2698.353213
937.706632	2705.551981
938.009336	2718.235524
938.312002	2728.867318
938.614628	2740.509862
938.917216	2749.712489
939.219765	2756.263468
939.522275	2765.836619
939.824747	2767.815272
940.127179	2764.742689
940.429573	2765.254366
940.731929	2767.127155
941.034246	2764.084818
941.336524	2766.436517
941.638763	2767.222937
941.940964	2766.363420
942.243126	2761.425610
942.545250	2754.577202
942.847335	2749.493199
943.149381	2742.375089
943.451389	2737.696899
943.753359	2729.172307
944.055290	2726.059395
944.357182	2722.712069
944.659036	2717.643189
944.960851	2716.844166
945.262628	2710.782178
945.564367	2712.720502
945.866067	2709.960470
946.167729	2707.654142
946.469352	2707.150027
946.770937	2707.210521
947.072484	2705.236909
947.373992	2704.803370
947.675462	2700.684747
947.976893	2699.182483
948.278286	2696.845908
948.579641	2697.576876
948.880958	2698.156608
949.182236	2695.910774
949.483476	2695.845239
949.784678	2694.063192
950.085841	2693.420444
950.386967	2697.728110
950.688054	2699.016125
950.989103	2701.017463
951.290114	2701.715663
951.591087	2709.922662
951.892021	2714.316027
952.192917	2716.045143
952.493776	2721.867676
952.794596	2721.756770
953.095378	2723.498489
953.396122	2724.100907
953.696828	2727.891854
953.997496	2725.099055
954.298126	2721.398848
954.598718	2718.507747
954.899272	2715.883826
955.199788	2710.167157
955.500266	2705.811601
955.800706	2696.888758
956.101108	2689.654702
956.401472	2683.698579
956.701798	2678.208763
957.002087	2669.253153
957.302337	2668.733914
957.602550	2663.412976
957.902724	2658.281082
958.202861	2653.519712
958.502960	2649.252375
958.803022	2644.007054
959.103045	2641.960346
959.403031	2636.669655
959.702979	2632.442647
960.002889	2631.704118
960.302762	2626.894858
960.602596	2626.005094
960.902393	2620.820267
961.202153	2619.628034
961.501875	2617.301542
961.801559	2617.477982
962.101205	2615.136366
962.400814	2614.871706
962.700385	2613.838269
962.999918	2613.981942
963.299414	2611.194184
963.598873	2611.862137
963.898293	2612.736777
964.197677	2611.836931
964.497022	2608.008175
964.796331	2608.771910
965.095601	2610.546396
965.394835	2606.490787
965.694030	2604.517176
965.993189	2606.231168
966.292309	2604.517176
966.591393	2604.398709
966.890439	2604.794439
967.189447	2607.723350
967.488419	2607.834255
967.787353	2606.621857
968.086249	2605.628750
968.385108	2607.718308
968.683930	2607.380551
968.982714	2605.384254
969.281462	2603.947525
969.580172	2607.168823
969.878844	2611.073196
970.177480	2607.819132
970.476078	2608.882815
970.774639	2611.869699
971.073162	2614.501181
971.371649	2613.240892
971.670098	2611.594956
971.968510	2615.506891
972.266885	2613.056890
972.565223	2621.359671
972.863524	2619.219701
973.161788	2620.762294
973.460014	2621.727675
973.758204	2620.280864
974.056356	2624.805299
974.354471	2623.650875
974.652550	2622.567027
974.950591	2620.124588
975.248595	2622.536780
975.546563	2624.094497
975.844493	2622.786317
976.142386	2622.599795
976.440243	2619.577623
976.738062	2620.553086
977.035845	2618.914711
977.333590	2616.963785
977.631299	2616.406737
977.928971	2615.640482
978.226606	2611.567229
978.524204	2614.314658
978.821765	2610.286776
979.119290	2613.208125
979.416777	2610.816097
979.714228	2613.351798
980.011642	2613.656788
980.309020	2615.877416
980.606360	2616.157200
980.903664	2620.111985
981.200931	2625.309415
981.498162	2631.832668
981.795356	2647.740029
982.092513	2660.393325
982.389633	2676.056190
982.686717	2694.796679
982.983764	2710.270501
983.280775	2726.563510
983.577749	2730.409911
983.874686	2730.427555
984.171587	2728.496793
984.468451	2721.923128
984.765279	2716.791234
985.062070	2709.786550
985.358824	2703.222968
985.655543	2694.378264
985.952224	2680.709175
986.248869	2668.570077
986.545478	2654.777480
986.842050	2643.107208
987.138586	2629.987606
987.435086	2622.380504
987.731549	2614.201232
988.027975	2612.903135
988.324366	2609.318875
988.620719	2603.400560
988.917037	2601.721856
989.213318	2601.792432
989.509563	2598.498038
989.805772	2598.946701
990.101944	2596.146340
990.398080	2595.748089
990.694180	2595.506113
990.990244	2591.684919
991.286271	2596.814293
991.582262	2595.687595
991.878217	2593.545104
992.174136	2596.864704
992.470019	2596.209354
992.765865	2598.361927
993.061676	2599.901999
993.357450	2598.921495
993.653188	2599.604571
993.948890	2600.622884
994.244556	2605.338884
994.540186	2611.675614
994.835780	2615.527056
995.131337	2621.745319
995.426859	2630.075826
995.722345	2636.190745
996.017795	2647.440080
996.313208	2659.251504
996.608586	2665.489932
996.903928	2666.475477
997.199234	2669.480005
997.494504	2668.393636
997.789738	2669.343894
998.084936	2665.580672
998.380099	2657.928201
998.675225	2655.135402
998.970316	2650.242962
999.265371	2643.472692
999.560390	2634.161681
999.855373	2626.995681
1000.150320	2618.957561
1000.445232	2617.548558
1000.740108	2612.295676
1001.034948	2605.043976
1001.329752	2603.077926
1001.624521	2600.310333
1001.919254	2595.795980
1002.213951	2592.715835
1002.508613	2592.408324
1002.803239	2589.744074
1003.097829	2584.952458
1003.392384	2589.282809
1003.686903	2589.015628
1003.981386	2587.467993
1004.275834	2587.755339
1004.570246	2589.234918
1004.864623	2586.313569
1005.158964	2585.388517
1005.453270	2587.742736
1005.747540	2588.428333
1006.041775	2586.205184
1006.335974	2583.936665
1006.630138	2582.971284
1006.924266	2582.837694
1007.218359	2582.557910
1007.512416	2583.898857
1007.806438	2584.218970
1008.100425	2584.062694
1008.394376	2583.104875
1008.688292	2584.344999
1008.982172	2584.062694
1009.276017	2585.181830
1009.569827	2582.109247
1009.863602	2583.424988
1010.157341	2582.474731
1010.451045	2582.048753
1010.744714	2581.705955
1011.038347	2582.167220
1011.331945	2580.102868
1011.625508	2579.460121
1011.919036	2580.163362
1012.212528	2579.480285
1012.505986	2581.610173
1012.799408	2582.825091
1013.092795	2578.275449
1013.386147	2579.119843
1013.679464	2580.407857
1013.972745	2578.232600
1014.265992	2580.506160
1014.559204	2580.957343
1014.852380	2580.291911
1015.145521	2579.064390
1015.438628	2581.453897
1015.731699	2582.326017
1016.024736	2581.032961
1016.317737	2583.089751
1016.610703	2581.035481
1016.903635	2574.199677
1017.196531	2580.178485
1017.489393	2576.659760
1017.782219	2576.584142
1018.075011	2577.937692
1018.367768	2579.455079
1018.660490	2584.904567
1018.953177	2584.904567
1019.245829	2584.904567
