Dividing Wavelength (nm)	Counts (n)	Blue Motor Position (mm): 12.000000	Red Motor Position (mm): 0.000000	
326.493990	2162.612150
326.888308	2162.612150
327.282561	2162.612150
327.676750	2132.939919
328.070874	2136.824128
328.464933	2142.629016
328.858929	2147.125726
329.252859	2160.323466
329.646726	2175.938440
330.040528	2189.423527
330.434265	2210.064531
330.827938	2228.343755
331.221547	2247.059039
331.615091	2267.074940
332.008571	2288.078908
332.401986	2309.924748
332.795338	2327.609116
333.188625	2350.458145
333.581847	2366.819210
333.975006	2385.156407
334.368100	2404.887483
334.761129	2422.617222
335.154095	2443.101950
335.546996	2460.448561
335.939833	2484.809937
336.332606	2498.834427
336.725315	2509.872033
337.117960	2516.733043
337.510540	2526.439785
337.903056	2534.800539
338.295508	2543.874616
338.687896	2547.257230
339.080220	2557.205947
339.472480	2562.688202
339.864676	2565.387740
340.256807	2571.749676
340.648875	2573.395613
341.040879	2574.998699
341.432818	2574.129100
341.824694	2572.662125
342.216506	2575.843093
342.608253	2570.779254
342.999937	2574.255129
343.391557	2570.970818
343.783113	2572.951991
344.174605	2570.880077
344.566033	2567.948646
344.957397	2565.985116
345.348697	2566.542164
345.739934	2565.707853
346.131106	2561.581668
346.522215	2559.403890
346.913260	2556.984136
347.304241	2556.134702
347.695159	2554.985319
348.086012	2554.478683
348.476802	2552.333672
348.867528	2550.516336
349.258191	2549.518187
349.648789	2552.026161
350.039324	2545.243289
350.429796	2546.904349
350.820203	2544.766900
351.210548	2545.528114
351.600828	2544.305634
351.991045	2543.763710
352.381198	2543.161292
352.771288	2545.447456
353.161314	2541.293545
353.551276	2542.536189
353.941175	2543.753628
354.331010	2542.261446
354.720782	2542.841179
355.110490	2542.626930
355.500135	2541.656508
355.889717	2543.698175
356.279235	2543.320089
356.668689	2542.838658
357.058080	2543.998124
357.447408	2540.744059
357.836672	2540.297917
358.225873	2542.087527
358.615010	2540.600386
359.004084	2547.801674
359.393095	2546.301931
359.782043	2546.627086
360.170927	2548.204967
360.559748	2551.080945
360.948505	2549.893753
361.337199	2549.147663
361.725830	2549.326623
362.114398	2549.755122
362.502903	2549.770245
362.891344	2550.551624
363.279722	2553.336861
363.668037	2550.775955
364.056289	2552.885678
364.444478	2552.890719
364.832603	2550.428116
365.220665	2553.619166
365.608665	2551.421223
365.996601	2555.345761
366.384474	2549.739998
366.772284	2552.270657
367.160031	2553.891388
367.547715	2553.094886
367.935336	2555.169321
368.322893	2556.573282
368.710388	2554.317366
369.097820	2557.372305
369.485189	2556.399362
369.872495	2557.190823
370.259738	2553.369629
370.646918	2557.026986
371.034035	2557.773077
371.421090	2557.921791
371.808081	2556.517829
372.195010	2557.213509
372.581875	2556.666543
372.968678	2561.075033
373.355418	2558.340207
373.742096	2558.735937
374.128710	2560.142419
374.515262	2561.024621
374.901751	2560.641493
375.288177	2561.160732
375.674540	2559.522357
376.060841	2560.182748
376.447079	2559.933211
376.833254	2559.751730
377.219367	2559.824826
377.605417	2556.177552
377.991404	2555.539846
378.377329	2556.777449
378.763191	2560.034034
379.148991	2562.325239
379.534727	2560.530588
379.920402	2562.766340
380.306013	2564.339180
380.691563	2563.567883
381.077049	2562.731052
381.462474	2563.633418
381.847835	2563.459498
382.233134	2564.261042
382.618371	2561.294323
383.003545	2564.392112
383.388657	2565.191135
383.773706	2565.256670
384.158693	2563.492266
384.543618	2564.434962
384.928480	2567.033676
385.313280	2566.292627
385.698017	2566.622822
386.082692	2568.523337
386.467305	2563.671227
386.851856	2570.466702
387.236344	2567.263049
387.620770	2569.294634
388.005133	2566.156516
388.389435	2568.543502
388.773674	2565.818758
389.157851	2567.250446
389.541965	2570.222206
389.926018	2569.375292
390.310008	2568.893862
390.693936	2566.393450
391.077802	2568.724983
391.461606	2570.050807
391.845348	2571.278328
392.229027	2571.739593
392.612645	2568.399829
392.996200	2568.397308
393.379694	2569.231619
393.763125	2571.691703
394.146494	2568.397308
394.529801	2571.767320
394.913047	2570.418811
395.296230	2571.177505
395.679351	2569.758420
396.062410	2569.957546
396.445408	2571.079202
396.828343	2573.282187
397.211217	2568.596434
397.594028	2566.849674
397.976778	2567.051320
398.359466	2570.335632
398.742092	2568.634243
399.124656	2571.742114
399.507158	2573.383010
399.889598	2572.402505
400.271977	2573.060376
400.654294	2575.525500
401.036549	2570.512072
401.418742	2575.563309
401.800874	2572.674727
402.182944	2574.618092
402.564952	2575.187743
402.946898	2574.653380
403.328783	2572.624316
403.710606	2572.936867
404.092367	2573.824111
404.474067	2574.519790
404.855705	2576.082547
405.237282	2576.412743
405.618797	2572.984758
406.000250	2575.097002
406.381642	2573.846796
406.762972	2574.970973
407.144240	2576.962229
407.525447	2577.670511
407.906593	2576.516087
408.287677	2577.589852
408.668700	2575.976683
409.049661	2576.770665
409.430560	2574.471899
409.811399	2575.165057
410.192176	2574.187074
410.572891	2576.954667
410.953545	2577.231931
411.334138	2579.076993
411.714669	2578.295614
412.095139	2579.641602
412.475547	2578.875347
412.855894	2577.945254
413.236180	2578.953485
413.616405	2577.877198
413.996568	2577.720923
414.376670	2581.627817
414.756711	2577.325192
415.136691	2580.864082
415.516609	2578.615727
415.896466	2578.436766
416.276262	2580.992631
416.655997	2577.604976
417.035670	2577.199163
417.415283	2576.173288
417.794834	2577.257136
418.174324	2576.170768
418.553753	2580.962384
418.933121	2580.422981
419.312428	2582.527663
419.691674	2580.591860
420.070859	2581.101016
420.449983	2578.933320
420.829045	2583.581264
421.208047	2580.680080
421.586988	2579.994483
421.965867	2580.470872
422.344686	2581.153948
422.723444	2582.958681
423.102141	2579.712178
423.480777	2581.169072
423.859352	2581.779051
424.237866	2583.729978
424.616319	2582.983887
424.994712	2581.945409
425.373044	2583.336768
425.751314	2583.243507
426.129524	2580.556572
426.507673	2583.354412
426.885762	2584.342478
427.263789	2584.024885
427.641756	2583.611511
428.019662	2585.998497
428.397508	2580.014647
428.775292	2582.583115
429.153016	2585.214598
429.530679	2586.285843
429.908282	2584.566809
430.285824	2581.201839
430.663305	2583.682087
431.040726	2584.574371
431.418086	2585.091089
431.795385	2586.056470
432.172624	2583.661922
432.549802	2584.014803
432.926920	2586.046388
433.303977	2584.912128
433.680974	2584.337437
434.057910	2584.153435
434.434786	2583.175451
434.811601	2585.181830
435.188355	2584.377766
435.565050	2587.210895
435.941683	2584.821388
436.318257	2580.675039
436.694770	2582.646130
437.071222	2583.203177
437.447614	2582.923393
437.823946	2580.541448
438.200218	2585.333065
438.576429	2585.784248
438.952580	2585.625452
439.328670	2587.621749
439.704700	2587.485638
440.080670	2586.858014
440.456580	2587.604105
440.832429	2586.467324
441.208218	2585.864907
441.583947	2589.822212
441.959616	2588.788776
442.335224	2585.842221
442.710773	2586.159814
443.086261	2586.921028
443.461689	2589.285329
443.837057	2589.013107
444.212365	2586.341296
444.587612	2588.171234
444.962800	2586.729464
445.337927	2589.161821
445.712995	2588.057808
446.088002	2589.108889
446.462949	2589.275247
446.837837	2589.527305
447.212664	2588.866914
447.587431	2586.253075
447.962139	2586.109402
448.336786	2588.629979
448.711374	2588.362798
449.085901	2587.856162
449.460369	2591.243818
449.834776	2588.440936
450.209124	2588.256934
450.583412	2587.929259
450.957640	2588.342634
451.331808	2588.534197
451.705917	2587.906574
452.079965	2590.815320
452.453954	2591.400093
452.827883	2589.600402
453.201752	2589.161821
453.575562	2590.343972
453.949311	2589.986050
454.323001	2589.262644
454.696632	2590.797676
455.070202	2590.122161
455.443713	2589.348344
455.817164	2588.604774
456.190556	2587.210895
456.563888	2587.362129
456.937160	2584.193764
457.310373	2591.392532
457.683526	2589.270206
458.056619	2591.775659
458.429653	2590.480083
458.802628	2591.861359
459.175542	2592.476380
459.548398	2591.102665
459.921194	2589.033272
460.293930	2591.332038
460.666607	2591.100145
461.039224	2591.823550
461.411782	2589.257603
461.784280	2590.107038
462.156719	2592.375557
462.529099	2592.856987
462.901419	2591.475711
463.273680	2592.090732
463.645882	2591.813468
464.018024	2591.697522
464.390106	2594.578541
464.762130	2591.163159
465.134094	2592.932604
465.505999	2594.376895
465.877845	2594.145002
466.249631	2597.333532
466.621358	2592.509147
466.993026	2594.616350
467.364634	2595.312029
467.736184	2594.311360
468.107674	2596.063161
468.479105	2593.799683
468.850477	2593.837491
469.221790	2594.840681
469.593043	2592.037799
469.964238	2595.725403
470.335373	2593.706421
470.706449	2596.027873
471.077467	2592.783890
471.448425	2594.059302
471.819324	2594.132399
472.190164	2594.898654
472.560945	2592.783890
472.931667	2595.528798
473.302330	2591.934456
473.672934	2591.526122
474.043479	2594.427306
474.413965	2596.224478
474.784393	2590.495206
475.154761	2593.847574
475.525070	2592.776328
475.895321	2592.521750
476.265513	2590.351533
476.635645	2596.612647
477.005719	2596.259766
477.375734	2594.346648
477.745691	2595.919488
478.115588	2595.727924
478.485427	2596.698346
478.855207	2595.430496
479.224928	2594.422265
479.594591	2598.896289
479.964194	2596.824375
480.333739	2597.144488
480.703226	2595.206165
481.072653	2595.997626
481.442022	2596.602564
481.811333	2598.797987
482.180584	2597.885538
482.549777	2595.811103
482.918912	2598.808069
483.287988	2598.477873
483.657005	2595.952255
484.025964	2599.798656
484.394864	2600.859819
484.763706	2598.674478
485.132489	2598.288830
485.501213	2597.562904
485.869879	2596.489138
486.238487	2597.089036
486.607036	2597.951073
486.975527	2600.630446
487.343959	2594.888572
487.712333	2598.981989
488.080648	2597.699015
488.448905	2599.571804
488.817104	2597.620877
489.185244	2598.130034
489.553326	2598.308995
489.921350	2599.045003
490.289315	2599.831423
490.657222	2600.176742
491.025070	2603.529110
491.392861	2600.708584
491.760593	2598.084663
492.128267	2600.854777
492.495883	2598.621546
492.863440	2599.375199
493.230939	2600.753954
493.598380	2599.758327
493.965763	2594.754981
494.333088	2595.937132
494.700354	2596.264807
495.067563	2596.060640
495.434713	2590.807758
495.801805	2602.518358
496.168839	2600.088522
496.535815	2601.386619
496.902733	2599.491145
497.269593	2601.091712
497.636395	2598.808069
498.003139	2599.781012
498.369825	2599.216402
498.736453	2602.276383
499.103023	2599.276896
499.469535	2601.583224
499.835989	2602.036928
500.202385	2600.764037
500.568723	2600.338059
500.935003	2601.184973
501.301226	2600.141454
501.667390	2601.973914
502.033497	2601.520210
502.399546	2602.881321
502.765537	2602.944336
503.131470	2600.489294
503.497345	2602.881321
503.863163	2603.768564
504.228923	2602.525920
504.594625	2605.124635
504.960269	2605.603544
505.325856	2605.197732
505.691385	2605.109511
506.056856	2603.839141
506.422270	2603.534151
506.787625	2603.690427
507.152924	2605.777464
507.518164	2604.449120
507.883347	2604.635643
508.248472	2606.165633
508.613540	2605.424583
508.978550	2604.693616
509.343503	2607.357866
509.708398	2607.630088
510.073236	2606.102619
510.438016	2608.174533
510.802738	2608.542537
511.167403	2606.102619
511.532010	2607.451127
511.896561	2606.329471
512.261053	2611.090840
512.625488	2606.145468
512.989866	2607.027670
513.354186	2608.172012
513.718449	2607.597321
514.082655	2607.889708
514.446803	2611.237034
514.810894	2610.659822
515.174927	2613.855913
515.538904	2612.988835
515.902822	2615.121243
516.266684	2611.761314
516.630488	2612.535131
516.994235	2613.976901
517.357925	2614.486057
517.721558	2612.681324
518.085133	2615.166613
518.448651	2617.165431
518.812112	2614.246603
519.175516	2617.205760
519.538863	2615.438836
519.902152	2618.430760
520.265385	2617.087293
520.628560	2617.982098
520.991678	2617.183075
521.354739	2616.933538
521.717743	2616.827673
522.080690	2619.867489
522.443580	2615.763990
522.806413	2617.903960
523.169189	2621.457973
523.531908	2621.155504
523.894569	2622.509054
524.257174	2622.062912
524.619722	2620.558127
524.982213	2621.868827
525.344647	2621.568879
525.707025	2621.591564
526.069345	2624.016359
526.431608	2623.509723
526.793815	2622.682974
527.155964	2626.705814
527.518057	2623.166924
527.880093	2624.399487
528.242072	2622.677932
528.603995	2622.214146
528.965860	2624.598612
529.327669	2626.050464
529.689421	2622.967799
530.051117	2623.973509
530.412755	2628.508027
530.774337	2624.326390
531.135862	2627.406535
531.497331	2623.807151
531.858743	2622.667850
532.220098	2624.732203
532.581396	2621.362191
532.942638	2622.509054
533.303824	2627.565331
533.664953	2625.473252
534.026025	2626.869652
534.387040	2627.701442
534.747999	2625.868983
535.108902	2627.562811
535.469748	2624.394445
535.830537	2629.160856
536.191270	2626.864611
536.551947	2629.042389
536.912567	2628.344189
537.273131	2626.289919
537.633638	2628.409724
537.994089	2631.522637
538.354483	2626.453757
538.714821	2630.229581
539.075103	2626.703294
539.435328	2626.115999
539.795497	2628.553397
540.155609	2627.013325
540.515665	2629.934673
540.875665	2628.505506
541.235609	2629.430558
541.595496	2626.650362
541.955328	2631.205044
542.315102	2631.210085
542.674821	2629.075157
543.034483	2630.567338
543.394090	2629.400311
543.753640	2632.046917
544.113134	2630.390898
544.472571	2629.939715
544.831953	2630.791670
545.191278	2632.409880
545.550548	2629.755712
545.909761	2629.927112
546.268918	2629.937194
546.628019	2630.201855
546.987064	2631.729324
547.346053	2629.027266
547.704986	2630.895013
548.063863	2632.760240
548.422684	2630.451392
548.781449	2634.504479
549.140158	2634.101187
549.498811	2637.035139
549.857408	2634.998512
550.215949	2633.508852
550.574434	2630.090949
550.932864	2630.627832
551.291237	2632.077164
551.649555	2635.598410
552.007817	2636.044552
552.366022	2634.834675
552.724173	2634.431383
553.082267	2637.322484
553.440305	2637.902217
553.798288	2635.079171
554.156215	2636.127731
554.514086	2640.211066
554.871902	2636.798204
555.229661	2638.199645
555.587365	2637.766106
555.945014	2641.607465
556.302606	2642.267856
556.660143	2643.555871
557.017625	2641.277270
557.375050	2641.892290
557.732421	2642.325830
558.089735	2641.582259
558.446994	2642.640902
558.804197	2644.569143
559.161345	2642.628299
559.518437	2646.633496
559.875474	2647.303969
560.232455	2648.516367
560.589381	2647.878661
560.946251	2648.660039
561.303065	2649.678352
561.659825	2651.614156
562.016528	2647.467807
562.373177	2649.963178
562.729770	2651.964516
563.086307	2651.954433
563.442789	2655.483241
563.799216	2654.696821
564.155587	2655.967192
564.511904	2659.458191
564.868164	2657.270330
565.224370	2660.048006
565.580520	2660.625218
565.936615	2660.612615
566.292654	2663.284427
566.648638	2662.369457
567.004567	2665.633604
567.360441	2664.733758
567.716260	2667.846671
568.072023	2670.636950
568.427732	2665.953718
568.783385	2666.634273
569.138982	2672.323216
569.494525	2668.912875
569.850013	2669.837927
570.205445	2676.441838
570.560823	2675.942764
570.916145	2681.228414
571.271412	2681.979546
571.626625	2682.881912
571.981782	2685.745288
572.336884	2686.509022
572.691931	2688.454908
573.046923	2691.172090
573.401860	2690.017666
573.756743	2694.632842
574.111570	2694.290043
574.466342	2695.741896
574.821059	2698.075950
575.175722	2699.837833
575.530330	2700.951928
575.884882	2704.803370
576.239380	2705.501570
576.593823	2707.449976
576.948211	2707.384441
577.302544	2710.124308
577.656823	2712.919627
578.011047	2716.501367
578.365216	2717.658312
578.719330	2720.168807
579.073389	2724.186606
579.427394	2726.021586
579.781344	2726.835733
580.135239	2729.873028
580.489080	2736.078688
580.842866	2734.021897
581.196597	2741.359297
581.550273	2743.388361
581.903895	2747.542272
582.257463	2751.701224
582.610975	2750.922366
582.964434	2759.842687
583.317837	2760.906371
583.671186	2764.974582
584.024481	2769.350304
584.377721	2771.172681
584.730906	2775.941612
585.084037	2782.560647
585.437113	2783.059722
585.790135	2790.538273
586.143103	2795.085394
586.496016	2797.255611
586.848874	2803.725932
587.201679	2804.535037
587.554428	2806.392702
587.907124	2814.718168
588.259765	2816.210349
588.612352	2828.785507
588.964884	2832.894048
589.317362	2841.244719
589.669786	2843.593897
590.022155	2848.879547
590.374470	2856.889940
590.726731	2858.954293
591.078937	2866.279089
591.431090	2872.794781
591.783188	2874.531458
592.135232	2879.827190
592.487222	2887.283057
592.839157	2892.798079
593.191038	2897.922412
593.542866	2905.118659
593.894639	2909.217117
594.246358	2917.582912
594.598022	2923.576844
594.949633	2927.249324
595.301190	2935.022784
595.652692	2942.433280
596.004141	2950.506688
596.355535	2949.029630
596.706876	2955.252934
597.058162	2961.662761
597.409395	2973.280100
597.760573	2983.531287
598.111698	2986.976915
598.462768	2994.001763
598.813785	3004.656242
599.164748	3009.901562
599.515657	3018.461442
599.866511	3020.656864
600.217312	3036.266797
600.568060	3034.056251
600.918753	3053.010989
601.269392	3063.161353
601.619978	3068.736869
601.970510	3080.472675
602.320988	3089.831577
602.671412	3106.122066
603.021783	3110.984259
603.372100	3116.216976
603.722363	3130.513689
604.072572	3142.733446
604.422728	3157.178872
604.772830	3159.427227
605.122878	3169.209586
605.472872	3182.185516
605.822813	3196.774615
606.172701	3204.815255
606.522534	3222.852504
606.872314	3237.209710
607.222041	3250.057090
607.571714	3265.553597
607.921333	3268.936212
608.270899	3283.537914
608.620411	3304.637663
608.969870	3314.286432
609.319276	3327.779080
609.668627	3345.947398
610.017926	3365.295347
610.367171	3381.212790
610.716362	3398.451016
611.065500	3411.016092
611.414585	3426.252979
611.763616	3450.977318
612.112594	3464.268320
612.461518	3481.262050
612.810389	3505.638549
613.159207	3519.030374
613.507971	3534.899927
613.856682	3566.707087
614.205340	3577.212852
614.553945	3610.842389
614.902496	3617.716002
615.250994	3640.592758
615.599439	3663.383815
615.947830	3684.002134
616.296169	3699.249104
616.644454	3727.540059
616.992686	3746.988831
617.340864	3779.960498
617.688990	3789.710089
618.037063	3828.637879
618.385082	3846.733101
618.733048	3874.809807
619.080961	3898.306625
619.428821	3919.897887
619.776628	3942.971248
620.124382	3953.792085
620.472083	3977.772854
620.819731	4002.817306
621.167326	4008.539016
621.514868	4023.954864
621.862357	4029.053991
622.209793	4043.325498
622.557176	4051.638361
622.904506	4061.055236
623.251783	4064.795772
623.599007	4071.316505
623.946179	4081.865119
624.293297	4097.749795
624.640363	4095.476234
624.987376	4116.613793
625.334336	4123.368939
625.681243	4125.950009
626.028097	4144.083040
626.374899	4157.046367
626.721647	4173.898944
627.068343	4185.082744
627.414987	4196.690001
627.761577	4205.771639
628.108115	4236.729365
628.454600	4234.097883
628.801032	4259.986728
629.147412	4278.800315
629.493739	4292.867654
629.840014	4301.876196
630.186236	4333.428778
630.532405	4337.030683
630.878521	4370.902195
631.224585	4382.025501
631.570597	4392.700145
631.916556	4415.637395
632.262462	4435.512144
632.608316	4454.282880
632.954117	4468.125888
633.299866	4488.471985
633.645562	4504.361702
633.991206	4501.944469
634.336797	4498.062781
634.682336	4513.985265
635.027823	4518.608003
635.373257	4527.805588
635.718639	4531.548645
636.063968	4540.877300
636.409245	4532.201474
636.754470	4548.267632
637.099642	4550.331984
637.444762	4543.513824
637.789829	4565.175662
638.134845	4567.736568
638.479808	4579.830296
638.824719	4594.573150
639.169577	4588.261626
639.514383	4611.617292
639.859137	4607.901961
640.203839	4641.526457
640.548489	4640.704749
640.893086	4662.001104
641.237632	4657.491792
641.582125	4684.464485
641.926566	4697.334551
642.270955	4712.213517
642.615292	4729.920569
642.959576	4748.252725
643.303809	4761.122791
643.647990	4792.360301
643.992118	4803.781035
644.336195	4816.280576
644.680219	4839.086756
645.024192	4870.616653
645.368112	4915.019136
645.711981	4934.324234
646.055797	5005.759905
646.399562	5013.500597
646.743274	5094.859779
647.086935	5143.663189
647.430544	5161.531559
647.774101	5187.921999
648.117606	5222.131269
648.461059	5272.333600
648.804460	5270.884268
649.147810	5241.133899
649.491108	5249.247636
649.834354	5239.321604
650.177548	5206.402869
650.520690	5186.457544
650.863781	5210.259352
651.206820	5215.134148
651.549807	5194.530952
651.892742	5180.907234
652.235626	5188.350497
652.578458	5185.638357
652.921238	5161.453421
653.263967	5198.589081
653.606644	5188.395868
653.949269	5201.500347
654.291843	5191.102967
654.634365	5231.737188
654.976836	5220.349221
655.319255	5235.114761
655.661622	5251.846351
656.003938	5254.311475
656.346203	5249.988685
656.688416	5286.277431
657.030577	5286.121156
657.372687	5288.452689
657.714746	5322.830838
658.056753	5347.895455
658.398708	5324.159182
658.740612	5333.515563
659.082465	5373.227253
659.424266	5370.137026
659.766016	5396.897991
660.107715	5399.685749
660.449362	5429.242034
660.790958	5443.453047
661.132503	5458.294203
661.473996	5472.701821
661.815438	5499.263661
662.156829	5533.576274
662.498168	5526.798443
662.839456	5540.296132
663.180693	5572.254527
663.521879	5598.161017
663.863013	5610.816834
664.204097	5623.729749
664.545129	5682.106311
664.886110	5693.731212
665.227040	5718.538730
665.567918	5738.995732
665.908746	5763.752838
666.249522	5789.848371
666.590248	5803.547707
666.930922	5829.194577
667.271545	5843.297205
667.612118	5869.145721
667.952639	5868.525659
668.293109	5888.687754
668.633528	5895.674793
668.973896	5902.621503
669.314213	5922.019863
669.654480	5914.037196
669.994695	5929.737870
670.334859	5936.561072
670.674973	5940.518378
671.015035	5969.739426
671.355047	5979.604964
671.695008	5993.831100
672.034918	5989.551160
672.374777	6009.844325
672.714585	6011.167628
673.054342	6050.196241
673.394049	6045.679367
673.733705	6081.574903
674.073310	6073.430919
674.412864	6088.072951
674.752368	6066.254837
675.091820	6117.357013
675.431223	6084.032466
675.770574	6071.792544
676.109875	6071.704324
676.449125	6062.126132
676.788324	6071.540487
677.127473	6030.568509
677.466571	6035.496237
677.805619	6012.556466
678.144616	6027.314444
678.483562	6032.113622
678.822458	6015.520664
679.161303	6022.245564
679.500098	6015.084605
679.838842	6019.326736
680.177535	6040.209715
680.516179	6079.717238
680.854771	6102.893943
681.193314	6194.607655
681.531805	6312.779863
681.870247	6401.632720
682.208638	6519.603282
682.546978	6580.739875
682.885268	6614.243383
683.223508	6576.202836
683.561697	6556.670886
683.899836	6550.699639
684.237925	6501.868502
684.575963	6495.466237
684.913951	6451.015863
685.251889	6479.931921
685.589776	6482.165152
685.927614	6481.194730
686.265401	6509.762949
686.603137	6522.161667
686.940824	6575.610501
687.278460	6625.326360
687.616046	6634.660056
687.953582	6720.503345
688.291068	6718.466718
688.628504	6769.969667
688.965889	6781.445853
689.303224	6761.810559
689.640510	6740.836839
689.977745	6682.697211
690.314930	6615.143229
690.652065	6574.947589
690.989150	6508.762280
691.326185	6412.055305
691.663170	6347.929308
692.000105	6273.877278
692.336990	6202.197112
692.673825	6165.021123
693.010610	6100.811946
693.347345	6038.830960
693.684030	5966.994518
694.020665	5939.865548
694.357251	5860.784968
694.693786	5868.976843
695.030272	5839.153377
695.366707	5775.977637
695.703093	5744.546042
696.039429	5755.777733
696.375716	5721.155088
696.711952	5719.315067
697.048139	5702.775042
697.384276	5677.082801
697.720363	5706.192944
698.056400	5691.271128
698.392388	5672.250855
698.728326	5679.626063
699.064214	5659.350542
699.400053	5668.684239
699.735842	5632.541686
700.071581	5605.803406
700.407270	5576.234518
700.742910	5560.309513
701.078501	5534.284557
701.414042	5513.799828
701.749533	5470.319876
702.084974	5430.590543
702.420366	5468.709227
702.755709	5414.496659
703.091002	5382.011463
703.426246	5392.149224
703.761440	5380.766298
704.096584	5359.275860
704.431679	5354.713615
704.766725	5340.908416
705.101721	5336.545297
705.436668	5363.308783
705.771565	5319.866639
706.106413	5379.027100
706.441212	5376.622470
706.775961	5393.885901
707.110661	5404.127005
707.445311	5456.958298
707.779913	5430.582981
708.114465	5473.707531
708.448967	5513.177245
708.783421	5610.048058
709.117825	5655.514224
709.452180	5686.192166
709.786485	5740.172841
710.120742	5848.189645
710.454949	5858.443352
710.789107	5917.760088
711.123216	6016.823803
711.457275	6044.282968
711.791286	6130.592563
712.125247	6154.596017
712.459159	6128.142562
712.793023	6242.002063
713.126837	6102.886381
713.460602	6157.683723
713.794318	6129.705320
714.127985	6096.176605
714.461602	5976.912988
714.795171	5991.945708
715.128691	5851.703329
715.462162	5790.604544
715.795584	5733.934413
716.128957	5706.928952
716.462281	5658.556561
716.795556	5627.775275
717.128782	5559.623916
717.461960	5479.978727
717.795088	5474.461184
718.128167	5417.060086
718.461198	5347.608109
718.794180	5333.916335
719.127113	5285.261639
719.459997	5259.589563
719.792833	5206.342375
720.125619	5205.006470
720.458357	5155.923275
720.791046	5132.948217
721.123686	5108.493579
721.456278	5070.221139
721.788821	5064.504471
722.121315	5032.241086
722.453761	5042.401532
722.786158	5029.133215
723.118506	5038.774422
723.450805	5013.540926
723.783056	5041.678126
724.115259	5027.167165
724.447412	5010.208723
724.779518	5058.092123
725.111574	5060.635385
725.443582	5096.737608
725.775542	5090.027833
726.107453	5167.664123
726.439315	5143.058251
726.771129	5214.498962
727.102895	5264.817239
727.434612	5309.312984
727.766281	5330.505995
728.097901	5382.233274
728.429473	5399.605090
728.760996	5411.666051
729.092471	5440.191420
729.423897	5428.803453
729.755276	5402.975102
730.086606	5425.075520
730.417887	5508.604919
730.749120	5588.113997
731.080305	5629.942971
731.411442	5699.480647
731.742530	5726.700358
732.073570	5750.857567
732.404562	5811.754705
732.735506	5805.203726
733.066401	5790.798629
733.397249	5734.433488
733.728048	5651.715715
734.058798	5518.041959
734.389501	5407.807048
734.720156	5332.892981
735.050762	5236.846397
735.381320	5168.294267
735.711831	5118.102018
736.042293	5050.679106
736.372707	5044.581831
736.703073	4996.806816
737.033391	5028.435015
737.363661	5018.072923
737.693883	5026.942833
738.024056	5048.420669
738.354182	5075.136264
738.684260	5124.945385
739.014290	5158.476620
739.344272	5187.516186
739.674207	5237.887396
740.004093	5271.552221
740.333931	5278.042707
740.663722	5289.571825
740.993464	5302.048681
741.323159	5291.996620
741.652806	5253.058748
741.982405	5225.922217
742.311956	5175.787942
742.641460	5166.363505
742.970915	5124.174088
743.300323	5069.109565
743.629683	5042.693919
743.958996	4990.787678
744.288260	4948.686482
744.617477	4894.282349
744.946647	4882.448241
745.275768	4837.826467
745.604842	4804.297753
745.933869	4771.641159
746.262847	4768.051857
746.591778	4756.467286
746.920662	4735.846446
747.249498	4732.052977
747.578286	4747.428497
747.907027	4765.990025
748.235720	4808.683557
748.564365	4821.793078
748.892963	4811.146161
749.221514	4829.435467
749.550017	4801.376405
749.878473	4799.730468
750.206881	4765.490951
750.535242	4750.644753
750.863555	4741.185028
751.191821	4723.457810
751.520039	4730.497782
751.848210	4709.576993
752.176334	4720.314651
752.504411	4700.064336
752.832440	4673.376467
753.160421	4685.084547
753.488356	4663.636958
753.816243	4642.403618
754.144082	4614.599134
754.471875	4606.026652
754.799620	4597.275209
755.127318	4588.990073
755.454969	4587.470165
755.782572	4576.674534
756.110129	4580.505811
756.437638	4565.205909
756.765100	4566.246907
757.092515	4561.979570
757.419882	4569.959717
757.747203	4566.914860
758.074477	4579.018670
758.401703	4570.204213
758.728882	4599.258903
759.056014	4608.572435
759.383099	4630.745950
759.710138	4656.569260
760.037129	4675.282023
760.364073	4688.502449
760.690970	4684.542623
761.017820	4692.527811
761.344623	4723.450248
761.671379	4782.814876
761.998088	4872.708732
762.324751	5097.559317
762.651366	5542.032810
762.977935	6210.779676
763.304456	6748.527119
763.630931	7040.261213
763.957359	6980.997408
764.283740	6702.506425
764.610074	6384.379371
764.936362	6004.893912
765.262602	5697.123908
765.588796	5369.022931
765.914943	5120.178974
766.241044	4901.113113
766.567097	4735.264192
766.893104	4594.726906
767.219064	4496.109333
767.544978	4406.215478
767.870845	4324.533662
768.196665	4279.904327
768.522438	4232.509919
768.848165	4191.749670
769.173846	4152.998320
769.499479	4123.976398
769.825066	4090.553548
770.150607	4049.672311
770.476101	4039.542112
770.801548	4014.137217
771.126949	3985.813494
771.452303	3966.344558
771.777611	3934.648303
772.102872	3931.641255
772.428087	3907.559663
772.753256	3877.854664
773.078378	3862.201881
773.403453	3828.204340
773.728482	3804.140392
774.053465	3790.446098
774.378401	3775.912451
774.703291	3749.577463
775.028135	3728.399576
775.352932	3721.389852
775.677683	3699.851522
776.002388	3681.857123
776.327046	3683.898790
776.651658	3663.459432
776.976224	3646.196001
777.300743	3644.303048
777.625216	3630.941469
777.949643	3620.191209
778.274024	3621.058287
778.598359	3604.288889
778.922647	3604.077160
779.246889	3598.385698
779.571086	3592.855552
779.895236	3596.187755
780.219339	3597.576593
780.543397	3594.188937
780.867409	3610.920527
781.191374	3608.951956
781.515294	3601.682612
781.839167	3617.917648
782.162995	3615.087040
782.486776	3610.436576
782.810511	3601.223867
783.134201	3589.031837
783.457844	3584.840117
783.781441	3578.543716
784.104993	3571.561718
784.428498	3566.200451
784.751958	3562.878331
785.075372	3560.362795
785.398739	3546.497101
785.722061	3557.396076
786.045337	3555.644275
786.368568	3578.994899
786.691752	3576.093715
787.014891	3626.127167
787.337983	3667.588137
787.661030	3753.892691
787.984031	3844.502390
788.306987	3922.015172
788.629897	3969.840598
788.952760	3972.751865
789.275579	3962.059577
789.598351	3911.474119
789.921078	3866.244887
790.243759	3802.161739
790.566395	3758.611211
790.888984	3709.522975
791.211529	3672.034435
791.534027	3630.036582
791.856480	3592.419492
792.178888	3574.140268
792.501249	3553.738719
792.823566	3525.115047
793.145836	3517.202956
793.468062	3509.190042
793.790241	3493.867455
794.112375	3499.934484
794.434464	3520.832587
794.756507	3518.521218
795.078505	3537.455792
795.400457	3577.096905
795.722364	3627.014410
796.044226	3670.461595
796.366042	3716.401630
796.687812	3714.750652
797.009538	3735.805031
797.331218	3725.359760
797.652852	3720.109398
797.974442	3696.105944
798.295986	3687.130170
798.617484	3656.116992
798.938938	3637.704177
799.260346	3620.748256
799.581709	3588.469748
799.903026	3572.953077
800.224299	3558.235428
800.545526	3523.630427
800.866708	3510.258767
801.187845	3493.345696
801.508936	3473.251656
801.829983	3470.055565
802.150984	3437.522478
802.471940	3427.621652
802.792851	3423.823143
803.113717	3414.872574
803.434538	3402.932601
803.755314	3395.711148
804.076045	3394.299625
804.396731	3380.164230
804.717372	3378.172974
805.037967	3378.626678
805.358518	3380.378479
805.679024	3393.820716
805.999485	3392.459604
806.319901	3395.938000
806.640272	3397.036972
806.960598	3414.320568
807.280879	3411.134559
807.601115	3420.130498
807.921306	3410.418715
808.241453	3412.357038
808.561554	3420.450611
808.881611	3419.470107
809.201623	3418.877771
809.521590	3406.935278
809.841513	3407.940988
810.161390	3420.105292
810.481223	3396.495048
810.801011	3396.479924
811.120755	3391.174110
811.440453	3379.481154
811.760107	3371.135523
812.079716	3365.696118
812.399281	3357.642875
812.718801	3354.645909
813.038276	3351.298583
813.357707	3342.348014
813.677093	3350.648274
813.996434	3335.416428
814.315731	3341.788446
814.634983	3339.265349
814.954191	3342.063189
815.273354	3359.124974
815.592473	3371.097715
815.911547	3386.992473
816.230577	3403.512334
816.549562	3430.374122
816.868502	3446.772996
817.187399	3468.059268
817.506250	3489.159017
817.825058	3502.581089
818.143821	3545.690517
818.462539	3591.862445
818.781213	3647.171464
819.099843	3729.697673
819.418429	3879.656877
819.736970	4029.595915
820.055466	4212.841858
820.373919	4445.370120
820.692327	4779.896048
821.010691	5288.782885
821.329011	6356.229568
821.647286	8056.439361
821.965517	10176.806642
822.283704	11754.831468
822.601847	12785.472687
822.919945	12384.030483
823.237999	11739.506361
823.556010	10859.948523
823.873976	9927.708107
824.191897	8991.104572
824.509775	8234.447544
824.827609	7439.152593
825.145398	6906.282467
825.463144	6540.393000
825.780845	6415.463125
826.098502	6476.748433
826.416116	6850.247521
826.733685	7342.070052
827.051210	7618.105993
827.368692	7533.207921
827.686129	7097.319512
828.003522	6554.379681
828.320872	5999.391493
828.638177	5550.476743
828.955439	5183.818500
829.272656	4852.433211
829.589830	4577.299637
829.906960	4317.254236
830.224046	4110.808904
830.541088	3944.828913
830.858086	3832.280113
831.175041	3737.324939
831.491952	3691.231149
831.808819	3676.700023
832.125642	3711.995661
832.442421	3813.506856
832.759157	4025.454607
833.075849	4393.448756
833.392497	4851.803067
833.709101	5231.727106
834.025662	5336.262992
834.342179	5211.640628
834.658653	4950.839054
834.975083	4679.751006
835.291469	4438.055406
835.607811	4218.064493
835.924110	4067.770053
836.240366	3907.166453
836.556578	3747.999582
836.872746	3615.450003
837.188871	3503.949763
837.504952	3411.603386
837.820990	3340.379444
838.136984	3283.021195
838.452935	3254.707555
838.768842	3241.552664
839.084706	3275.189763
839.400526	3408.951739
839.716303	3628.756129
840.032037	3837.593489
840.347727	3902.069847
840.663373	3816.783606
840.978977	3665.712828
841.294537	3534.579813
841.610054	3430.515275
841.925527	3356.538863
842.240957	3291.419758
842.556344	3230.005901
842.871687	3169.781757
843.186987	3109.398816
843.502244	3058.203378
843.817458	3021.851618
844.132629	2988.229642
844.447756	2969.758854
844.762840	2944.885801
845.077881	2926.495672
845.392879	2914.396903
845.707833	2902.908113
846.022745	2891.830178
846.337613	2890.809344
846.652438	2880.548075
846.967221	2875.264946
847.281960	2867.315046
847.596656	2864.688605
847.911309	2861.381608
848.225919	2852.617562
848.540485	2850.666636
848.855009	2846.749659
849.169490	2843.901407
849.483928	2841.368227
849.798323	2837.002588
850.112675	2833.688030
850.426984	2831.495128
850.741251	2831.457319
851.055474	2830.547391
851.369654	2831.401866
851.683792	2827.741989
851.997887	2827.431958
852.311938	2828.798110
852.625947	2830.325580
852.939914	2826.627894
853.253837	2827.704180
853.567718	2827.263079
853.881555	2827.835250
854.195350	2828.699808
854.509103	2828.964468
854.822812	2827.396670
855.136479	2827.348779
855.450103	2828.871207
855.763685	2824.157728
856.077224	2825.763336
856.390720	2825.972544
856.704173	2830.731393
857.017584	2832.407577
857.330953	2830.968327
857.644278	2836.102742
857.957561	2840.039883
858.270802	2839.427383
858.584000	2838.512414
858.897155	2838.003257
859.210268	2836.014522
859.523339	2832.173163
859.836367	2833.075529
860.149352	2829.650065
860.462295	2829.067812
860.775195	2823.215032
861.088054	2824.198057
861.400869	2822.852069
861.713642	2822.436174
862.026373	2824.936587
862.339062	2826.693429
862.651708	2827.111844
862.964312	2835.974193
863.276873	2836.400170
863.589392	2843.079699
863.901869	2847.465503
864.214303	2856.201823
864.526696	2865.308667
864.839045	2868.930736
865.151353	2878.881974
865.463619	2878.297200
865.775842	2881.629403
866.088023	2885.455638
866.400162	2885.463200
866.712258	2889.652399
867.024313	2886.965464
867.336325	2889.780948
867.648296	2892.699777
867.960224	2890.000239
868.272110	2894.292781
868.583954	2891.099210
868.895755	2898.620612
869.207515	2894.499468
869.519233	2903.898700
869.830909	2902.174625
870.142542	2907.034298
870.454134	2909.131418
870.765684	2914.031419
871.077191	2920.431164
871.388657	2924.784200
871.700081	2932.484563
872.011463	2940.338680
872.322803	2942.765996
872.634101	2950.335288
872.945357	2953.869137
873.256571	2962.960858
873.567744	2972.770944
873.878874	2975.336891
874.189963	2984.451297
874.501010	2983.937099
874.812015	2985.915752
875.122979	2994.248780
875.433900	2993.404386
875.744780	2999.708349
876.055618	3002.818741
876.366415	3006.876870
876.677169	3011.282838
876.987882	3017.445649
877.298554	3026.441588
877.609183	3041.565050
877.919771	3058.208419
878.230317	3078.849423
878.540822	3119.271916
878.851285	3165.012825
879.161707	3234.328690
879.472087	3338.403312
879.782425	3499.437930
880.092722	3771.337604
880.402977	4183.988814
880.713191	4719.077047
881.023363	5303.651768
881.333494	5732.437191
881.643583	6007.419530
881.953631	6080.324697
882.263637	6031.256626
882.573602	5885.925202
882.883526	5726.307148
883.193408	5533.974526
883.503248	5317.076361
883.813048	5106.086428
884.122806	4888.442173
884.432522	4651.250843
884.742197	4435.010549
885.051831	4229.220567
885.361424	4034.216133
885.670975	3872.153119
885.980485	3726.869586
886.289954	3603.449537
886.599382	3503.198631
886.908768	3422.691404
887.218113	3341.284331
887.527417	3282.146555
887.836680	3225.113461
888.145901	3177.346008
888.455082	3141.526089
888.764221	3110.212962
889.073319	3077.745411
889.382376	3062.483318
889.691392	3042.520348
890.000366	3036.244112
890.309300	3029.773791
890.618193	3025.380425
890.927044	3019.704086
891.235855	3021.279447
891.544625	3023.358922
891.853353	3032.687578
892.162041	3045.736604
892.470687	3073.694844
892.779293	3105.925461
893.087858	3153.453459
893.396381	3227.671847
893.704864	3332.500120
894.013306	3486.053667
894.321707	3666.171573
894.630068	3818.598421
894.938387	3895.390318
895.246665	3903.297367
895.554903	3845.248481
895.863100	3759.669853
896.171256	3685.978266
896.479371	3614.895477
896.787446	3536.225750
897.095480	3471.245277
897.403473	3415.815270
897.711425	3359.586240
898.019336	3310.162768
898.327207	3255.627565
898.635038	3207.098898
898.942827	3158.608039
899.250576	3116.617748
899.558284	3076.293558
899.865952	3051.831359
900.173579	3022.191895
900.481165	3001.613905
900.788711	2984.600011
901.096216	2971.044348
901.403681	2954.297635
901.711105	2948.520473
902.018489	2941.503187
902.325832	2950.892336
902.633135	2960.878862
902.940397	2997.495283
903.247619	3084.553489
903.554800	3259.221908
903.861941	3530.919936
904.169041	3787.313020
904.476101	3955.155717
904.783121	3979.564984
905.090100	3910.554108
905.397039	3806.240033
905.703938	3702.427551
906.010796	3599.187241
906.317614	3515.390661
906.624391	3433.282868
906.931129	3364.662682
907.237826	3292.407824
907.544483	3228.543966
907.851099	3159.376815
908.157675	3088.951896
908.464211	3020.528315
908.770707	2961.103193
909.077163	2916.678025
909.383578	2880.452293
909.689954	2849.698734
909.996289	2833.753565
910.302584	2820.457521
910.608839	2809.858495
910.915054	2803.342804
911.221229	2798.024387
911.527363	2797.353913
911.833458	2796.701084
912.139513	2798.752833
912.445527	2803.068061
912.751502	2817.747901
913.057436	2829.221567
913.363331	2846.560616
913.669186	2877.137735
913.975000	2915.286666
914.280775	2975.745224
914.586510	3053.522667
914.892205	3162.043585
915.197859	3308.219403
915.503475	3485.887308
915.809050	3658.977846
916.114585	3788.923669
916.420081	3860.182899
916.725536	3893.537694
917.030952	3852.933720
917.336328	3813.617761
917.641665	3770.901544
917.946961	3711.594890
918.252218	3651.295128
918.557435	3580.960949
918.862612	3515.284797
919.167750	3455.405972
919.472848	3382.946947
919.777906	3312.622851
920.082925	3246.193046
920.387904	3173.769309
920.692843	3124.781897
920.997743	3070.002198
921.302603	3021.939838
921.607423	2989.048829
921.912204	2954.912656
922.216946	2930.281578
922.521647	2904.604461
922.826310	2886.484034
923.130932	2869.606251
923.435516	2848.206553
923.740059	2832.465550
924.044564	2818.746050
924.349028	2806.223823
924.653454	2791.594395
924.957840	2775.561005
925.262186	2768.954573
925.566493	2759.061309
925.870761	2744.757035
926.174989	2744.704103
926.479178	2735.589696
926.783328	2725.746843
927.087438	2721.855073
927.391509	2714.300904
927.695541	2709.284956
927.999533	2702.441589
928.303486	2699.497555
928.607400	2695.595702
928.911275	2692.056812
929.215110	2689.107737
929.518906	2687.807120
929.822663	2686.556913
930.126381	2682.224042
930.430060	2686.841739
930.733699	2684.979032
931.037299	2685.427695
931.340861	2684.905936
931.644383	2687.466842
931.947866	2685.457942
932.251309	2684.542972
932.554714	2682.496264
932.858080	2685.304187
933.161407	2682.655060
933.464694	2678.541479
933.767943	2680.131963
934.071153	2680.300842
934.374323	2678.866633
934.677455	2678.697755
934.980548	2674.929492
935.283602	2673.296158
935.586617	2673.228103
935.889593	2674.291786
936.192530	2674.201045
936.495428	2675.799091
936.798287	2678.876716
937.101108	2683.524659
937.403890	2689.677388
937.706632	2701.924871
938.009336	2709.181612
938.312002	2724.181565
938.614628	2733.353945
938.917216	2742.009606
939.219765	2748.633682
939.522275	2759.076432
939.824747	2759.756988
940.127179	2758.567276
940.429573	2760.465270
940.731929	2758.468973
941.034246	2757.145670
941.336524	2758.809251
941.638763	2759.464601
941.940964	2756.961668
942.243126	2751.688621
942.545250	2748.016141
942.847335	2742.405336
943.149381	2734.684809
943.451389	2729.706670
943.753359	2724.368088
944.055290	2720.085628
944.357182	2715.906511
944.659036	2711.311499
944.960851	2708.372507
945.262628	2707.505428
945.564367	2706.474512
945.866067	2705.196580
946.167729	2704.974769
946.469352	2700.926722
946.770937	2702.323122
947.072484	2698.320446
947.373992	2696.722400
947.675462	2694.799200
947.976893	2694.988243
948.278286	2694.484128
948.579641	2691.439271
948.880958	2691.262831
949.182236	2692.752492
949.483476	2689.947089
949.784678	2689.561441
950.085841	2690.267203
950.386967	2692.253417
950.688054	2691.623273
950.989103	2694.973120
951.290114	2697.738193
951.591087	2700.800694
951.892021	2704.395036
952.192917	2710.378886
952.493776	2711.460213
952.794596	2716.178733
953.095378	2720.123436
953.396122	2718.966492
953.696828	2719.147973
953.997496	2717.247458
954.298126	2715.157900
954.598718	2714.096737
954.899272	2708.143134
955.199788	2704.516024
955.500266	2699.532843
955.800706	2691.787111
956.101108	2685.689835
956.401472	2678.735563
956.701798	2674.448062
957.002087	2665.326094
957.302337	2663.720487
957.602550	2659.498520
957.902724	2654.051553
958.202861	2645.554689
958.502960	2644.826242
958.803022	2641.733494
959.103045	2636.036990
959.403031	2634.111269
959.702979	2629.057513
960.002889	2631.573048
960.302762	2623.411420
960.602596	2621.962089
960.902393	2619.174331
961.202153	2617.462859
961.501875	2615.990842
961.801559	2616.323558
962.101205	2614.075203
962.400814	2613.719802
962.700385	2611.108484
962.999918	2609.883484
963.299414	2609.051694
963.598873	2609.515480
963.898293	2608.799636
964.197677	2608.003134
964.497022	2606.863833
964.796331	2607.720829
965.095601	2603.052721
965.394835	2608.098916
965.694030	2603.508945
965.993189	2604.459202
966.292309	2603.264449
966.591393	2602.306630
966.890439	2604.892742
967.189447	2603.869387
967.488419	2604.076075
967.787353	2603.861826
968.086249	2602.644387
968.385108	2602.709922
968.683930	2603.115735
968.982714	2603.244284
969.281462	2607.287290
969.580172	2606.011878
969.878844	2606.624378
970.177480	2609.916252
970.476078	2608.217383
970.774639	2611.272322
971.073162	2610.823659
971.371649	2610.773248
971.670098	2609.709564
971.968510	2613.823146
972.266885	2613.296345
972.565223	2617.916563
972.863524	2620.845473
973.161788	2618.186264
973.460014	2619.292798
973.758204	2620.356481
974.056356	2618.123250
974.354471	2622.879579
974.652550	2621.747840
974.950591	2621.702469
975.248595	2621.279012
975.546563	2621.687346
975.844493	2620.134670
976.142386	2619.370936
976.440243	2617.006634
976.738062	2618.423199
977.035845	2616.144597
977.333590	2613.949175
977.631299	2617.820781
977.928971	2613.767693
978.226606	2612.477158
978.524204	2613.359360
978.821765	2612.247785
979.119290	2613.540841
979.416777	2611.973042
979.714228	2610.228803
980.011642	2612.209977
980.309020	2617.099896
980.606360	2616.880606
980.903664	2617.460338
981.200931	2622.987963
981.498162	2630.801752
981.795356	2643.870943
982.092513	2656.683036
982.389633	2672.234995
982.686717	2691.731658
982.983764	2705.030222
983.280775	2720.763663
983.577749	2727.566700
983.874686	2727.775908
984.171587	2722.134857
984.468451	2716.231666
984.765279	2713.234700
985.062070	2706.459389
985.358824	2694.776515
985.655543	2688.013807
985.952224	2678.400327
986.248869	2669.359017
986.545478	2651.248672
986.842050	2642.194760
987.138586	2629.680095
987.435086	2620.550566
987.731549	2613.913887
988.027975	2612.565378
988.324366	2608.192177
988.620719	2606.528596
988.917037	2599.712956
989.213318	2603.040118
989.509563	2599.110538
989.805772	2596.826896
990.101944	2596.297574
990.398080	2593.769436
990.694180	2594.888572
990.990244	2590.354054
991.286271	2595.702718
991.582262	2595.259097
991.878217	2595.443099
992.174136	2595.180959
992.470019	2594.989395
992.765865	2594.777667
993.061676	2596.491659
993.357450	2599.627257
993.653188	2598.024170
993.948890	2601.817638
994.244556	2607.667897
994.540186	2611.468927
994.835780	2615.176696
995.131337	2621.969650
995.426859	2629.342338
995.722345	2633.907103
996.017795	2645.892446
996.313208	2654.366626
996.608586	2659.059940
996.903928	2660.784014
997.199234	2666.238543
997.494504	2666.372133
997.789738	2663.405414
998.084936	2661.837616
998.380099	2657.900474
998.675225	2651.442756
998.970316	2644.652322
999.265371	2638.847433
999.560390	2631.351238
999.855373	2629.531381
1000.150320	2621.334465
1000.445232	2616.527725
1000.740108	2610.642178
1001.034948	2609.956581
1001.329752	2602.263780
1001.624521	2602.208327
1001.919254	2596.020311
1002.213951	2596.564756
1002.508613	2591.135433
1002.803239	2589.484455
1003.097829	2591.049733
1003.392384	2587.745257
1003.686903	2591.884044
1003.981386	2589.688622
1004.275834	2586.933631
1004.570246	2588.229208
1004.864623	2589.179465
1005.158964	2586.777355
1005.453270	2584.962540
1005.747540	2586.316090
1006.041775	2589.809609
1006.335974	2584.657550
1006.630138	2587.704928
1006.924266	2588.907243
1007.218359	2584.397931
1007.512416	2586.994125
1007.806438	2584.647468
1008.100425	2587.326841
1008.394376	2582.631006
1008.688292	2584.617221
1008.982172	2582.328537
1009.276017	2584.672674
1009.569827	2583.087231
1009.863602	2584.859196
1010.157341	2584.176120
1010.451045	2585.522108
1010.744714	2584.639906
1011.038347	2584.518918
1011.331945	2581.332909
1011.625508	2583.455235
1011.919036	2583.253589
1012.212528	2583.051943
1012.505986	2582.857858
1012.799408	2581.360636
1013.092795	2582.136973
1013.386147	2583.399782
1013.679464	2581.184195
1013.972745	2580.324678
1014.265992	2583.001531
1014.559204	2583.177972
1014.852380	2580.256623
1015.145521	2582.154617
1015.438628	2583.387179
1015.731699	2583.157807
1016.024736	2582.489854
1016.317737	2583.414906
1016.610703	2580.206211
1016.903635	2578.807291
1017.196531	2578.099009
1017.489393	2579.089596
1017.782219	2578.474575
1018.075011	2579.911304
1018.367768	2583.581264
1018.660490	2587.341965
1018.953177	2587.341965
1019.245829	2587.341965
