Dividing Wavelength (nm)	Counts (n)	Blue Motor Position (mm): 7.500000	Red Motor Position (mm): 0.000000	
326.493990	2158.659886
326.888308	2158.659886
327.282561	2158.659886
327.676750	2133.297841
328.070874	2135.987296
328.464933	2142.255971
328.858929	2151.750984
329.252859	2163.209527
329.646726	2176.326609
330.040528	2190.003260
330.434265	2210.006558
330.827938	2229.135216
331.221547	2248.871334
331.615091	2266.291041
332.008571	2289.591254
332.401986	2308.576239
332.795338	2328.861842
333.188625	2346.858762
333.581847	2369.906917
333.975006	2387.976933
334.368100	2405.983934
334.761129	2424.419434
335.154095	2443.061621
335.546996	2455.591409
335.939833	2478.107722
336.332606	2490.723210
336.725315	2501.738131
337.117960	2512.296828
337.510540	2518.245389
337.903056	2527.211082
338.295508	2532.773995
338.687896	2539.355221
339.080220	2549.588763
339.472480	2555.590257
339.864676	2559.421534
340.256807	2563.003274
340.648875	2563.212482
341.040879	2566.796742
341.432818	2564.334138
341.824694	2568.316650
342.216506	2567.827658
342.608253	2565.975034
342.999937	2567.724314
343.391557	2565.062585
343.783113	2565.039900
344.174605	2564.150136
344.566033	2560.810372
344.957397	2560.278530
345.348697	2556.989177
345.739934	2558.047820
346.131106	2551.517005
346.522215	2552.734443
346.913260	2549.215718
347.304241	2552.409289
347.695159	2548.620862
348.086012	2548.923331
348.476802	2543.526776
348.867528	2543.015099
349.258191	2539.662732
349.648789	2540.877650
350.039324	2539.627443
350.429796	2540.900335
350.820203	2537.800025
351.210548	2537.139634
351.600828	2537.406815
351.991045	2535.788605
352.381198	2537.628626
352.771288	2532.201824
353.161314	2533.721732
353.551276	2534.553522
353.941175	2534.901362
354.331010	2533.623429
354.720782	2538.810777
355.110490	2533.870446
355.500135	2535.695343
355.889717	2536.058307
356.279235	2533.966228
356.668689	2538.730118
357.058080	2537.439583
357.447408	2534.031763
357.836672	2535.271887
358.225873	2536.973276
358.615010	2533.890610
359.004084	2539.861857
359.393095	2537.124511
359.782043	2539.962680
360.170927	2539.829090
360.559748	2542.213555
360.948505	2541.336395
361.337199	2542.563916
361.725830	2544.209852
362.114398	2542.430325
362.502903	2540.431508
362.891344	2543.541899
363.279722	2545.220604
363.668037	2544.257743
364.056289	2544.487116
364.444478	2544.774462
364.832603	2547.113557
365.220665	2549.321582
365.608665	2544.416540
365.996601	2547.899977
366.384474	2546.533824
366.772284	2547.746222
367.160031	2546.972405
367.547715	2548.835111
367.935336	2549.160265
368.322893	2549.762683
368.710388	2548.149514
369.097820	2552.111861
369.485189	2547.534493
369.872495	2551.511964
370.259738	2547.058104
370.646918	2551.312838
371.034035	2550.309648
371.421090	2551.809392
371.808081	2549.248486
372.195010	2551.580019
372.581875	2552.873075
372.968678	2553.402396
373.355418	2551.456511
373.742096	2551.363250
374.128710	2550.612118
374.515262	2551.736295
374.901751	2550.763352
375.288177	2553.195709
375.674540	2553.001625
376.060841	2555.237376
376.447079	2552.661347
376.833254	2556.270813
377.219367	2549.971891
377.605417	2550.539021
377.991404	2551.222097
378.377329	2549.578681
378.763191	2550.821326
379.148991	2555.907850
379.534727	2552.908363
379.920402	2554.158569
380.306013	2554.546738
380.691563	2556.359033
381.077049	2556.737120
381.462474	2557.659651
381.847835	2558.327604
382.233134	2555.776780
382.618371	2554.687891
383.003545	2555.847356
383.388657	2556.106975
383.773706	2557.032027
384.158693	2559.726524
384.543618	2556.810216
384.928480	2560.190310
385.313280	2557.082439
385.698017	2558.619991
386.082692	2559.550083
386.467305	2559.114024
386.851856	2559.716442
387.236344	2558.612429
387.620770	2560.071843
388.005133	2561.049827
388.389435	2557.841132
388.773674	2561.319528
389.157851	2559.023283
389.541965	2558.136040
389.926018	2560.807851
390.310008	2560.102090
390.693936	2561.266596
391.077802	2557.299208
391.461606	2559.958417
391.845348	2561.821123
392.229027	2562.000084
392.612645	2561.972358
392.996200	2563.217523
393.379694	2563.807338
393.763125	2564.714746
394.146494	2561.899261
394.529801	2562.514282
394.913047	2562.957903
395.296230	2563.792214
395.679351	2562.418500
396.062410	2565.538974
396.445408	2561.725341
396.828343	2563.265414
397.211217	2561.115362
397.594028	2560.759960
397.976778	2562.219374
398.359466	2564.966803
398.742092	2558.758622
399.124656	2563.532595
399.507158	2566.753892
399.889598	2566.458985
400.271977	2565.891855
400.654294	2566.650549
401.036549	2563.227605
401.418742	2562.973027
401.800874	2566.000240
402.182944	2567.172308
402.564952	2567.436969
402.946898	2569.650035
403.328783	2568.636763
403.710606	2567.431928
404.092367	2568.765313
404.474067	2570.282700
404.855705	2567.741958
405.237282	2569.733214
405.618797	2568.147771
406.000250	2568.167936
406.381642	2567.179870
406.762972	2570.630540
407.144240	2571.326219
407.525447	2569.534089
407.906593	2567.477298
408.287677	2568.989644
408.668700	2569.032494
409.049661	2570.824624
409.430560	2568.362020
409.811399	2567.938563
410.192176	2570.978379
410.572891	2570.118863
410.953545	2567.144582
411.334138	2570.993503
411.714669	2569.544171
412.095139	2571.603482
412.475547	2570.759089
412.855894	2569.856723
413.236180	2573.118349
413.616405	2572.621795
413.996568	2570.083574
414.376670	2573.138514
414.756711	2569.594582
415.136691	2571.298493
415.516609	2569.765982
415.896466	2570.111301
416.276262	2572.130283
416.655997	2569.670200
417.035670	2571.626168
417.415283	2572.883935
417.794834	2570.617937
418.174324	2571.119532
418.553753	2572.407546
418.933121	2574.116497
419.312428	2574.958370
419.691674	2573.004923
420.070859	2573.488874
420.449983	2572.125242
420.829045	2576.062383
421.208047	2573.700602
421.586988	2573.622464
421.965867	2576.238823
422.344686	2573.952660
422.723444	2574.446693
423.102141	2573.768658
423.480777	2575.152455
423.859352	2571.482495
424.237866	2573.859399
424.616319	2572.904100
424.994712	2577.103381
425.373044	2574.252609
425.751314	2575.381827
426.129524	2576.821077
426.507673	2576.526169
426.885762	2576.647157
427.263789	2576.105233
427.641756	2576.138000
428.019662	2576.122877
428.397508	2576.874009
428.775292	2577.370562
429.153016	2573.839234
429.530679	2578.383834
429.908282	2579.235789
430.285824	2573.781261
430.663305	2574.809656
431.040726	2574.363514
431.418086	2575.868298
431.795385	2576.145562
432.172624	2577.269739
432.549802	2580.027250
432.926920	2577.940213
433.303977	2578.479616
433.680974	2577.693196
434.057910	2577.831828
434.434786	2576.679924
434.811601	2579.185378
435.188355	2576.473237
435.565050	2576.780747
435.941683	2578.313258
436.318257	2573.125911
436.694770	2574.766806
437.071222	2575.749831
437.447614	2575.807805
437.823946	2574.897876
438.200218	2576.064903
438.576429	2580.206211
438.952580	2578.787127
439.328670	2580.725450
439.704700	2579.276118
440.080670	2580.576736
440.456580	2578.880388
440.832429	2579.855851
441.208218	2580.733012
441.583947	2581.030440
441.959616	2579.719740
442.335224	2580.947261
442.710773	2579.719740
443.086261	2583.183013
443.461689	2581.935327
443.837057	2580.284349
444.212365	2578.772003
444.587612	2580.385172
444.962800	2580.720409
445.337927	2580.312076
445.712995	2578.025912
446.088002	2578.419122
446.462949	2580.775862
446.837837	2580.690162
447.212664	2580.962384
447.587431	2577.867116
447.962139	2580.004565
448.336786	2582.477251
448.711374	2580.480954
449.085901	2581.196798
449.460369	2579.578588
449.834776	2581.572364
450.209124	2583.475400
450.583412	2581.849628
450.957640	2581.559761
451.331808	2581.327868
451.705917	2580.249061
452.079965	2579.951633
452.453954	2582.205029
452.827883	2580.992631
453.201752	2585.348188
453.575562	2583.679566
453.949311	2581.625296
454.323001	2583.684607
454.696632	2582.421798
455.070202	2583.795513
455.443713	2584.864238
455.817164	2579.160172
456.190556	2577.859554
456.563888	2580.659915
456.937160	2577.841910
457.310373	2581.763928
457.683526	2581.897518
458.056619	2584.884402
458.429653	2583.334247
458.802628	2583.361974
459.175542	2583.654361
459.548398	2581.443815
459.921194	2580.720409
460.293930	2584.317272
460.666607	2586.953796
461.039224	2581.758887
461.411782	2584.884402
461.784280	2583.840883
462.156719	2583.296439
462.529099	2583.969433
462.901419	2582.071438
463.273680	2589.250041
463.645882	2585.012952
464.018024	2584.851635
464.390106	2584.586974
464.762130	2583.853486
465.134094	2585.121336
465.505999	2584.581933
465.877845	2582.716706
466.249631	2583.853486
466.621358	2584.914649
466.993026	2589.113930
467.364634	2588.728282
467.736184	2584.866758
468.107674	2584.579412
468.479105	2583.941706
468.850477	2584.448342
469.221790	2583.117478
469.593043	2587.465473
469.964238	2583.150245
470.335373	2582.825091
470.706449	2584.536562
471.077467	2584.992787
471.448425	2586.061512
471.819324	2583.445153
472.190164	2585.423806
472.560945	2585.723754
472.931667	2584.024885
473.302330	2585.005390
473.672934	2587.916656
474.043479	2586.467324
474.413965	2585.086048
474.784393	2580.773341
475.154761	2581.544638
475.525070	2580.919535
475.895321	2579.918866
476.265513	2580.735532
476.635645	2586.366501
477.005719	2587.478076
477.375734	2587.049578
477.745691	2588.319948
478.115588	2588.559403
478.485427	2585.481779
478.855207	2587.553693
479.224928	2587.208374
479.594591	2585.592684
479.964194	2586.825246
480.333739	2589.532346
480.703226	2589.872624
481.072653	2587.180648
481.442022	2587.286512
481.811333	2588.627459
482.180584	2587.238621
482.549777	2587.231059
482.918912	2587.372212
483.287988	2588.161152
483.657005	2589.890268
484.025964	2587.561255
484.394864	2588.206523
484.763706	2591.417737
485.132489	2587.662078
485.501213	2588.377922
485.869879	2586.013621
486.238487	2589.063519
486.607036	2589.726430
486.975527	2589.126533
487.343959	2586.802561
487.712333	2588.577047
488.080648	2590.101996
488.448905	2586.590833
488.817104	2586.222828
489.185244	2587.606625
489.553326	2587.611666
489.921350	2590.109558
490.289315	2589.048395
490.657222	2589.897830
491.025070	2590.906060
491.392861	2589.640731
491.760593	2587.208374
492.128267	2590.313725
492.495883	2588.657706
492.863440	2590.769949
493.230939	2588.602253
493.598380	2589.711307
493.965763	2587.251224
494.333088	2582.472210
494.700354	2585.640575
495.067563	2587.329362
495.434713	2584.627303
495.801805	2592.221802
496.168839	2588.735844
496.535815	2590.235587
496.902733	2589.917994
497.269593	2589.181986
497.636395	2589.149218
498.003139	2592.423448
498.369825	2591.218612
498.736453	2588.912284
499.103023	2588.703076
499.469535	2588.635021
499.835989	2587.858683
500.202385	2591.725248
500.568723	2591.480752
500.935003	2590.863211
501.301226	2591.700042
501.667390	2591.657192
502.033497	2592.670464
502.399546	2589.943200
502.765537	2590.797676
503.131470	2590.308684
503.497345	2590.051585
503.863163	2592.466297
504.228923	2587.800710
504.594625	2591.352203
504.960269	2593.008222
505.325856	2589.673498
505.691385	2590.691811
506.056856	2591.269023
506.422270	2587.604105
506.787625	2591.758015
507.152924	2590.865731
507.518164	2590.717017
507.883347	2589.176945
508.248472	2591.185844
508.613540	2592.612491
508.978550	2590.744743
509.343503	2587.074783
509.708398	2591.415217
510.073236	2594.901175
510.438016	2592.032758
510.802738	2588.750967
511.167403	2592.047882
511.532010	2588.549321
511.896561	2590.618715
512.261053	2591.503437
512.625488	2589.388673
512.989866	2588.947572
513.354186	2588.332551
513.718449	2586.001018
514.082655	2588.768611
514.446803	2588.105699
514.810894	2591.977306
515.174927	2591.919332
515.538904	2591.382449
515.902822	2592.584765
516.266684	2591.125351
516.630488	2591.087542
516.994235	2591.858838
517.357925	2592.960331
517.721558	2592.950248
518.085133	2590.117120
518.448651	2593.288006
518.812112	2591.568972
519.175516	2592.453695
519.538863	2592.438571
519.902152	2592.980495
520.265385	2592.151225
520.628560	2591.649631
520.991678	2592.063005
521.354739	2592.927563
521.717743	2591.752974
522.080690	2591.352202
522.443580	2592.836822
522.806413	2593.555187
523.169189	2590.664085
523.531908	2591.798345
523.894569	2592.980495
524.257174	2591.332038
524.619722	2593.035948
524.982213	2592.746082
525.344647	2589.802048
525.707025	2592.325145
526.069345	2592.567121
526.431608	2593.482090
526.793815	2592.352872
527.155964	2592.904878
527.518057	2597.099118
527.880093	2595.317070
528.242072	2592.574682
528.603995	2593.782039
528.965860	2593.124168
529.327669	2595.231370
529.689421	2594.049220
530.051117	2594.273551
530.412755	2594.823037
530.774337	2594.906216
531.135862	2595.853953
531.497331	2593.713983
531.858743	2590.568303
532.220098	2590.782552
532.581396	2591.190886
532.942638	2591.226174
533.303824	2594.225660
533.664953	2595.508634
534.026025	2593.706421
534.387040	2596.456371
534.747999	2592.572162
535.108902	2594.807913
535.469748	2595.657348
535.830537	2594.586103
536.191270	2594.260948
536.551947	2596.022832
536.912567	2592.967892
537.273131	2596.819334
537.633638	2595.599375
537.994089	2594.344127
538.354483	2597.121803
538.714821	2597.232708
539.075103	2596.060640
539.435328	2597.827565
539.795497	2594.623911
540.155609	2598.180445
540.515665	2597.457040
540.875665	2597.270517
541.235609	2595.811103
541.595496	2597.739344
541.955328	2596.668099
542.315102	2598.424941
542.674821	2596.952924
543.034483	2600.345621
543.394090	2596.529467
543.753640	2599.614654
544.113134	2596.937801
544.472571	2598.026690
544.831953	2599.909561
545.191278	2599.886876
545.550548	2595.861515
545.909761	2599.581886
546.268918	2599.314705
546.628019	2599.274376
546.987064	2599.765888
547.346053	2597.726742
547.704986	2601.389140
548.063863	2600.133892
548.422684	2599.533995
548.781449	2597.444437
549.140158	2598.906372
549.498811	2598.432503
549.857408	2598.092225
550.215949	2596.347986
550.574434	2597.852770
550.932864	2596.211875
551.291237	2595.301947
551.649555	2597.847729
552.007817	2598.770260
552.366022	2596.763881
552.724173	2596.272369
553.082267	2598.341762
553.440305	2599.221444
553.798288	2599.702874
554.156215	2599.786053
554.514086	2599.914602
554.871902	2600.345621
555.229661	2598.714808
555.587365	2599.221444
555.945014	2599.823862
556.302606	2599.080291
556.660143	2599.997781
557.017625	2600.113728
557.375050	2600.491814
557.732421	2599.337390
558.089735	2601.026177
558.446994	2600.317895
558.804197	2598.029211
559.161345	2600.325456
559.518437	2598.896289
559.875474	2599.241608
560.232455	2601.936105
560.589381	2597.028542
560.946251	2601.361413
561.303065	2599.367637
561.659825	2599.206320
562.016528	2600.517020
562.373177	2599.861670
562.729770	2600.421238
563.086307	2602.104984
563.442789	2600.038111
563.799216	2598.692122
564.155587	2602.084819
564.511904	2599.531475
564.868164	2601.066506
565.224370	2601.643718
565.580520	2598.644232
565.936615	2601.094232
566.292654	2599.876794
566.648638	2598.137596
567.004567	2600.464088
567.360441	2601.023656
567.716260	2600.416197
568.072023	2600.501897
568.427732	2599.050044
568.783385	2597.492328
569.138982	2596.610126
569.494525	2599.042483
569.850013	2597.457040
570.205445	2601.033738
570.560823	2599.491145
570.916145	2603.176229
571.271412	2601.618512
571.626625	2603.297217
571.981782	2600.287648
572.336884	2602.573811
572.691931	2599.849067
573.046923	2603.516507
573.401860	2602.475508
573.756743	2603.965169
574.111570	2600.486773
574.466342	2602.709922
574.821059	2601.300920
575.175722	2600.270004
575.530330	2601.053903
575.884882	2601.197576
576.239380	2599.513831
576.593823	2601.805035
576.948211	2601.215220
577.302544	2602.029366
577.656823	2602.122628
578.011047	2603.380396
578.365216	2604.103801
578.719330	2603.466095
579.073389	2602.576332
579.427394	2601.956270
579.781344	2602.379727
580.135239	2604.610437
580.489080	2602.314192
580.842866	2603.622371
581.196597	2601.676486
581.550273	2603.854264
581.903895	2603.014912
582.257463	2603.219079
582.610975	2599.418049
582.964434	2601.462237
583.317837	2604.171857
583.671186	2601.661362
584.024481	2602.788060
584.377721	2602.606578
584.730906	2600.053234
585.084037	2601.300920
585.437113	2601.472319
585.790135	2602.472988
586.143103	2601.479881
586.496016	2603.889552
586.848874	2597.678851
587.201679	2597.731783
587.554428	2598.908892
587.907124	2597.648604
588.259765	2598.034252
588.612352	2601.242946
588.964884	2600.625405
589.317362	2603.541712
589.669786	2601.621033
590.022155	2602.546085
590.374470	2600.015425
590.726731	2600.917792
591.078937	2601.275714
591.431090	2603.539192
591.783188	2603.115735
592.135232	2600.501897
592.487222	2602.183122
592.839157	2602.379727
593.191038	2600.156578
593.542866	2603.292175
593.894639	2601.641197
594.246358	2603.108173
594.598022	2600.857298
594.949633	2601.696650
595.301190	2600.766557
595.652692	2603.871908
596.004141	2601.573142
596.355535	2602.989706
596.706876	2600.113728
597.058162	2600.839654
597.409395	2600.751434
597.760573	2601.840323
598.111698	2600.708584
598.462768	2600.416197
598.813785	2602.067175
599.164748	2602.798142
599.515657	2601.754623
599.866511	2603.849223
600.217312	2604.582711
600.568060	2601.129520
600.918753	2602.110025
601.269392	2604.562546
601.619978	2603.607247
601.970510	2604.232351
602.320988	2601.250508
602.671412	2603.972731
603.021783	2605.205293
603.372100	2605.590942
603.722363	2604.383585
604.072572	2604.849892
604.422728	2603.818976
604.772830	2600.290168
605.122878	2601.537854
605.472872	2599.594489
605.822813	2601.295878
606.172701	2600.335539
606.522534	2603.377875
606.872314	2603.783688
607.222041	2606.692434
607.571714	2605.628750
607.921333	2603.781167
608.270899	2604.300406
608.620411	2604.854933
608.969870	2607.083123
609.319276	2607.146137
609.668627	2607.229317
610.017926	2605.520365
610.367171	2610.543875
610.716362	2606.452979
611.065500	2604.895262
611.414585	2606.400047
611.763616	2608.451796
612.112594	2610.135542
612.461518	2608.030860
612.810389	2609.059255
613.159207	2606.246292
613.507971	2606.490787
613.856682	2609.671756
614.205340	2604.277721
614.553945	2609.565891
614.902496	2610.490943
615.250994	2608.774430
615.599439	2609.439863
615.947830	2609.853237
616.296169	2608.431632
616.644454	2612.129318
616.992686	2612.439349
617.340864	2609.956581
617.688990	2610.480861
618.037063	2613.903804
618.385082	2610.279215
618.733048	2614.402878
619.080961	2615.315327
619.428821	2614.717951
619.776628	2615.610235
620.124382	2617.813219
620.472083	2613.876078
620.819731	2615.514453
621.167326	2616.225256
621.514868	2616.411778
621.862357	2614.707868
622.209793	2614.675101
622.557176	2617.525873
622.904506	2613.934051
623.251783	2614.382714
623.599007	2614.778444
623.946179	2614.811212
624.293297	2616.285749
624.640363	2615.617797
624.987376	2617.989659
625.334336	2617.528394
625.681243	2620.449742
626.028097	2619.161728
626.374899	2618.869341
626.721647	2618.289608
627.068343	2620.641306
627.414987	2620.364043
627.761577	2619.325565
628.108115	2619.166769
628.454600	2621.546193
628.801032	2624.898561
629.147412	2621.319342
629.493739	2623.668519
629.840014	2624.573406
630.186236	2624.283540
630.532405	2625.112810
630.878521	2623.562655
631.224585	2624.444857
631.570597	2625.700104
631.916556	2630.113634
632.262462	2628.712194
632.608316	2630.169087
632.954117	2628.409724
633.299866	2629.619601
633.645562	2627.562811
633.991206	2631.079015
634.336797	2629.987606
634.682336	2631.530199
635.027823	2629.221350
635.373257	2632.019191
635.718639	2629.160856
636.063968	2630.708491
636.409245	2631.903244
636.754470	2631.976341
637.099642	2633.851650
637.444762	2632.397277
637.789829	2630.766464
638.134845	2633.309726
638.479808	2631.918367
638.824719	2631.073974
639.169577	2633.208903
639.514383	2634.408697
639.859137	2635.800056
640.203839	2637.186373
640.548489	2637.466157
640.893086	2633.463481
641.237632	2633.957514
641.582125	2633.828965
641.926566	2634.285189
642.270955	2638.555047
642.615292	2642.096457
642.959576	2644.180974
643.303809	2642.361118
643.647990	2641.398257
643.992118	2643.697023
644.336195	2646.250368
644.680219	2646.976294
645.024192	2649.207005
645.368112	2652.418220
645.711981	2650.434526
646.055797	2654.157418
646.399562	2655.488282
646.743274	2657.872748
647.086935	2661.376350
647.430544	2663.012204
647.774101	2667.153512
648.117606	2667.362720
648.461059	2669.127124
648.804460	2671.113339
649.147810	2672.166940
649.491108	2672.093843
649.834354	2671.110818
650.177548	2670.853719
650.520690	2669.477484
650.863781	2671.625016
651.206820	2675.529389
651.549807	2673.923782
651.892742	2672.267763
652.235626	2674.818587
652.578458	2673.172650
652.921238	2674.319512
653.263967	2677.684483
653.606644	2676.388906
653.949269	2676.772034
654.291843	2678.090296
654.634365	2681.112467
654.976836	2680.928465
655.319255	2683.446522
655.661622	2683.272602
656.003938	2684.222859
656.346203	2687.471883
656.688416	2687.308045
657.030577	2688.752336
657.372687	2688.444826
657.714746	2689.659744
658.056753	2692.954138
658.398708	2690.035310
658.740612	2692.835671
659.082465	2694.824406
659.424266	2693.445650
659.766016	2697.455888
660.107715	2703.943853
660.449362	2703.762372
660.790958	2707.369317
661.132503	2710.295707
661.473996	2712.460882
661.815438	2713.191850
662.156829	2715.230997
662.498168	2713.277549
662.839456	2719.140411
663.180693	2721.081256
663.521879	2725.945969
663.863013	2725.885475
664.204097	2727.584344
664.545129	2730.730024
664.886110	2736.580283
665.227040	2737.822927
665.567918	2741.508011
665.908746	2744.174781
666.249522	2745.634195
666.590248	2751.613004
666.930922	2755.945876
667.271545	2757.589292
667.612118	2759.643562
667.952639	2762.786721
668.293109	2764.157915
668.633528	2766.716301
668.973896	2767.490118
669.314213	2770.421549
669.654480	2770.275355
669.994695	2774.646036
670.334859	2772.624533
670.674973	2776.458331
671.015035	2776.087806
671.355047	2782.268260
671.695008	2782.822787
672.034918	2786.235648
672.374777	2791.702780
672.714585	2792.315280
673.054342	2800.214768
673.394049	2802.102680
673.733705	2807.375727
674.073310	2808.338587
674.412864	2809.964360
674.752368	2811.287662
675.091820	2814.652633
675.431223	2813.866213
675.770574	2816.805205
676.109875	2812.595842
676.449125	2813.392344
676.788324	2814.947540
677.127473	2816.936275
677.466571	2816.162458
677.805619	2820.419713
678.144616	2823.154539
678.483562	2826.519509
678.822458	2828.026814
679.161303	2828.079746
679.500098	2828.828357
679.838842	2835.994357
680.177535	2836.964780
680.516179	2842.298320
680.854771	2848.105730
681.193314	2856.597553
681.531805	2873.107332
681.870247	2885.987480
682.208638	2900.110273
682.546978	2908.541603
682.885268	2917.396389
683.223508	2917.146852
683.561697	2916.146183
683.899836	2918.949065
684.237925	2918.472676
684.575963	2921.842687
684.913951	2921.215063
685.251889	2931.020108
685.589776	2935.864656
685.927614	2939.625357
686.265401	2947.129115
686.603137	2955.477265
686.940824	2966.235088
687.278460	2981.396358
687.616046	2990.677122
687.953582	3001.911333
688.291068	3011.119001
688.628504	3022.350692
688.965889	3027.875796
689.303224	3028.087525
689.640510	3031.137423
689.977745	3020.573685
690.314930	3016.936493
690.652065	3012.943899
690.989150	3006.143382
691.326185	2994.152998
691.663170	2989.777276
692.000105	2980.108343
692.336990	2969.947898
692.673825	2970.414204
693.010610	2963.787608
693.347345	2955.255455
693.684030	2951.073818
694.020665	2949.894188
694.357251	2941.132662
694.693786	2945.009309
695.030272	2947.731533
695.366707	2942.642488
695.703093	2939.758948
696.039429	2947.119032
696.375716	2944.817746
696.711952	2949.916873
697.048139	2949.926955
697.384276	2953.130608
697.720363	2958.995991
698.056400	2963.270889
698.392388	2960.057154
698.728326	2965.819193
699.064214	2966.529995
699.400053	2968.491004
699.735842	2966.509831
700.071581	2964.818523
700.407270	2964.019501
700.742910	2966.555201
701.078501	2960.772998
701.414042	2961.904737
701.749533	2955.409210
702.084974	2955.245372
702.420366	2960.074798
702.755709	2954.642954
703.091002	2953.967440
703.426246	2958.867441
703.761440	2960.057154
704.096584	2956.051957
704.431679	2959.842905
704.766725	2960.795683
705.101721	2959.510188
705.436668	2967.202989
705.771565	2963.477577
706.106413	2976.052735
706.441212	2979.198415
706.775961	2986.147645
707.110661	2991.763491
707.445311	3000.678771
707.779913	3005.561129
708.114465	3014.761235
708.448967	3024.750281
708.783421	3043.594114
709.117825	3054.077193
709.452180	3066.299471
709.786485	3081.102819
710.120742	3104.831530
710.454949	3114.326544
710.789107	3130.513689
711.123216	3152.782986
711.457275	3165.075839
711.791286	3186.657019
712.125247	3197.974409
712.459159	3199.690922
712.793023	3224.523646
713.126837	3201.636808
713.460602	3217.004765
713.794318	3209.589228
714.127985	3205.205945
714.461602	3186.646937
714.795171	3188.257585
715.128691	3167.205727
715.462162	3153.327430
715.795584	3146.743683
716.128957	3142.995586
716.462281	3134.503762
716.795556	3133.344297
717.128782	3120.512039
717.461960	3107.720112
717.795088	3108.667848
718.128167	3097.806682
718.461198	3087.989035
718.794180	3087.822677
719.127113	3083.114240
719.459997	3083.923345
719.792833	3074.506469
720.125619	3075.791964
720.458357	3067.882393
720.791046	3066.470870
721.123686	3065.997002
721.456278	3064.189748
721.788821	3065.535736
722.121315	3060.088769
722.453761	3068.323494
722.786158	3066.601940
723.118506	3070.264338
723.450805	3072.147209
723.783056	3079.066193
724.115259	3079.439238
724.447412	3079.066193
724.779518	3088.553645
725.111574	3097.491610
725.443582	3107.921758
725.775542	3110.326388
726.107453	3128.111579
726.439315	3129.742392
726.771129	3150.365752
727.102895	3165.842095
727.434612	3179.342305
727.766281	3187.934952
728.097901	3198.773432
728.429473	3205.800801
728.760996	3210.441183
729.092471	3223.704459
729.423897	3225.299984
729.755276	3225.718400
730.086606	3226.890468
730.417887	3251.279570
730.749120	3277.150772
731.080305	3289.254582
731.411442	3311.438180
731.742530	3319.889674
732.073570	3328.043740
732.404562	3345.420598
732.735506	3350.224817
733.066401	3348.662060
733.397249	3335.363496
733.728048	3319.118378
734.058798	3287.439767
734.389501	3265.304060
734.720156	3247.581884
735.050762	3226.467011
735.381320	3212.639126
735.711831	3207.361038
736.042293	3191.940148
736.372707	3193.593647
736.703073	3188.670960
737.033391	3197.132537
737.363661	3201.914071
737.693883	3205.238712
738.024056	3214.227089
738.354182	3224.437947
738.684260	3236.882035
739.014290	3251.176227
739.344272	3262.037393
739.674207	3278.590021
740.004093	3291.886064
740.333931	3299.258752
740.663722	3304.945173
740.993464	3311.113025
741.323159	3310.371976
741.652806	3301.071047
741.982405	3298.419400
742.311956	3288.495888
742.641460	3290.532515
742.970915	3279.681431
743.300323	3264.263062
743.629683	3264.983947
743.958996	3251.269488
744.288260	3243.508632
744.617477	3234.149729
744.946647	3230.101683
745.275768	3217.410578
745.604842	3210.055535
745.933869	3204.202755
746.262847	3206.604865
746.591778	3207.371120
746.920662	3203.716284
747.249498	3207.285421
747.578286	3212.871019
747.907027	3224.236300
748.235720	3237.872622
748.564365	3244.579877
748.892963	3241.892942
749.221514	3252.108840
749.550017	3246.480392
749.878473	3250.674632
750.206881	3242.928899
750.535242	3240.695668
750.863555	3237.479412
751.191821	3237.161819
751.520039	3242.172726
751.848210	3238.616192
752.176334	3242.565936
752.504411	3240.761203
752.832440	3232.571848
753.160421	3243.022160
753.488356	3237.098804
753.816243	3234.134606
754.144082	3222.499623
754.471875	3226.187227
754.799620	3224.785786
755.127318	3223.961557
755.454969	3226.446846
755.782572	3227.281157
756.110129	3229.526991
756.437638	3226.414079
756.765100	3227.235787
757.092515	3231.954307
757.419882	3230.300808
757.747203	3234.477404
758.074477	3243.042325
758.401703	3238.921182
758.728882	3250.036926
759.056014	3256.265271
759.383099	3266.304729
759.710138	3275.651028
760.037129	3288.289201
760.364073	3292.979995
760.690970	3297.169194
761.017820	3295.432516
761.344623	3311.866678
761.671379	3334.776201
761.998088	3363.505737
762.324751	3442.195628
762.651366	3593.039554
762.977935	3818.084223
763.304456	3993.516377
763.630931	4106.037452
763.957359	4096.315587
764.283740	4010.220241
764.610074	3911.940426
764.936362	3783.544758
765.262602	3681.234541
765.588796	3568.728590
765.914943	3484.402689
766.241044	3415.028850
766.567097	3359.112372
766.893104	3310.414825
767.219064	3281.813839
767.544978	3247.781009
767.870845	3219.424519
768.196665	3205.412632
768.522438	3192.701362
768.848165	3181.961184
769.173846	3163.911333
769.499479	3159.699449
769.825066	3148.704692
770.150607	3135.025521
770.476101	3131.625263
770.801548	3127.935138
771.126949	3118.331740
771.452303	3113.020885
771.777611	3105.912858
772.102872	3100.090325
772.428087	3095.036568
772.753256	3088.709920
773.078378	3080.976790
773.403453	3073.180646
773.728482	3064.608164
774.053465	3057.885785
774.378401	3053.061401
774.703291	3048.358004
775.028135	3041.043290
775.352932	3038.547919
775.677683	3034.003319
776.002388	3028.163142
776.327046	3029.645241
776.651658	3020.349354
776.976224	3016.142511
777.300743	3017.967408
777.625216	3009.548682
777.949643	3010.904752
778.274024	3015.645957
778.598359	3004.711694
778.922647	3005.014164
779.246889	3005.982065
779.571086	3001.717249
779.895236	3003.521982
780.219339	3004.096674
780.543397	3005.881242
780.867409	3015.436749
781.191374	3014.330216
781.515294	3012.780061
781.839167	3022.683408
782.162995	3023.240455
782.486776	3019.792306
782.810511	3016.321472
783.134201	3014.378107
783.457844	3015.799712
783.781441	3013.674866
784.104993	3010.730832
784.428498	3012.575894
784.751958	3012.888446
785.075372	3011.514732
785.398739	3009.354597
785.722061	3010.624968
786.045337	3012.223014
786.368568	3027.802700
786.691752	3023.890764
787.014891	3043.566388
787.337983	3056.325548
787.661030	3096.049840
787.984031	3132.358751
788.306987	3169.438958
788.629897	3187.932431
788.952760	3198.145809
789.275579	3192.973585
789.598351	3175.574042
789.921078	3160.748009
790.243759	3137.276397
790.566395	3117.741925
790.888984	3102.593258
791.211529	3084.140114
791.534027	3068.835171
791.856480	3050.886143
792.178888	3046.376831
792.501249	3039.518341
792.823566	3025.987884
793.145836	3027.306146
793.468062	3018.872296
793.790241	3015.988756
794.112375	3019.840197
794.434464	3030.161960
794.756507	3029.214223
795.078505	3034.867877
795.400457	3050.815567
795.722364	3071.214596
796.044226	3088.150352
796.366042	3108.826645
796.687812	3107.193311
797.009538	3120.839714
797.331218	3120.945579
797.652852	3121.401803
797.974442	3112.514249
798.295986	3110.419649
798.617484	3099.566045
798.938938	3090.383583
799.260346	3088.014241
799.581709	3070.912127
799.903026	3068.666293
800.224299	3061.407031
800.545526	3046.326419
800.866708	3037.166643
801.187845	3035.056920
801.508936	3023.333717
801.829983	3024.357071
802.150984	3005.172960
802.471940	3005.152795
802.792851	2999.700787
803.113717	3000.860253
803.434538	2996.418996
803.755314	2990.644355
804.076045	2988.559838
804.396731	2985.552789
804.717372	2982.344095
805.037967	2985.257882
805.358518	2982.951554
805.679024	2988.751401
805.999485	2990.619149
806.319901	2990.959427
806.640272	2990.659478
806.960598	3000.076353
807.280879	3000.439317
807.601115	3004.694050
807.921306	2999.438648
808.241453	3002.440655
808.561554	3006.060203
808.881611	3004.205058
809.201623	3006.715553
809.521590	3002.412928
809.841513	3005.072137
810.161390	3009.833507
810.481223	3000.482166
810.801011	3004.227744
811.120755	3002.632218
811.440453	2998.808503
811.760107	2995.612412
812.079716	2996.098883
812.399281	2987.256699
812.718801	2990.407420
813.038276	2988.453973
813.357707	2990.435147
813.677093	2994.841115
813.996434	2988.436329
814.315731	2989.805003
814.634983	2994.243738
814.954191	2996.418996
815.273354	3005.167919
815.592473	3009.120183
815.911547	3021.186185
816.230577	3028.150539
816.549562	3045.408929
816.868502	3055.740774
817.187399	3065.392063
817.506250	3084.087182
817.825058	3092.205961
818.143821	3116.101030
818.462539	3145.362407
818.781213	3172.750996
819.099843	3219.956361
819.418429	3298.021149
819.736970	3374.041749
820.055466	3473.423056
820.373919	3601.488528
820.692327	3778.836320
821.010691	4043.834654
821.329011	4525.998335
821.647286	5222.915169
821.965517	6048.948556
822.283704	6667.724984
822.601847	7151.053171
822.919945	7118.694005
823.237999	6955.290044
823.556010	6645.826212
823.873976	6270.678666
824.191897	5852.136868
824.509775	5509.111555
824.827609	5148.865660
825.145398	4899.608328
825.463144	4716.367427
825.780845	4660.024971
826.098502	4682.216131
826.416116	4846.456923
826.733685	5076.096604
827.051210	5213.442841
827.368692	5191.324778
827.686129	4999.750850
828.003522	4747.320112
828.320872	4462.694045
828.638177	4226.694948
828.955439	4037.626473
829.272656	3860.089638
829.589830	3713.205538
829.906960	3578.047162
830.224046	3468.618836
830.541088	3375.498642
830.858086	3315.937409
831.175041	3264.033689
831.491952	3242.883528
831.808819	3237.600399
832.125642	3257.313831
832.442421	3316.149138
832.759157	3428.443360
833.075849	3617.050570
833.392497	3852.386755
833.709101	4051.827404
834.025662	4112.109522
834.342179	4060.868713
834.658653	3933.877007
834.975083	3795.330976
835.291469	3668.414886
835.607811	3543.623643
835.924110	3458.019810
836.240366	3368.221737
836.556578	3278.980711
836.872746	3206.675441
837.188871	3142.715802
837.504952	3089.813933
837.820990	3047.372459
838.136984	3014.347860
838.452935	2998.057371
838.768842	2989.300887
839.084706	3009.266377
839.400526	3079.472006
839.716303	3193.071887
840.032037	3310.026657
840.347727	3349.665249
840.663373	3312.022953
840.978977	3234.089236
841.294537	3162.608195
841.610054	3098.799790
841.925527	3057.628686
842.240957	3019.283150
842.556344	2980.453662
842.871687	2946.864454
843.186987	2911.596542
843.502244	2881.636964
843.817458	2860.292719
844.132629	2840.594410
844.447756	2827.373984
844.762840	2809.906386
845.077881	2803.007567
845.392879	2794.470373
845.707833	2785.855041
846.022745	2780.226593
846.337613	2780.972684
846.652438	2773.690737
846.967221	2772.705192
847.281960	2768.009357
847.596656	2764.800662
847.911309	2759.620877
848.225919	2758.373191
848.540485	2757.236411
848.855009	2755.232552
849.169490	2750.897160
849.483928	2750.403127
849.798323	2747.408682
850.112675	2746.816346
850.426984	2744.535224
850.741251	2745.009092
851.055474	2745.929103
851.369654	2745.956829
851.683792	2744.646129
851.997887	2745.886253
852.311938	2743.925244
852.625947	2744.464648
852.939914	2741.858371
853.253837	2745.031777
853.567718	2745.498084
853.881555	2742.559092
854.195350	2742.632188
854.509103	2744.220152
854.822812	2744.013464
855.136479	2742.072620
855.450103	2743.887436
855.763685	2743.211921
856.077224	2740.497260
856.390720	2746.065214
856.704173	2746.501274
857.017584	2746.710482
857.330953	2745.538413
857.644278	2751.098806
857.957561	2755.414034
858.270802	2753.120309
858.584000	2753.407655
858.897155	2753.032089
859.210268	2751.552510
859.523339	2752.081831
859.836367	2746.607138
860.149352	2748.313569
860.462295	2749.173085
860.775195	2743.839545
861.088054	2742.271746
861.400869	2744.305851
861.713642	2743.842065
862.026373	2742.740573
862.339062	2747.822056
862.651708	2748.426995
862.964312	2750.566964
863.276873	2754.516708
863.589392	2758.980650
863.901869	2762.227153
864.214303	2763.235384
864.526696	2771.676796
864.839045	2775.500511
865.151353	2778.931017
865.463619	2780.181223
865.775842	2784.564506
866.088023	2786.638941
866.400162	2788.831843
866.712258	2787.805968
867.024313	2788.587347
867.336325	2789.945938
867.648296	2792.794190
867.960224	2794.480456
868.272110	2795.851649
868.583954	2795.337452
868.895755	2797.820220
869.207515	2795.523974
869.519233	2801.280972
869.830909	2805.807928
870.142542	2806.859009
870.454134	2808.681386
870.765684	2812.137097
871.077191	2814.645071
871.388657	2821.062460
871.700081	2825.198727
872.011463	2825.261741
872.322803	2827.784838
872.634101	2832.513441
872.945357	2835.775067
873.256571	2845.010461
873.567744	2848.826615
873.878874	2849.156810
874.189963	2856.136288
874.501010	2858.417410
874.812015	2856.423633
875.122979	2865.238091
875.433900	2864.960827
875.744780	2873.167826
876.055618	2875.232178
876.366415	2877.097405
876.677169	2883.441698
876.987882	2886.143756
877.298554	2893.208933
877.609183	2906.328536
877.919771	2921.341092
878.230317	2936.583021
878.540822	2969.138792
878.851285	3003.317815
879.161707	3051.886812
879.472087	3124.149232
879.782425	3232.864235
880.092722	3407.089033
880.402977	3639.138385
880.713191	3890.044174
881.023363	4142.437103
881.333494	4317.730625
881.643583	4467.074808
881.953631	4549.376686
882.263637	4577.760902
882.573602	4545.434503
882.883526	4484.497036
883.193408	4393.796596
883.503248	4281.411632
883.813048	4167.353006
884.122806	4046.745921
884.432522	3910.347421
884.742197	3784.560550
885.051831	3669.591996
885.361424	3555.578740
885.670975	3454.528811
885.980485	3366.575800
886.289954	3290.043523
886.599382	3226.819892
886.908768	3169.935512
887.218113	3121.658902
887.527417	3080.260947
887.836680	3043.626882
888.145901	3008.971469
888.455082	2985.789723
888.764221	2964.947073
889.073319	2942.423198
889.382376	2930.301743
889.691392	2919.039805
890.000366	2909.751479
890.309300	2907.619071
890.618193	2903.316447
890.927044	2901.665469
891.235855	2900.251425
891.544625	2898.933163
891.853353	2905.216962
892.162041	2915.715164
892.470687	2934.639656
892.779293	2952.203036
893.087858	2986.649240
893.396381	3036.050027
893.704864	3101.605192
894.013306	3198.017259
894.321707	3315.080413
894.630068	3415.182605
894.938387	3468.780153
895.246665	3482.756752
895.554903	3455.022844
895.863100	3402.531830
896.171256	3358.522557
896.479371	3313.563026
896.787446	3259.141250
897.095480	3212.598797
897.403473	3177.726615
897.711425	3137.825882
898.019336	3103.316664
898.327207	3062.563976
898.635038	3038.063968
898.942827	3002.891838
899.250576	2971.790439
899.558284	2944.651388
899.865952	2928.955755
900.173579	2906.404153
900.481165	2889.753222
900.788711	2877.795605
901.096216	2868.514841
901.403681	2855.916998
901.711105	2851.813498
902.018489	2847.760411
902.325832	2858.913963
902.633135	2862.878831
902.940397	2887.381359
903.247619	2948.999383
903.554800	3057.616083
903.861941	3227.082032
904.169041	3385.868296
904.476101	3497.174452
904.783121	3522.445756
905.090100	3494.787466
905.397039	3432.624998
905.703938	3361.708566
906.010796	3298.883186
906.317614	3242.762541
906.624391	3185.542924
906.931129	3135.237250
907.237826	3090.474324
907.544483	3044.637633
907.851099	3001.271107
908.157675	2952.044240
908.464211	2903.911303
908.770707	2862.357072
909.077163	2832.969665
909.383578	2804.560243
909.689954	2786.167593
909.996289	2768.400046
910.302584	2765.791249
910.608839	2754.433529
910.915054	2750.501429
911.221229	2744.797364
911.527363	2746.453383
911.833458	2747.907756
912.139513	2748.852972
912.445527	2751.829773
912.751502	2762.179262
913.057436	2771.306271
913.363331	2785.713889
913.669186	2808.497384
913.975000	2834.504697
914.280775	2872.283103
914.586510	2933.349121
914.892205	3004.492404
915.197859	3098.724173
915.503475	3217.607183
915.809050	3330.113134
916.114585	3411.409302
916.420081	3463.557518
916.725536	3490.936024
917.030952	3475.363900
917.336328	3452.126701
917.641665	3420.793409
917.946961	3379.788664
918.252218	3344.074610
918.557435	3292.798513
918.862612	3248.779158
919.167750	3213.536451
919.472848	3161.867145
919.777906	3117.701596
920.082925	3068.270562
920.387904	3020.261133
920.692843	2983.846359
920.997743	2947.081224
921.302603	2913.260123
921.607423	2887.663664
921.912204	2861.159798
922.216946	2843.626664
922.521647	2825.448264
922.826310	2809.432518
923.130932	2797.616053
923.435516	2783.286573
923.740059	2773.458844
924.044564	2763.653800
924.349028	2752.792634
924.653454	2741.238309
924.957840	2734.523492
925.262186	2726.452605
925.566493	2715.755277
925.870761	2705.796477
926.174989	2706.930737
926.479178	2701.007381
926.783328	2693.347348
927.087438	2689.208560
927.391509	2685.757891
927.695541	2680.452076
927.999533	2676.885460
928.303486	2673.109636
928.607400	2670.737773
928.911275	2669.487567
929.215110	2665.406752
929.518906	2663.559170
929.822663	2662.107317
930.126381	2661.731751
930.430060	2660.907523
930.733699	2660.927687
931.037299	2661.643531
931.340861	2657.986174
931.644383	2662.397184
931.947866	2663.231495
932.251309	2661.426762
932.554714	2661.353665
932.858080	2662.266114
933.161407	2660.657986
933.464694	2660.970537
933.767943	2657.996256
934.071153	2658.265958
934.374323	2656.950217
934.677455	2656.700680
934.980548	2655.347130
935.283602	2655.750422
935.586617	2652.017448
935.889593	2656.536842
936.192530	2656.259579
936.495428	2658.487769
936.798287	2659.168325
937.101108	2663.861639
937.403890	2669.205262
937.706632	2673.452434
938.009336	2684.522808
938.312002	2691.847604
938.614628	2700.798173
938.917216	2706.713967
939.219765	2710.769575
939.522275	2719.352140
939.824747	2722.507902
940.127179	2718.270812
940.429573	2716.803837
940.731929	2717.844835
941.034246	2716.660164
941.336524	2718.653940
941.638763	2721.492110
941.940964	2722.112172
942.243126	2714.137066
942.545250	2713.517004
942.847335	2708.304451
943.149381	2704.203472
943.451389	2697.037472
943.753359	2691.714014
944.055290	2692.752492
944.357182	2689.937007
944.659036	2685.122705
944.960851	2684.396779
945.262628	2679.350584
945.564367	2679.015347
945.866067	2676.214986
946.167729	2679.360666
946.469352	2676.766993
946.770937	2678.904442
947.072484	2676.431756
947.373992	2675.854544
947.675462	2674.001920
947.976893	2670.546209
948.278286	2671.113339
948.579641	2667.216527
948.880958	2666.588903
949.182236	2668.544871
949.483476	2665.021104
949.784678	2668.118893
950.085841	2666.689726
950.386967	2669.870694
950.688054	2670.810869
950.989103	2673.381858
951.290114	2675.725994
951.591087	2679.648012
951.892021	2681.470389
952.192917	2682.718075
952.493776	2685.397448
952.794596	2689.011955
953.095378	2689.621935
953.396122	2689.911801
953.696828	2689.334589
953.997496	2689.168231
954.298126	2686.851821
954.598718	2685.163034
954.899272	2681.941737
955.199788	2676.222548
955.500266	2676.696417
955.800706	2667.967659
956.101108	2660.975578
956.401472	2656.448622
956.701798	2652.680360
957.002087	2647.069555
957.302337	2644.700213
957.602550	2640.558905
957.902724	2635.810138
958.202861	2633.468522
958.502960	2630.642956
958.803022	2627.509878
959.103045	2621.881430
959.403031	2621.641975
959.702979	2618.372787
960.002889	2620.051491
960.302762	2613.903804
960.602596	2613.334154
960.902393	2611.257198
961.202153	2609.717126
961.501875	2607.977928
961.801559	2608.890377
962.101205	2605.714450
962.400814	2605.520365
962.700385	2602.528441
962.999918	2603.783688
963.299414	2601.308481
963.598873	2600.007864
963.898293	2600.517020
964.197677	2599.942329
964.497022	2600.658172
964.796331	2599.017277
965.095601	2597.449478
965.394835	2598.777822
965.694030	2600.511979
965.993189	2599.861670
966.292309	2598.334201
966.591393	2597.469643
966.890439	2598.387133
967.189447	2595.143150
967.488419	2597.265476
967.787353	2597.194900
968.086249	2597.320929
968.385108	2598.676999
968.683930	2598.029211
968.982714	2598.450147
969.281462	2600.721187
969.580172	2601.573142
969.878844	2600.108687
970.177480	2602.324274
970.476078	2602.672113
970.774639	2603.907196
971.073162	2603.574480
971.371649	2601.495004
971.670098	2605.401898
971.968510	2607.582197
972.266885	2602.447782
972.565223	2609.056735
972.863524	2607.602362
973.161788	2610.392641
973.460014	2608.986159
973.758204	2610.642178
974.056356	2611.587394
974.354471	2611.915069
974.652550	2610.637137
974.950591	2613.747528
975.248595	2611.002620
975.546563	2611.685697
975.844493	2611.829369
976.142386	2612.225100
976.440243	2610.788371
976.738062	2610.455655
977.035845	2610.808536
977.333590	2608.391303
977.631299	2606.427773
977.928971	2606.682351
978.226606	2605.548092
978.524204	2604.678493
978.821765	2605.283431
979.119290	2605.958946
979.416777	2602.626743
979.714228	2604.033225
980.011642	2604.471805
980.309020	2608.419029
980.606360	2609.402054
980.903664	2613.475306
981.200931	2616.686521
981.498162	2621.352109
981.795356	2631.235291
982.092513	2639.422125
982.389633	2654.800165
982.686717	2663.667554
982.983764	2676.681293
983.280775	2689.649661
983.577749	2689.747964
983.874686	2692.003880
984.171587	2687.645803
984.468451	2685.551203
984.765279	2679.085923
985.062070	2673.641477
985.358824	2669.595951
985.655543	2662.780311
985.952224	2654.903508
986.248869	2649.544762
986.545478	2633.977679
986.842050	2626.234467
987.138586	2618.370267
987.435086	2611.327775
987.731549	2601.779829
988.027975	2605.043976
988.324366	2600.927874
988.620719	2599.319746
988.917037	2597.353696
989.213318	2597.058789
989.509563	2595.115424
989.805772	2593.139292
990.101944	2590.273396
990.398080	2589.204671
990.694180	2590.717017
990.990244	2590.747264
991.286271	2590.681729
991.582262	2589.469332
991.878217	2592.443612
992.174136	2588.216605
992.470019	2591.213571
992.765865	2594.553335
993.061676	2590.817840
993.357450	2596.869745
993.653188	2594.394539
993.948890	2597.494848
994.244556	2599.849067
994.540186	2605.593462
994.835780	2610.622013
995.131337	2614.821294
995.426859	2620.716924
995.722345	2622.647686
996.017795	2632.757720
996.313208	2641.483957
996.608586	2641.907414
996.903928	2645.075779
997.199234	2646.835142
997.494504	2646.993938
997.789738	2647.336737
998.084936	2641.824235
998.380099	2639.646456
998.675225	2636.901548
998.970316	2628.724797
999.265371	2627.572893
999.560390	2619.993518
999.855373	2617.145266
1000.150320	2610.231324
1000.445232	2608.451796
1000.740108	2605.112032
1001.034948	2599.206320
1001.329752	2597.767071
1001.624521	2595.468305
1001.919254	2589.025710
1002.213951	2588.468662
1002.508613	2587.931780
1002.803239	2588.579568
1003.097829	2583.856007
1003.392384	2585.817016
1003.686903	2588.171234
1003.981386	2588.375401
1004.275834	2584.435739
1004.570246	2586.570668
1004.864623	2585.494382
1005.158964	2585.154104
1005.453270	2582.999011
1005.747540	2586.580750
1006.041775	2581.741243
1006.335974	2583.142683
1006.630138	2583.465317
1006.924266	2582.878023
1007.218359	2584.281984
1007.512416	2584.216449
1007.806438	2583.639237
1008.100425	2583.707293
1008.394376	2584.284505
1008.688292	2581.017837
1008.982172	2583.112437
1009.276017	2582.852817
1009.569827	2580.173444
1009.863602	2584.370204
1010.157341	2582.210070
1010.451045	2580.513722
1010.744714	2581.574885
1011.038347	2580.196129
1011.331945	2581.012796
1011.625508	2581.859710
1011.919036	2581.592529
1012.212528	2583.856007
1012.505986	2578.973649
1012.799408	2581.647981
1013.092795	2581.191757
1013.386147	2581.632858
1013.679464	2581.474062
1013.972745	2577.667990
1014.265992	2582.205029
1014.559204	2582.346181
1014.852380	2584.208887
1015.145521	2579.634040
1015.438628	2582.915832
1015.731699	2583.082190
1016.024736	2580.715368
1016.317737	2581.627817
1016.610703	2581.582446
1016.903635	2576.470716
1017.196531	2578.981211
1017.489393	2576.737897
1017.782219	2576.579101
1018.075011	2580.246541
1018.367768	2581.978177
1018.660490	2582.557910
1018.953177	2582.557910
1019.245829	2582.557910
