Dividing Wavelength (nm)	Counts (n)	Blue Motor Position (mm): 35.000000	Red Motor Position (mm): 0.000000	
326.493990	2153.419606
326.888308	2153.419606
327.282561	2153.419606
327.676750	2129.043107
328.070874	2130.772223
328.464933	2136.677934
328.858929	2144.915180
329.252859	2158.180976
329.646726	2171.282935
330.040528	2187.374298
330.434265	2205.015816
330.827938	2222.647251
331.221547	2243.099213
331.615091	2263.324322
332.008571	2280.476848
332.401986	2301.889149
332.795338	2321.910091
333.188625	2339.939778
333.581847	2362.206554
333.975006	2383.399565
334.368100	2398.109652
334.761129	2418.309556
335.154095	2433.488470
335.546996	2457.098714
335.939833	2490.849239
336.332606	2502.658142
336.725315	2515.412261
337.117960	2521.504495
337.510540	2531.518748
337.903056	2539.738349
338.295508	2549.722354
338.687896	2551.693445
339.080220	2563.015877
339.472480	2568.125086
339.864676	2568.790518
340.256807	2572.881415
340.648875	2575.699420
341.040879	2576.810994
341.432818	2580.337281
341.824694	2582.081521
342.216506	2580.606983
342.608253	2581.380800
342.999937	2579.054308
343.391557	2577.713361
343.783113	2578.146900
344.174605	2573.209090
344.566033	2573.440983
344.957397	2571.048955
345.348697	2569.876887
345.739934	2568.402350
346.131106	2567.963769
346.522215	2568.319171
346.913260	2563.928326
347.304241	2561.526216
347.695159	2560.717111
348.086012	2561.190979
348.476802	2557.127809
348.867528	2556.227963
349.258191	2556.396842
349.648789	2552.774773
350.039324	2553.167983
350.429796	2555.431461
350.820203	2551.403579
351.210548	2550.168496
351.600828	2547.257230
351.991045	2547.839483
352.381198	2547.665563
352.771288	2549.898794
353.161314	2549.122457
353.551276	2546.337219
353.941175	2550.692776
354.331010	2548.043650
354.720782	2547.723537
355.110490	2549.810574
355.500135	2549.853424
355.889717	2549.437529
356.279235	2549.462735
356.668689	2550.339895
357.058080	2550.670091
357.447408	2548.124308
357.836672	2548.061294
358.225873	2546.284287
358.615010	2546.811088
359.004084	2553.225956
359.393095	2550.037426
359.782043	2552.099258
360.170927	2555.121430
360.559748	2554.362736
360.948505	2553.246121
361.337199	2556.122099
361.725830	2557.394990
362.114398	2556.290977
362.502903	2556.608570
362.891344	2555.461708
363.279722	2560.477656
363.668037	2559.086297
364.056289	2557.427758
364.444478	2560.835578
364.832603	2559.277861
365.220665	2561.609395
365.608665	2559.340876
365.996601	2560.323901
366.384474	2559.958417
366.772284	2561.289282
367.160031	2561.387584
367.547715	2562.562173
367.935336	2561.513613
368.322893	2560.533108
368.710388	2562.060578
369.097820	2564.742472
369.485189	2562.910013
369.872495	2562.526885
370.259738	2561.014539
370.646918	2562.161401
371.034035	2565.143244
371.421090	2566.040569
371.808081	2564.245918
372.195010	2563.141906
372.581875	2565.518810
372.968678	2568.044428
373.355418	2564.389591
373.742096	2567.719273
374.128710	2566.650549
374.515262	2566.181721
374.901751	2567.336146
375.288177	2567.900755
375.674540	2566.592575
376.060841	2564.724828
376.447079	2565.889334
376.833254	2571.439645
377.219367	2563.993861
377.605417	2567.603327
377.991404	2565.662482
378.377329	2565.007133
378.763191	2563.656103
379.148991	2569.836558
379.534727	2569.481157
379.920402	2570.927968
380.306013	2572.523493
380.691563	2569.188770
381.077049	2570.078533
381.462474	2568.989644
381.847835	2571.737073
382.233134	2570.481826
382.618371	2572.654563
383.003545	2571.308575
383.388657	2572.722618
383.773706	2573.080540
384.158693	2574.267732
384.543618	2572.621795
384.928480	2574.290417
385.313280	2570.920406
385.698017	2572.314285
386.082692	2576.100192
386.467305	2575.132290
386.851856	2575.833010
387.236344	2575.747311
387.620770	2575.465006
388.005133	2572.478122
388.389435	2578.058680
388.773674	2575.449883
389.157851	2572.016857
389.541965	2575.775037
389.926018	2578.837538
390.310008	2576.289235
390.693936	2578.731674
391.077802	2575.772517
391.461606	2578.565316
391.845348	2578.179667
392.229027	2578.441807
392.612645	2577.935172
392.996200	2580.092785
393.379694	2578.777044
393.763125	2580.233938
394.146494	2578.862744
394.529801	2580.622107
394.913047	2580.054977
395.296230	2582.250399
395.679351	2578.338464
396.062410	2581.277457
396.445408	2580.569174
396.828343	2583.856007
397.211217	2576.881570
397.594028	2582.459607
397.976778	2579.276118
398.359466	2580.455748
398.742092	2579.979359
399.124656	2584.980184
399.507158	2584.634865
399.889598	2583.936665
400.271977	2584.980184
400.654294	2585.761563
401.036549	2587.412541
401.418742	2587.475555
401.800874	2585.892633
402.182944	2587.956985
402.564952	2585.002869
402.946898	2587.462952
403.328783	2585.081007
403.710606	2587.704928
404.092367	2585.587643
404.474067	2590.480083
404.855705	2588.816502
405.237282	2589.229877
405.618797	2593.386308
406.000250	2592.494024
406.381642	2593.076277
406.762972	2591.465628
407.144240	2595.816144
407.525447	2595.788418
407.906593	2596.678182
408.287677	2597.081474
408.668700	2599.118100
409.049661	2603.042638
409.430560	2605.195211
409.811399	2609.185284
410.192176	2608.403905
410.572891	2612.275512
410.953545	2612.938423
411.334138	2618.156017
411.714669	2621.135339
412.095139	2623.038375
412.475547	2629.763274
412.855894	2632.082205
413.236180	2637.569501
413.616405	2646.835142
413.996568	2648.418064
414.376670	2657.945845
414.756711	2660.075732
415.136691	2674.402692
415.516609	2681.132632
415.896466	2688.326358
416.276262	2699.225333
416.655997	2704.074923
417.035670	2715.858620
417.415283	2736.159347
417.794834	2747.668301
418.174324	2754.899836
418.553753	2768.548760
418.933121	2787.649692
419.312428	2799.143523
419.691674	2807.839513
420.070859	2832.546208
420.449983	2836.291786
420.829045	2862.929242
421.208047	2874.937271
421.586988	2898.933163
421.965867	2925.142122
422.344686	2942.251798
422.723444	2971.750110
423.102141	2957.430713
423.480777	3005.634226
423.859352	3014.874661
424.237866	3062.889130
424.616319	3079.615679
424.994712	3115.135649
425.373044	3131.436220
425.751314	3179.407840
426.129524	3175.193435
426.507673	3237.118969
426.885762	3247.758324
427.263789	3279.804939
427.641756	3302.724545
428.019662	3336.699402
428.397508	3361.648072
428.775292	3402.294895
429.153016	3428.075356
429.530679	3457.460242
429.908282	3486.678770
430.285824	3493.862414
430.663305	3558.318607
431.040726	3556.032444
431.418086	3572.645566
431.795385	3645.081906
432.172624	3687.157896
432.549802	3688.196374
432.926920	3721.241138
433.303977	3737.907192
433.680974	3787.703710
434.057910	3824.599915
434.434786	3850.259388
434.811601	3868.767984
435.188355	3967.178869
435.565050	3963.881954
435.941683	3977.979541
436.318257	4072.874221
436.694770	4094.541100
437.071222	4157.921007
437.447614	4124.137715
437.823946	4145.411384
438.200218	4180.129810
438.576429	4178.052855
438.952580	4217.121797
439.328670	4238.145929
439.704700	4290.889002
440.080670	4271.525930
440.456580	4341.355993
440.832429	4387.238054
441.208218	4310.849450
441.583947	4369.541084
441.959616	4396.934714
442.335224	4433.004170
442.710773	4462.232780
443.086261	4525.093448
443.461689	4490.185978
443.837057	4511.615923
444.212365	4589.411009
444.587612	4604.531950
444.962800	4578.106221
445.337927	4626.057677
445.712995	4524.218807
446.088002	4717.441193
446.462949	4747.171398
446.837837	4770.665695
447.212664	4767.736785
447.587431	4992.453779
447.962139	5290.771620
448.336786	5622.640860
448.711374	5607.963541
449.085901	5257.779789
449.460369	5207.892530
449.834776	5147.875073
450.209124	5387.937340
450.583412	5395.090737
450.957640	5519.549264
451.331808	5382.477770
451.705917	5245.451647
452.079965	5234.925718
452.453954	5276.759733
452.827883	5242.918467
453.201752	5246.961473
453.575562	5280.853150
453.949311	5415.991361
454.323001	5423.220376
454.696632	5417.390281
455.070202	5572.148663
455.443713	5605.485813
455.817164	5696.014854
456.190556	5771.324652
456.563888	5743.966310
456.937160	5816.256456
457.310373	5665.029402
457.683526	5722.841354
458.056619	5717.280962
458.429653	5697.053332
458.802628	5747.570735
459.175542	5778.125168
459.548398	5919.665645
459.921194	6103.816474
460.293930	6165.164796
460.666607	6415.846253
461.039224	6633.682073
461.411782	6756.272852
461.784280	6668.665160
462.156719	6672.325037
462.529099	6637.278936
462.901419	6495.670404
463.273680	6367.373038
463.645882	6354.815524
464.018024	6357.424321
464.390106	6425.212717
464.762130	6683.264341
465.134094	7080.109013
465.505999	7711.228707
465.877845	8417.590143
466.249631	8768.918237
466.621358	8689.414199
466.993026	8495.012184
467.364634	8276.629399
467.736184	7993.626584
468.107674	7840.478851
468.479105	7762.721573
468.850477	7688.646858
469.221790	7516.158738
469.593043	7294.289996
469.964238	7198.999585
470.335373	7168.392220
470.706449	7327.773340
471.077467	7523.213833
471.448425	8182.939555
471.819324	8773.631716
472.190164	8793.060322
472.560945	8308.686096
472.931667	7846.538317
473.302330	7645.615569
473.672934	7526.762806
474.043479	7601.881039
474.413965	7507.455186
474.784393	7458.160263
475.154761	7607.000331
475.525070	7622.506920
475.895321	7579.674756
476.265513	7675.030702
476.635645	7842.757452
477.005719	7835.762851
477.375734	7919.766118
477.745691	8026.492386
478.115588	8230.928819
478.485427	8468.092422
478.855207	8943.848796
479.224928	9376.084888
479.594591	9762.577551
479.964194	9761.236604
480.333739	9847.152989
480.703226	9848.725829
481.072653	9950.693248
481.442022	10065.034179
481.811333	10218.912879
482.180584	10054.162930
482.549777	9989.759669
482.918912	9927.647613
483.287988	9919.516232
483.657005	9829.682870
484.025964	9745.782947
484.394864	9809.172936
484.763706	9763.265668
485.132489	9676.149489
485.501213	9672.313171
485.869879	9726.639165
486.238487	9673.928860
486.607036	9751.734029
486.975527	9694.978198
487.343959	9746.523996
487.712333	9799.456112
488.080648	9834.650927
488.448905	9940.880642
488.817104	9939.895096
489.185244	10108.415828
489.553326	10323.393313
489.921350	10801.458535
490.289315	11422.180850
490.657222	11716.185983
491.025070	11892.780123
491.392861	11805.164869
491.760593	11653.332877
492.128267	11398.391645
492.495883	11159.609831
492.863440	10927.789851
493.230939	10703.745850
493.598380	10522.896977
493.965763	10493.199539
494.333088	10355.691986
494.700354	10295.611514
495.067563	10272.754923
495.434713	10274.519327
495.801805	10308.642897
496.168839	10267.991033
496.535815	10239.203523
496.902733	10290.913159
497.269593	10245.883052
497.636395	10256.852603
498.003139	10361.340599
498.369825	10295.765270
498.736453	10388.383869
499.103023	10322.894239
499.469535	10329.553603
499.835989	10388.088961
500.202385	10356.095278
500.568723	10375.859122
500.935003	10438.525705
501.301226	10406.156457
501.667390	10568.078318
502.033497	10673.773670
502.399546	10588.477347
502.765537	10508.673361
503.131470	10602.358164
503.497345	10692.776300
503.863163	10467.189706
504.228923	10603.507547
504.594625	10721.614220
504.960269	10632.887392
505.325856	10787.502101
505.691385	10663.487196
506.056856	10739.187682
506.422270	10828.121198
506.787625	10769.792528
507.152924	10816.796246
507.518164	10883.878880
507.883347	10747.470298
508.248472	10821.103912
508.613540	10931.764801
508.978550	11007.752633
509.343503	10985.619447
509.708398	11037.641634
510.073236	11164.282981
510.438016	11179.174549
510.802738	11095.776220
511.167403	11223.662732
511.532010	11279.543922
511.896561	11379.895651
512.261053	11570.088303
512.625488	11486.488329
512.989866	11479.443316
513.354186	11443.472163
513.718449	11461.746346
514.082655	11611.398039
514.446803	11561.329299
514.810894	11668.600011
515.174927	11668.536997
515.538904	11651.233236
515.902822	11809.749798
516.266684	11684.076354
516.630488	11792.690534
516.994235	11776.037082
517.357925	11891.242571
517.721558	11943.967999
518.085133	12018.360306
518.448651	12047.046992
518.812112	12008.184737
519.175516	12020.873322
519.538863	12111.563679
519.902152	12115.450409
520.265385	12227.603479
520.628560	12240.672670
520.991678	12192.564939
521.354739	12240.937331
521.717743	12320.232160
522.080690	12291.656380
522.443580	12429.393306
522.806413	12435.810695
523.169189	12428.276690
523.531908	12484.014208
523.894569	12451.521451
524.257174	12468.772279
524.619722	12566.585787
524.982213	12548.195658
525.344647	12543.343547
525.707025	12549.425699
526.069345	12658.549036
526.431608	12630.643729
526.793815	12712.456615
527.155964	12602.604831
527.518057	12638.298721
527.880093	12593.613933
528.242072	12722.372564
528.603995	12636.191519
528.965860	12652.020742
529.327669	12681.491327
529.689421	12624.430507
530.051117	12636.073052
530.412755	12681.115761
530.774337	12696.463554
531.135862	12651.042758
531.497331	12699.271477
531.858743	12660.089109
532.220098	12748.931883
532.581396	12677.501254
532.942638	12607.870317
533.303824	12677.304649
533.664953	12650.241215
534.026025	12601.470572
534.387040	12702.676776
534.747999	12681.108200
535.108902	12726.592010
535.469748	12606.254627
535.830537	12630.230354
536.191270	12673.354905
536.551947	12596.285745
536.912567	12652.308088
537.273131	12692.090353
537.633638	12565.902711
537.994089	12639.193526
538.354483	12548.059547
538.714821	12676.399762
539.075103	12750.285433
539.435328	12687.684385
539.795497	12673.216273
540.155609	12659.446362
540.515665	12759.853543
540.875665	12623.621402
541.235609	12719.806617
541.595496	12682.350844
541.955328	12858.271990
542.315102	12713.855535
542.674821	12650.357161
543.034483	12666.130932
543.394090	12671.923217
543.753640	12642.520688
544.113134	12875.169938
544.472571	12633.406281
544.831953	12919.375816
545.191278	12736.951581
545.550548	12664.638750
545.909761	12777.053960
546.268918	12822.346207
546.628019	12884.977502
546.987064	12773.734360
547.346053	12619.338942
547.704986	12823.533399
548.063863	12703.009492
548.422684	12754.220054
548.781449	12720.494735
549.140158	12812.886482
549.498811	12757.154005
549.857408	12631.891415
550.215949	12828.100684
550.574434	12801.927013
550.932864	12747.568251
551.291237	12940.717540
551.649555	12824.672699
552.007817	12880.997511
552.366022	12807.189978
552.724173	12848.121627
553.082267	12948.470835
553.440305	13028.042928
553.798288	12854.675127
554.156215	12922.738265
554.514086	12975.763642
554.871902	12913.981781
555.229661	12934.063217
555.587365	12894.311199
555.945014	12907.730750
556.302606	12888.818862
556.660143	12950.847739
557.017625	12982.740599
557.375050	12940.601594
557.732421	13040.113971
558.089735	13030.545861
558.446994	13004.233558
558.804197	13121.934418
559.161345	13116.202626
559.518437	12939.260647
559.875474	13029.663659
560.232455	13058.506621
560.589381	13101.134618
560.946251	13042.989949
561.303065	13215.314232
561.659825	13163.854133
562.016528	13087.261362
562.373177	13027.977393
562.729770	13155.397598
563.086307	13035.670194
563.442789	13146.247903
563.799216	13185.707535
564.155587	13129.957415
564.511904	13142.434270
564.868164	13158.003874
565.224370	13220.481414
565.580520	13166.346984
565.936615	13234.057242
566.292654	13169.548116
566.648638	13241.571081
567.004567	13238.798447
567.360441	13243.819436
567.716260	13207.639075
568.072023	13295.342549
568.427732	13272.715330
568.783385	13176.514991
569.138982	13288.801652
569.494525	13280.690435
569.850013	13226.964338
570.205445	13218.981671
570.560823	13235.143610
570.916145	13196.258670
571.271412	13199.454762
571.626625	13153.728976
571.981782	13157.277948
572.336884	13110.652316
572.691931	13191.824975
573.046923	13083.911515
573.401860	13059.892938
573.756743	13052.915981
574.111570	13084.765991
574.466342	13062.466447
574.821059	13107.955299
575.175722	12979.670536
575.530330	13004.256243
575.884882	12939.641254
576.239380	12930.332763
576.593823	12919.514447
576.948211	12915.277357
577.302544	12788.504941
577.656823	12807.295842
578.011047	12868.306407
578.365216	12808.528404
578.719330	12737.720357
579.073389	12707.722971
579.427394	12731.555026
579.781344	12717.386863
580.135239	12652.567707
580.489080	12668.202846
580.842866	12549.148436
581.196597	12648.834733
581.550273	12639.417857
581.903895	12599.806991
582.257463	12705.393958
582.610975	12554.550032
582.964434	12607.908125
583.317837	12532.434490
583.671186	12485.289620
584.024481	12545.526367
584.377721	12435.402361
584.730906	12501.748987
585.084037	12519.831606
585.437113	12441.096344
585.790135	12468.550468
586.143103	12380.962941
586.496016	12388.093653
586.848874	12394.279149
587.201679	12392.124055
587.554428	12276.149791
587.907124	12324.350783
588.259765	12261.906010
588.612352	12329.492760
588.964884	12188.635360
589.317362	12247.064853
589.669786	12233.504150
590.022155	12196.020650
590.374470	12297.572174
590.726731	12178.812672
591.078937	12072.325858
591.431090	12098.617996
591.783188	12023.552695
592.135232	11947.569903
592.487222	12004.580312
592.839157	12022.385668
593.191038	11948.530243
593.542866	11899.646174
593.894639	11740.181875
594.246358	11810.158132
594.598022	11816.767085
594.949633	11718.368803
595.301190	11704.717358
595.652692	11664.501553
596.004141	11755.880028
596.355535	11530.759742
596.706876	11510.464056
597.058162	11475.985085
597.409395	11570.662995
597.760573	11601.550145
598.111698	11489.782723
598.462768	11498.584577
598.813785	11498.730771
599.164748	11373.301822
599.515657	11451.714449
599.866511	11320.326857
600.217312	11454.444234
600.568060	11220.743904
600.918753	11380.593851
601.269392	11386.466795
601.619978	11293.293669
601.970510	11330.404123
602.320988	11369.034485
602.671412	11445.687750
603.021783	11365.977025
603.372100	11292.595469
603.722363	11309.299333
604.072572	11314.327884
604.422728	11320.893987
604.772830	11261.705799
605.122878	11267.737540
605.472872	11243.136709
605.822813	11303.002932
606.172701	11256.740263
606.522534	11298.294494
606.872314	11353.767351
607.222041	11283.990220
607.571714	11361.886129
607.921333	11231.569782
608.270899	11281.119283
608.620411	11347.173522
608.969870	11293.880964
609.319276	11276.625094
609.668627	11291.282249
610.017926	11370.604805
610.367171	11398.270657
610.716362	11401.807026
611.065500	11368.900895
611.414585	11380.586289
611.763616	11445.886876
612.112594	11405.910526
612.461518	11425.024060
612.810389	11481.742082
613.159207	11425.061869
613.507971	11414.558625
613.856682	11515.928667
614.205340	11470.563324
614.553945	11607.599529
614.902496	11485.948925
615.250994	11560.018599
615.599439	11544.201978
615.947830	11580.838564
616.296169	11542.505630
616.644454	11558.496170
616.992686	11576.926629
617.340864	11666.021461
617.688990	11548.474356
618.037063	11696.280987
618.385082	11656.934781
618.733048	11692.568177
619.080961	11684.310767
619.428821	11665.628251
619.776628	11673.293326
620.124382	11620.898093
620.472083	11637.208746
620.819731	11662.507777
621.167326	11580.518451
621.514868	11568.860782
621.862357	11466.956378
622.209793	11457.211828
622.557176	11378.342976
622.904506	11324.962198
623.251783	11245.407749
623.599007	11186.930364
623.946179	11134.174689
624.293297	11110.715680
624.640363	10975.514454
624.987376	10958.039294
625.334336	10900.199616
625.681243	10816.486215
626.028097	10786.796339
626.374899	10744.727911
626.721647	10718.760927
627.068343	10681.652994
627.414987	10625.353387
627.761577	10558.434591
628.108115	10600.515622
628.454600	10482.855092
628.801032	10491.699796
629.147412	10477.040121
629.493739	10450.805956
629.840014	10364.617349
630.186236	10408.997147
630.532405	10311.120624
630.878521	10346.943063
631.224585	10305.403956
631.570597	10222.910514
631.916556	10240.446168
632.262462	10213.503721
632.608316	10194.732985
632.954117	10167.707359
633.299866	10141.057299
633.645562	10129.477769
633.991206	10018.544658
634.336797	9930.127861
634.682336	9911.069778
635.027823	9857.184885
635.373257	9824.878651
635.718639	9765.723231
636.063968	9732.083611
636.409245	9614.791085
636.754470	9602.437737
637.099642	9543.864571
637.444762	9447.152555
637.789829	9443.439745
638.134845	9378.113953
638.479808	9360.253145
638.824719	9335.085184
639.169577	9238.927695
639.514383	9248.044622
639.859137	9176.709774
640.203839	9212.025577
640.548489	9131.853587
640.893086	9137.771902
641.237632	9065.196931
641.582125	9072.786388
641.926566	9057.095796
642.270955	9042.277325
642.615292	9035.050831
642.959576	9020.035754
643.303809	9002.810131
643.647990	9019.582050
643.992118	9000.912137
644.336195	8978.312644
644.680219	8978.282397
645.024192	9005.340790
645.368112	9084.602852
645.711981	9061.587464
646.055797	9200.483856
646.399562	9155.400817
646.743274	9317.786465
647.086935	9388.002176
647.430544	9367.600626
647.774101	9384.876661
648.117606	9410.979755
648.461059	9480.464499
648.804460	9402.951718
649.147810	9296.462384
649.491108	9262.709338
649.834354	9191.341723
650.177548	9046.317809
650.520690	8962.967372
650.863781	8959.073080
651.206820	8929.478987
651.549807	8835.572373
651.892742	8744.382941
652.235626	8699.410807
652.578458	8662.504520
652.921238	8562.120024
653.263967	8593.851567
653.606644	8527.872945
653.949269	8509.422322
654.291843	8427.768233
654.634365	8490.525557
654.976836	8422.999301
655.319255	8419.697345
655.661622	8407.323833
656.003938	8358.119651
656.346203	8328.523037
656.688416	8359.047223
657.030577	8315.138773
657.372687	8279.215511
657.714746	8314.115419
658.056753	8332.417328
658.398708	8232.675579
658.740612	8223.538487
659.082465	8270.537165
659.424266	8224.322387
659.766016	8231.009477
660.107715	8207.074079
660.449362	8227.470587
660.790958	8226.656441
661.132503	8221.761481
661.473996	8218.368784
661.815438	8242.339471
662.156829	8269.395343
662.498168	8216.165800
662.839456	8210.804533
663.180693	8228.234322
663.521879	8250.433043
663.863013	8231.311947
664.204097	8228.375474
664.545129	8299.775857
664.886110	8291.437788
665.227040	8296.993140
665.567918	8306.069738
665.908746	8318.846542
666.249522	8341.524173
666.590248	8340.089964
666.930922	8353.111265
667.271545	8339.797577
667.612118	8355.793158
667.952639	8317.397210
668.293109	8324.893406
668.633528	8299.491032
668.973896	8285.592571
669.314213	8289.900237
669.654480	8246.667301
669.994695	8244.464317
670.334859	8228.677944
670.674973	8202.713481
671.015035	8223.475473
671.355047	8212.639513
671.695008	8206.277577
672.034918	8174.210797
672.374777	8190.513888
672.714585	8160.052716
673.054342	8183.680604
673.394049	8154.303280
673.733705	8194.927419
674.073310	8145.549317
674.412864	8157.343096
674.752368	8092.213909
675.091820	8138.978173
675.431223	8071.333450
675.770574	8025.252262
676.109875	8003.212338
676.449125	7964.624826
676.788324	7949.115716
677.127473	7860.739248
677.466571	7845.792227
677.805619	7786.598998
678.144616	7782.992053
678.483562	7765.098477
678.822458	7715.049902
679.161303	7702.489867
679.500098	7680.598656
679.838842	7658.157960
680.177535	7675.214704
680.516179	7711.395065
680.854771	7730.937098
681.193314	7847.241558
681.531805	8008.266095
681.870247	8126.103066
682.208638	8273.037577
682.546978	8343.964091
682.885268	8376.444245
683.223508	8305.966394
683.561697	8248.948423
683.899836	8216.120429
684.237925	8136.603789
684.575963	8108.237217
684.913951	8022.424175
685.251889	8043.907052
685.589776	8036.302472
685.927614	8015.792537
686.265401	8037.409005
686.603137	8039.959829
686.940824	8112.305428
687.278460	8165.950866
687.616046	8183.383176
687.953582	8290.167418
688.291068	8273.743338
688.628504	8326.642686
688.965889	8327.575300
689.303224	8291.437788
689.640510	8246.879030
689.977745	8143.921024
690.314930	8020.170779
690.652065	7945.564223
690.989150	7831.114907
691.326185	7683.837598
691.663170	7566.630771
692.000105	7452.143646
692.336990	7343.100968
692.673825	7272.136645
693.010610	7177.183992
693.347345	7080.353509
693.684030	6968.976777
694.020665	6919.823006
694.357251	6800.793802
694.693786	6792.105373
695.030272	6751.413179
695.366707	6657.902296
695.703093	6605.643175
696.039429	6600.090344
696.375716	6549.998919
696.711952	6540.786210
697.048139	6514.216809
697.384276	6478.628783
697.720363	6501.180385
698.056400	6470.779707
698.392388	6443.096210
698.728326	6438.110509
699.064214	6415.664772
699.400053	6408.791158
699.735842	6351.974834
700.071581	6304.083872
700.407270	6261.259270
700.742910	6233.157358
701.078501	6192.447520
701.414042	6148.579400
701.749533	6091.158137
702.084974	6031.667480
702.420366	6073.430919
702.755709	6000.737481
703.091002	5950.320901
703.426246	5953.277538
703.761440	5939.192554
704.096584	5894.553137
704.431679	5884.581734
704.766725	5869.060022
705.101721	5853.240881
705.436668	5864.845617
705.771565	5811.328728
706.106413	5869.511205
706.441212	5867.000710
706.775961	5887.493001
707.110661	5894.018774
707.445311	5950.830058
707.779913	5923.862405
708.114465	5958.026305
708.448967	6004.886350
708.783421	6116.457167
709.117825	6157.351007
709.452180	6197.576894
709.786485	6257.468323
710.120742	6390.935391
710.454949	6393.592079
710.789107	6460.659590
711.123216	6591.064158
711.457275	6617.938549
711.791286	6725.816721
712.125247	6744.766418
712.459159	6716.979578
712.793023	6849.854311
713.126837	6680.421130
713.460602	6734.237968
713.794318	6684.698549
714.127985	6635.063349
714.461602	6495.221741
714.795171	6496.403892
715.128691	6328.021791
715.462162	6239.693214
715.795584	6173.543193
716.128957	6123.098887
716.462281	6063.507408
716.795556	6022.396798
717.128782	5932.470175
717.461960	5836.448798
717.795088	5828.314896
718.128167	5760.952478
718.461198	5680.790570
718.794180	5651.803935
719.127113	5593.888639
719.459997	5560.743052
719.792833	5491.699409
720.125619	5491.293597
720.458357	5433.143887
720.791046	5405.561214
721.123686	5373.554928
721.456278	5330.972301
721.788821	5323.176157
722.121315	5275.423827
722.453761	5285.120487
722.786158	5273.185555
723.118506	5275.965751
723.450805	5249.383747
723.783056	5279.809631
724.115259	5256.650570
724.447412	5245.217233
724.779518	5287.484788
725.111574	5295.840500
725.443582	5324.998534
725.775542	5319.997709
726.107453	5408.134723
726.439315	5376.491400
726.771129	5440.960196
727.102895	5511.949724
727.434612	5550.166712
727.766281	5582.359520
728.097901	5637.098889
728.429473	5657.296272
728.760996	5663.809443
729.092471	5690.436817
729.423897	5672.170197
729.755276	5644.123737
730.086606	5657.185367
730.417887	5748.737762
730.749120	5840.453994
731.080305	5886.484770
731.411442	5953.635460
731.742530	5983.857177
732.073570	5995.199773
732.404562	6059.572787
732.735506	6060.162602
733.066401	6040.116454
733.397249	5967.352439
733.728048	5878.759202
734.058798	5727.481737
734.389501	5605.271564
734.720156	5521.553122
735.050762	5414.899951
735.381320	5340.237942
735.711831	5282.282317
736.042293	5203.564700
736.372707	5202.221232
736.703073	5153.805991
737.033391	5182.356565
737.363661	5163.255633
737.693883	5183.246329
738.024056	5209.016707
738.354182	5228.904059
738.684260	5282.499087
739.014290	5318.082071
739.344272	5355.734449
739.674207	5410.234363
740.004093	5444.796514
740.333931	5452.965704
740.663722	5470.733251
740.993464	5486.663297
741.323159	5464.653619
741.652806	5424.679790
741.982405	5389.134614
742.311956	5338.259289
742.641460	5319.874201
742.970915	5272.257982
743.300323	5207.658117
743.629683	5174.099155
743.958996	5125.141990
744.288260	5073.709618
744.617477	5015.456564
744.946647	4999.987784
745.275768	4947.068271
745.604842	4914.598199
745.933869	4874.510944
746.262847	4870.324266
746.591778	4855.155434
746.920662	4831.469572
747.249498	4824.515301
747.578286	4847.344166
747.907027	4868.181775
748.235720	4912.866563
748.564365	4923.188326
748.892963	4909.738527
749.221514	4928.799130
749.550017	4902.932969
749.878473	4896.341661
750.206881	4862.008882
750.535242	4848.264177
750.863555	4830.519315
751.191821	4810.117765
751.520039	4814.755627
751.848210	4791.972132
752.176334	4803.390346
752.504411	4782.525010
752.832440	4755.219600
753.160421	4768.918936
753.488356	4745.064196
753.816243	4728.574581
754.144082	4696.409499
754.471875	4679.617416
754.799620	4672.869831
755.127318	4663.720137
755.454969	4660.042615
755.782572	4651.805370
756.110129	4656.566740
756.437638	4640.974451
756.765100	4633.052278
757.092515	4634.788955
757.419882	4638.743740
757.747203	4639.260459
758.074477	4654.356194
758.401703	4641.176097
758.728882	4674.646838
759.056014	4685.260988
759.383099	4705.032393
759.710138	4732.380652
760.037129	4754.894446
760.364073	4768.855921
760.690970	4765.911887
761.017820	4766.438688
761.344623	4800.405982
761.671379	4862.422257
761.998088	4951.088592
762.324751	5178.900854
762.651366	5641.051154
762.977935	6339.162741
763.304456	6889.976855
763.630931	7196.597476
763.957359	7135.596993
764.283740	6841.007086
764.610074	6516.944073
764.936362	6119.358351
765.262602	5800.333971
765.588796	5455.992917
765.914943	5207.716090
766.241044	4981.912727
766.567097	4807.728258
766.893104	4658.094209
767.219064	4558.473448
767.544978	4459.397131
767.870845	4377.075088
768.196665	4329.680680
768.522438	4279.221251
768.848165	4235.922781
769.173846	4197.640258
769.499479	4168.691432
769.825066	4131.827995
770.150607	4091.932303
770.476101	4077.131476
770.801548	4054.542065
771.126949	4026.286398
771.452303	4005.514323
771.777611	3965.502685
772.102872	3966.331955
772.428087	3943.576187
772.753256	3915.227258
773.078378	3899.564393
773.403453	3862.824464
773.728482	3838.377388
774.053465	3824.052950
774.378401	3806.693736
774.703291	3783.680869
775.028135	3756.884616
775.352932	3752.110643
775.677683	3734.048189
776.002388	3710.652194
776.327046	3707.564487
776.651658	3686.668904
776.976224	3673.655166
777.300743	3670.842202
777.625216	3653.891322
777.949643	3646.629540
778.274024	3651.368225
778.598359	3629.547590
778.922647	3631.811068
779.246889	3621.277577
779.571086	3621.698514
779.895236	3617.652988
780.219339	3621.370839
780.543397	3623.074749
780.867409	3634.104793
781.191374	3634.863487
781.515294	3626.996766
781.839167	3644.643325
782.162995	3643.146103
782.486776	3638.470432
782.810511	3624.748412
783.134201	3613.957822
783.457844	3615.089561
783.781441	3605.576904
784.104993	3598.436109
784.428498	3591.204574
784.751958	3586.841455
785.075372	3583.998245
785.398739	3571.571800
785.722061	3579.103284
786.045337	3577.346442
786.368568	3604.682099
786.691752	3597.967282
787.014891	3643.567039
787.337983	3690.510264
787.661030	3777.860857
787.984031	3875.187894
788.306987	3948.158596
788.629897	3999.288498
788.952760	4007.306454
789.275579	3992.624093
789.598351	3940.735497
789.921078	3889.862692
790.243759	3831.831450
790.566395	3777.341618
790.888984	3732.334197
791.211529	3696.063095
791.534027	3648.978718
791.856480	3611.938840
792.178888	3593.455449
792.501249	3575.093046
792.823566	3542.423849
793.145836	3535.036038
793.468062	3527.365922
793.790241	3511.587111
794.112375	3515.302441
794.434464	3539.653735
794.756507	3541.103067
795.078505	3556.160993
795.400457	3598.420986
795.722364	3647.012668
796.044226	3692.428423
796.366042	3740.952049
796.687812	3734.698498
797.009538	3759.984925
797.331218	3749.282556
797.652852	3743.712081
797.974442	3720.429512
798.295986	3709.780074
798.617484	3680.591793
798.938938	3654.395437
799.260346	3641.588386
799.581709	3606.146554
799.903026	3590.428236
800.224299	3575.380392
800.545526	3546.141700
800.866708	3526.090510
801.187845	3514.669776
801.508936	3493.607836
801.829983	3486.053667
802.150984	3455.544603
802.471940	3442.404836
802.792851	3439.095318
803.113717	3430.686674
803.434538	3423.339192
803.755314	3410.930392
804.076045	3406.337901
804.396731	3394.443298
804.717372	3394.844070
805.037967	3396.530336
805.358518	3398.932446
805.679024	3409.171029
805.999485	3409.206317
806.319901	3412.442738
806.640272	3414.759148
806.960598	3426.356323
807.280879	3424.901950
807.601115	3439.135648
807.921306	3428.340017
808.241453	3433.645831
808.561554	3438.661779
808.881611	3432.758588
809.201623	3432.630039
809.521590	3427.409924
809.841513	3427.656940
810.161390	3433.101387
810.481223	3411.348808
810.801011	3412.538520
811.120755	3409.856626
811.440453	3395.146539
811.760107	3388.280488
812.079716	3380.544837
812.399281	3370.714587
812.718801	3371.503528
813.038276	3362.305943
813.357707	3356.470807
813.677093	3367.468084
813.996434	3348.435208
814.315731	3357.784028
814.634983	3356.523739
814.954191	3355.843183
815.273354	3371.702653
815.592473	3382.452914
815.911547	3404.596182
816.230577	3416.836104
816.549562	3441.232768
816.868502	3464.038948
817.187399	3482.320692
817.506250	3508.330525
817.825058	3519.148842
818.143821	3564.020152
818.462539	3609.566977
818.781213	3661.858866
819.099843	3747.515631
819.418429	3901.860639
819.736970	4051.782033
820.055466	4235.592585
820.373919	4472.534377
820.692327	4813.008867
821.010691	5326.082382
821.329011	6401.022740
821.647286	8140.233420
821.965517	10310.563577
822.283704	11933.792430
822.601847	13026.414635
822.919945	12616.379784
823.237999	11934.029364
823.556010	11031.521673
823.873976	10087.971429
824.191897	9112.006565
824.509775	8343.618772
824.827609	7545.074797
825.145398	6995.339491
825.463144	6619.846626
825.780845	6485.459547
826.098502	6553.694084
826.416116	6925.554798
826.733685	7435.026408
827.051210	7726.014411
827.368692	7622.390973
827.686129	7180.450660
828.003522	6627.073120
828.320872	6057.838630
828.638177	5595.910142
828.955439	5231.220470
829.272656	4897.024737
829.589830	4611.352631
829.906960	4349.051314
830.224046	4140.193790
830.541088	3968.746668
830.858086	3853.077393
831.175041	3757.867641
831.491952	3712.467009
831.808819	3697.386398
832.125642	3734.287644
832.442421	3832.209537
832.759157	4051.509811
833.075849	4425.316410
833.392497	4889.377307
833.709101	5277.659579
834.025662	5386.402308
834.342179	5261.414461
834.658653	4994.576105
834.975083	4720.304568
835.291469	4472.194100
835.607811	4249.455758
835.924110	4090.394751
836.240366	3928.447684
836.556578	3769.174949
836.872746	3633.625884
837.188871	3524.595808
837.504952	3427.435130
837.820990	3351.107019
838.136984	3297.101138
838.452935	3267.507044
838.768842	3253.434663
839.084706	3284.808284
839.400526	3419.384407
839.716303	3647.922596
840.032037	3854.937579
840.347727	3925.342333
840.663373	3833.197603
840.978977	3684.695293
841.294537	3549.965415
841.610054	3445.928603
841.925527	3373.399002
842.240957	3304.362920
842.556344	3241.746748
842.871687	3180.789116
843.186987	3120.738891
843.502244	3065.989440
843.817458	3029.375540
844.132629	2999.068123
844.447756	2976.004844
844.762840	2951.950978
845.077881	2936.525048
845.392879	2922.596339
845.707833	2910.807601
846.022745	2899.028945
846.337613	2897.521640
846.652438	2885.800958
846.967221	2882.733415
847.281960	2873.762682
847.596656	2871.670603
847.911309	2864.018132
848.225919	2858.881196
848.540485	2857.207533
848.855009	2854.235773
849.169490	2849.418950
849.483928	2847.218487
849.798323	2842.855368
850.112675	2841.184225
850.426984	2840.712877
850.741251	2840.395285
851.055474	2836.080057
851.369654	2838.633402
851.683792	2833.398163
851.997887	2835.212979
852.311938	2835.485201
852.625947	2836.795901
852.939914	2831.232988
853.253837	2835.926302
853.567718	2835.404542
853.881555	2833.211641
854.195350	2833.914882
854.509103	2831.863132
854.822812	2833.564521
855.136479	2831.974037
855.450103	2832.160560
855.763685	2828.689726
856.077224	2831.938749
856.390720	2835.031497
856.704173	2836.624502
857.017584	2835.928822
857.330953	2839.760099
857.644278	2842.822600
857.957561	2843.364524
858.270802	2842.875532
858.584000	2845.156655
858.897155	2844.647498
859.210268	2845.012982
859.523339	2838.945953
859.836367	2836.085098
860.149352	2836.034687
860.462295	2836.601817
860.775195	2832.480673
861.088054	2829.634942
861.400869	2829.153512
861.713642	2826.106134
862.026373	2828.374653
862.339062	2831.550580
862.651708	2837.267249
862.964312	2840.866633
863.276873	2841.433762
863.589392	2851.563961
863.901869	2855.871627
864.214303	2862.210878
864.526696	2868.177084
864.839045	2878.075389
865.151353	2883.459342
865.463619	2885.072511
865.775842	2887.938407
866.088023	2894.015518
866.400162	2892.175497
866.712258	2894.295302
867.024313	2895.371588
867.336325	2896.858728
867.648296	2900.261507
867.960224	2899.800242
868.272110	2898.116496
868.583954	2901.862074
868.895755	2905.897517
869.207515	2902.870304
869.519233	2911.498239
869.830909	2912.057807
870.142542	2916.133580
870.454134	2917.653488
870.765684	2921.018458
871.077191	2927.496341
871.388657	2932.724018
871.700081	2939.005295
872.011463	2946.912345
872.322803	2951.275464
872.634101	2956.724951
872.945357	2964.082515
873.256571	2976.251860
873.567744	2985.719147
873.878874	2983.753097
874.189963	2991.939931
874.501010	2999.373113
874.812015	2994.936897
875.122979	3004.348731
875.433900	3003.658093
875.744780	3010.388034
876.055618	3016.182840
876.366415	3016.266019
876.677169	3021.450846
876.987882	3025.559386
877.298554	3034.325953
877.609183	3051.538973
877.919771	3068.973803
878.230317	3088.369642
878.540822	3130.617032
878.851285	3176.383147
879.161707	3242.959146
879.472087	3352.654653
879.782425	3514.354704
880.092722	3791.459369
880.402977	4210.127196
880.713191	4758.561885
881.023363	5349.107852
881.333494	5793.296521
881.643583	6076.826136
881.953631	6152.912271
882.263637	6104.066011
882.573602	5959.349608
882.883526	5790.428104
883.193408	5589.767496
883.503248	5373.065936
883.813048	5158.048122
884.122806	4938.694915
884.432522	4695.696176
884.742197	4473.777022
885.051831	4265.211884
885.361424	4066.913057
885.670975	3900.227305
885.980485	3750.510077
886.289954	3625.229842
886.599382	3523.007845
886.908768	3438.981893
887.218113	3359.795448
887.527417	3294.726755
887.836680	3238.182652
888.145901	3192.477031
888.455082	3155.265754
888.764221	3124.791979
889.073319	3093.420879
889.382376	3073.709967
889.691392	3055.045095
890.000366	3045.779454
890.309300	3037.106149
890.618193	3037.403577
890.927044	3032.937115
891.235855	3034.905685
891.544625	3037.214534
891.853353	3041.907848
892.162041	3054.591391
892.470687	3083.136925
892.779293	3115.276801
893.087858	3161.184069
893.396381	3239.853795
893.704864	3348.299097
894.013306	3502.127386
894.321707	3689.713761
894.630068	3848.467258
894.938387	3922.524328
895.246665	3929.097993
895.554903	3872.543808
895.863100	3784.951240
896.171256	3706.039538
896.479371	3637.699136
896.787446	3562.404462
897.095480	3487.818070
897.403473	3433.703804
897.711425	3377.147099
898.019336	3325.621466
898.327207	3270.869494
898.635038	3225.957854
898.942827	3175.120338
899.250576	3132.479739
899.558284	3091.623707
899.865952	3064.162022
900.173579	3034.262938
900.481165	3013.662263
900.788711	2994.843636
901.096216	2982.691934
901.403681	2966.144347
901.711105	2956.107410
902.018489	2952.971812
902.325832	2961.219140
902.633135	2970.237764
902.940397	3007.353259
903.247619	3095.971703
903.554800	3275.136831
903.861941	3548.901732
904.169041	3810.230106
904.476101	3981.029439
904.783121	4002.169518
905.090100	3932.538580
905.397039	3829.023527
905.703938	3724.578381
906.010796	3624.967702
906.317614	3537.455792
906.624391	3451.615024
906.931129	3383.995507
907.237826	3313.137048
907.544483	3250.896442
907.851099	3176.239475
908.157675	3098.993874
908.464211	3035.011550
908.770707	2972.760861
909.077163	2925.578182
909.383578	2889.831360
909.689954	2859.208871
909.996289	2840.778412
910.302584	2830.885148
910.608839	2817.155566
910.915054	2810.965029
911.221229	2805.271045
911.527363	2806.659883
911.833458	2808.588125
912.139513	2809.782878
912.445527	2809.540903
912.751502	2823.393993
913.057436	2837.935202
913.363331	2856.101000
913.669186	2884.805330
913.975000	2924.683377
914.280775	2981.474496
914.586510	3065.167732
914.892205	3176.642767
915.197859	3322.687514
915.503475	3503.120493
915.809050	3678.837472
916.114585	3808.480825
916.420081	3885.953278
916.725536	3917.639450
917.030952	3879.440107
917.336328	3844.333512
917.641665	3794.794093
917.946961	3730.826892
918.252218	3673.256915
918.557435	3602.789146
918.862612	3533.712735
919.167750	3471.426759
919.472848	3398.660223
919.777906	3331.202023
920.082925	3265.790532
920.387904	3190.102648
920.692843	3137.725059
920.997743	3085.307142
921.302603	3037.955583
921.607423	3002.085253
921.912204	2966.771971
922.216946	2943.789350
922.521647	2916.247006
922.826310	2892.183058
923.130932	2873.540871
923.435516	2854.313911
923.740059	2843.377127
924.044564	2826.499344
924.349028	2815.880154
924.653454	2798.203348
924.957840	2784.632562
925.262186	2775.974380
925.566493	2767.210334
925.870761	2753.647109
926.174989	2745.535893
926.479178	2740.560274
926.783328	2730.538460
927.087438	2726.180383
927.391509	2720.355329
927.695541	2712.735625
927.999533	2706.782023
928.303486	2704.223637
928.607400	2701.440920
928.911275	2697.745754
929.215110	2693.692667
929.518906	2690.126050
929.822663	2689.989939
930.126381	2685.299146
930.430060	2689.170752
930.733699	2688.243179
931.037299	2690.186544
931.340861	2686.854342
931.644383	2689.747964
931.947866	2691.502285
932.251309	2690.418437
932.554714	2688.011286
932.858080	2689.833663
933.161407	2688.883406
933.464694	2686.486337
933.767943	2686.382994
934.071153	2686.335103
934.374323	2683.020544
934.677455	2681.485513
934.980548	2682.967612
935.283602	2678.362518
935.586617	2676.013340
935.889593	2680.371418
936.192530	2679.743794
936.495428	2683.459124
936.798287	2684.878209
937.101108	2688.908612
937.403890	2694.937832
937.706632	2703.255736
938.009336	2715.117571
938.312002	2728.209447
938.614628	2739.252095
938.917216	2749.525966
939.219765	2757.538880
939.522275	2764.498193
939.824747	2765.841661
940.127179	2764.742689
940.429573	2764.006681
940.731929	2766.219747
941.034246	2763.699170
941.336524	2764.672113
941.638763	2765.304778
941.940964	2766.126486
942.243126	2757.372522
942.545250	2754.335227
942.847335	2747.822056
943.149381	2742.659915
943.451389	2735.148595
943.753359	2728.509396
944.055290	2725.696432
944.357182	2721.973540
944.659036	2717.655792
944.960851	2714.036243
945.262628	2712.788557
945.564367	2711.170347
945.866067	2709.035418
946.167729	2710.487271
946.469352	2708.024667
946.770937	2705.259594
947.072484	2704.480736
947.373992	2704.634491
947.675462	2701.151054
947.976893	2700.052082
948.278286	2697.856660
948.579641	2696.243491
948.880958	2694.889941
949.182236	2698.242308
949.483476	2695.086546
949.784678	2694.297605
950.085841	2693.594364
950.386967	2695.378933
950.688054	2696.160312
950.989103	2702.398739
951.290114	2702.255067
951.591087	2707.785212
951.892021	2709.181612
952.192917	2714.437015
952.493776	2719.863817
952.794596	2720.441029
953.095378	2725.530074
953.396122	2722.389435
953.696828	2724.322717
953.997496	2722.134857
954.298126	2720.010010
954.598718	2717.406254
954.899272	2713.227138
955.199788	2707.707074
955.500266	2703.964018
955.800706	2694.363140
956.101108	2688.787624
956.401472	2684.694207
956.701798	2677.119873
957.002087	2668.449089
957.302337	2669.464881
957.602550	2660.889879
957.902724	2655.619352
958.202861	2649.590132
958.502960	2647.576191
958.803022	2641.436066
959.103045	2638.383647
959.403031	2636.198307
959.702979	2635.190076
960.002889	2629.823768
960.302762	2628.371916
960.602596	2623.686163
960.902393	2621.510905
961.202153	2621.470576
961.501875	2618.894547
961.801559	2617.293980
962.101205	2616.376490
962.400814	2613.641664
962.700385	2614.140738
962.999918	2614.889350
963.299414	2612.439349
963.598873	2611.032867
963.898293	2609.351642
964.197677	2609.213011
964.497022	2608.010695
964.796331	2611.869699
965.095601	2604.875098
965.394835	2610.160747
965.694030	2604.471805
965.993189	2606.785695
966.292309	2606.851230
966.591393	2604.623040
966.890439	2606.722681
967.189447	2604.663369
967.488419	2605.313678
967.787353	2605.162443
968.086249	2603.955087
968.385108	2606.001796
968.683930	2608.164451
968.982714	2605.369131
969.281462	2606.692434
969.580172	2606.331991
969.878844	2607.352825
970.177480	2608.754266
970.476078	2610.553957
970.774639	2609.805346
971.073162	2613.356839
971.371649	2611.698299
971.670098	2612.005810
971.968510	2613.568567
972.266885	2613.835749
972.565223	2615.411109
972.863524	2618.342540
973.161788	2621.505864
973.460014	2621.967130
973.758204	2623.371091
974.056356	2621.460494
974.354471	2621.679784
974.652550	2624.291102
974.950591	2623.111472
975.248595	2621.790689
975.546563	2621.846142
975.844493	2620.482510
976.142386	2622.047788
976.440243	2617.465379
976.738062	2616.767180
977.035845	2617.167951
977.333590	2616.739453
977.631299	2616.711727
977.928971	2616.827673
978.226606	2614.869185
978.524204	2612.557816
978.821765	2609.286107
979.119290	2611.980604
979.416777	2610.934565
979.714228	2613.220728
980.011642	2614.682662
980.309020	2616.764659
980.606360	2617.009155
980.903664	2620.784979
981.200931	2626.640279
981.498162	2631.636063
981.795356	2644.624596
982.092513	2658.563386
982.389633	2677.344205
982.686717	2696.482945
982.983764	2711.193032
983.280775	2725.484703
983.577749	2729.215157
983.874686	2733.636249
984.171587	2725.257852
984.468451	2722.573437
984.765279	2715.175544
985.062070	2708.334698
985.358824	2698.907740
985.655543	2694.007739
985.952224	2682.483661
986.248869	2670.644511
986.545478	2653.144146
986.842050	2641.022691
987.138586	2630.920219
987.435086	2621.321862
987.731549	2614.317179
988.027975	2611.904987
988.324366	2607.869543
988.620719	2603.052721
988.917037	2599.753285
989.213318	2599.899479
989.509563	2597.262955
989.805772	2596.947883
990.101944	2595.720362
990.398080	2595.533840
990.694180	2594.530650
990.990244	2596.262286
991.286271	2595.372523
991.582262	2593.769436
991.878217	2594.845722
992.174136	2595.896803
992.470019	2594.515527
992.765865	2594.669282
993.061676	2599.082812
993.357450	2596.408480
993.653188	2600.050713
993.948890	2606.173195
994.244556	2605.497680
994.540186	2611.045470
994.835780	2616.205091
995.131337	2622.072994
995.426859	2629.831330
995.722345	2637.093112
996.017795	2647.288846
996.313208	2655.500885
996.608586	2663.392812
996.903928	2666.236022
997.199234	2667.690395
997.494504	2667.559325
997.789738	2665.726866
998.084936	2663.483552
998.380099	2656.486431
998.675225	2651.117602
998.970316	2649.388486
999.265371	2639.890952
999.560390	2634.023049
999.855373	2628.293778
1000.150320	2623.056019
1000.445232	2615.978239
1000.740108	2609.190325
1001.034948	2607.168823
1001.329752	2603.524068
1001.624521	2602.399891
1001.919254	2593.333376
1002.213951	2590.706935
1002.508613	2591.712645
1002.803239	2593.401432
1003.097829	2586.837849
1003.392384	2587.909094
1003.686903	2589.499578
1003.981386	2587.319279
1004.275834	2587.694845
1004.570246	2585.716193
1004.864623	2590.686770
1005.158964	2585.597725
1005.453270	2585.945565
1005.747540	2586.041347
1006.041775	2584.281984
1006.335974	2583.891295
1006.630138	2584.924731
1006.924266	2583.629155
1007.218359	2582.530183
1007.512416	2582.464648
1007.806438	2581.874833
1008.100425	2582.699062
1008.394376	2582.777200
1008.688292	2582.948599
1008.982172	2582.094123
1009.276017	2581.693352
1009.569827	2580.523804
1009.863602	2585.317941
1010.157341	2581.998342
1010.451045	2582.116809
1010.744714	2581.647981
1011.038347	2580.589339
1011.331945	2582.789803
1011.625508	2582.305852
1011.919036	2580.468351
1012.212528	2579.883577
1012.505986	2580.652353
1012.799408	2579.989442
1013.092795	2579.389544
1013.386147	2579.137487
1013.679464	2579.644123
1013.972745	2579.029102
1014.265992	2581.519432
1014.559204	2580.619586
1014.852380	2580.904411
1015.145521	2579.775193
1015.438628	2580.002045
1015.731699	2580.138156
1016.024736	2579.165213
1016.317737	2581.854669
1016.610703	2582.268043
1016.903635	2576.851323
1017.196531	2576.725295
1017.489393	2578.885429
1017.782219	2575.366704
1018.075011	2579.419791
1018.367768	2580.430543
1018.660490	2581.567323
1018.953177	2581.567323
1019.245829	2581.567323
