Dividing Wavelength (nm)	Counts (n)	Blue Motor Position (mm): 5.000000	Red Motor Position (mm): 0.000000	
326.493990	2158.206182
326.888308	2158.206182
327.282561	2158.206182
327.676750	2135.034518
328.070874	2138.528038
328.464933	2142.520632
328.858929	2149.941210
329.252859	2161.629125
329.646726	2176.250992
330.040528	2188.473269
330.434265	2209.704089
330.827938	2228.605895
331.221547	2247.631210
331.615091	2268.983017
332.008571	2288.580503
332.401986	2309.150931
332.795338	2326.368992
333.188625	2350.231293
333.581847	2366.569673
333.975006	2386.572972
334.368100	2408.050807
334.761129	2423.537232
335.154095	2439.658842
335.546996	2455.664506
335.939833	2470.840899
336.332606	2482.629638
336.725315	2494.975423
337.117960	2502.174191
337.510540	2512.642147
337.903056	2519.283867
338.295508	2528.925074
338.687896	2533.837678
339.080220	2541.837989
339.472480	2546.526262
339.864676	2551.242262
340.256807	2554.413148
340.648875	2557.589075
341.040879	2559.078736
341.432818	2557.596636
341.824694	2558.771225
342.216506	2559.615618
342.608253	2561.720300
342.999937	2561.286761
343.391557	2558.120916
343.783113	2555.428940
344.174605	2556.207798
344.566033	2555.302911
344.957397	2555.436502
345.348697	2550.723023
345.739934	2549.218239
346.131106	2547.065666
346.522215	2544.421581
346.913260	2544.494677
347.304241	2544.978628
347.695159	2540.842362
348.086012	2539.115766
348.476802	2536.690971
348.867528	2536.141486
349.258191	2535.965045
349.648789	2533.923378
350.039324	2532.910106
350.429796	2531.780888
350.820203	2532.123686
351.210548	2530.855836
351.600828	2529.928263
351.991045	2531.473377
352.381198	2531.138140
352.771288	2528.060516
353.161314	2530.966741
353.551276	2524.728313
353.941175	2529.666123
354.331010	2530.482790
354.720782	2527.788294
355.110490	2527.735362
355.500135	2529.656041
355.889717	2528.264683
356.279235	2527.523633
356.668689	2528.728469
357.058080	2535.216434
357.447408	2530.288706
357.836672	2528.229395
358.225873	2530.533202
358.615010	2527.760567
359.004084	2534.606454
359.393095	2532.650487
359.782043	2532.935312
360.170927	2534.624098
360.559748	2535.231557
360.948505	2534.208203
361.337199	2535.828934
361.725830	2537.447144
362.114398	2536.912782
362.502903	2535.007226
362.891344	2538.397402
363.279722	2538.357073
363.668037	2538.190715
364.056289	2541.069213
364.444478	2538.304141
364.832603	2539.193904
365.220665	2539.546785
365.608665	2539.294727
365.996601	2539.070396
366.384474	2538.609130
366.772284	2541.527958
367.160031	2541.384286
367.547715	2540.348328
367.935336	2540.237423
368.322893	2542.705068
368.710388	2542.790767
369.097820	2544.582898
369.485189	2542.861344
369.872495	2544.482075
370.259738	2540.330684
370.646918	2541.590973
371.034035	2544.769420
371.421090	2542.851261
371.808081	2542.931920
372.195010	2545.341591
372.581875	2546.130532
372.968678	2546.808567
373.355418	2543.620037
373.742096	2547.063145
374.128710	2544.787064
374.515262	2544.827394
374.901751	2545.006355
375.288177	2547.169010
375.674540	2546.211190
376.060841	2548.681356
376.447079	2546.538865
376.833254	2546.649771
377.219367	2543.052908
377.605417	2546.543907
377.991404	2545.233207
378.377329	2545.225645
378.763191	2543.683052
379.148991	2548.177240
379.534727	2548.298228
379.920402	2548.489792
380.306013	2548.252858
380.691563	2550.221428
381.077049	2549.117416
381.462474	2550.395348
381.847835	2550.050029
382.233134	2548.298228
382.618371	2549.205636
383.003545	2551.012889
383.388657	2549.755122
383.773706	2550.110523
384.158693	2551.718651
384.543618	2552.280740
384.928480	2550.002138
385.313280	2551.897612
385.698017	2551.678322
386.082692	2553.137736
386.467305	2553.349464
386.851856	2554.181255
387.236344	2554.582026
387.620770	2553.198230
388.005133	2552.777293
388.389435	2553.331820
388.773674	2552.860472
389.157851	2554.153528
389.541965	2554.738302
389.926018	2556.530432
390.310008	2552.109340
390.693936	2554.687891
391.077802	2554.024979
391.461606	2555.562531
391.845348	2554.609753
392.229027	2554.324927
392.612645	2555.925494
392.996200	2557.150494
393.379694	2555.161759
393.763125	2557.435319
394.146494	2555.988508
394.529801	2558.083108
394.913047	2556.711914
395.296230	2558.473797
395.679351	2554.662685
396.062410	2556.474980
396.445408	2558.867007
396.828343	2556.928683
397.211217	2552.568085
397.594028	2555.713765
397.976778	2555.466749
398.359466	2556.490103
398.742092	2554.778631
399.124656	2559.711400
399.507158	2557.432799
399.889598	2558.909857
400.271977	2558.977913
400.654294	2558.418344
401.036549	2558.239383
401.418742	2558.803993
401.800874	2558.924980
402.182944	2560.601164
402.564952	2560.449929
402.946898	2563.716597
403.328783	2560.152501
403.710606	2563.346072
404.092367	2560.520506
404.474067	2562.912533
404.855705	2560.921277
405.237282	2562.526885
405.618797	2560.654096
406.000250	2562.572255
406.381642	2560.563355
406.762972	2561.611915
407.144240	2563.469581
407.525447	2562.791545
407.906593	2562.967986
408.287677	2563.328428
408.668700	2560.933880
409.049661	2560.616288
409.430560	2564.203068
409.811399	2560.762481
410.192176	2561.760629
410.572891	2560.212995
410.953545	2563.646021
411.334138	2564.109807
411.714669	2563.099056
412.095139	2562.552091
412.475547	2565.564180
412.855894	2564.568552
413.236180	2563.487225
413.616405	2564.984447
413.996568	2567.242884
414.376670	2565.788511
414.756711	2562.804148
415.136691	2565.680127
415.516609	2565.039900
415.896466	2564.550908
416.276262	2564.167780
416.655997	2561.818603
417.035670	2563.217523
417.415283	2563.646021
417.794834	2562.753737
418.174324	2561.430434
418.553753	2566.516958
418.933121	2567.976372
419.312428	2566.708522
419.691674	2566.285065
420.070859	2569.130796
420.449983	2565.498645
420.829045	2567.618450
421.208047	2568.409911
421.586988	2568.495611
421.965867	2566.249777
422.344686	2567.633574
422.723444	2569.282031
423.102141	2567.643656
423.480777	2568.241033
423.859352	2568.223389
424.237866	2569.977710
424.616319	2567.227761
424.994712	2570.570046
425.373044	2567.996537
425.751314	2570.103739
426.129524	2569.438307
426.507673	2571.747155
426.885762	2571.081723
427.263789	2571.200190
427.641756	2568.447720
428.019662	2570.706157
428.397508	2571.220355
428.775292	2570.907803
429.153016	2567.850343
429.530679	2570.217165
429.908282	2568.122566
430.285824	2569.271949
430.663305	2572.163050
431.040726	2570.302865
431.418086	2571.691703
431.795385	2570.890159
432.172624	2569.309757
432.549802	2571.774882
432.926920	2571.895869
433.303977	2573.052814
433.680974	2573.312433
434.057910	2570.562484
434.434786	2571.167422
434.811601	2572.944429
435.188355	2568.961918
435.565050	2570.844789
435.941683	2573.052814
436.318257	2571.273287
436.694770	2568.099880
437.071222	2568.745148
437.447614	2568.188101
437.823946	2569.148440
438.200218	2573.380489
438.576429	2571.759758
438.952580	2570.847309
439.328670	2571.555591
439.704700	2572.248750
440.080670	2573.728329
440.456580	2573.524162
440.832429	2574.403843
441.208218	2573.773699
441.583947	2573.057855
441.959616	2573.085582
442.335224	2573.612382
442.710773	2573.211610
443.086261	2574.658422
443.461689	2573.506518
443.837057	2574.658422
444.212365	2575.850654
444.587612	2572.856209
444.962800	2575.583473
445.337927	2576.228741
445.712995	2572.757907
446.088002	2576.427867
446.462949	2575.170099
446.837837	2575.961560
447.212664	2577.163875
447.587431	2572.526013
447.962139	2574.910479
448.336786	2578.426684
448.711374	2577.736046
449.085901	2577.252095
449.460369	2575.979204
449.834776	2573.435942
450.209124	2573.914851
450.583412	2572.258832
450.957640	2576.480799
451.331808	2575.384348
451.705917	2574.446693
452.079965	2579.114802
452.453954	2577.670511
452.827883	2576.674883
453.201752	2575.996848
453.575562	2576.972311
453.949311	2576.591704
454.323001	2577.796540
454.696632	2574.602969
455.070202	2578.719071
455.443713	2575.470047
455.817164	2575.250757
456.190556	2575.991807
456.563888	2572.538616
456.937160	2573.193966
457.310373	2575.286045
457.683526	2578.945923
458.056619	2578.015830
458.429653	2577.163875
458.802628	2579.129925
459.175542	2577.884760
459.548398	2579.429874
459.921194	2576.473237
460.293930	2576.939544
460.666607	2578.648495
461.039224	2576.997517
461.411782	2579.450038
461.784280	2576.042218
462.156719	2577.978021
462.529099	2577.128587
462.901419	2579.281160
463.273680	2577.683114
463.645882	2579.979359
464.018024	2582.136973
464.390106	2577.980542
464.762130	2581.889957
465.134094	2581.196798
465.505999	2580.158320
465.877845	2579.659246
466.249631	2578.537589
466.621358	2576.299317
466.993026	2581.209401
467.364634	2582.920873
467.736184	2578.855182
468.107674	2579.381983
468.479105	2577.846951
468.850477	2578.560275
469.221790	2578.605645
469.593043	2579.492888
469.964238	2581.070769
470.335373	2579.359297
470.706449	2580.478434
471.077467	2579.046746
471.448425	2579.944071
471.819324	2579.238310
472.190164	2580.332240
472.560945	2578.378793
472.931667	2577.405850
473.302330	2578.467013
473.672934	2582.416757
474.043479	2578.835018
474.413965	2581.340471
474.784393	2577.574729
475.154761	2577.549523
475.525070	2575.926272
475.895321	2578.242682
476.265513	2577.882239
476.635645	2581.849628
477.005719	2580.312076
477.375734	2579.719740
477.745691	2578.376272
478.115588	2581.645461
478.485427	2580.569174
478.855207	2582.520101
479.224928	2582.368866
479.594591	2581.574885
479.964194	2582.774679
480.333739	2580.848958
480.703226	2581.133784
481.072653	2581.663105
481.442022	2580.304514
481.811333	2579.896180
482.180584	2580.901891
482.549777	2582.038671
482.918912	2579.439956
483.287988	2582.094123
483.657005	2582.905749
484.025964	2579.107240
484.394864	2581.559761
484.763706	2584.413054
485.132489	2580.175964
485.501213	2582.343661
485.869879	2579.860892
486.238487	2579.313927
486.607036	2581.693352
486.975527	2582.507498
487.343959	2579.737384
487.712333	2583.009093
488.080648	2579.354256
488.448905	2582.298290
488.817104	2583.891295
489.185244	2580.846438
489.553326	2581.942889
489.921350	2580.957343
490.289315	2583.329206
490.657222	2586.797520
491.025070	2582.489854
491.392861	2583.301480
491.760593	2582.058835
492.128267	2585.053281
492.495883	2580.884247
492.863440	2583.394741
493.230939	2583.727457
493.598380	2583.538414
493.965763	2580.072621
494.333088	2581.973136
494.700354	2581.514391
495.067563	2583.036819
495.434713	2581.867272
495.801805	2583.102354
496.168839	2583.125039
496.535815	2585.169227
496.902733	2582.729309
497.269593	2585.461614
497.636395	2583.482961
498.003139	2583.540935
498.369825	2580.972467
498.736453	2584.014803
499.103023	2585.295256
499.469535	2584.087900
499.835989	2584.937334
500.202385	2583.982036
500.568723	2583.649319
500.935003	2582.426840
501.301226	2583.656881
501.667390	2584.385328
502.033497	2586.363981
502.399546	2582.744432
502.765537	2583.926583
503.131470	2582.189905
503.497345	2584.261820
503.863163	2583.888774
504.228923	2583.926583
504.594625	2582.941037
504.960269	2585.496902
505.325856	2585.146542
505.691385	2581.768969
506.056856	2583.132601
506.422270	2583.820719
506.787625	2583.467838
507.152924	2584.266861
507.518164	2586.888261
507.883347	2584.150914
508.248472	2584.385328
508.613540	2584.478589
508.978550	2583.717375
509.343503	2583.825760
509.708398	2584.342478
510.073236	2584.730647
510.438016	2586.001018
510.802738	2585.270050
511.167403	2584.660071
511.532010	2585.017993
511.896561	2583.866089
512.261053	2585.569999
512.625488	2579.981880
512.989866	2579.765110
513.354186	2582.305852
513.718449	2582.600759
514.082655	2581.080852
514.446803	2583.576223
514.810894	2584.760894
515.174927	2588.188878
515.538904	2584.889443
515.902822	2586.235431
516.266684	2585.685946
516.630488	2584.498754
516.994235	2588.501430
517.357925	2585.527149
517.721558	2587.473035
518.085133	2585.174268
518.448651	2585.504464
518.812112	2583.853486
519.175516	2587.583940
519.538863	2583.576223
519.902152	2587.823395
520.265385	2583.997159
520.628560	2584.604618
520.991678	2584.128229
521.354739	2585.171748
521.717743	2585.171748
522.080690	2587.256265
522.443580	2585.774166
522.806413	2587.394897
523.169189	2584.740729
523.531908	2587.576378
523.894569	2583.886254
524.257174	2585.544793
524.619722	2586.411872
524.982213	2588.544280
525.344647	2586.784917
525.707025	2584.347519
526.069345	2588.077973
526.431608	2586.699217
526.793815	2586.802561
527.155964	2587.921697
527.518057	2585.504464
527.880093	2585.696028
528.242072	2586.704259
528.603995	2586.111923
528.965860	2585.542273
529.327669	2587.231059
529.689421	2585.524629
530.051117	2588.892119
530.412755	2583.367015
530.774337	2586.540421
531.135862	2585.043198
531.497331	2581.138825
531.858743	2583.233424
532.220098	2580.760738
532.581396	2583.883733
532.942638	2582.900708
533.303824	2587.049578
533.664953	2586.018662
534.026025	2586.396748
534.387040	2585.869948
534.747999	2588.476224
535.108902	2584.866758
535.469748	2585.476738
535.830537	2586.759711
536.191270	2586.280802
536.551947	2586.336254
536.912567	2587.924218
537.273131	2584.017324
537.633638	2589.159301
537.994089	2585.499423
538.354483	2585.111254
538.714821	2586.598394
539.075103	2586.991604
539.435328	2586.288363
539.795497	2586.056470
540.155609	2587.349526
540.515665	2589.008066
540.875665	2584.730647
541.235609	2586.371542
541.595496	2589.093766
541.955328	2587.878847
542.315102	2587.825915
542.674821	2582.469689
543.034483	2588.428333
543.394090	2587.296594
543.753640	2588.307346
544.113134	2586.139649
544.472571	2588.307346
544.831953	2588.637541
545.191278	2583.399782
545.550548	2584.609659
545.909761	2585.920359
546.268918	2583.929103
546.628019	2588.435895
546.987064	2587.553693
547.346053	2589.134095
547.704986	2587.238621
548.063863	2585.209557
548.422684	2587.636872
548.781449	2587.740216
549.140158	2585.890112
549.498811	2588.521595
549.857408	2588.176276
550.215949	2583.941706
550.574434	2583.077148
550.932864	2583.021696
551.291237	2582.915832
551.649555	2584.710482
552.007817	2586.792479
552.366022	2584.113106
552.724173	2585.121336
553.082267	2585.539752
553.440305	2587.586461
553.798288	2588.471183
554.156215	2586.958837
554.514086	2587.558734
554.871902	2588.592171
555.229661	2587.959506
555.587365	2587.233580
555.945014	2590.200299
556.302606	2588.440936
556.660143	2588.947572
557.017625	2586.369022
557.375050	2588.503951
557.732421	2587.984712
558.089735	2587.838518
558.446994	2588.718200
558.804197	2586.225349
559.161345	2587.188209
559.518437	2587.437747
559.875474	2587.135277
560.232455	2590.424630
560.589381	2588.539239
560.946251	2590.338931
561.303065	2584.473548
561.659825	2585.176789
562.016528	2590.076791
562.373177	2588.151070
562.729770	2584.100503
563.086307	2587.717531
563.442789	2588.337592
563.799216	2586.767273
564.155587	2587.646954
564.511904	2587.528487
564.868164	2587.014290
565.224370	2588.443457
565.580520	2585.113775
565.936615	2589.335741
566.292654	2586.497571
566.648638	2587.261306
567.004567	2588.163673
567.360441	2588.088055
567.716260	2588.821543
568.072023	2588.193920
568.427732	2583.871130
568.783385	2585.958168
569.138982	2584.592015
569.494525	2584.488672
569.850013	2583.072107
570.205445	2586.946234
570.560823	2587.445308
570.916145	2585.643096
571.271412	2588.168714
571.626625	2586.036306
571.981782	2585.965730
572.336884	2584.839032
572.691931	2585.980853
573.046923	2584.947417
573.401860	2584.715523
573.756743	2587.722572
574.111570	2586.802561
574.466342	2587.987232
574.821059	2589.703745
575.175722	2585.595205
575.530330	2585.292736
575.884882	2585.380956
576.239380	2586.346337
576.593823	2586.177458
576.948211	2586.472366
577.302544	2588.317428
577.656823	2587.389856
578.011047	2591.213571
578.365216	2588.332551
578.719330	2586.348857
579.073389	2585.413723
579.427394	2583.432550
579.781344	2587.412541
580.135239	2587.636872
580.489080	2586.268199
580.842866	2587.750298
581.196597	2588.463621
581.550273	2588.171234
581.903895	2588.294743
582.257463	2587.528487
582.610975	2587.467993
582.964434	2586.124526
583.317837	2586.482448
583.671186	2587.404979
584.024481	2587.286512
584.377721	2589.169383
584.730906	2589.275247
585.084037	2587.750298
585.437113	2586.386666
585.790135	2589.481934
586.143103	2588.692994
586.496016	2587.314238
586.848874	2583.850966
587.201679	2583.682087
587.554428	2584.821388
587.907124	2584.866758
588.259765	2585.640575
588.612352	2588.657706
588.964884	2586.399269
589.317362	2587.853642
589.669786	2586.852973
590.022155	2590.888416
590.374470	2584.612180
590.726731	2585.408682
591.078937	2587.163004
591.431090	2587.389856
591.783188	2587.899012
592.135232	2588.955134
592.487222	2587.311718
592.839157	2586.479927
593.191038	2586.742067
593.542866	2589.207192
593.894639	2586.928590
594.246358	2584.614700
594.598022	2586.928590
594.949633	2587.347006
595.301190	2587.107551
595.652692	2587.778024
596.004141	2588.418251
596.355535	2588.133426
596.706876	2588.077973
597.058162	2587.987232
597.409395	2586.701738
597.760573	2585.958168
598.111698	2583.934145
598.462768	2587.394897
598.813785	2587.478076
599.164748	2589.892788
599.515657	2587.856162
599.866511	2587.233580
600.217312	2586.457242
600.568060	2587.168045
600.918753	2590.598550
601.269392	2587.548652
601.619978	2588.763570
601.970510	2588.148549
602.320988	2586.036306
602.671412	2587.558734
603.021783	2586.936152
603.372100	2588.635021
603.722363	2585.902715
604.072572	2587.188209
604.422728	2590.298601
604.772830	2582.504978
605.122878	2584.649988
605.472872	2581.869792
605.822813	2581.922724
606.172701	2582.464648
606.522534	2586.149732
606.872314	2586.530339
607.222041	2586.734506
607.571714	2585.575040
607.921333	2590.661564
608.270899	2586.926069
608.620411	2587.561255
608.969870	2588.246852
609.319276	2587.500761
609.668627	2585.995977
610.017926	2585.885071
610.367171	2587.084866
610.716362	2583.508167
611.065500	2584.713003
611.414585	2588.488827
611.763616	2587.553693
612.112594	2588.042685
612.461518	2586.323652
612.810389	2588.231728
613.159207	2587.336923
613.507971	2584.995307
613.856682	2586.905905
614.205340	2588.022520
614.553945	2588.330031
614.902496	2588.103179
615.250994	2586.968919
615.599439	2589.426482
615.947830	2588.556883
616.296169	2586.752150
616.644454	2587.462952
616.992686	2585.527149
617.340864	2588.458580
617.688990	2587.803230
618.037063	2587.828436
618.385082	2588.539239
618.733048	2588.539239
619.080961	2587.404979
619.428821	2586.381625
619.776628	2588.745926
620.124382	2586.003538
620.472083	2588.539239
620.819731	2584.836511
621.167326	2584.854155
621.514868	2588.748447
621.862357	2587.755339
622.209793	2586.568147
622.557176	2589.214753
622.904506	2583.566140
623.251783	2584.476069
623.599007	2585.093610
623.946179	2584.972622
624.293297	2583.800554
624.640363	2585.300297
624.987376	2588.665267
625.334336	2586.079156
625.681243	2588.745926
626.028097	2586.474886
626.374899	2585.970771
626.721647	2586.081676
627.068343	2589.474373
627.414987	2585.431367
627.761577	2586.106882
628.108115	2588.012438
628.454600	2586.633682
628.801032	2587.397417
629.147412	2589.068560
629.493739	2588.138467
629.840014	2586.646285
630.186236	2588.040164
630.532405	2588.224167
630.878521	2588.637541
631.224585	2590.585947
631.570597	2586.338775
631.916556	2590.553180
632.262462	2586.610997
632.608316	2587.672160
632.954117	2585.925400
633.299866	2586.784917
633.645562	2587.929259
633.991206	2589.507140
634.336797	2586.840370
634.682336	2587.720051
635.027823	2586.696697
635.373257	2587.175607
635.718639	2587.578899
636.063968	2586.633682
636.409245	2589.489496
636.754470	2589.088724
637.099642	2588.287181
637.444762	2588.516553
637.789829	2585.633013
638.134845	2586.348857
638.479808	2589.363467
638.824719	2589.156780
639.169577	2586.802561
639.514383	2587.296594
639.859137	2587.384814
640.203839	2587.163004
640.548489	2587.921697
640.893086	2586.109402
641.237632	2582.935996
641.582125	2583.619073
641.926566	2583.823239
642.270955	2589.668457
642.615292	2586.890781
642.959576	2587.228539
643.303809	2584.135791
643.647990	2588.367839
643.992118	2587.306677
644.336195	2586.729464
644.680219	2584.912128
645.024192	2586.363981
645.368112	2588.624938
645.711981	2588.146029
646.055797	2586.449680
646.399562	2587.805751
646.743274	2586.681573
647.086935	2586.535380
647.430544	2584.833991
647.774101	2588.640062
648.117606	2587.402458
648.461059	2590.623756
648.804460	2588.075453
649.147810	2587.415061
649.491108	2589.255082
649.834354	2586.573189
650.177548	2589.625607
650.520690	2587.662078
650.863781	2585.655699
651.206820	2589.822212
651.549807	2588.130905
651.892742	2587.248703
652.235626	2586.769794
652.578458	2584.231573
652.921238	2589.842377
653.263967	2589.320617
653.606644	2587.704928
653.949269	2591.432861
654.291843	2585.706110
654.634365	2586.671491
654.976836	2584.733167
655.319255	2587.783066
655.661622	2588.324990
656.003938	2586.885740
656.346203	2589.746595
656.688416	2587.389856
657.030577	2589.532346
657.372687	2588.622418
657.714746	2587.052098
658.056753	2590.159970
658.398708	2584.246696
658.740612	2583.233424
659.082465	2586.651327
659.424266	2586.071594
659.766016	2583.145204
660.107715	2589.144177
660.449362	2587.546131
660.790958	2589.585278
661.132503	2588.849270
661.473996	2586.578230
661.815438	2588.188878
662.156829	2588.259455
662.498168	2588.501430
662.839456	2587.377253
663.180693	2588.284660
663.521879	2589.096286
663.863013	2587.525967
664.204097	2585.973291
664.545129	2587.830957
664.886110	2590.901019
665.227040	2588.602253
665.567918	2589.708786
665.908746	2590.028900
666.249522	2589.441605
666.590248	2589.751636
666.930922	2588.698035
667.271545	2587.324321
667.612118	2587.515884
667.952639	2587.808271
668.293109	2588.937490
668.633528	2587.253744
668.973896	2589.907912
669.314213	2589.968406
669.654480	2589.277768
669.994695	2589.728951
670.334859	2590.467480
670.674973	2587.810792
671.015035	2589.499578
671.355047	2588.957654
671.695008	2590.349013
672.034918	2588.975298
672.374777	2588.846749
672.714585	2592.078129
673.054342	2591.190886
673.394049	2591.263982
673.733705	2589.713827
674.073310	2592.698191
674.412864	2590.533015
674.752368	2590.195258
675.091820	2589.698704
675.431223	2590.036461
675.770574	2590.613673
676.109875	2586.212746
676.449125	2586.800041
676.788324	2589.890268
677.127473	2588.256934
677.466571	2585.650657
677.805619	2588.839187
678.144616	2591.243818
678.483562	2591.911771
678.822458	2590.016297
679.161303	2592.153746
679.500098	2589.388673
679.838842	2586.979002
680.177535	2591.329517
680.516179	2590.061667
680.854771	2588.498909
681.193314	2592.751123
681.531805	2590.371698
681.870247	2591.586616
682.208638	2591.195927
682.546978	2591.178283
682.885268	2591.034610
683.223508	2590.860690
683.561697	2594.407142
683.899836	2594.404621
684.237925	2590.711976
684.575963	2591.387491
684.913951	2592.312542
685.251889	2590.989239
685.589776	2590.253231
685.927614	2592.347830
686.265401	2589.668457
686.603137	2592.672985
686.940824	2592.516709
687.278460	2593.212388
687.616046	2594.225660
687.953582	2593.908067
688.291068	2593.585434
688.628504	2594.031576
688.965889	2593.650969
689.303224	2595.299426
689.640510	2594.064343
689.977745	2593.653489
690.314930	2593.736668
690.652065	2593.998808
690.989150	2592.486462
691.326185	2592.829261
691.663170	2593.545104
692.000105	2594.006370
692.336990	2591.909250
692.673825	2593.053592
693.010610	2595.619539
693.347345	2588.546800
693.684030	2588.183837
694.020665	2588.899681
694.357251	2588.559403
694.693786	2589.943200
695.030272	2593.885382
695.366707	2592.287337
695.703093	2594.344127
696.039429	2593.661051
696.375716	2592.292378
696.711952	2595.135588
697.048139	2594.018973
697.384276	2593.797162
697.720363	2593.653489
698.056400	2591.314394
698.392388	2594.689446
698.728326	2595.488469
699.064214	2593.058633
699.400053	2592.345310
699.735842	2591.942018
700.071581	2592.224322
700.407270	2594.676843
700.742910	2593.940835
701.078501	2591.233735
701.414042	2594.223140
701.749533	2592.688108
702.084974	2592.453695
702.420366	2593.789600
702.755709	2594.018973
703.091002	2591.783221
703.426246	2590.958992
703.761440	2593.230032
704.096584	2594.016452
704.431679	2592.993098
704.766725	2596.050558
705.101721	2592.438571
705.436668	2594.397059
705.771565	2591.384970
706.106413	2594.979313
706.441212	2594.475197
706.775961	2595.664910
707.110661	2594.331524
707.445311	2595.516196
707.779913	2596.544591
708.114465	2596.186669
708.448967	2594.669282
708.783421	2595.180959
709.117825	2596.221957
709.452180	2599.158429
709.786485	2597.247832
710.120742	2598.634149
710.454949	2600.816969
710.789107	2595.249014
711.123216	2595.188521
711.457275	2596.537029
711.791286	2598.712287
712.125247	2598.339242
712.459159	2600.796804
712.793023	2603.970211
713.126837	2602.659511
713.460602	2603.090529
713.794318	2604.595314
714.127985	2601.512648
714.461602	2603.894593
714.795171	2602.644387
715.128691	2602.079778
715.462162	2600.837133
715.795584	2600.993409
716.128957	2599.856629
716.462281	2601.361413
716.795556	2601.288317
717.128782	2599.536516
717.461960	2602.357041
717.795088	2599.934767
718.128167	2596.781525
718.461198	2598.329159
718.794180	2599.738162
719.127113	2597.827565
719.459997	2599.390322
719.792833	2599.904520
720.125619	2598.684561
720.458357	2597.494848
720.791046	2600.827051
721.123686	2597.363778
721.456278	2596.973089
721.788821	2600.118769
722.121315	2597.459560
722.453761	2598.994592
722.786158	2595.405290
723.118506	2597.593151
723.450805	2598.271186
723.783056	2596.481577
724.115259	2599.775971
724.447412	2599.508789
724.779518	2599.544077
725.111574	2599.418049
725.443582	2601.086671
725.775542	2600.620364
726.107453	2602.127669
726.439315	2601.631115
726.771129	2603.929881
727.102895	2603.685385
727.434612	2606.382403
727.766281	2603.776126
728.097901	2602.783019
728.429473	2600.852257
728.760996	2598.918974
729.092471	2601.580704
729.423897	2606.140427
729.755276	2603.614809
730.086606	2603.977772
730.417887	2603.461054
730.749120	2605.674121
731.080305	2605.895931
731.411442	2607.995572
731.742530	2609.359204
732.073570	2609.424739
732.404562	2609.281066
732.735506	2610.475820
733.066401	2609.989348
733.397249	2608.567743
733.728048	2607.103288
734.058798	2607.181426
734.389501	2605.676641
734.720156	2605.054059
735.050762	2604.948194
735.381320	2605.540530
735.711831	2603.261928
736.042293	2603.345107
736.372707	2603.602206
736.703073	2601.411825
737.033391	2604.464244
737.363661	2602.755292
737.693883	2605.210334
738.024056	2605.779985
738.354182	2605.467433
738.684260	2606.072372
739.014290	2607.194028
739.344272	2602.394850
739.674207	2606.815942
740.004093	2609.661673
740.333931	2609.094543
740.663722	2610.432970
740.993464	2610.823659
741.323159	2608.504728
741.652806	2611.184102
741.982405	2609.964142
742.311956	2609.205449
742.641460	2609.064297
742.970915	2608.562702
743.300323	2610.828700
743.629683	2607.725870
743.958996	2609.094543
744.288260	2607.970366
744.617477	2607.088164
744.946647	2605.361569
745.275768	2602.354521
745.604842	2602.742690
745.933869	2600.196907
746.262847	2602.921651
746.591778	2605.790067
746.920662	2606.435335
747.249498	2606.687393
747.578286	2606.115222
747.907027	2606.757969
748.235720	2606.369800
748.564365	2609.391972
748.892963	2605.424583
749.221514	2608.522372
749.550017	2607.728391
749.878473	2609.076899
750.206881	2609.896087
750.535242	2608.030860
750.863555	2607.796446
751.191821	2608.305603
751.520039	2609.119749
751.848210	2608.164451
752.176334	2607.161261
752.504411	2608.237547
752.832440	2608.071189
753.160421	2608.668566
753.488356	2609.147476
753.816243	2609.520521
754.144082	2607.710747
754.471875	2610.450614
754.799620	2608.391302
755.127318	2607.919955
755.454969	2607.496498
755.782572	2608.121601
756.110129	2607.398195
756.437638	2608.308123
756.765100	2610.304420
757.092515	2609.994389
757.419882	2611.668052
757.747203	2607.904831
758.074477	2608.741663
758.401703	2609.172681
758.728882	2610.435490
759.056014	2611.998248
759.383099	2613.581170
759.710138	2613.424895
760.037129	2614.304576
760.364073	2615.990842
760.690970	2613.613938
761.017820	2614.370111
761.344623	2614.765842
761.671379	2616.431943
761.998088	2614.206273
762.324751	2617.682149
762.651366	2625.458129
762.977935	2635.880714
763.304456	2645.952940
763.630931	2652.287150
763.957359	2653.360915
764.283740	2647.659370
764.610074	2643.971766
764.936362	2639.563277
765.262602	2631.903244
765.588796	2624.989302
765.914943	2624.954013
766.241044	2620.351440
766.567097	2620.479989
766.893104	2614.649895
767.219064	2613.225769
767.544978	2615.501850
767.870845	2612.736777
768.196665	2609.633947
768.522438	2608.973556
768.848165	2611.957919
769.173846	2610.790892
769.499479	2609.152517
769.825066	2608.108998
770.150607	2609.092023
770.476101	2606.800818
770.801548	2608.827362
771.126949	2604.998606
771.452303	2606.803339
771.777611	2608.325767
772.102872	2604.471805
772.428087	2607.312496
772.753256	2606.415170
773.078378	2605.081785
773.403453	2604.862495
773.728482	2603.697988
774.053465	2606.009357
774.378401	2603.758482
774.703291	2605.906014
775.028135	2605.119594
775.352932	2604.534820
775.677683	2605.086826
776.002388	2606.662187
776.327046	2604.358379
776.651658	2606.636981
776.976224	2602.775457
777.300743	2602.515838
777.625216	2603.360231
777.949643	2603.960128
778.274024	2604.562546
778.598359	2599.866711
778.922647	2598.485435
779.246889	2600.224633
779.571086	2598.926536
779.895236	2600.237236
780.219339	2600.630446
780.543397	2602.394850
780.867409	2604.880139
781.191374	2606.458020
781.515294	2606.931888
781.839167	2603.634974
782.162995	2602.422576
782.486776	2605.137238
782.810511	2602.805704
783.134201	2604.466764
783.457844	2603.120776
783.781441	2604.832248
784.104993	2605.283431
784.428498	2604.681013
784.751958	2602.450303
785.075372	2605.308637
785.398739	2604.310488
785.722061	2604.376023
786.045337	2605.026332
786.368568	2604.766713
786.691752	2604.696137
787.014891	2605.598503
787.337983	2607.867023
787.661030	2608.318206
787.984031	2612.814915
788.306987	2613.218207
788.629897	2614.831377
788.952760	2617.044443
789.275579	2614.193671
789.598351	2614.932200
789.921078	2612.525049
790.243759	2613.003958
790.566395	2610.294338
790.888984	2608.555140
791.211529	2606.936930
791.534027	2609.822990
791.856480	2606.218565
792.178888	2609.462548
792.501249	2604.988524
792.823566	2607.788885
793.145836	2605.096908
793.468062	2606.707557
793.790241	2603.093050
794.112375	2604.534820
794.434464	2606.745366
794.756507	2607.504059
795.078505	2606.959615
795.400457	2607.161261
795.722364	2605.288472
796.044226	2607.516662
796.366042	2609.298710
796.687812	2608.696292
797.009538	2613.039246
797.331218	2613.828187
797.652852	2615.073352
797.974442	2611.758793
798.295986	2611.975563
798.617484	2613.518156
798.938938	2610.795933
799.260346	2610.818618
799.581709	2610.485902
799.903026	2612.661160
800.224299	2607.461210
800.545526	2607.647732
800.866708	2609.525562
801.187845	2607.771241
801.508936	2606.914244
801.829983	2606.705037
802.150984	2606.730242
802.471940	2607.640171
802.792851	2607.589759
803.113717	2607.776282
803.434538	2607.713267
803.755314	2606.412650
804.076045	2606.823504
804.396731	2606.052207
804.717372	2606.548761
805.037967	2605.540530
805.358518	2606.662187
805.679024	2607.499018
805.999485	2606.140427
806.319901	2606.636981
806.640272	2608.658484
806.960598	2608.343412
807.280879	2606.851230
807.601115	2611.045470
807.921306	2607.758638
808.241453	2606.334512
808.561554	2608.204780
808.881611	2609.318875
809.201623	2608.537496
809.521590	2608.555140
809.841513	2607.493977
810.161390	2610.175871
810.481223	2610.175871
810.801011	2612.106633
811.120755	2607.612444
811.440453	2609.646550
811.760107	2609.981787
812.079716	2603.219079
812.399281	2605.278390
812.718801	2603.758482
813.038276	2602.823348
813.357707	2609.785182
813.677093	2607.395675
813.996434	2608.484564
814.315731	2607.095726
814.634983	2609.182764
814.954191	2606.750407
815.273354	2608.204780
815.592473	2606.883998
815.911547	2610.458176
816.230577	2613.520677
816.549562	2611.894904
816.868502	2610.001951
817.187399	2612.774586
817.506250	2613.911366
817.825058	2616.379011
818.143821	2616.144597
818.462539	2619.988477
818.781213	2619.643158
819.099843	2622.995525
819.418429	2629.397791
819.736970	2636.762916
820.055466	2642.711478
820.373919	2650.749598
820.692327	2662.674447
821.010691	2683.149093
821.329011	2717.955740
821.647286	2768.619336
821.965517	2829.937411
822.283704	2876.084133
822.601847	2914.280956
822.919945	2906.610841
823.237999	2894.582648
823.556010	2871.279914
823.873976	2844.085409
824.191897	2812.006027
824.509775	2787.274126
824.827609	2762.758995
825.145398	2745.329206
825.463144	2731.042576
825.780845	2725.905640
826.098502	2730.258676
826.416116	2742.279307
826.733685	2758.181627
827.051210	2769.504059
827.368692	2767.414501
827.686129	2754.461256
828.003522	2738.135479
828.320872	2712.138249
828.638177	2698.383460
828.955439	2682.639937
829.272656	2671.995541
829.589830	2656.559527
829.906960	2651.997283
830.224046	2644.143166
830.541088	2640.863895
830.858086	2633.478605
831.175041	2632.906434
831.491952	2630.398460
831.808819	2627.996350
832.125642	2633.173615
832.442421	2638.693678
832.759157	2642.983700
833.075849	2656.448622
833.392497	2677.417302
833.709101	2691.081349
834.025662	2694.501772
834.342179	2692.797862
834.658653	2682.161027
834.975083	2673.815397
835.291469	2669.230468
835.607811	2654.903508
835.924110	2647.344298
836.240366	2641.559574
836.556578	2635.023718
836.872746	2630.209416
837.188871	2624.495268
837.504952	2617.979577
837.820990	2620.429578
838.136984	2612.966150
838.452935	2613.949175
838.768842	2613.034205
839.084706	2612.033536
839.400526	2620.328755
839.716303	2628.220681
840.032037	2639.371713
840.347727	2637.856847
840.663373	2640.415232
840.978977	2632.155302
841.294537	2629.349900
841.610054	2620.817747
841.925527	2617.162910
842.240957	2615.476644
842.556344	2612.043618
842.871687	2611.862137
843.186987	2607.531786
843.502244	2603.284614
843.817458	2600.736310
844.132629	2600.978286
844.447756	2601.074068
844.762840	2594.782708
845.077881	2594.949066
845.392879	2595.168356
845.707833	2592.826740
846.022745	2593.587954
846.337613	2598.429982
846.652438	2596.484097
846.967221	2597.595672
847.281960	2595.095259
847.596656	2595.402770
847.911309	2594.739858
848.225919	2595.727924
848.540485	2596.554673
848.855009	2594.167687
849.169490	2593.759353
849.483928	2597.562904
849.798323	2594.906216
850.112675	2593.129209
850.426984	2593.978644
850.741251	2595.110383
851.055474	2591.107707
851.369654	2592.985536
851.683792	2592.473859
851.997887	2594.903695
852.311938	2592.546956
852.625947	2595.564087
852.939914	2595.427975
853.253837	2594.938983
853.567718	2595.218767
853.881555	2593.557707
854.195350	2593.358582
854.509103	2593.509816
854.822812	2594.291195
855.136479	2593.696339
855.450103	2595.949735
855.763685	2591.347161
856.077224	2594.931422
856.390720	2595.523757
856.704173	2595.450661
857.017584	2594.318922
857.330953	2596.325301
857.644278	2592.012594
857.957561	2599.123141
858.270802	2596.622729
858.584000	2594.581062
858.897155	2595.049889
859.210268	2595.851432
859.523339	2597.363778
859.836367	2594.495362
860.149352	2596.252204
860.462295	2595.032245
860.775195	2591.223653
861.088054	2589.885227
861.400869	2592.972933
861.713642	2591.085021
862.026373	2593.078798
862.339062	2596.365630
862.651708	2592.574682
862.964312	2595.967379
863.276873	2592.854466
863.589392	2591.011925
863.901869	2594.518047
864.214303	2595.448140
864.526696	2596.350507
864.839045	2598.230857
865.151353	2599.652462
865.463619	2598.631629
865.775842	2598.503079
866.088023	2595.967379
866.400162	2599.047524
866.712258	2598.412338
867.024313	2600.320415
867.336325	2598.858481
867.648296	2598.145157
867.960224	2600.438882
868.272110	2599.438213
868.583954	2600.118769
868.895755	2598.384612
869.207515	2602.404932
869.519233	2598.550970
869.830909	2601.608430
870.142542	2601.237905
870.454134	2599.763368
870.765684	2600.451485
871.077191	2601.767226
871.388657	2600.998450
871.700081	2602.069696
872.011463	2599.234047
872.322803	2604.686054
872.634101	2604.819645
872.945357	2605.495160
873.256571	2602.523399
873.567744	2603.771085
873.878874	2606.667228
874.189963	2606.213524
874.501010	2604.643205
874.812015	2607.136055
875.122979	2609.306272
875.433900	2606.268977
875.744780	2607.912393
876.055618	2607.252002
876.366415	2607.526745
876.677169	2608.572784
876.987882	2606.757969
877.298554	2607.660335
877.609183	2606.707557
877.919771	2611.136211
878.230317	2610.753083
878.540822	2618.803806
878.851285	2620.515277
879.161707	2621.790689
879.472087	2636.843575
879.782425	2643.087044
880.092722	2660.589930
880.402977	2678.208763
880.713191	2696.818182
881.023363	2712.256716
881.333494	2726.140053
881.643583	2735.990468
881.953631	2742.506159
882.263637	2747.048239
882.573602	2745.619072
882.883526	2743.237127
883.193408	2739.093298
883.503248	2729.905795
883.813048	2721.850032
884.122806	2712.864175
884.432522	2701.705581
884.742197	2689.705114
885.051831	2684.053981
885.361424	2672.580314
885.670975	2662.775270
885.980485	2656.383087
886.289954	2649.476706
886.599382	2644.148207
886.908768	2640.079996
887.218113	2633.536578
887.527417	2631.449540
887.836680	2624.555762
888.145901	2624.344034
888.455082	2619.764146
888.764221	2620.273302
889.073319	2614.849021
889.382376	2615.552262
889.691392	2613.213166
890.000366	2616.066459
890.309300	2613.626541
890.618193	2613.593773
890.927044	2611.902466
891.235855	2611.826849
891.544625	2611.925151
891.853353	2615.436315
892.162041	2613.054370
892.470687	2615.481685
892.779293	2617.316665
893.087858	2618.188785
893.396381	2624.565845
893.704864	2628.699591
894.013306	2635.490025
894.321707	2651.309166
894.630068	2658.061791
894.938387	2664.504386
895.246665	2665.741989
895.554903	2666.782987
895.863100	2657.577841
896.171256	2659.765701
896.479371	2651.684732
896.787446	2650.484937
897.095480	2644.175933
897.403473	2640.816004
897.711425	2635.676548
898.019336	2632.974489
898.327207	2629.687657
898.635038	2624.817902
898.942827	2623.081225
899.250576	2621.982253
899.558284	2617.356995
899.865952	2615.136366
900.173579	2614.246603
900.481165	2610.813577
900.788711	2612.053701
901.096216	2612.048660
901.403681	2610.957250
901.711105	2608.350973
902.018489	2608.025819
902.325832	2611.660491
902.633135	2610.682507
902.940397	2612.494802
903.247619	2618.677777
903.554800	2627.252780
903.861941	2643.906231
904.169041	2657.126657
904.476101	2666.994716
904.783121	2673.323885
905.090100	2669.343894
905.397039	2663.554128
905.703938	2658.041627
906.010796	2653.751605
906.317614	2649.378404
906.624391	2641.126035
906.931129	2639.122176
907.237826	2633.498769
907.544483	2631.041207
907.851099	2624.228087
908.157675	2617.571244
908.464211	2616.840276
908.770707	2609.084461
909.077163	2605.386775
909.383578	2598.243460
909.689954	2599.176073
909.996289	2593.688777
910.302584	2600.141454
910.608839	2600.186825
910.915054	2599.123141
911.221229	2599.856629
911.527363	2599.750765
911.833458	2598.752616
912.139513	2597.845209
912.445527	2599.105497
912.751502	2601.426948
913.057436	2603.009871
913.363331	2604.126486
913.669186	2606.029522
913.975000	2607.577156
914.280775	2610.206118
914.586510	2615.373301
914.892205	2623.136677
915.197859	2631.467184
915.503475	2645.718526
915.809050	2651.415030
916.114585	2662.223264
916.420081	2666.384736
916.725536	2671.708195
917.030952	2668.754079
917.336328	2667.720642
917.641665	2665.696619
917.946961	2661.817451
918.252218	2657.880310
918.557435	2653.373518
918.862612	2647.548465
919.167750	2647.699700
919.472848	2639.490181
919.777906	2637.171250
920.082925	2632.762761
920.387904	2627.429220
920.692843	2625.296812
920.997743	2620.442181
921.302603	2619.219701
921.607423	2613.513115
921.912204	2611.794081
922.216946	2610.806015
922.521647	2608.764348
922.826310	2605.439707
923.130932	2604.892742
923.435516	2602.104984
923.740059	2601.036259
924.044564	2600.731269
924.349028	2600.033069
924.653454	2596.673140
924.957840	2593.381267
925.262186	2594.170207
925.566493	2592.819178
925.870761	2590.923704
926.174989	2593.683736
926.479178	2592.733479
926.783328	2593.955958
927.087438	2590.661564
927.391509	2593.575351
927.695541	2589.333220
927.999533	2589.970926
928.303486	2590.096955
928.607400	2592.693149
928.911275	2588.718200
929.215110	2585.718713
929.518906	2589.335741
929.822663	2588.899681
930.126381	2589.050916
930.430060	2588.604774
930.733699	2587.490679
931.037299	2586.661409
931.340861	2587.924218
931.644383	2588.849270
931.947866	2591.349682
932.251309	2588.171234
932.554714	2587.546131
932.858080	2590.706935
933.161407	2587.432705
933.464694	2589.038313
933.767943	2587.057139
934.071153	2586.631162
934.374323	2587.200812
934.677455	2590.573344
934.980548	2586.661409
935.283602	2585.348188
935.586617	2587.616707
935.889593	2589.174424
936.192530	2586.888261
936.495428	2589.277768
936.798287	2586.545462
937.101108	2588.904722
937.403890	2589.764239
937.706632	2592.504106
938.009336	2590.280957
938.312002	2593.701380
938.614628	2591.899168
938.917216	2594.117275
939.219765	2592.945207
939.522275	2593.570310
939.824747	2597.260435
940.127179	2593.129209
940.429573	2593.895465
940.731929	2593.426637
941.034246	2590.671647
941.336524	2594.513006
941.638763	2595.206165
941.940964	2596.448809
942.243126	2597.199941
942.545250	2595.460743
942.847335	2591.135433
943.149381	2594.623911
943.451389	2595.324632
943.753359	2590.921184
944.055290	2590.086873
944.357182	2589.353385
944.659036	2594.510485
944.960851	2589.610484
945.262628	2592.604929
945.564367	2591.637028
945.866067	2590.638879
946.167729	2593.051071
946.469352	2591.009404
946.770937	2590.117120
947.072484	2587.173086
947.373992	2592.824219
947.675462	2589.098807
947.976893	2587.707448
948.278286	2587.639393
948.579641	2589.968406
948.880958	2590.573344
949.182236	2589.461770
949.483476	2590.134764
949.784678	2592.110896
950.085841	2588.783735
950.386967	2589.330700
950.688054	2589.116451
950.989103	2590.021338
951.290114	2590.200299
951.591087	2591.664754
951.892021	2588.219125
952.192917	2591.944538
952.493776	2590.966554
952.794596	2591.604260
953.095378	2592.667944
953.396122	2592.259610
953.696828	2592.317583
953.997496	2590.406986
954.298126	2589.832295
954.598718	2592.478900
954.899272	2590.071749
955.199788	2590.782552
955.500266	2592.425968
955.800706	2587.435226
956.101108	2583.470358
956.401472	2583.354412
956.701798	2585.191912
957.002087	2582.525142
957.302337	2585.512026
957.602550	2586.694176
957.902724	2584.329875
958.202861	2585.524629
958.502960	2582.081521
958.803022	2584.861717
959.103045	2582.383990
959.403031	2584.960019
959.702979	2581.688311
960.002889	2583.210739
960.302762	2582.399113
960.602596	2581.809298
960.902393	2582.424319
961.202153	2582.759556
961.501875	2578.053639
961.801559	2579.838207
962.101205	2582.817529
962.400814	2579.760069
962.700385	2581.607652
962.999918	2582.499936
963.299414	2580.027250
963.598873	2581.053125
963.898293	2580.601942
964.197677	2581.373238
964.497022	2578.751838
964.796331	2578.961046
965.095601	2580.455748
965.394835	2578.940882
965.694030	2579.603793
965.993189	2578.867785
966.292309	2578.754359
966.591393	2578.736715
966.890439	2579.639082
967.189447	2579.518094
967.488419	2578.661098
967.787353	2579.868454
968.086249	2577.088258
968.385108	2580.395255
968.683930	2579.949112
968.982714	2578.749318
969.281462	2579.734863
969.580172	2579.518094
969.878844	2580.722930
970.177480	2578.892991
970.476078	2577.892322
970.774639	2583.798033
971.073162	2580.745615
971.371649	2578.552713
971.670098	2578.197312
971.968510	2579.752508
972.266885	2575.618761
972.565223	2580.148238
972.863524	2581.524473
973.161788	2580.475913
973.460014	2582.094123
973.758204	2579.530697
974.056356	2578.242682
974.354471	2580.412899
974.652550	2581.015317
974.950591	2582.023547
975.248595	2580.173444
975.546563	2581.728640
975.844493	2581.342992
976.142386	2583.830801
976.440243	2581.627817
976.738062	2581.983218
977.035845	2582.908270
977.333590	2580.138156
977.631299	2581.340471
977.928971	2581.191757
978.226606	2579.492888
978.524204	2582.825091
978.821765	2581.786613
979.119290	2578.877867
979.416777	2580.831314
979.714228	2581.668146
980.011642	2580.773341
980.309020	2583.356932
980.606360	2580.511201
980.903664	2580.664956
981.200931	2580.569174
981.498162	2583.152766
981.795356	2583.785431
982.092513	2587.334403
982.389633	2586.197623
982.686717	2587.344485
982.983764	2586.313569
983.280775	2590.643920
983.577749	2590.901019
983.874686	2590.812799
984.171587	2589.502099
984.468451	2590.651482
984.765279	2591.137953
985.062070	2590.626276
985.358824	2584.796182
985.655543	2585.476738
985.952224	2587.798189
986.248869	2583.064546
986.545478	2580.450707
986.842050	2580.697724
987.138586	2580.927096
987.435086	2576.475757
987.731549	2576.931982
988.027975	2582.295770
988.324366	2580.929617
988.620719	2581.897518
988.917037	2578.293093
989.213318	2582.275605
989.509563	2578.930799
989.805772	2580.032292
990.101944	2579.107240
990.398080	2580.347364
990.694180	2580.851479
990.990244	2579.329051
991.286271	2576.909297
991.582262	2576.579101
991.878217	2578.789647
992.174136	2579.583629
992.470019	2577.854513
992.765865	2577.993145
993.061676	2578.308217
993.357450	2578.855182
993.653188	2577.607497
993.948890	2576.964749
994.244556	2582.381469
994.540186	2579.359298
994.835780	2582.933476
995.131337	2582.845255
995.426859	2581.937848
995.722345	2581.927765
996.017795	2583.729978
996.313208	2584.831470
996.608586	2582.701582
996.903928	2583.964392
997.199234	2584.723085
997.494504	2584.503795
997.789738	2581.176633
998.084936	2585.484299
998.380099	2583.021696
998.675225	2585.610328
998.970316	2582.562951
999.265371	2582.527663
999.560390	2580.012127
999.855373	2580.599421
1000.150320	2584.486151
1000.445232	2583.034299
1000.740108	2579.863413
1001.034948	2582.273084
1001.329752	2578.403999
1001.624521	2579.215625
1001.919254	2576.828638
1002.213951	2577.171437
1002.508613	2572.815880
1002.803239	2574.517269
1003.097829	2575.512897
1003.392384	2579.238310
1003.686903	2577.826787
1003.981386	2575.064234
1004.275834	2577.017682
1004.570246	2578.963567
1004.864623	2575.021385
1005.158964	2575.830490
1005.453270	2577.105902
1005.747540	2577.189081
1006.041775	2579.203022
1006.335974	2576.536251
1006.630138	2576.531210
1006.924266	2577.620099
1007.218359	2577.234451
1007.512416	2574.184553
1007.806438	2576.248906
1008.100425	2577.725964
1008.394376	2577.728484
1008.688292	2578.048597
1008.982172	2576.621951
1009.276017	2575.885943
1009.569827	2573.846796
1009.863602	2576.931982
1010.157341	2573.965263
1010.451045	2575.666652
1010.744714	2576.314441
1011.038347	2575.845613
1011.331945	2576.637074
1011.625508	2576.339646
1011.919036	2577.453741
1012.212528	2575.858216
1012.505986	2573.640108
1012.799408	2574.713874
1013.092795	2575.865778
1013.386147	2575.762434
1013.679464	2575.734708
1013.972745	2576.001889
1014.265992	2574.376117
1014.559204	2575.986766
1014.852380	2578.288052
1015.145521	2574.275294
1015.438628	2576.261508
1015.731699	2574.529872
1016.024736	2576.526169
1016.317737	2574.741601
1016.610703	2575.439800
1016.903635	2571.815211
1017.196531	2571.086764
1017.489393	2574.406364
1017.782219	2573.814028
1018.075011	2574.965932
1018.367768	2577.521797
1018.660490	2574.620613
1018.953177	2574.620613
1019.245829	2574.620613
