Dividing Wavelength (nm)	Counts (n)	Blue Motor Position (mm): 48.000000	Red Motor Position (mm): 0.000000	
326.493990	2151.612353
326.888308	2151.612353
327.282561	2151.612353
327.676750	2127.445061
328.070874	2129.395988
328.464933	2134.626185
328.858929	2142.732360
329.252859	2155.131078
329.646726	2169.029539
330.040528	2182.562517
330.434265	2203.770651
330.827938	2220.900492
331.221547	2240.175343
331.615091	2260.589496
332.008571	2279.909718
332.401986	2300.434776
332.795338	2318.600574
333.188625	2340.821980
333.581847	2362.614888
333.975006	2377.062835
334.368100	2400.748696
334.761129	2418.279309
335.154095	2432.301278
335.546996	2455.820781
335.939833	2489.780514
336.332606	2499.424242
336.725315	2515.775224
337.117960	2522.122037
337.510540	2531.004550
337.903056	2539.506456
338.295508	2543.829245
338.687896	2552.920966
339.080220	2559.103941
339.472480	2567.925961
339.864676	2573.395613
340.256807	2572.838565
340.648875	2575.744790
341.040879	2575.240675
341.432818	2579.591191
341.824694	2576.942064
342.216506	2578.139338
342.608253	2575.984245
342.999937	2576.884091
343.391557	2577.854513
343.783113	2574.237485
344.174605	2572.190777
344.566033	2574.479461
344.957397	2572.132803
345.348697	2566.582493
345.739934	2570.587690
346.131106	2567.714232
346.522215	2564.734910
346.913260	2562.675599
347.304241	2561.972358
347.695159	2558.221739
348.086012	2560.250804
348.476802	2555.983467
348.867528	2556.215360
349.258191	2550.511295
349.648789	2554.186296
350.039324	2551.224618
350.429796	2553.397355
350.820203	2545.465100
351.210548	2548.265461
351.600828	2545.417209
351.991045	2546.985008
352.381198	2548.336037
352.771288	2548.580533
353.161314	2546.924514
353.551276	2546.354863
353.941175	2546.052394
354.331010	2545.167672
354.720782	2545.795295
355.110490	2548.784699
355.500135	2552.011038
355.889717	2549.371994
356.279235	2547.491643
356.668689	2551.453990
357.058080	2548.817467
357.447408	2547.310162
357.836672	2547.269833
358.225873	2545.553320
358.615010	2547.169010
359.004084	2552.328631
359.393095	2552.835267
359.782043	2549.714792
360.170927	2553.309135
360.559748	2555.171841
360.948505	2555.723848
361.337199	2555.444064
361.725830	2552.305945
362.114398	2555.108827
362.502903	2557.934394
362.891344	2555.171841
363.279722	2555.703683
363.668037	2558.733417
364.056289	2558.423386
364.444478	2557.016904
364.832603	2558.428427
365.220665	2558.635114
365.608665	2561.601833
365.996601	2560.069322
366.384474	2560.996895
366.772284	2562.158881
367.160031	2558.677964
367.547715	2560.727193
367.935336	2561.004456
368.322893	2563.562842
368.710388	2560.772563
369.097820	2565.702812
369.485189	2562.453788
369.872495	2565.183573
370.259738	2562.279868
370.646918	2560.845660
371.034035	2564.702143
371.421090	2565.299519
371.808081	2567.061403
372.195010	2566.968141
372.581875	2563.215002
372.968678	2566.832030
373.355418	2567.184911
373.742096	2564.797925
374.128710	2568.107442
374.515262	2567.169787
374.901751	2567.119376
375.288177	2570.365879
375.674540	2571.910993
376.060841	2570.869994
376.447079	2571.573235
376.833254	2573.277145
377.219367	2570.262535
377.605417	2573.075499
377.991404	2571.053997
378.377329	2576.095150
378.763191	2575.883422
379.148991	2579.003896
379.534727	2588.236769
379.920402	2586.520257
380.306013	2590.427151
380.691563	2593.827409
381.077049	2596.080805
381.462474	2600.118769
381.847835	2600.806887
382.233134	2607.183946
382.618371	2609.759976
383.003545	2616.923455
383.388657	2618.841614
383.773706	2625.871503
384.158693	2629.483490
384.543618	2637.703092
384.928480	2642.681231
385.313280	2647.966881
385.698017	2654.089362
386.082692	2662.087153
386.467305	2668.701147
386.851856	2678.203722
387.236344	2686.975329
387.620770	2691.759384
388.005133	2700.830941
388.389435	2712.513815
388.773674	2717.953220
389.157851	2726.129971
389.541965	2734.722618
389.926018	2742.632188
390.310008	2753.011924
390.693936	2764.122627
391.077802	2774.945984
391.461606	2782.449742
391.845348	2792.368212
392.229027	2803.103349
392.612645	2817.614311
392.996200	2828.477997
393.379694	2845.007941
393.763125	2860.832122
394.146494	2870.274204
394.529801	2883.144269
394.913047	2900.387536
395.296230	2904.932136
395.679351	2910.106881
396.062410	2929.041455
396.445408	2931.342741
396.828343	2940.963783
397.211217	2951.635906
397.594028	2947.081224
397.976778	2960.823409
398.359466	2976.118270
398.742092	2976.456027
399.124656	2992.484376
399.507158	3006.266890
399.889598	3012.792664
400.271977	3027.429654
400.654294	3035.281251
401.036549	3047.778272
401.418742	3056.996022
401.800874	3076.553178
402.182944	3085.236565
402.564952	3117.333592
402.946898	3106.429576
403.328783	3116.690845
403.710606	3131.988226
404.092367	3155.411948
404.474067	3182.021678
404.855705	3172.408198
405.237282	3174.560770
405.618797	3201.525902
406.000250	3227.921384
406.381642	3260.031013
406.762972	3260.343565
407.144240	3248.312851
407.525447	3272.195317
407.906593	3276.949126
408.287677	3296.672640
408.668700	3315.103098
409.049661	3311.334836
409.430560	3328.376457
409.811399	3331.103721
410.192176	3351.671628
410.572891	3361.116230
410.953545	3398.140985
411.334138	3367.452961
411.714669	3423.697114
412.095139	3367.773074
412.475547	3417.088161
412.855894	3407.192376
413.236180	3436.514248
413.616405	3416.241248
413.996568	3442.871143
414.376670	3445.800053
414.756711	3442.142696
415.136691	3464.832929
415.516609	3490.459635
415.896466	3495.097497
416.276262	3522.249151
416.655997	3551.286197
417.035670	3559.893967
417.415283	3627.321921
417.794834	3648.393944
418.174324	3630.155049
418.553753	3630.389463
418.933121	3675.941329
419.312428	3664.631500
419.691674	3661.165707
420.070859	3701.981409
420.449983	3680.531300
420.829045	3732.762695
421.208047	3712.330898
421.586988	3758.013834
421.965867	3791.300573
422.344686	3799.862973
422.723444	3837.210361
423.102141	3742.330805
423.480777	3844.850230
423.859352	3810.013336
424.237866	3912.431938
424.616319	3897.605905
424.994712	3954.931386
425.373044	3944.241619
425.751314	4007.465250
426.129524	3946.179943
426.507673	4042.483625
426.885762	4020.151314
427.263789	4044.500087
427.641756	4047.552505
428.019662	4074.154674
428.397508	4081.618102
428.775292	4118.214359
429.153016	4122.027992
429.530679	4137.088439
429.908282	4143.858708
430.285824	4119.525059
430.663305	4198.174621
431.040726	4156.033095
431.418086	4146.258298
431.795385	4220.010378
432.172624	4251.895677
432.549802	4222.402406
432.926920	4235.915219
433.303977	4232.441864
433.680974	4272.927370
434.057910	4296.608191
434.434786	4298.430568
434.811601	4296.998880
435.188355	4406.021394
435.565050	4373.682392
435.941683	4372.699367
436.318257	4462.134477
436.694770	4463.518274
437.071222	4522.666132
437.447614	4454.350936
437.823946	4457.879743
438.200218	4475.934636
438.576429	4455.192808
438.952580	4485.288497
439.328670	4490.216225
439.704700	4534.996794
440.080670	4495.582533
440.456580	4557.031678
440.832429	4593.209518
441.208218	4495.806864
441.583947	4547.176222
441.959616	4561.213315
442.335224	4589.484106
442.710773	4614.752889
443.086261	4663.989839
443.461689	4617.525524
443.837057	4629.616731
444.212365	4701.034758
444.587612	4708.024318
444.962800	4675.279503
445.337927	4714.025811
445.712995	4601.403914
446.088002	4794.084376
446.462949	4818.168488
446.837837	4833.851518
447.212664	4823.517152
447.587431	5052.002409
447.962139	5351.832596
448.336786	5688.090160
448.711374	5667.431512
449.085901	5312.304909
449.460369	5253.152009
449.834776	5188.360580
450.209124	5424.130304
450.583412	5436.897026
450.957640	5559.334050
451.331808	5421.486219
451.705917	5271.521974
452.079965	5261.853041
452.453954	5302.913239
452.827883	5265.928814
453.201752	5271.075832
453.575562	5301.695800
453.949311	5437.171769
454.323001	5441.648313
454.696632	5434.789824
455.070202	5586.999902
455.443713	5619.296054
455.817164	5714.016815
456.190556	5784.978617
456.563888	5758.948619
456.937160	5833.860165
457.310373	5677.544067
457.683526	5737.889199
458.056619	5728.227827
458.429653	5709.205033
458.802628	5756.937198
459.175542	5789.719822
459.548398	5930.254588
459.921194	6118.816427
460.293930	6175.486558
460.666607	6430.173212
461.039224	6642.478886
461.411782	6774.839421
461.784280	6689.129724
462.156719	6685.250556
462.529099	6649.105483
462.901419	6512.401993
463.273680	6377.437702
463.645882	6363.002358
464.018024	6371.511826
464.390106	6434.874088
464.762130	6693.777668
465.134094	7090.735765
465.505999	7728.439206
465.877845	8437.502701
466.249631	8787.058829
466.621358	8707.622847
466.993026	8507.604986
467.364634	8298.434910
467.736184	8016.846138
468.107674	7859.017694
468.479105	7776.425950
468.850477	7705.421298
469.221790	7532.121552
469.593043	7307.757438
469.964238	7204.421346
470.335373	7185.779159
470.706449	7340.814805
471.077467	7537.351749
471.448425	8203.303296
471.819324	8775.209597
472.190164	8817.104106
472.560945	8322.695463
472.931667	7852.393618
473.302330	7657.898341
473.672934	7538.183540
474.043479	7622.451467
474.413965	7517.020776
474.784393	7474.165927
475.154761	7629.882128
475.525070	7638.406719
475.895321	7594.137827
476.265513	7691.074174
476.635645	7852.834719
477.005719	7842.616300
477.375734	7931.849764
477.745691	8046.006693
478.115588	8247.186540
478.485427	8482.648754
478.855207	8959.514181
479.224928	9392.423268
479.594591	9775.117421
479.964194	9781.149162
480.333739	9864.706287
480.703226	9871.776505
481.072653	9971.803079
481.442022	10087.043856
481.811333	10237.315611
482.180584	10076.182690
482.549777	10021.271922
482.918912	9958.461666
483.287988	9942.440879
483.657005	9842.762144
484.025964	9769.662892
484.394864	9825.428136
484.763706	9785.154358
485.132489	9696.805617
485.501213	9691.693887
485.869879	9748.789995
486.238487	9686.262043
486.607036	9759.953630
486.975527	9701.428355
487.343959	9757.680070
487.712333	9808.041197
488.080648	9843.193163
488.448905	9954.945461
488.817104	9954.156520
489.185244	10125.356626
489.553326	10346.164205
489.921350	10812.337345
490.289315	11446.940477
490.657222	11738.861093
491.025070	11903.416958
491.392861	11824.006182
491.760593	11669.860300
492.128267	11405.320711
492.495883	11173.926708
492.863440	10936.609349
493.230939	10714.233971
493.598380	10523.663232
493.965763	10503.856539
494.333088	10371.334686
494.700354	10301.534870
495.067563	10277.879256
495.434713	10277.526375
495.801805	10317.583383
496.168839	10286.834866
496.535815	10245.817517
496.902733	10295.944231
497.269593	10254.468137
497.636395	10263.819478
498.003139	10378.530933
498.369825	10300.221650
498.736453	10393.530887
499.103023	10335.507206
499.469535	10349.884577
499.835989	10392.971319
500.202385	10363.997287
500.568723	10382.737776
500.935003	10440.466550
501.301226	10417.388147
501.667390	10583.100957
502.033497	10684.216420
502.399546	10607.600964
502.765537	10518.664928
503.131470	10625.106371
503.497345	10712.212468
503.863163	10481.831737
504.228923	10612.805956
504.594625	10731.804913
504.960269	10644.610595
505.325856	10790.375559
505.691385	10674.350882
506.056856	10738.532332
506.422270	10841.399597
506.787625	10780.187387
507.152924	10832.680922
507.518164	10896.194419
507.883347	10750.704198
508.248472	10830.180509
508.613540	10933.083062
508.978550	11012.544250
509.343503	10989.302010
509.708398	11039.035513
510.073236	11176.696822
510.438016	11189.970180
510.802738	11103.791655
511.167403	11228.189688
511.532010	11295.020264
511.896561	11389.511652
512.261053	11581.637587
512.625488	11499.393683
512.989866	11492.489822
513.354186	11463.593928
513.718449	11475.753192
514.082655	11614.878955
514.446803	11574.053171
514.810894	11685.200531
515.174927	11674.914057
515.538904	11660.554330
515.902822	11821.246150
516.266684	11694.020030
516.630488	11793.943261
516.994235	11775.754778
517.357925	11894.373127
517.721558	11957.281686
518.085133	12021.586645
518.448651	12056.574773
518.812112	12012.094152
519.175516	12027.938499
519.538863	12114.515275
519.902152	12116.002415
520.265385	12223.741955
520.628560	12247.231212
520.991678	12196.756659
521.354739	12255.196235
521.717743	12320.486739
522.080690	12299.553347
522.443580	12436.140890
522.806413	12450.326697
523.169189	12436.924790
523.531908	12493.163902
523.894569	12456.701236
524.257174	12473.019451
524.619722	12584.968355
524.982213	12562.535220
525.344647	12549.481152
525.707025	12563.719891
526.069345	12668.142352
526.431608	12648.817089
526.793815	12730.113256
527.155964	12615.890792
527.518057	12648.534784
527.880093	12603.953340
528.242072	12722.727966
528.603995	12648.766677
528.965860	12660.530210
529.327669	12686.570290
529.689421	12638.381900
530.051117	12664.626147
530.412755	12696.622351
530.774337	12698.661497
531.135862	12655.161381
531.497331	12714.084908
531.858743	12672.389524
532.220098	12761.388575
532.581396	12684.974765
532.942638	12608.011469
533.303824	12669.858865
533.664953	12654.006957
534.026025	12608.641613
534.387040	12711.360164
534.747999	12680.054598
535.108902	12731.166857
535.469748	12604.281015
535.830537	12620.821041
536.191270	12667.517249
536.551947	12599.098709
536.912567	12671.066221
537.273131	12695.654449
537.633638	12575.410327
537.994089	12625.103501
538.354483	12553.088098
538.714821	12683.601050
539.075103	12761.587700
539.435328	12692.042462
539.795497	12668.039008
540.155609	12660.454592
540.515665	12767.919389
540.875665	12621.625105
541.235609	12715.370402
541.595496	12686.048530
541.955328	12859.862474
542.315102	12705.091489
542.674821	12649.827840
543.034483	12651.945125
543.394090	12657.429900
543.753640	12624.707770
544.113134	12875.842932
544.472571	12631.498205
544.831953	12913.031523
545.191278	12729.651991
545.550548	12659.789160
545.909761	12783.869600
546.268918	12830.666631
546.628019	12890.484963
546.987064	12787.370682
547.346053	12628.725570
547.704986	12827.684789
548.063863	12707.627189
548.422684	12757.292637
548.781449	12717.217985
549.140158	12817.594919
549.498811	12754.656114
549.857408	12636.451138
550.215949	12831.924399
550.574434	12802.569760
550.932864	12750.585382
551.291237	12951.059467
551.649555	12833.955984
552.007817	12895.735325
552.366022	12821.247235
552.724173	12856.943646
553.082267	12950.716669
553.440305	13033.883105
553.798288	12858.821476
554.156215	12932.797888
554.514086	12978.085093
554.871902	12926.877053
555.229661	12942.534876
555.587365	12896.282290
555.945014	12913.800299
556.302606	12883.346689
556.660143	12948.324642
557.017625	12989.011794
557.375050	12947.714662
557.732421	13040.408878
558.089735	13048.076473
558.446994	13020.929860
558.804197	13131.063948
559.161345	13127.761992
559.518437	12936.160337
559.875474	13042.503478
560.232455	13062.484091
560.589381	13106.616872
560.946251	13045.777707
561.303065	13210.888098
561.659825	13162.929081
562.016528	13084.256834
562.373177	13026.969162
562.729770	13150.726968
563.086307	13039.551882
563.442789	13144.279333
563.799216	13179.799303
564.155587	13129.609575
564.511904	13155.629491
564.868164	13151.384839
565.224370	13221.098956
565.580520	13169.311182
565.936615	13237.679311
566.292654	13169.084330
566.648638	13242.113005
567.004567	13243.781627
567.360441	13242.307090
567.716260	13210.991442
568.072023	13287.659830
568.427732	13274.452007
568.783385	13172.376204
569.138982	13291.463381
569.494525	13284.219243
569.850013	13233.774937
570.205445	13221.144326
570.560823	13244.999066
570.916145	13191.293133
571.271412	13200.455431
571.626625	13158.984378
571.981782	13153.245025
572.336884	13106.936986
572.691931	13191.905634
573.046923	13090.059203
573.401860	13066.348135
573.756743	13058.947722
574.111570	13082.545363
574.466342	13056.878328
574.821059	13111.342954
575.175722	12981.233294
575.530330	13000.291376
575.884882	12933.417950
576.239380	12936.263681
576.593823	12916.696442
576.948211	12918.100404
577.302544	12793.110035
577.656823	12810.996049
578.011047	12870.272457
578.365216	12812.062253
578.719330	12748.079928
579.073389	12719.889796
579.427394	12729.904048
579.781344	12723.763923
580.135239	12655.468891
580.489080	12657.533244
580.842866	12541.947148
581.196597	12646.135195
581.550273	12630.810087
581.903895	12595.864809
582.257463	12705.247765
582.610975	12553.917368
582.964434	12613.682767
583.317837	12536.653936
583.671186	12497.118687
584.024481	12547.131974
584.377721	12440.103237
584.730906	12509.081345
585.084037	12529.187987
585.437113	12440.798916
585.790135	12459.743573
586.143103	12389.772357
586.496016	12394.208572
586.848874	12401.208215
587.201679	12400.000858
587.554428	12276.260696
587.907124	12323.080412
588.259765	12262.601690
588.612352	12331.184067
588.964884	12196.796988
589.317362	12244.740882
589.669786	12244.113258
590.022155	12195.201463
590.374470	12296.669807
590.726731	12186.825586
591.078937	12066.957029
591.431090	12087.356058
591.783188	12016.061540
592.135232	11943.005139
592.487222	11999.518994
592.839157	12011.413596
593.191038	11944.772063
593.542866	11892.192828
593.894639	11747.458781
594.246358	11800.660598
594.598022	11813.739872
594.949633	11717.158926
595.301190	11711.966537
595.652692	11664.413333
596.004141	11757.949422
596.355535	11535.042202
596.706876	11511.870538
597.058162	11475.859056
597.409395	11567.305587
597.760573	11601.900505
598.111698	11501.669763
598.462768	11489.586118
598.813785	11510.922801
599.164748	11386.539892
599.515657	11467.435288
599.866511	11330.870430
600.217312	11467.999897
600.568060	11228.958464
600.918753	11391.447455
601.269392	11396.062632
601.619978	11291.962805
601.970510	11331.273722
602.320988	11371.459280
602.671412	11447.953749
603.021783	11370.539270
603.372100	11297.177878
603.722363	11313.339817
604.072572	11306.400669
604.422728	11319.585807
604.772830	11270.409351
605.122878	11277.136771
605.472872	11253.745817
605.822813	11303.290277
606.172701	11267.447673
606.522534	11311.840074
606.872314	11362.271777
607.222041	11290.974738
607.571714	11367.683456
607.921333	11240.890875
608.270899	11286.034408
608.620411	11346.198058
608.969870	11298.707868
609.319276	11286.276383
609.668627	11301.886316
610.017926	11378.022862
610.367171	11408.920094
610.716362	11390.527445
611.065500	11369.087417
611.414585	11380.142668
611.763616	11451.485077
612.112594	11408.453788
612.461518	11440.525608
612.810389	11478.470373
613.159207	11418.750344
613.507971	11418.316805
613.856682	11520.009481
614.205340	11478.682102
614.553945	11624.099226
614.902496	11495.953095
615.250994	11556.026005
615.599439	11551.304964
615.947830	11588.216293
616.296169	11547.342617
616.644454	11569.322048
616.992686	11576.505692
617.340864	11674.661999
617.688990	11560.477344
618.037063	11698.846934
618.385082	11664.567088
618.733048	11708.641896
619.080961	11684.918226
619.428821	11669.136894
619.776628	11684.240191
620.124382	11628.510235
620.472083	11648.377423
620.819731	11670.621514
621.167326	11594.535379
621.514868	11579.036352
621.862357	11468.778755
622.209793	11468.204064
622.557176	11382.360775
622.904506	11326.134266
623.251783	11244.092008
623.599007	11186.038080
623.946179	11132.972374
624.293297	11113.843716
624.640363	10979.713735
624.987376	10962.987187
625.334336	10900.691128
625.681243	10816.392954
626.028097	10785.415063
626.374899	10749.948025
626.721647	10717.886287
627.068343	10678.260297
627.414987	10618.633529
627.761577	10551.213138
628.108115	10602.579975
628.454600	10464.727102
628.801032	10484.120421
629.147412	10471.147012
629.493739	10448.915523
629.840014	10364.899653
630.186236	10415.008723
630.532405	10316.393671
630.878521	10360.844045
631.224585	10299.646958
631.570597	10222.537469
631.916556	10232.917205
632.262462	10210.862157
632.608316	10195.539569
632.954117	10173.575262
633.299866	10155.124639
633.645562	10126.606832
633.991206	10034.217605
634.336797	9929.608622
634.682336	9925.709289
635.027823	9866.231236
635.373257	9830.585237
635.718639	9763.159804
636.063968	9725.903157
636.409245	9608.928223
636.754470	9598.699722
637.099642	9547.368172
637.444762	9444.548799
637.789829	9453.186816
638.134845	9376.470537
638.479808	9351.191671
638.824719	9331.276592
639.169577	9243.721832
639.514383	9242.161595
639.859137	9175.378910
640.203839	9209.454589
640.548489	9131.941808
640.893086	9138.399526
641.237632	9066.374040
641.582125	9072.705729
641.926566	9053.125888
642.270955	9043.298158
642.615292	9043.099033
642.959576	9016.143983
643.303809	9007.420266
643.647990	9018.893932
643.992118	9001.138989
644.336195	8982.113674
644.680219	8979.648550
645.024192	9017.250516
645.368112	9091.156352
645.711981	9067.762878
646.055797	9201.592910
646.399562	9161.586313
646.743274	9319.712185
647.086935	9395.591633
647.430544	9364.704483
647.774101	9385.184171
648.117606	9412.696268
648.461059	9476.625661
648.804460	9416.882946
649.147810	9296.822826
649.491108	9265.063557
649.834354	9195.324235
650.177548	9050.050784
650.520690	8961.865880
650.863781	8948.405999
651.206820	8927.422196
651.549807	8833.596241
651.892742	8741.728773
652.235626	8702.775778
652.578458	8663.036362
652.921238	8557.310763
653.263967	8594.461546
653.606644	8523.398921
653.949269	8510.859051
654.291843	8433.182432
654.634365	8503.740942
654.976836	8429.550280
655.319255	8424.602388
655.661622	8416.221470
656.003938	8369.991568
656.346203	8335.351280
656.688416	8365.126855
657.030577	8319.713620
657.372687	8284.193650
657.714746	8312.860172
658.056753	8328.931370
658.398708	8232.302533
658.740612	8224.105617
659.082465	8270.993389
659.424266	8225.590237
659.766016	8239.309737
660.107715	8211.210346
660.449362	8232.806649
660.790958	8226.623673
661.132503	8223.137716
661.473996	8217.189154
661.815438	8234.248419
662.156829	8270.595138
662.498168	8211.812763
662.839456	8202.340435
663.180693	8223.543528
663.521879	8241.502639
663.863013	8227.594096
664.204097	8230.210454
664.545129	8298.830641
664.886110	8289.184393
665.227040	8296.146226
665.567918	8303.085374
665.908746	8324.469949
666.249522	8342.424018
666.590248	8339.318668
666.930922	8356.652675
667.271545	8346.789658
667.612118	8360.683078
667.952639	8321.848549
668.293109	8323.093714
668.633528	8303.395405
668.973896	8291.972151
669.314213	8296.799056
669.654480	8260.147347
669.994695	8243.443483
670.334859	8231.445537
670.674973	8204.974438
671.015035	8225.249959
671.355047	8218.464566
671.695008	8203.250364
672.034918	8180.587857
672.374777	8187.426182
672.714585	8160.637490
673.054342	8191.406173
673.394049	8157.164135
673.733705	8193.921708
674.073310	8148.024523
674.412864	8162.394332
674.752368	8099.924354
675.091820	8149.151221
675.431223	8079.603463
675.770574	8030.379116
676.109875	8006.733584
676.449125	7962.111811
676.788324	7947.706713
677.127473	7860.388888
677.466571	7844.027823
677.805619	7781.928369
678.144616	7785.555479
678.483562	7760.266531
678.822458	7715.853966
679.161303	7700.503652
679.500098	7674.569436
679.838842	7653.802403
680.177535	7673.568767
680.516179	7710.762400
680.854771	7720.864873
681.193314	7834.167326
681.531805	7990.574165
681.870247	8120.010831
682.208638	8266.408460
682.546978	8341.418308
682.885268	8370.946867
683.223508	8305.631157
683.561697	8258.176255
683.899836	8224.140905
684.237925	8145.100654
684.575963	8110.157896
684.913951	8029.378447
685.251889	8049.255717
685.589776	8044.454017
685.927614	8026.668827
686.265401	8040.640385
686.603137	8047.962661
686.940824	8124.789845
687.278460	8177.578288
687.616046	8190.876852
687.953582	8304.673338
688.291068	8279.137373
688.628504	8340.445366
688.965889	8345.471396
689.303224	8308.449162
689.640510	8264.339066
689.977745	8154.726737
690.314930	8031.215947
690.652065	7961.582489
690.989150	7841.850044
691.326185	7691.996705
691.663170	7581.764315
692.000105	7459.128165
692.336990	7338.349681
692.673825	7263.261694
693.010610	7171.497571
693.347345	7074.934269
693.684030	6964.515355
694.020665	6916.579023
694.357251	6809.026006
694.693786	6793.731145
695.030272	6750.364619
695.366707	6658.330794
695.703093	6611.765656
696.039429	6606.772393
696.375716	6554.709877
696.711952	6545.613115
697.048139	6520.137644
697.384276	6481.424103
697.720363	6504.242886
698.056400	6479.485779
698.392388	6439.814419
698.728326	6447.010666
699.064214	6417.421614
699.400053	6417.708959
699.735842	6356.295103
700.071581	6311.118802
700.407270	6264.523417
700.742910	6234.228603
701.078501	6189.143044
701.414042	6147.190562
701.749533	6096.350525
702.084974	6037.215270
702.420366	6075.802782
702.755709	6001.992728
703.091002	5953.496828
703.426246	5958.447241
703.761440	5945.163801
704.096584	5898.414661
704.431679	5885.458895
704.766725	5869.634713
705.101721	5852.182239
705.436668	5867.202357
705.771565	5813.887113
706.106413	5874.411207
706.441212	5868.666812
706.775961	5891.682200
707.110661	5899.027161
707.445311	5956.093022
707.779913	5924.162354
708.114465	5968.837059
708.448967	6007.603532
708.783421	6123.091326
709.117825	6168.912894
709.452180	6204.170724
709.786485	6262.393530
710.120742	6392.215844
710.454949	6400.233800
710.789107	6474.931097
711.123216	6600.433142
711.457275	6630.934644
711.791286	6728.133131
712.125247	6750.742706
712.459159	6716.571245
712.793023	6846.731316
713.126837	6672.251941
713.460602	6738.311221
713.794318	6690.011926
714.127985	6642.481407
714.461602	6491.745865
714.795171	6496.764334
715.128691	6324.586245
715.462162	6237.712041
715.795584	6173.765004
716.128957	6122.496470
716.462281	6063.235186
716.795556	6020.425707
717.128782	5934.834477
717.461960	5839.128171
717.795088	5821.990768
718.128167	5758.830152
718.461198	5679.512637
718.794180	5650.450385
719.127113	5588.976035
719.459997	5560.743052
719.792833	5492.374924
720.125619	5488.243698
720.458357	5424.972177
720.791046	5402.491151
721.123686	5372.650041
721.456278	5326.652032
721.788821	5322.694727
722.121315	5282.942708
722.453761	5285.564108
722.786158	5274.055154
723.118506	5272.656234
723.450805	5249.318212
723.783056	5282.249549
724.115259	5264.897898
724.447412	5247.649590
724.779518	5292.276404
725.111574	5297.471313
725.443582	5328.048432
725.775542	5323.521476
726.107453	5410.504065
726.439315	5376.493921
726.771129	5450.364468
727.102895	5511.725393
727.434612	5553.042690
727.766281	5585.580817
728.097901	5639.115351
728.429473	5662.284494
728.760996	5666.889588
729.092471	5694.623496
729.423897	5676.838305
729.755276	5652.718904
730.086606	5660.729298
730.417887	5748.455457
730.749120	5839.667574
731.080305	5876.687287
731.411442	5957.277693
731.742530	5977.265868
732.073570	5996.618858
732.404562	6065.115536
732.735506	6058.965328
733.066401	6038.062184
733.397249	5970.419982
733.728048	5881.559563
734.058798	5731.355863
734.389501	5602.294763
734.720156	5522.072361
735.050762	5417.821300
735.381320	5338.521429
735.711831	5288.301455
736.042293	5206.836408
736.372707	5202.425399
736.703073	5154.690713
737.033391	5182.099467
737.363661	5170.961037
737.693883	5182.797666
738.024056	5206.047468
738.354182	5233.786417
738.684260	5285.460764
739.014290	5326.770500
739.344272	5357.594635
739.674207	5413.642183
740.004093	5442.538077
740.333931	5449.870435
740.663722	5475.093849
740.993464	5482.590044
741.323159	5461.276046
741.652806	5419.008492
741.982405	5386.979521
742.311956	5337.523281
742.641460	5322.435107
742.970915	5271.879896
743.300323	5213.921750
743.629683	5177.375905
743.958996	5125.462103
744.288260	5077.697170
744.617477	5016.273231
744.946647	5001.815202
745.275768	4948.404177
745.604842	4920.491308
745.933869	4882.967480
746.262847	4874.798290
746.591778	4860.022668
746.920662	4838.196992
747.249498	4831.383873
747.578286	4847.908775
747.907027	4870.561200
748.235720	4919.924178
748.564365	4928.481537
748.892963	4914.310854
749.221514	4928.922638
749.550017	4903.492537
749.878473	4901.034975
750.206881	4860.962843
750.535242	4849.542109
750.863555	4838.549873
751.191821	4813.210513
751.520039	4818.952387
751.848210	4796.176454
752.176334	4804.539729
752.504411	4786.562974
752.832440	4755.264970
753.160421	4768.490437
753.488356	4750.148199
753.816243	4727.856217
754.144082	4697.352195
754.471875	4684.855175
754.799620	4675.619781
755.127318	4669.625849
755.454969	4662.797606
755.782572	4651.719670
756.110129	4656.153365
756.437638	4637.347341
756.765100	4639.782218
757.092515	4637.934635
757.419882	4640.009070
757.747203	4640.387157
758.074477	4653.146317
758.401703	4645.723218
758.728882	4671.823792
759.056014	4685.553374
759.383099	4708.644380
759.710138	4734.172783
760.037129	4758.040126
760.364073	4766.753760
760.690970	4768.571096
761.017820	4768.669398
761.344623	4802.729954
761.671379	4861.966033
761.998088	4950.634888
762.324751	5181.232388
762.651366	5643.438140
762.977935	6335.535631
763.304456	6899.839872
763.630931	7204.849844
763.957359	7145.245762
764.283740	6851.855649
764.610074	6534.479727
764.936362	6125.253981
765.262602	5803.328417
765.588796	5460.459379
765.914943	5204.532601
766.241044	4979.785360
766.567097	4805.467301
766.893104	4659.573788
767.219064	4557.848345
767.544978	4461.476607
767.870845	4374.040314
768.196665	4331.029189
768.522438	4281.877939
768.848165	4242.420828
769.173846	4199.482800
769.499479	4171.607740
769.825066	4136.022235
770.150607	4094.278960
770.476101	4078.895879
770.801548	4052.613824
771.126949	4026.546017
771.452303	4008.667565
771.777611	3969.265907
772.102872	3968.386225
772.428087	3942.492339
772.753256	3913.369593
773.078378	3896.791758
773.403453	3865.380329
773.728482	3837.543077
774.053465	3826.845749
774.378401	3804.742810
774.703291	3783.837145
775.028135	3757.739091
775.352932	3751.765324
775.677683	3731.928384
776.002388	3710.349725
776.327046	3711.441134
776.651658	3692.544369
776.976224	3675.782533
777.300743	3670.262469
777.625216	3656.318638
777.949643	3647.242040
778.274024	3648.968635
778.598359	3631.803507
778.922647	3632.668064
779.246889	3622.048874
779.571086	3616.947226
779.895236	3620.072742
780.219339	3621.469141
780.543397	3621.441415
780.867409	3636.832057
781.191374	3635.498672
781.515294	3627.097589
781.839167	3645.099550
782.162995	3642.442862
782.486776	3635.307108
782.810511	3628.995584
783.134201	3614.726598
783.457844	3611.507821
783.781441	3601.352417
784.104993	3596.061726
784.428498	3593.357147
784.751958	3588.197526
785.075372	3582.306937
785.398739	3571.879311
785.722061	3580.308120
786.045337	3575.549271
786.368568	3604.097325
786.691752	3599.464505
787.014891	3645.820435
787.337983	3692.090665
787.661030	3778.044859
787.984031	3875.192935
788.306987	3951.639512
788.629897	4002.419055
788.952760	4006.663707
789.275579	3989.364987
789.598351	3943.253553
789.921078	3889.696334
790.243759	3827.143177
790.566395	3780.572998
790.888984	3728.838156
791.211529	3696.594936
791.534027	3651.421157
791.856480	3614.207359
792.178888	3596.749843
792.501249	3575.496339
792.823566	3542.166750
793.145836	3538.111142
793.468062	3531.257693
793.790241	3511.486288
794.112375	3523.466590
794.434464	3541.647511
794.756507	3541.453427
795.078505	3554.769635
795.400457	3599.444340
795.722364	3646.712719
796.044226	3693.197199
796.366042	3741.990527
796.687812	3736.752768
797.009538	3759.266561
797.331218	3751.024274
797.652852	3741.330136
797.974442	3720.507650
798.295986	3710.100188
798.617484	3681.970549
798.938938	3659.086231
799.260346	3643.292296
799.581709	3607.036318
799.903026	3596.966613
800.224299	3577.117070
800.545526	3546.237482
800.866708	3527.028165
801.187845	3510.800691
801.508936	3496.665295
801.829983	3484.185919
802.150984	3452.512349
802.471940	3445.250567
802.792851	3441.464661
803.113717	3432.478804
803.434538	3425.829522
803.755314	3411.878129
804.076045	3407.830082
804.396731	3395.822054
804.717372	3397.893968
805.037967	3391.756363
805.358518	3396.391704
805.679024	3411.389137
805.999485	3406.539547
806.319901	3415.212852
806.640272	3419.301228
806.960598	3427.709873
807.280879	3428.902105
807.601115	3439.596913
807.921306	3432.458639
808.241453	3431.266407
808.561554	3436.995678
808.881611	3434.182714
809.201623	3437.555246
809.521590	3429.728855
809.841513	3426.157197
810.161390	3432.642642
810.481223	3415.091864
810.801011	3411.842841
811.120755	3413.196391
811.440453	3396.369019
811.760107	3391.249727
812.079716	3384.224879
812.399281	3372.163919
812.718801	3370.959083
813.038276	3364.347610
813.357707	3358.000797
813.677093	3365.033207
813.996434	3349.526618
814.315731	3356.327134
814.634983	3353.476362
814.954191	3353.965353
815.273354	3371.180894
815.592473	3383.748490
815.911547	3401.110224
816.230577	3419.397010
816.549562	3442.994651
816.868502	3460.323617
817.187399	3480.178202
817.506250	3508.655680
817.825058	3518.284284
818.143821	3569.446954
818.462539	3610.212245
818.781213	3666.864732
819.099843	3747.074530
819.418429	3903.055392
819.736970	4053.556520
820.055466	4242.962752
820.373919	4479.203824
820.692327	4819.703519
821.010691	5333.046736
821.329011	6416.133599
821.647286	8156.347468
821.965517	10341.062557
822.283704	11970.141670
822.601847	13066.842168
822.919945	12659.426197
823.237999	11970.786938
823.556010	11072.750750
823.873976	10112.312640
824.191897	9142.465216
824.509775	8374.475675
824.827609	7561.148516
825.145398	7011.267016
825.463144	6627.063038
825.780845	6494.818449
826.098502	6554.354476
826.416116	6933.635768
826.733685	7441.262316
827.051210	7730.054896
827.368692	7638.326061
827.686129	7191.208482
828.003522	6644.886037
828.320872	6075.873358
828.638177	5613.874293
828.955439	5239.208178
829.272656	4904.289040
829.589830	4618.274135
829.906960	4352.045759
830.224046	4144.619923
830.541088	3973.888645
830.858086	3856.533104
831.175041	3764.539608
831.491952	3710.654714
831.808819	3694.563351
832.125642	3730.625245
832.442421	3831.455884
832.759157	4050.804050
833.075849	4429.190537
833.392497	4892.626330
833.709101	5287.114263
834.025662	5399.799175
834.342179	5269.283702
834.658653	5003.766129
834.975083	4729.832349
835.291469	4482.359586
835.607811	4255.905914
835.924110	4097.472531
836.240366	3937.161318
836.556578	3775.932616
836.872746	3636.940442
837.188871	3525.961961
837.504952	3428.397990
837.820990	3353.594829
838.136984	3298.263124
838.452935	3262.181065
838.768842	3252.635641
839.084706	3284.183181
839.400526	3422.862803
839.716303	3650.266732
840.032037	3862.746326
840.347727	3923.588012
840.663373	3835.221626
840.978977	3686.726878
841.294537	3553.385838
841.610054	3448.068572
841.925527	3369.686192
842.240957	3304.672951
842.556344	3243.332191
842.871687	3183.481092
843.186987	3122.130250
843.502244	3067.844585
843.817458	3029.277237
844.132629	2995.254490
844.447756	2973.995944
844.762840	2948.462500
845.077881	2936.830037
845.392879	2921.651123
845.707833	2910.338774
846.022745	2898.345869
846.337613	2896.415107
846.652438	2885.556462
846.967221	2880.994217
847.281960	2874.700337
847.596656	2869.016436
847.911309	2865.525437
848.225919	2859.302132
848.540485	2855.009590
848.855009	2852.826770
849.169490	2847.341995
849.483928	2844.581963
849.798323	2843.336798
850.112675	2838.585511
850.426984	2838.028463
850.741251	2837.090808
851.055474	2832.478153
851.369654	2834.628205
851.683792	2835.523010
851.997887	2833.257011
852.311938	2832.939418
852.625947	2834.582834
852.939914	2833.541836
853.253837	2835.175170
853.567718	2832.387412
853.881555	2833.113338
854.195350	2834.224912
854.509103	2835.386898
854.822812	2830.610405
855.136479	2832.949501
855.450103	2833.640139
855.763685	2833.133503
856.077224	2828.714931
856.390720	2829.743327
856.704173	2834.905468
857.017584	2833.587207
857.330953	2836.183401
857.644278	2842.812518
857.957561	2843.147755
858.270802	2841.680779
858.584000	2842.878053
858.897155	2844.644977
859.210268	2840.614575
859.523339	2838.575428
859.836367	2836.538802
860.149352	2839.548371
860.462295	2837.118535
860.775195	2832.790704
861.088054	2830.096207
861.400869	2827.774756
861.713642	2828.397339
862.026373	2829.508913
862.339062	2832.873883
862.651708	2833.977896
862.964312	2839.818073
863.276873	2842.540296
863.589392	2848.627489
863.901869	2856.194261
864.214303	2864.018132
864.526696	2869.865870
864.839045	2876.374000
865.151353	2881.682335
865.463619	2887.189795
865.775842	2888.278685
866.088023	2892.974519
866.400162	2893.937380
866.712258	2892.714900
867.024313	2895.369068
867.336325	2901.012639
867.648296	2896.856208
867.960224	2899.994326
868.272110	2903.767630
868.583954	2899.356620
868.895755	2904.049934
869.207515	2902.593041
869.519233	2909.764082
869.830909	2913.277767
870.142542	2917.388828
870.454134	2918.223138
870.765684	2925.031217
871.077191	2929.522885
871.388657	2932.499686
871.700081	2939.315326
872.011463	2946.453600
872.322803	2954.451391
872.634101	2956.745116
872.945357	2965.912454
873.256571	2973.905203
873.567744	2982.250833
873.878874	2988.113695
874.189963	2992.239880
874.501010	2998.541322
874.812015	2993.711897
875.122979	3004.041221
875.433900	3005.828310
875.744780	3010.433404
876.055618	3014.040350
876.366415	3015.469517
876.677169	3021.322296
876.987882	3027.565765
877.298554	3036.861653
877.609183	3051.407902
877.919771	3071.035635
878.230317	3094.189655
878.540822	3132.419245
878.851285	3183.597039
879.161707	3246.787902
879.472087	3355.540714
879.782425	3517.545755
880.092722	3794.985657
880.402977	4221.797468
880.713191	4771.326087
881.023363	5365.824318
881.333494	5811.444674
881.643583	6099.798674
881.953631	6174.884140
882.263637	6126.859588
882.573602	5983.864739
882.883526	5815.119676
883.193408	5608.613849
883.503248	5392.502105
883.813048	5172.687632
884.122806	4954.277121
884.432522	4709.375347
884.742197	4479.982682
885.051831	4271.919140
885.361424	4072.249118
885.670975	3903.846853
885.980485	3756.267074
886.289954	3630.926346
886.599382	3528.437167
886.908768	3444.446503
887.218113	3363.397352
887.527417	3300.186324
887.836680	3239.984865
888.145901	3193.092052
888.455082	3155.628717
888.764221	3120.948099
889.073319	3093.806527
889.382376	3072.363979
889.691392	3055.597101
890.000366	3047.886657
890.309300	3040.052703
890.618193	3039.541026
890.927044	3031.754964
891.235855	3034.078936
891.544625	3033.423586
891.853353	3042.202756
892.162041	3057.333779
892.470687	3080.944023
892.779293	3117.149590
893.087858	3163.031652
893.396381	3239.516038
893.704864	3350.890250
894.013306	3506.913961
894.321707	3696.821788
894.630068	3846.841486
894.938387	3925.309566
895.246665	3933.438426
895.554903	3872.639590
895.863100	3785.886374
896.171256	3714.024726
896.479371	3637.860453
896.787446	3563.107703
897.095480	3489.761435
897.403473	3434.250770
897.711425	3379.569374
898.019336	3327.524502
898.327207	3269.815893
898.635038	3227.656723
898.942827	3176.249557
899.250576	3130.347331
899.558284	3094.572782
899.865952	3063.630180
900.173579	3038.033721
900.481165	3014.592356
900.788711	2995.171311
901.096216	2982.495329
901.403681	2966.414049
901.711105	2958.365847
902.018489	2953.138170
902.325832	2959.467339
902.633135	2966.325828
902.940397	3009.641943
903.247619	3098.865325
903.554800	3275.005761
903.861941	3551.898697
904.169041	3820.622444
904.476101	3989.548989
904.783121	4010.507586
905.090100	3942.809931
905.397039	3835.201461
905.703938	3732.939135
906.010796	3628.501551
906.317614	3542.270094
906.624391	3454.112916
906.931129	3383.385527
907.237826	3312.580001
907.544483	3250.047008
907.851099	3177.504804
908.157675	3107.185749
908.464211	3033.050541
908.770707	2974.132055
909.077163	2926.485590
909.383578	2889.634755
909.689954	2858.598891
909.996289	2839.641632
910.302584	2826.605208
910.608839	2819.729075
910.915054	2810.876808
911.221229	2805.185346
911.527363	2802.851292
911.833458	2804.096457
912.139513	2809.119966
912.445527	2812.512663
912.751502	2822.564724
913.057436	2838.275480
913.363331	2855.632172
913.669186	2885.561503
913.975000	2925.104313
914.280775	2985.608242
914.586510	3068.570511
914.892205	3178.908766
915.197859	3324.620797
915.503475	3510.006709
915.809050	3686.610931
916.114585	3819.702434
916.420081	3893.368815
916.725536	3924.119853
917.030952	3887.929410
917.336328	3855.996221
917.641665	3804.634425
917.946961	3745.915065
918.252218	3684.292000
918.557435	3609.546812
918.862612	3544.407543
919.167750	3480.510918
919.472848	3407.368817
919.777906	3337.921881
920.082925	3267.754061
920.387904	3197.187989
920.692843	3143.587921
920.997743	3085.523911
921.302603	3038.636139
921.607423	3003.532064
921.912204	2967.157619
922.216946	2942.675255
922.521647	2916.713313
922.826310	2896.868811
923.130932	2874.644884
923.435516	2855.949765
923.740059	2840.417970
924.044564	2825.150836
924.349028	2814.748415
924.653454	2797.638738
924.957840	2785.880247
925.262186	2775.860954
925.566493	2765.685385
925.870761	2750.950092
926.174989	2748.827766
926.479178	2741.883577
926.783328	2729.542832
927.087438	2725.923284
927.391509	2719.785679
927.695541	2712.092878
927.999533	2708.674976
928.303486	2701.551826
928.607400	2700.959490
928.911275	2695.920857
929.215110	2693.140660
929.518906	2689.284178
929.822663	2689.576565
930.126381	2688.147397
930.430060	2687.333251
930.733699	2687.882737
931.037299	2687.786955
931.340861	2687.187058
931.644383	2689.989939
931.947866	2690.494055
932.251309	2689.256451
932.554714	2690.952800
932.858080	2689.498427
933.161407	2685.641944
933.464694	2684.452232
933.767943	2685.667150
934.071153	2684.028775
934.374323	2679.532066
934.677455	2682.471058
934.980548	2680.426870
935.283602	2680.278156
935.586617	2677.755059
935.889593	2680.212621
936.192530	2680.436953
936.495428	2682.012313
936.798287	2684.699248
937.101108	2687.786955
937.403890	2695.898172
937.706632	2704.178267
938.009336	2719.102603
938.312002	2726.089642
938.614628	2736.242526
938.917216	2748.469844
939.219765	2755.998808
939.522275	2763.477359
939.824747	2766.776795
940.127179	2761.597009
940.429573	2765.531630
940.731929	2766.827206
941.034246	2764.316712
941.336524	2763.923502
941.638763	2766.421393
941.940964	2763.666403
942.243126	2759.852770
942.545250	2754.660381
942.847335	2747.582601
943.149381	2739.925089
943.451389	2737.573390
943.753359	2731.559294
944.055290	2726.797924
944.357182	2718.598487
944.659036	2717.292828
944.960851	2714.726881
945.262628	2710.338557
945.564367	2709.607589
945.866067	2707.623895
946.167729	2704.979810
946.469352	2707.460058
946.770937	2706.466951
947.072484	2701.733307
947.373992	2703.016281
947.675462	2700.407484
947.976893	2698.131403
948.278286	2698.023018
948.579641	2695.252904
948.880958	2696.868594
949.182236	2697.017308
949.483476	2694.998326
949.784678	2694.945393
950.085841	2694.317770
950.386967	2693.536391
950.688054	2697.092925
950.989103	2701.408153
951.290114	2701.090560
951.591087	2705.821683
951.892021	2711.876109
952.192917	2716.433312
952.493776	2722.162583
952.794596	2722.066801
953.095378	2724.783983
953.396122	2726.818089
953.696828	2722.313818
953.997496	2723.954713
954.298126	2718.895915
954.598718	2717.804506
954.899272	2715.097406
955.199788	2707.994420
955.500266	2705.655325
955.800706	2695.457071
956.101108	2687.512212
956.401472	2683.348219
956.701798	2674.924451
957.002087	2669.270797
957.302337	2667.788698
957.602550	2662.034221
957.902724	2655.606749
958.202861	2652.324958
958.502960	2643.971766
958.803022	2641.678041
959.103045	2636.818369
959.403031	2635.366517
959.702979	2631.106742
960.002889	2627.739251
960.302762	2626.678088
960.602596	2623.131636
960.902393	2619.839763
961.202153	2622.214146
961.501875	2617.780452
961.801559	2618.443363
962.101205	2616.000924
962.400814	2613.757611
962.700385	2612.134359
962.999918	2613.561006
963.299414	2606.856271
963.598873	2608.915582
963.898293	2608.068669
964.197677	2605.807711
964.497022	2606.636981
964.796331	2604.509614
965.095601	2603.463575
965.394835	2605.424583
965.694030	2603.997937
965.993189	2606.573967
966.292309	2604.068513
966.591393	2602.404932
966.890439	2602.639346
967.189447	2602.616661
967.488419	2602.631784
967.787353	2602.281424
968.086249	2604.050869
968.385108	2604.738987
968.683930	2603.617330
968.982714	2603.302258
969.281462	2603.864346
969.580172	2607.889708
969.878844	2605.016250
970.177480	2610.090171
970.476078	2612.283073
970.774639	2612.063783
971.073162	2612.209977
971.371649	2613.263578
971.670098	2612.053701
971.968510	2614.012189
972.266885	2614.259206
972.565223	2617.795575
972.863524	2616.978908
973.161788	2617.256172
973.460014	2618.150976
973.758204	2621.662140
974.056356	2622.372943
974.354471	2622.534260
974.652550	2620.364043
974.950591	2620.497633
975.248595	2621.415123
975.546563	2619.819598
975.844493	2619.890174
976.142386	2621.498302
976.440243	2619.186933
976.738062	2618.405555
977.035845	2616.981429
977.333590	2613.908845
977.631299	2615.902622
977.928971	2614.395317
978.226606	2612.215018
978.524204	2609.686879
978.821765	2610.569081
979.119290	2611.655450
979.416777	2612.318361
979.714228	2611.466406
980.011642	2612.479678
980.309020	2615.033023
980.606360	2612.840121
980.903664	2619.421347
981.200931	2626.005094
981.498162	2629.198665
981.795356	2644.150727
982.092513	2658.023983
982.389633	2674.274142
982.686717	2693.808613
982.983764	2711.170347
983.280775	2723.692573
983.577749	2727.445712
983.874686	2729.048799
984.171587	2729.005949
984.468451	2721.164435
984.765279	2713.169165
985.062070	2708.143134
985.358824	2701.377906
985.655543	2692.419775
985.952224	2682.473579
986.248869	2671.796415
986.545478	2654.406955
986.842050	2641.950264
987.138586	2630.622791
987.435086	2622.851852
987.731549	2611.980604
988.027975	2614.317179
988.324366	2607.942640
988.620719	2604.590272
988.917037	2599.055086
989.213318	2601.066506
989.509563	2596.393356
989.805772	2595.896803
990.101944	2595.425455
990.398080	2594.528129
990.694180	2592.065526
990.990244	2592.937645
991.286271	2592.080649
991.582262	2592.365474
991.878217	2594.041658
992.174136	2593.618201
992.470019	2593.986205
992.765865	2595.160794
993.061676	2597.411669
993.357450	2595.687595
993.653188	2601.318564
993.948890	2602.493152
994.244556	2604.350818
994.540186	2606.077413
994.835780	2612.635954
995.131337	2619.302880
995.426859	2626.872172
995.722345	2634.794346
996.017795	2648.763383
996.313208	2656.902326
996.608586	2661.542708
996.903928	2666.472957
997.199234	2667.869356
997.494504	2668.310457
997.789738	2666.082267
998.084936	2664.998419
998.380099	2658.644045
998.675225	2653.905360
998.970316	2645.297590
999.265371	2642.683752
999.560390	2630.295116
999.855373	2626.075670
1000.150320	2620.575771
1000.445232	2614.886829
1000.740108	2609.853237
1001.034948	2606.493308
1001.329752	2601.094232
1001.624521	2598.094746
1001.919254	2595.947214
1002.213951	2592.541915
1002.508613	2589.958323
1002.803239	2593.245156
1003.097829	2587.422623
1003.392384	2588.788776
1003.686903	2588.020000
1003.981386	2586.074114
1004.275834	2587.974629
1004.570246	2587.888930
1004.864623	2584.763414
1005.158964	2586.633683
1005.453270	2581.524473
1005.747540	2583.253589
1006.041775	2583.019175
1006.335974	2583.747622
1006.630138	2582.343661
1006.924266	2584.314752
1007.218359	2577.552044
1007.512416	2579.263516
1007.806438	2581.090934
1008.100425	2582.257961
1008.394376	2581.811819
1008.688292	2580.644792
1008.982172	2580.869123
1009.276017	2583.404823
1009.569827	2577.393248
1009.863602	2581.973136
1010.157341	2579.097157
1010.451045	2582.142014
1010.744714	2578.154462
1011.038347	2581.816860
1011.331945	2580.102868
1011.625508	2580.102868
1011.919036	2578.971129
1012.212528	2580.765779
1012.505986	2579.024061
1012.799408	2579.452559
1013.092795	2579.807960
1013.386147	2578.519945
1013.679464	2577.925089
1013.972745	2577.400809
1014.265992	2580.906932
1014.559204	2581.295101
1014.852380	2578.719071
1015.145521	2580.145718
1015.438628	2578.577919
1015.731699	2576.851323
1016.024736	2577.799060
1016.317737	2579.548341
1016.610703	2577.635223
1016.903635	2574.960891
1017.196531	2576.102712
1017.489393	2577.226889
1017.782219	2578.038515
1018.075011	2577.841910
1018.367768	2579.969277
1018.660490	2579.011458
1018.953177	2579.011458
1019.245829	2579.011458
