Dividing Wavelength (nm)	Counts (n)	Blue Motor Position (mm): 31.000000	Red Motor Position (mm): 0.000000	
326.493990	2152.459266
326.888308	2152.459266
327.282561	2152.459266
327.676750	2128.783487
328.070874	2133.784312
328.464933	2136.337656
328.858929	2144.889974
329.252859	2157.697025
329.646726	2168.918634
330.040528	2186.313135
330.434265	2206.296269
330.827938	2223.123640
331.221547	2242.839593
331.615091	2262.931112
332.008571	2285.636469
332.401986	2304.003913
332.795338	2322.469659
333.188625	2341.316013
333.581847	2364.825434
333.975006	2383.364277
334.368100	2401.189797
334.761129	2420.530184
335.154095	2434.136258
335.546996	2457.985957
335.939833	2488.220277
336.332606	2501.957421
336.725315	2516.576768
337.117960	2524.602284
337.510540	2529.414066
337.903056	2541.253216
338.295508	2547.542055
338.687896	2552.855431
339.080220	2561.110321
339.472480	2566.277503
339.864676	2570.534758
340.256807	2573.768658
340.648875	2579.712178
341.040879	2578.333423
341.432818	2579.757549
341.824694	2580.647312
342.216506	2576.619430
342.608253	2580.211253
342.999937	2576.831159
343.391557	2579.114802
343.783113	2576.415264
344.174605	2574.862588
344.566033	2572.488205
344.957397	2572.659604
345.348697	2571.429562
345.739934	2567.807493
346.131106	2569.004768
346.522215	2566.219530
346.913260	2564.145095
347.304241	2561.964796
347.695159	2561.420352
348.086012	2560.797769
348.476802	2558.188972
348.867528	2556.545556
349.258191	2556.212840
349.648789	2559.187120
350.039324	2553.596481
350.429796	2556.240566
350.820203	2552.069011
351.210548	2553.873744
351.600828	2550.697817
351.991045	2550.465924
352.381198	2547.441232
352.771288	2548.114226
353.161314	2546.122970
353.551276	2548.661191
353.941175	2547.103475
354.331010	2548.956099
354.720782	2549.039278
355.110490	2551.143959
355.500135	2548.063814
355.889717	2550.176058
356.279235	2550.042467
356.668689	2550.712941
357.058080	2552.255534
357.447408	2546.498536
357.836672	2545.694472
358.225873	2547.234545
358.615010	2549.790410
359.004084	2553.437684
359.393095	2551.484237
359.782043	2553.294012
360.170927	2553.896429
360.559748	2555.255020
360.948505	2554.907181
361.337199	2553.593960
361.725830	2556.406924
362.114398	2555.391132
362.502903	2554.768549
362.891344	2559.393808
363.279722	2557.226112
363.668037	2556.462377
364.056289	2559.242573
364.444478	2556.472459
364.832603	2558.136040
365.220665	2557.616801
365.608665	2561.417831
365.996601	2561.732903
366.384474	2561.241391
366.772284	2561.329611
367.160031	2561.621998
367.547715	2563.945970
367.935336	2562.287430
368.322893	2557.962120
368.710388	2562.625187
369.097820	2566.138872
369.485189	2563.467060
369.872495	2568.286403
370.259738	2564.891186
370.646918	2562.116031
371.034035	2562.594940
371.421090	2563.983778
371.808081	2565.891855
372.195010	2564.838254
372.581875	2564.772719
372.968678	2565.864129
373.355418	2561.647203
373.742096	2565.425548
374.128710	2567.600806
374.515262	2566.781619
374.901751	2567.953687
375.288177	2567.361351
375.674540	2566.486711
376.060841	2567.225240
376.447079	2567.782288
376.833254	2567.898234
377.219367	2566.602658
377.605417	2567.046279
377.991404	2563.567883
378.377329	2564.520661
378.763191	2566.983265
379.148991	2570.675910
379.534727	2569.148440
379.920402	2569.390416
380.306013	2570.353276
380.691563	2571.931157
381.077049	2569.629871
381.462474	2568.440158
381.847835	2572.445355
382.233134	2569.130796
382.618371	2571.762279
383.003545	2573.456106
383.388657	2574.756724
383.773706	2571.817731
384.158693	2573.945098
384.543618	2572.669686
384.928480	2571.414439
385.313280	2575.601117
385.698017	2575.165057
386.082692	2572.198338
386.467305	2571.850499
386.851856	2574.860068
387.236344	2574.751683
387.620770	2576.921900
388.005133	2576.074986
388.389435	2577.539441
388.773674	2574.789492
389.157851	2574.250088
389.541965	2575.457444
389.926018	2576.702609
390.310008	2577.244533
390.693936	2576.765624
391.077802	2576.276632
391.461606	2577.216807
391.845348	2577.380645
392.229027	2579.235789
392.612645	2577.420974
392.996200	2579.114802
393.379694	2578.640933
393.763125	2579.576067
394.146494	2579.165213
394.529801	2579.767631
394.913047	2578.318299
395.296230	2580.196129
395.679351	2578.668659
396.062410	2578.842579
396.445408	2582.820050
396.828343	2583.666963
397.211217	2575.908628
397.594028	2580.082703
397.976778	2577.718402
398.359466	2581.269895
398.742092	2579.099678
399.124656	2581.753846
399.507158	2581.108578
399.889598	2581.728640
400.271977	2582.487333
400.654294	2585.426326
401.036549	2579.974318
401.418742	2581.574885
401.800874	2583.510688
402.182944	2588.372881
402.564952	2585.824577
402.946898	2585.363312
403.328783	2584.647468
403.710606	2587.490679
404.092367	2585.633013
404.474067	2586.424475
404.855705	2583.790472
405.237282	2587.268868
405.618797	2586.943713
406.000250	2586.374063
406.381642	2585.396079
406.762972	2590.147367
407.144240	2587.498240
407.525447	2588.791296
407.906593	2587.720051
408.287677	2588.181317
408.668700	2589.255082
409.049661	2589.446646
409.430560	2590.225505
409.811399	2589.444126
410.192176	2590.356575
410.572891	2591.465628
410.953545	2590.028900
411.334138	2589.723910
411.714669	2591.102665
412.095139	2589.779362
412.475547	2590.343972
412.855894	2592.501586
413.236180	2592.504106
413.616405	2591.453026
413.996568	2590.396904
414.376670	2593.141812
414.756711	2590.858169
415.136691	2593.973602
415.516609	2592.609970
415.896466	2595.370002
416.276262	2593.706421
416.655997	2589.577716
417.035670	2592.236925
417.415283	2592.446133
417.794834	2590.056626
418.174324	2596.342945
418.553753	2598.979468
418.933121	2597.978799
419.312428	2596.017790
419.691674	2596.756319
420.070859	2599.476022
420.449983	2598.666917
420.829045	2598.578697
421.208047	2600.718666
421.586988	2602.886362
421.965867	2602.167998
422.344686	2601.157247
422.723444	2607.216714
423.102141	2606.160592
423.480777	2608.371138
423.859352	2609.712085
424.237866	2612.013372
424.616319	2614.080245
424.994712	2616.144597
425.373044	2617.172992
425.751314	2622.877058
426.129524	2625.201030
426.507673	2629.291926
426.885762	2631.174797
427.263789	2634.968266
427.641756	2638.900366
428.019662	2644.861530
428.397508	2647.881181
428.775292	2655.440391
429.153016	2659.664878
429.530679	2664.927843
429.908282	2675.597445
430.285824	2678.753207
430.663305	2690.509178
431.040726	2693.085208
431.418086	2699.532843
431.795385	2714.817622
432.172624	2726.608881
432.549802	2731.408059
432.926920	2743.796695
433.303977	2754.536873
433.680974	2768.815941
434.057910	2784.471245
434.434786	2793.421813
434.811601	2807.872281
435.188355	2834.519820
435.565050	2843.011644
435.941683	2853.792151
436.318257	2882.935062
436.694770	2895.485014
437.071222	2924.252358
437.447614	2929.991712
437.823946	2945.347067
438.200218	2967.936477
438.576429	2981.688745
438.952580	3005.104904
439.328670	3030.565252
439.704700	3055.831515
440.080670	3066.957342
440.456580	3101.504369
440.832429	3132.078967
441.208218	3128.305663
441.583947	3164.085253
441.959616	3189.641382
442.335224	3218.728840
442.710773	3249.605907
443.086261	3291.175262
443.461689	3298.437044
443.837057	3327.277485
444.212365	3377.396637
444.587612	3404.961666
444.962800	3417.806526
445.337927	3461.573823
445.712995	3440.242181
446.088002	3544.909138
446.462949	3582.064962
446.837837	3619.694655
447.212664	3641.497645
447.587431	3783.212042
447.962139	3963.937407
448.336786	4162.473169
448.711374	4184.359338
449.085901	4034.097666
449.460369	4033.288561
449.834776	4035.993140
450.209124	4201.612688
450.583412	4240.850508
450.957640	4343.067464
451.331808	4296.560300
451.705917	4242.854367
452.079965	4269.753964
452.453954	4323.946368
452.827883	4338.422041
453.201752	4370.261969
453.575562	4424.414043
453.949311	4541.885531
454.323001	4578.537240
454.696632	4604.582361
455.070202	4749.127366
455.443713	4800.337927
455.817164	4897.143204
456.190556	4979.003981
456.563888	4993.961084
456.937160	5083.749076
457.310373	4992.136187
457.683526	5064.000355
458.056619	5093.682669
458.429653	5103.994349
458.802628	5169.110934
459.175542	5220.500456
459.548398	5359.923648
459.921194	5545.276792
460.293930	5618.698678
460.666607	5859.113825
461.039224	6060.870884
461.411782	6196.246030
461.784280	6155.669783
462.156719	6188.013826
462.529099	6185.899062
462.901419	6083.218319
463.273680	5991.204659
463.645882	6008.314335
464.018024	6031.128077
464.390106	6117.682168
464.762130	6373.457711
465.134094	6741.144349
465.505999	7333.910945
465.877845	8008.636619
466.249631	8354.535391
466.621358	8324.240577
466.993026	8162.084301
467.364634	7987.826736
467.736184	7735.065803
468.107674	7601.586132
468.479105	7540.686473
468.850477	7490.519430
469.221790	7341.765062
469.593043	7140.922973
469.964238	7058.275776
470.335373	7042.320524
470.706449	7208.781944
471.077467	7404.698827
471.448425	8057.394659
471.819324	8634.135427
472.190164	8664.725148
472.560945	8199.356072
472.931667	7742.861948
473.302330	7565.068013
473.672934	7454.586085
474.043479	7533.480143
474.413965	7442.497398
474.784393	7397.978969
475.154761	7550.655354
475.525070	7567.689413
475.895321	7533.359155
476.265513	7630.993702
476.635645	7793.003784
477.005719	7794.329608
477.375734	7878.229531
477.745691	7982.611663
478.115588	8192.550515
478.485427	8428.330321
478.855207	8903.065861
479.224928	9335.072581
479.594591	9711.513183
479.964194	9727.745698
480.333739	9807.020363
480.703226	9817.523607
481.072653	9920.534545
481.442022	10033.342965
481.811333	10181.149596
482.180584	10027.769969
482.549777	9965.095824
482.918912	9911.614223
483.287988	9898.723993
483.657005	9799.695567
484.025964	9728.010359
484.394864	9788.915059
484.763706	9745.165405
485.132489	9658.024020
485.501213	9652.652671
485.869879	9706.797183
486.238487	9647.094798
486.607036	9733.343900
486.975527	9670.818468
487.343959	9729.810051
487.712333	9775.918964
488.080648	9815.713833
488.448905	9917.729143
488.817104	9929.938817
489.185244	10098.051216
489.553326	10311.972579
489.921350	10777.480287
490.289315	11405.242573
490.657222	11697.947088
491.025070	11869.467307
491.392861	11782.923298
491.760593	11625.727518
492.128267	11371.754188
492.495883	11139.556121
492.863440	10907.226984
493.230939	10675.812817
493.598380	10494.422019
493.965763	10472.387136
494.333088	10342.053144
494.700354	10280.346901
495.067563	10252.991079
495.434713	10249.845399
495.801805	10296.781062
496.168839	10249.248023
496.535815	10222.915555
496.902733	10266.650086
497.269593	10230.641124
497.636395	10238.981713
498.003139	10349.582108
498.369825	10273.901785
498.736453	10367.954593
499.103023	10312.217075
499.469535	10318.599176
499.835989	10362.893274
500.202385	10339.391415
500.568723	10359.626607
500.935003	10420.125494
501.301226	10389.621472
501.667390	10553.446369
502.033497	10654.977728
502.399546	10586.478530
502.765537	10490.376493
503.131470	10592.658984
503.497345	10686.368993
503.863163	10459.300300
504.228923	10591.365928
504.594625	10718.360155
504.960269	10620.425660
505.325856	10771.594740
505.691385	10650.954887
506.056856	10722.050280
506.422270	10819.815897
506.787625	10756.723336
507.152924	10808.450616
507.518164	10868.578978
507.883347	10733.155942
508.248472	10813.978241
508.613540	10915.915413
508.978550	10994.443987
509.343503	10971.572272
509.708398	11025.968843
510.073236	11149.832513
510.438016	11171.887561
510.802738	11080.441030
511.167403	11205.401152
511.532010	11261.695717
511.896561	11369.962057
512.261053	11556.560367
512.625488	11479.942390
512.989866	11467.636934
513.354186	11442.363109
513.718449	11458.194853
514.082655	11596.967736
514.446803	11554.049873
514.810894	11665.406440
515.174927	11657.108701
515.538904	11643.341310
515.902822	11795.977366
516.266684	11665.681183
516.630488	11770.544745
516.994235	11758.118301
517.357925	11878.760674
517.721558	11933.540372
518.085133	11998.828356
518.448651	12033.002338
518.812112	11995.231492
519.175516	11996.741318
519.538863	12088.686923
519.902152	12098.681011
520.265385	12208.069008
520.628560	12228.261350
520.991678	12175.961899
521.354739	12229.904766
521.717743	12306.288329
522.080690	12276.923608
522.443580	12411.950913
522.806413	12426.807194
523.169189	12423.520362
523.531908	12482.075884
523.894569	12440.569544
524.257174	12457.283489
524.619722	12565.423801
524.982213	12545.929659
525.344647	12523.088191
525.707025	12534.950026
526.069345	12645.633600
526.431608	12618.509672
526.793815	12699.062269
527.155964	12596.709202
527.518057	12625.539561
527.880093	12591.889859
528.242072	12706.079555
528.603995	12622.419087
528.965860	12638.737302
529.327669	12667.776868
529.689421	12621.098304
530.051117	12621.473870
530.412755	12661.044407
530.774337	12663.428873
531.135862	12628.715488
531.497331	12683.903519
531.858743	12642.775266
532.220098	12737.617014
532.581396	12663.123883
532.942638	12593.447575
533.303824	12651.670382
533.664953	12636.690593
534.026025	12580.128847
534.387040	12696.077906
534.747999	12667.791992
535.108902	12715.181358
535.469748	12591.005136
535.830537	12610.222015
536.191270	12647.652582
536.551947	12587.715783
536.912567	12645.245431
537.273131	12665.470540
537.633638	12557.115980
537.994089	12614.602778
538.354483	12528.358717
538.714821	12655.206751
539.075103	12746.549938
539.435328	12669.072445
539.795497	12649.505206
540.155609	12652.204744
540.515665	12742.529618
540.875665	12605.586674
541.235609	12704.544524
541.595496	12659.801763
541.955328	12848.827388
542.315102	12692.738142
542.674821	12634.767393
543.034483	12649.469918
543.394090	12649.893375
543.753640	12614.045730
544.113134	12861.347094
544.472571	12620.858849
544.831953	12906.193198
545.191278	12717.769991
545.550548	12652.373623
545.909761	12760.720622
546.268918	12806.453969
546.628019	12870.131304
546.987064	12749.894744
547.346053	12603.338319
547.704986	12800.427270
548.063863	12682.978468
548.422684	12740.828229
548.781449	12696.453472
549.140158	12794.067854
549.498811	12744.064649
549.857408	12618.335752
550.215949	12817.990650
550.574434	12780.872634
550.932864	12730.491343
551.291237	12935.242847
551.649555	12821.784118
552.007817	12877.493909
552.366022	12786.032255
552.724173	12833.842558
553.082267	12920.754571
553.440305	13014.704035
553.798288	12839.284484
554.156215	12917.432451
554.514086	12963.090181
554.871902	12900.552147
555.229661	12913.507912
555.587365	12882.189744
555.945014	12893.003019
556.302606	12875.850493
556.660143	12944.110237
557.017625	12957.134058
557.375050	12924.364037
557.732421	13031.296993
558.089735	13019.225950
558.446994	12988.918533
558.804197	13109.989404
559.161345	13096.786622
559.518437	12916.053695
559.875474	13018.363912
560.232455	13049.049416
560.589381	13084.501330
560.946251	13029.772044
561.303065	13200.957025
561.659825	13148.849139
562.016528	13065.758320
562.373177	13019.296526
562.729770	13145.239673
563.086307	13027.543854
563.442789	13134.605358
563.799216	13172.366121
564.155587	13112.686422
564.511904	13134.726346
564.868164	13147.306546
565.224370	13209.242162
565.580520	13152.894665
565.936615	13220.486455
566.292654	13152.559428
566.648638	13219.987381
567.004567	13223.498545
567.360441	13226.873597
567.716260	13196.709853
568.072023	13283.427782
568.427732	13268.334567
568.783385	13169.303620
569.138982	13276.859158
569.494525	13269.801543
569.850013	13222.092063
570.205445	13209.302656
570.560823	13230.231006
570.916145	13175.108509
571.271412	13190.841950
571.626625	13141.219352
571.981782	13134.985966
572.336884	13092.783946
572.691931	13177.903829
573.046923	13059.993761
573.401860	13047.826936
573.756743	13049.528326
574.111570	13070.960791
574.466342	13042.392572
574.821059	13096.365686
575.175722	12962.714615
575.530330	12986.987771
575.884882	12925.881425
576.239380	12923.423862
576.593823	12901.933423
576.948211	12891.954459
577.302544	12773.668825
577.656823	12790.846557
578.011047	12848.822347
578.365216	12794.763534
578.719330	12729.689799
579.073389	12691.603882
579.427394	12714.712531
579.781344	12704.549565
580.135239	12640.005152
580.489080	12659.562308
580.842866	12541.180892
581.196597	12630.868060
581.550273	12629.796815
581.903895	12593.051845
582.257463	12697.078575
582.610975	12534.370293
582.964434	12598.874378
583.317837	12513.028569
583.671186	12473.727733
584.024481	12530.443235
584.377721	12413.266655
584.730906	12486.539826
585.084037	12502.512722
585.437113	12419.235381
585.790135	12446.936521
586.143103	12363.512987
586.496016	12375.183258
586.848874	12388.232285
587.201679	12386.273796
587.554428	12259.138417
587.907124	12303.503091
588.259765	12248.995615
588.612352	12316.002632
588.964884	12172.206239
589.317362	12221.493601
589.669786	12213.342055
590.022155	12179.825943
590.374470	12277.626849
590.726731	12159.752069
591.078937	12042.376363
591.431090	12070.435426
591.783188	12004.789520
592.135232	11928.118611
592.487222	11992.640339
592.839157	11997.444559
593.191038	11923.367324
593.542866	11871.987884
593.894639	11737.308418
594.246358	11788.468568
594.598022	11794.268415
594.949633	11701.889271
595.301190	11691.028105
595.652692	11654.434369
596.004141	11736.045609
596.355535	11513.516475
596.706876	11498.171203
597.058162	11463.450256
597.409395	11555.279914
597.760573	11582.900396
598.111698	11479.241670
598.462768	11480.988430
598.813785	11485.212917
599.164748	11355.562002
599.515657	11440.482759
599.866511	11312.031638
600.217312	11439.436719
600.568060	11211.753006
600.918753	11376.747451
601.269392	11367.738909
601.619978	11275.667275
601.970510	11319.026239
602.320988	11355.163750
602.671412	11427.968094
603.021783	11352.033194
603.372100	11275.047213
603.722363	11294.682507
604.072572	11294.753083
604.422728	11305.742799
604.772830	11253.715570
605.122878	11261.148752
605.472872	11231.274874
605.822813	11290.594131
606.172701	11244.717111
606.522534	11284.547267
606.872314	11333.270019
607.222041	11273.189548
607.571714	11345.215033
607.921333	11217.136958
608.270899	11271.397418
608.620411	11336.418220
608.969870	11280.542071
609.319276	11263.881057
609.668627	11276.768767
610.017926	11362.682631
610.367171	11385.635005
610.716362	11381.586958
611.065500	11355.806497
611.414585	11363.297652
611.763616	11423.967939
612.112594	11390.492157
612.461518	11421.654049
612.810389	11469.154321
613.159207	11414.291444
613.507971	11404.307439
613.856682	11509.496155
614.205340	11462.401696
614.553945	11599.505957
614.902496	11472.305042
615.250994	11551.362938
615.599439	11539.312059
615.947830	11569.274157
616.296169	11531.044567
616.644454	11543.952441
616.992686	11555.358052
617.340864	11656.541571
617.688990	11543.929756
618.037063	11673.966320
618.385082	11651.167701
618.733048	11690.491222
619.080961	11673.900785
619.428821	11655.682055
619.776628	11667.430464
620.124382	11606.016607
620.472083	11622.881787
620.819731	11646.880200
621.167326	11566.115874
621.514868	11553.782691
621.862357	11456.271652
622.209793	11450.224788
622.557176	11363.358146
622.904506	11313.317132
623.251783	11235.096069
623.599007	11173.140288
623.946179	11122.007864
624.293297	11099.025244
624.640363	10958.815632
624.987376	10951.631988
625.334336	10887.150589
625.681243	10798.196909
626.028097	10773.954000
626.374899	10736.659544
626.721647	10706.180728
627.068343	10662.123564
627.414987	10607.306057
627.761577	10541.763495
628.108115	10588.386606
628.454600	10458.042532
628.801032	10474.554832
629.147412	10463.050919
629.493739	10442.198186
629.840014	10355.145021
630.186236	10401.785776
630.532405	10297.204519
630.878521	10338.284882
631.224585	10292.932141
631.570597	10216.263753
631.916556	10219.835410
632.262462	10196.832625
632.608316	10179.012147
632.954117	10155.510287
633.299866	10135.454057
633.645562	10114.765161
633.991206	10014.395788
634.336797	9923.153424
634.682336	9908.047607
635.027823	9849.933185
635.373257	9820.081993
635.718639	9753.014482
636.063968	9728.358198
636.409245	9599.904557
636.754470	9588.120860
637.099642	9541.104539
637.444762	9438.300288
637.789829	9445.231875
638.134845	9369.473415
638.479808	9346.528603
638.824719	9324.788627
639.169577	9226.728103
639.514383	9236.707067
639.859137	9169.112755
640.203839	9199.634421
640.548489	9116.599056
640.893086	9122.797154
641.237632	9058.325838
641.582125	9055.492709
641.926566	9044.417294
642.270955	9035.895224
642.615292	9020.544910
642.959576	9010.765072
643.303809	8988.077359
643.647990	9011.095268
643.992118	8985.276998
644.336195	8967.005336
644.680219	8970.652611
645.024192	8999.951797
645.368112	9075.254033
645.711981	9058.661075
646.055797	9197.633083
646.399562	9151.136001
646.743274	9315.502822
647.086935	9384.944716
647.430544	9360.263227
647.774101	9371.467191
648.117606	9406.296523
648.461059	9458.986663
648.804460	9397.572807
649.147810	9278.689796
649.491108	9247.800126
649.834354	9182.494498
650.177548	9036.285913
650.520690	8950.258623
650.863781	8946.371893
651.206820	8915.328468
651.549807	8821.227770
651.892742	8729.544305
652.235626	8688.900002
652.578458	8653.382552
652.921238	8549.575112
653.263967	8586.244465
653.606644	8513.740070
653.949269	8501.061568
654.291843	8423.279085
654.634365	8485.630596
654.976836	8411.795337
655.319255	8404.866271
655.661622	8392.717090
656.003938	8352.362653
656.346203	8310.979821
656.688416	8348.024740
657.030577	8305.696692
657.372687	8271.996579
657.714746	8305.946229
658.056753	8323.345772
658.398708	8223.276347
658.740612	8217.468938
659.082465	8254.186182
659.424266	8210.827218
659.766016	8227.904127
660.107715	8193.251235
660.449362	8221.194351
660.790958	8212.919297
661.132503	8211.729584
661.473996	8204.596352
661.815438	8233.802277
662.156829	8259.975947
662.498168	8212.314358
662.839456	8200.628964
663.180693	8223.079742
663.521879	8239.173626
663.863013	8217.458856
664.204097	8217.789051
664.545129	8287.626676
664.886110	8281.093341
665.227040	8280.982435
665.567918	8292.657748
665.908746	8311.771283
666.249522	8326.569590
666.590248	8327.386257
666.930922	8343.525511
667.271545	8333.596958
667.612118	8358.664096
667.952639	8315.274884
668.293109	8318.838980
668.633528	8291.314280
668.973896	8274.502032
669.314213	8282.774566
669.654480	8238.820745
669.994695	8231.069971
670.334859	8217.058084
670.674973	8192.661420
671.015035	8218.154535
671.355047	8214.184626
671.695008	8195.098818
672.034918	8172.217021
672.374777	8178.828494
672.714585	8149.551993
673.054342	8174.568719
673.394049	8143.311044
673.733705	8183.552055
674.073310	8130.604816
674.412864	8141.090416
674.752368	8078.771672
675.091820	8133.445506
675.431223	8060.734424
675.770574	8010.330447
676.109875	7989.235739
676.449125	7949.778628
676.788324	7933.440248
677.127473	7848.214501
677.466571	7835.326791
677.805619	7767.626616
678.144616	7778.956609
678.483562	7758.502127
678.822458	7708.750980
679.161303	7697.118518
679.500098	7667.915113
679.838842	7650.679408
680.177535	7667.438724
680.516179	7698.716563
680.854771	7718.765232
681.193314	7831.782860
681.531805	7998.259404
681.870247	8116.623176
682.208638	8269.791074
682.546978	8337.435797
682.885268	8366.127524
683.223508	8287.150287
683.561697	8244.396261
683.899836	8206.665745
684.237925	8127.330587
684.575963	8097.590300
684.913951	8010.910180
685.251889	8033.149230
685.589776	8030.036317
685.927614	8010.930344
686.265401	8034.525465
686.603137	8037.449334
686.940824	8113.124615
687.278460	8155.223291
687.616046	8177.474944
687.953582	8282.348588
688.291068	8269.685210
688.628504	8325.483221
688.965889	8325.634456
689.303224	8281.037888
689.640510	8241.275787
689.977745	8129.967110
690.314930	8012.689707
690.652065	7944.785365
690.989150	7821.193917
691.326185	7674.082965
691.663170	7564.110194
692.000105	7443.407327
692.336990	7329.694019
692.673825	7255.321877
693.010610	7171.492529
693.347345	7068.741211
693.684030	6958.687782
694.020665	6911.636172
694.357251	6795.339273
694.693786	6791.082019
695.030272	6748.131388
695.366707	6654.451626
695.703093	6595.192863
696.039429	6594.071206
696.375716	6547.402724
696.711952	6535.719850
697.048139	6507.847311
697.384276	6476.622404
697.720363	6493.381720
698.056400	6464.644622
698.392388	6429.409477
698.728326	6434.979952
699.064214	6410.893319
699.400053	6407.324182
699.735842	6345.484348
700.071581	6297.966432
700.407270	6250.788794
700.742910	6225.802315
701.078501	6184.469894
701.414042	6134.746473
701.749533	6084.259318
702.084974	6023.536099
702.420366	6063.913221
702.755709	5991.151727
703.091002	5943.374191
703.426246	5949.421055
703.761440	5931.628303
704.096584	5885.408484
704.431679	5876.820878
704.766725	5860.364031
705.101721	5847.735941
705.436668	5861.626840
705.771565	5808.137678
706.106413	5867.983735
706.441212	5865.057346
706.775961	5878.403800
707.110661	5890.265635
707.445311	5952.755778
707.779913	5915.564666
708.114465	5955.800635
708.448967	5999.951061
708.783421	6114.375171
709.117825	6153.789432
709.452180	6194.211924
709.786485	6252.785091
710.120742	6381.805862
710.454949	6387.719135
710.789107	6464.258974
711.123216	6588.321770
711.457275	6612.983095
711.791286	6722.673561
712.125247	6740.927579
712.459159	6708.913732
712.793023	6845.196285
713.126837	6676.821747
713.460602	6735.331899
713.794318	6685.086718
714.127985	6635.955633
714.461602	6488.897613
714.795171	6487.518858
715.128691	6325.228992
715.462162	6235.322534
715.795584	6166.818294
716.128957	6122.050328
716.462281	6056.288476
716.795556	6014.116703
717.128782	5931.376245
717.461960	5828.980328
717.795088	5820.039842
718.128167	5751.742289
718.461198	5669.054763
718.794180	5649.031300
719.127113	5583.924798
719.459997	5552.594027
719.792833	5485.095498
720.125619	5484.394777
720.458357	5423.548051
720.791046	5399.421088
721.123686	5369.345564
721.456278	5327.982897
721.788821	5318.455116
722.121315	5274.660092
722.453761	5279.781905
722.786158	5265.954020
723.118506	5267.862096
723.450805	5246.706894
723.783056	5275.968272
724.115259	5254.782823
724.447412	5245.086163
724.779518	5283.429179
725.111574	5285.309530
725.443582	5327.287218
725.775542	5315.357327
726.107453	5400.731788
726.439315	5372.370257
726.771129	5444.234425
727.102895	5514.510631
727.434612	5551.008584
727.766281	5581.310960
728.097901	5635.097551
728.429473	5653.119676
728.760996	5660.908259
729.092471	5682.786867
729.423897	5666.904711
729.755276	5638.346575
730.086606	5652.159336
730.417887	5743.565538
730.749120	5836.118602
731.080305	5879.621239
731.411442	5949.380726
731.742530	5980.041024
732.073570	5998.221945
732.404562	6067.767183
732.735506	6056.139762
733.066401	6034.964395
733.397249	5964.325227
733.728048	5875.258120
734.058798	5728.459720
734.389501	5602.642603
734.720156	5517.754613
735.050762	5409.241256
735.381320	5337.944217
735.711831	5279.471874
736.042293	5200.119071
736.372707	5192.438873
736.703073	5149.732738
737.033391	5179.843550
737.363661	5164.039533
737.693883	5178.273231
738.024056	5205.704669
738.354182	5233.549483
738.684260	5278.299805
739.014290	5320.098533
739.344272	5355.280745
739.674207	5407.368467
740.004093	5438.686636
740.333931	5448.652997
740.663722	5472.341379
740.993464	5477.460670
741.323159	5460.640861
741.652806	5417.072688
741.982405	5390.299120
742.311956	5331.864586
742.641460	5318.535775
742.970915	5268.643475
743.300323	5202.672415
743.629683	5170.159494
743.958996	5118.515393
744.288260	5066.984718
744.617477	5008.686295
744.946647	4993.814891
745.275768	4942.543836
745.604842	4910.212396
745.933869	4873.722003
746.262847	4861.497205
746.591778	4850.520093
746.920662	4830.922607
747.249498	4824.454807
747.578286	4846.862736
747.907027	4867.584399
748.235720	4909.103342
748.564365	4917.711112
748.892963	4903.119492
749.221514	4921.340743
749.550017	4895.918204
749.878473	4893.304366
750.206881	4854.195094
750.535242	4846.905586
750.863555	4830.302545
751.191821	4808.194565
751.520039	4813.823013
751.848210	4790.774858
752.176334	4804.701046
752.504411	4783.102222
752.832440	4753.994600
753.160421	4765.490951
753.488356	4742.354575
753.816243	4722.401688
754.144082	4695.673491
754.471875	4678.563815
754.799620	4667.566538
755.127318	4660.781144
755.454969	4659.203263
755.782572	4651.039115
756.110129	4649.289834
756.437638	4636.649141
756.765100	4632.235611
757.092515	4634.751147
757.419882	4642.038134
757.747203	4633.856342
758.074477	4647.003671
758.401703	4638.501765
758.728882	4666.840611
759.056014	4681.412067
759.383099	4703.099110
759.710138	4733.396445
760.037129	4751.569805
760.364073	4766.239562
760.690970	4764.918780
761.017820	4765.155714
761.344623	4800.663081
761.671379	4859.974777
761.998088	4946.780926
762.324751	5175.916491
762.651366	5640.650382
762.977935	6334.555127
763.304456	6889.132461
763.630931	7200.244750
763.957359	7135.738146
764.283740	6841.128074
764.610074	6514.471387
764.936362	6114.544049
765.262602	5799.174506
765.588796	5449.217606
765.914943	5198.634451
766.241044	4969.950069
766.567097	4801.935973
766.893104	4653.436183
767.219064	4550.321902
767.544978	4458.456955
767.870845	4378.060634
768.196665	4329.867203
768.522438	4277.356024
768.848165	4238.380343
769.173846	4200.493551
769.499479	4171.942977
769.825066	4134.383860
770.150607	4094.198302
770.476101	4077.708688
770.801548	4054.506777
771.126949	4024.597611
771.452303	4004.357379
771.777611	3966.838591
772.102872	3963.614773
772.428087	3938.650979
772.753256	3910.995209
773.078378	3893.875451
773.403453	3862.421172
773.728482	3836.260104
774.053465	3823.737878
774.378401	3803.341369
774.703291	3782.191208
775.028135	3757.134153
775.352932	3749.458996
775.677683	3729.992581
776.002388	3710.707647
776.327046	3710.352245
776.651658	3691.614276
776.976224	3673.244312
777.300743	3670.154084
777.625216	3653.419974
777.949643	3644.139210
778.274024	3647.695744
778.598359	3628.423413
778.922647	3630.424751
779.246889	3617.542082
779.571086	3615.782720
779.895236	3619.162813
780.219339	3619.931589
780.543397	3619.556023
780.867409	3634.208137
781.191374	3632.710914
781.515294	3625.791931
781.839167	3641.389261
782.162995	3639.405567
782.486776	3632.264772
782.810511	3629.078763
783.134201	3614.151906
783.457844	3614.202318
783.781441	3605.065227
784.104993	3593.977209
784.428498	3589.170468
784.751958	3584.318358
785.075372	3581.797781
785.398739	3571.793611
785.722061	3574.946853
786.045337	3577.159919
786.368568	3599.910647
786.691752	3598.398301
787.014891	3644.406391
787.337983	3689.907846
787.661030	3778.559057
787.984031	3876.962380
788.306987	3950.716981
788.629897	3997.992922
788.952760	4006.635980
789.275579	3987.754338
789.598351	3943.392185
789.921078	3889.446797
790.243759	3826.525636
790.566395	3782.221455
790.888984	3730.763877
791.211529	3699.526367
791.534027	3649.404695
791.856480	3610.814662
792.178888	3593.384873
792.501249	3572.942994
792.823566	3538.511913
793.145836	3532.996891
793.468062	3529.339534
793.790241	3513.754807
794.112375	3516.696320
794.434464	3539.300854
794.756507	3539.222716
795.078505	3556.919687
795.400457	3596.873352
795.722364	3647.494098
796.044226	3693.527394
796.366042	3736.049527
796.687812	3734.552304
797.009538	3760.179010
797.331218	3747.087133
797.652852	3741.181422
797.974442	3717.989593
798.295986	3709.631360
798.617484	3680.790919
798.938938	3657.987260
799.260346	3643.100732
799.581709	3604.291409
799.903026	3594.355295
800.224299	3575.035073
800.545526	3542.612892
800.866708	3526.019934
801.187845	3512.648274
801.508936	3490.273112
801.829983	3484.405209
802.150984	3454.566620
802.471940	3443.796194
802.792851	3437.958538
803.113717	3429.927980
803.434538	3421.118564
803.755314	3415.913573
804.076045	3406.970566
804.396731	3396.132085
804.717372	3396.432033
805.037967	3395.141498
805.358518	3393.225860
805.679024	3410.786719
805.999485	3405.357396
806.319901	3412.591452
806.640272	3410.794281
806.960598	3425.058226
807.280879	3423.523194
807.601115	3436.715894
807.921306	3429.398659
808.241453	3428.007301
808.561554	3438.906275
808.881611	3433.731531
809.201623	3434.379319
809.521590	3425.648041
809.841513	3425.648041
810.161390	3432.256993
810.481223	3417.234355
810.801011	3411.142120
811.120755	3408.092222
811.440453	3396.560583
811.760107	3388.247720
812.079716	3381.880743
812.399281	3371.904299
812.718801	3371.168291
813.038276	3365.174359
813.357707	3355.298739
813.677093	3365.204606
813.996434	3350.905373
814.315731	3355.606249
814.634983	3355.825539
814.954191	3356.138091
815.273354	3375.619630
815.592473	3383.035167
815.911547	3406.874784
816.230577	3417.262081
816.549562	3445.845423
816.868502	3459.761529
817.187399	3478.819611
817.506250	3507.549147
817.825058	3519.489119
818.143821	3562.036458
818.462539	3607.903396
818.781213	3662.007580
819.099843	3747.737442
819.418429	3899.473652
819.736970	4051.681210
820.055466	4233.465218
820.373919	4473.711487
820.692327	4811.645235
821.010691	5320.779088
821.329011	6397.980404
821.647286	8140.856002
821.965517	10301.245004
822.283704	11917.474215
822.601847	12998.521931
822.919945	12583.322418
823.237999	11906.381156
823.556010	11013.436534
823.873976	10064.280526
824.191897	9102.413249
824.509775	8336.082247
824.827609	7528.015532
825.145398	6983.477656
825.463144	6603.326765
825.780845	6473.794317
826.098502	6544.224277
826.416116	6924.871722
826.733685	7426.383350
827.051210	7715.236424
827.368692	7616.608770
827.686129	7171.369021
828.003522	6625.026411
828.320872	6054.713115
828.638177	5595.935347
828.955439	5228.495726
829.272656	4890.635075
829.589830	4608.854739
829.906960	4343.420345
830.224046	4136.848984
830.541088	3966.223570
830.858086	3854.171323
831.175041	3754.124584
831.491952	3710.624468
831.808819	3693.713917
832.125642	3728.933938
832.442421	3830.692149
832.759157	4048.953946
833.075849	4425.107202
833.392497	4886.899580
833.709101	5274.803765
834.025662	5386.621599
834.342179	5252.146299
834.658653	4991.022092
834.975083	4717.980597
835.291469	4476.509327
835.607811	4248.520624
835.924110	4093.331223
836.240366	3935.583437
836.556578	3772.696195
836.872746	3636.148981
837.188871	3521.540869
837.504952	3423.583688
837.820990	3351.641382
838.136984	3298.230357
838.452935	3267.305398
838.768842	3252.000455
839.084706	3287.800209
839.400526	3420.843821
839.716303	3645.333963
840.032037	3859.099051
840.347727	3923.726643
840.663373	3831.445802
840.978977	3684.685210
841.294537	3550.701423
841.610054	3445.588325
841.925527	3369.822303
842.240957	3305.882828
842.556344	3243.347315
842.871687	3184.365815
843.186987	3123.771145
843.502244	3072.235430
843.817458	3028.876465
844.132629	2999.589882
844.447756	2975.104998
844.762840	2953.854014
845.077881	2934.987496
845.392879	2918.064342
845.707833	2912.897159
846.022745	2900.160684
846.337613	2895.285888
846.652438	2888.336658
846.967221	2883.111502
847.281960	2875.693444
847.596656	2870.949718
847.911309	2866.904192
848.225919	2861.111907
848.540485	2856.158973
848.855009	2854.434898
849.169490	2849.456759
849.483928	2846.064062
849.798323	2844.503825
850.112675	2843.931654
850.426984	2839.666838
850.741251	2839.092147
851.055474	2835.827999
851.369654	2837.436127
851.683792	2835.654080
851.997887	2835.674244
852.311938	2836.818586
852.625947	2834.164419
852.939914	2834.073678
853.253837	2836.664831
853.567718	2834.212310
853.881555	2832.115190
854.195350	2835.016374
854.509103	2835.447392
854.822812	2832.689881
855.136479	2833.307422
855.450103	2832.770540
855.763685	2831.452278
856.077224	2830.234839
856.390720	2832.551249
856.704173	2839.465192
857.017584	2839.883608
857.330953	2837.216837
857.644278	2842.331088
857.957561	2845.164216
858.270802	2846.469875
858.584000	2845.156655
858.897155	2841.111129
859.210268	2840.153309
859.523339	2838.242712
859.836367	2838.605675
860.149352	2838.041066
860.462295	2836.856395
860.775195	2829.158553
861.088054	2829.488748
861.400869	2829.866835
861.713642	2828.485559
862.026373	2827.830209
862.339062	2831.706856
862.651708	2838.081395
862.964312	2839.003926
863.276873	2843.551047
863.589392	2849.484485
863.901869	2856.136288
864.214303	2862.067205
864.526696	2870.168339
864.839045	2877.548589
865.151353	2883.522356
865.463619	2888.024106
865.775842	2889.644837
866.088023	2894.428892
866.400162	2894.391084
866.712258	2893.415620
867.024313	2895.628687
867.336325	2896.309243
867.648296	2898.703791
867.960224	2898.716394
868.272110	2902.618247
868.583954	2901.408370
868.895755	2901.824265
869.207515	2901.773853
869.519233	2910.623599
869.830909	2912.826583
870.142542	2917.343457
870.454134	2917.119126
870.765684	2921.341092
871.077191	2930.296702
871.388657	2933.709563
871.700081	2940.552929
872.011463	2947.340843
872.322803	2953.223870
872.634101	2958.927935
872.945357	2963.001188
873.256571	2972.647435
873.567744	2978.570791
873.878874	2986.399703
874.189963	2992.239880
874.501010	2996.597957
874.812015	2994.649551
875.122979	3002.498628
875.433900	3007.469206
875.744780	3008.290914
876.055618	3014.083199
876.366415	3014.700741
876.677169	3020.702234
876.987882	3028.284130
877.298554	3037.559853
877.609183	3046.611245
877.919771	3069.238464
878.230317	3092.067329
878.540822	3130.979995
878.851285	3176.874660
879.161707	3243.347315
879.472087	3349.892101
879.782425	3512.164323
880.092722	3788.865696
880.402977	4210.681723
880.713191	4750.362448
881.023363	5343.847408
881.333494	5779.960148
881.643583	6067.973870
881.953631	6139.832998
882.263637	6089.413898
882.573602	5947.770077
882.883526	5781.190190
883.193408	5576.421041
883.503248	5360.490778
883.813048	5143.816944
884.122806	4922.628757
884.432522	4688.159651
884.742197	4467.329386
885.051831	4262.136781
885.361424	4061.632448
885.670975	3893.300759
885.980485	3749.353132
886.289954	3624.408134
886.599382	3519.080786
886.908768	3436.342848
887.218113	3359.321579
887.527417	3295.931590
887.836680	3236.483784
888.145901	3189.107020
888.455082	3154.355826
888.764221	3121.318624
889.073319	3089.700507
889.382376	3071.668300
889.691392	3057.868141
890.000366	3045.749207
890.309300	3036.700336
890.618193	3037.935419
890.927044	3034.169677
891.235855	3030.204809
891.544625	3035.450130
891.853353	3043.919268
892.162041	3055.516443
892.470687	3082.017789
892.779293	3114.124898
893.087858	3159.921260
893.396381	3239.188363
893.704864	3349.156093
894.013306	3503.967407
894.321707	3685.690921
894.630068	3840.328315
894.938387	3919.900408
895.246665	3932.644445
895.554903	3871.485166
895.863100	3781.656846
896.171256	3706.994837
896.479371	3637.598313
896.787446	3559.359605
897.095480	3490.512567
897.403473	3428.609718
897.711425	3375.455792
898.019336	3324.976198
898.327207	3270.488887
898.635038	3222.819736
898.942827	3172.236798
899.250576	3130.886734
899.558284	3091.409458
899.865952	3063.526836
900.173579	3032.982485
900.481165	3011.396264
900.788711	2991.922287
901.096216	2981.406440
901.403681	2963.696867
901.711105	2958.479273
902.018489	2948.361677
902.325832	2960.762915
902.633135	2968.730459
902.940397	3009.767972
903.247619	3096.904316
903.554800	3275.033487
903.861941	3546.552554
904.169041	3810.721618
904.476101	3976.918378
904.783121	3999.666585
905.090100	3935.341462
905.397039	3825.096468
905.703938	3722.753484
906.010796	3619.777834
906.317614	3536.750030
906.624391	3449.820373
906.931129	3382.805795
907.237826	3315.682831
907.544483	3245.716657
907.851099	3176.834331
908.157675	3100.566714
908.464211	3028.185827
908.770707	2971.064513
909.077163	2926.354520
909.383578	2889.743140
909.689954	2860.365816
909.996289	2839.954184
910.302584	2828.220898
910.608839	2819.968529
910.915054	2809.530820
911.221229	2807.872281
911.527363	2806.022177
911.833458	2805.218113
912.139513	2808.817497
912.445527	2811.554844
912.751502	2822.731082
913.057436	2840.168433
913.363331	2858.263655
913.669186	2886.925135
913.975000	2925.182451
914.280775	2984.143787
914.586510	3065.132444
914.892205	3176.531862
915.197859	3321.737257
915.503475	3502.971779
915.809050	3676.649611
916.114585	3808.533757
916.420081	3886.165006
916.725536	3916.311106
917.030952	3882.006054
917.336328	3840.948377
917.641665	3791.547590
917.946961	3732.850915
918.252218	3670.144002
918.557435	3599.159515
918.862612	3531.628218
919.167750	3471.940956
919.472848	3398.216602
919.777906	3332.384174
920.082925	3263.277516
920.387904	3187.929910
920.692843	3135.748927
920.997743	3083.797316
921.302603	3035.810573
921.607423	2998.198524
921.912204	2963.323821
922.216946	2938.997733
922.521647	2915.117788
922.826310	2893.594581
923.130932	2875.882487
923.435516	2856.489168
923.740059	2841.156499
924.044564	2822.347954
924.349028	2815.650781
924.653454	2796.683440
924.957840	2781.859927
925.262186	2777.622837
925.566493	2765.526588
925.870761	2750.932448
926.174989	2748.449680
926.479178	2743.060686
926.783328	2731.438306
927.087438	2729.124417
927.391509	2719.526060
927.695541	2715.044474
927.999533	2709.884853
928.303486	2703.739686
928.607400	2698.015456
928.911275	2698.275076
929.215110	2695.542770
929.518906	2690.705783
929.822663	2690.322655
930.126381	2690.247038
930.430060	2689.959692
930.733699	2690.254600
931.037299	2689.228725
931.340861	2689.783252
931.644383	2691.570341
931.947866	2693.203675
932.251309	2690.395752
932.554714	2688.694363
932.858080	2692.596216
933.161407	2687.446677
933.464694	2687.539938
933.767943	2686.135977
934.071153	2683.302849
934.374323	2682.700431
934.677455	2680.570543
934.980548	2678.649864
935.283602	2678.612055
935.586617	2679.015347
935.889593	2679.998372
936.192530	2681.344360
936.495428	2683.247396
936.798287	2684.512726
937.101108	2689.203519
937.403890	2697.009746
937.706632	2705.304965
938.009336	2718.114537
938.312002	2729.885631
938.614628	2741.271077
938.917216	2748.807602
939.219765	2754.534352
939.522275	2763.996598
939.824747	2766.136568
940.127179	2764.316712
940.429573	2765.730755
940.731929	2764.180600
941.034246	2764.956938
941.336524	2762.849736
941.638763	2765.561877
941.940964	2764.125148
942.243126	2757.206164
942.545250	2751.192067
942.847335	2747.751480
943.149381	2741.795357
943.451389	2736.471898
943.753359	2732.431413
944.055290	2725.711555
944.357182	2723.072511
944.659036	2716.924824
944.960851	2713.131356
945.262628	2712.753269
945.564367	2713.650595
945.866067	2709.506766
946.167729	2710.915769
946.469352	2709.330326
946.770937	2709.965511
947.072484	2703.722042
947.373992	2705.955273
947.675462	2703.147351
947.976893	2698.194417
948.278286	2701.272042
948.579641	2697.289530
948.880958	2696.732482
949.182236	2699.127031
949.483476	2693.906916
949.784678	2696.251052
950.085841	2693.987574
950.386967	2697.329859
950.688054	2697.786084
950.989103	2700.142823
951.290114	2703.359079
951.591087	2707.848227
951.892021	2713.648074
952.192917	2716.660164
952.493776	2719.768035
952.794596	2721.550083
953.095378	2723.453118
953.396122	2726.815568
953.696828	2725.383880
953.997496	2726.717266
954.298126	2721.171996
954.598718	2719.170658
954.899272	2713.441387
955.199788	2707.094574
955.500266	2705.037783
955.800706	2694.131247
956.101108	2687.892819
956.401472	2683.423836
956.701798	2678.034843
957.002087	2670.969666
957.302337	2670.730211
957.602550	2662.238387
957.902724	2655.836122
958.202861	2650.588281
958.502960	2651.783034
958.803022	2643.775161
959.103045	2641.471354
959.403031	2635.336270
959.702979	2632.593882
960.002889	2630.786628
960.302762	2626.393263
960.602596	2625.304374
960.902393	2623.872686
961.202153	2621.609208
961.501875	2619.643158
961.801559	2617.833384
962.101205	2617.354474
962.400814	2617.052005
962.700385	2615.264916
962.999918	2614.849021
963.299414	2609.649070
963.598873	2613.878598
963.898293	2610.737960
964.197677	2608.814759
964.497022	2607.143617
964.796331	2608.905500
965.095601	2609.618823
965.394835	2609.278546
965.694030	2607.776282
965.993189	2607.010026
966.292309	2604.502052
966.591393	2604.585231
966.890439	2608.071189
967.189447	2604.154213
967.488419	2604.055910
967.787353	2607.486415
968.086249	2605.227978
968.385108	2603.992896
968.683930	2607.970366
968.982714	2607.940119
969.281462	2606.702516
969.580172	2606.931888
969.878844	2611.728546
970.177480	2611.221910
970.476078	2611.899946
970.774639	2614.037395
971.073162	2615.481685
971.371649	2614.264247
971.670098	2612.298197
971.968510	2614.551593
972.266885	2615.022940
972.565223	2617.364556
972.863524	2620.051491
973.161788	2622.383025
973.460014	2619.985956
973.758204	2623.028293
974.056356	2622.251955
974.354471	2626.597430
974.652550	2623.245062
974.950591	2623.242542
975.248595	2624.107100
975.546563	2623.209774
975.844493	2624.250772
976.142386	2621.566358
976.440243	2622.274640
976.738062	2621.427726
977.035845	2617.485544
977.333590	2620.976543
977.631299	2616.873044
977.928971	2617.246089
978.226606	2614.458331
978.524204	2614.259206
978.821765	2615.141408
979.119290	2611.584873
979.416777	2613.419853
979.714228	2611.206787
980.011642	2614.685183
980.309020	2616.386572
980.606360	2621.768004
980.903664	2618.796244
981.200931	2627.277985
981.498162	2633.808800
981.795356	2644.044863
982.092513	2661.058757
982.389633	2679.116170
982.686717	2697.712987
982.983764	2709.582384
983.280775	2722.606205
983.577749	2731.057699
983.874686	2733.033831
984.171587	2725.406566
984.468451	2723.314487
984.765279	2715.846017
985.062070	2708.120449
985.358824	2700.578883
985.655543	2690.705783
985.952224	2683.449042
986.248869	2669.600992
986.545478	2654.898467
986.842050	2642.892959
987.138586	2631.865435
987.435086	2624.754888
987.731549	2614.279370
988.027975	2614.284411
988.324366	2608.865171
988.620719	2607.062958
988.917037	2601.495004
989.213318	2601.593307
989.509563	2595.087697
989.805772	2600.358224
990.101944	2597.431834
990.398080	2596.078284
990.694180	2594.724734
990.990244	2596.990733
991.286271	2595.687595
991.582262	2596.784046
991.878217	2598.457709
992.174136	2596.612647
992.470019	2598.160281
992.765865	2597.414190
993.061676	2599.264293
993.357450	2602.263780
993.653188	2602.170519
993.948890	2602.220930
994.244556	2608.479523
994.540186	2609.979266
994.835780	2617.578805
995.131337	2622.768673
995.426859	2632.278810
995.722345	2638.048411
996.017795	2648.992756
996.313208	2654.724547
996.608586	2663.899447
996.903928	2669.001095
997.199234	2666.188131
997.494504	2667.881959
997.789738	2668.330622
998.084936	2666.525889
998.380099	2660.615136
998.675225	2655.566420
998.970316	2650.663898
999.265371	2639.875829
999.560390	2632.717390
999.855373	2628.906278
1000.150320	2622.350257
1000.445232	2617.858589
1000.740108	2612.996397
1001.034948	2608.837445
1001.329752	2601.429469
1001.624521	2600.592637
1001.919254	2596.307657
1002.213951	2592.022676
1002.508613	2589.403797
1002.803239	2592.400762
1003.097829	2588.985381
1003.392384	2593.552666
1003.686903	2591.022007
1003.981386	2590.462439
1004.275834	2586.081676
1004.570246	2585.885071
1004.864623	2586.537901
1005.158964	2586.646285
1005.453270	2586.154773
1005.747540	2583.238465
1006.041775	2586.341296
1006.335974	2583.646799
1006.630138	2584.279464
1006.924266	2585.459094
1007.218359	2584.332396
1007.512416	2585.181830
1007.806438	2585.073445
1008.100425	2584.647468
1008.394376	2584.077818
1008.688292	2582.668815
1008.982172	2583.064546
1009.276017	2580.349884
1009.569827	2582.358784
1009.863602	2586.384145
1010.157341	2583.024216
1010.451045	2583.858527
1010.744714	2581.509350
1011.038347	2584.750812
1011.331945	2582.404154
1011.625508	2582.537745
1011.919036	2580.317117
1012.212528	2581.869792
1012.505986	2581.602611
1012.799408	2581.244689
1013.092795	2581.915162
1013.386147	2581.892477
1013.679464	2581.106057
1013.972745	2581.025399
1014.265992	2581.804257
1014.559204	2581.758887
1014.852380	2581.842066
1015.145521	2579.361818
1015.438628	2582.764597
1015.731699	2583.699731
1016.024736	2580.402816
1016.317737	2579.268557
1016.610703	2582.046233
1016.903635	2577.801581
1017.196531	2580.365008
1017.489393	2578.865264
1017.782219	2578.487178
1018.075011	2580.657395
1018.367768	2583.240986
1018.660490	2585.491861
1018.953177	2585.491861
1019.245829	2585.491861
