Dividing Wavelength (nm)	Counts (n)	Blue Motor Position (mm): 31.500000	Red Motor Position (mm): 0.000000	
326.493990	2155.741058
326.888308	2155.741058
327.282561	2155.741058
327.676750	2128.526388
328.070874	2128.118055
328.464933	2136.698099
328.858929	2144.917700
329.252859	2159.471511
329.646726	2170.378048
330.040528	2183.444718
330.434265	2204.362986
330.827938	2224.013404
331.221547	2243.520149
331.615091	2262.124527
332.008571	2283.148659
332.401986	2301.248922
332.795338	2322.542756
333.188625	2344.814574
333.581847	2360.358972
333.975006	2380.939482
334.368100	2401.058727
334.761129	2417.790317
335.154095	2433.793460
335.546996	2458.548046
335.939833	2490.430823
336.332606	2502.033039
336.725315	2514.797240
337.117960	2520.231604
337.510540	2530.465146
337.903056	2540.199614
338.295508	2547.678166
338.687896	2554.153528
339.080220	2558.567058
339.472480	2567.547874
339.864676	2570.559963
340.256807	2573.428380
340.648875	2578.073803
341.040879	2577.141190
341.432818	2579.659246
341.824694	2581.965574
342.216506	2581.088413
342.608253	2580.238979
342.999937	2577.627661
343.391557	2578.905594
343.783113	2575.230592
344.174605	2576.402661
344.566033	2573.622464
344.957397	2572.825962
345.348697	2571.336301
345.739934	2567.931002
346.131106	2565.090312
346.522215	2566.577452
346.913260	2561.755588
347.304241	2561.279199
347.695159	2563.635939
348.086012	2561.236349
348.476802	2557.581513
348.867528	2559.519837
349.258191	2554.130843
349.648789	2554.571944
350.039324	2553.576316
350.429796	2552.366439
350.820203	2550.370142
351.210548	2550.546583
351.600828	2550.428116
351.991045	2550.218908
352.381198	2547.867209
352.771288	2550.622200
353.161314	2546.569112
353.551276	2549.492982
353.941175	2548.641027
354.331010	2544.653474
354.720782	2544.983669
355.110490	2548.903167
355.500135	2546.140614
355.889717	2549.624052
356.279235	2547.438711
356.668689	2548.545245
357.058080	2549.319062
357.447408	2546.294369
357.836672	2548.149514
358.225873	2548.005841
358.615010	2545.979297
359.004084	2551.620348
359.393095	2553.483055
359.782043	2552.547921
360.170927	2552.792417
360.559748	2555.617983
360.948505	2552.953734
361.337199	2555.832232
361.725830	2557.125288
362.114398	2555.141594
362.502903	2554.629917
362.891344	2557.831050
363.279722	2554.818961
363.668037	2557.090000
364.056289	2559.741647
364.444478	2559.214847
364.832603	2559.824826
365.220665	2561.087635
365.608665	2559.300546
365.996601	2564.011505
366.384474	2558.922460
366.772284	2561.301884
367.160031	2562.925136
367.547715	2560.515464
367.935336	2560.923798
368.322893	2562.973027
368.710388	2564.074519
369.097820	2565.879252
369.485189	2562.773901
369.872495	2563.774570
370.259738	2563.255332
370.646918	2562.892368
371.034035	2563.096535
371.421090	2562.670558
371.808081	2564.339180
372.195010	2564.082081
372.581875	2566.496793
372.968678	2565.196176
373.355418	2568.888821
373.742096	2567.620971
374.128710	2566.406053
374.515262	2564.200548
374.901751	2566.040569
375.288177	2566.058213
375.674540	2568.636763
376.060841	2567.036197
376.447079	2568.805642
376.833254	2567.648697
377.219367	2562.564693
377.605417	2566.597617
377.991404	2564.538305
378.377329	2565.501166
378.763191	2562.627708
379.148991	2567.658779
379.534727	2568.485529
379.920402	2571.084243
380.306013	2569.133317
380.691563	2569.614747
381.077049	2569.743297
381.462474	2570.343194
381.847835	2573.516600
382.233134	2571.427042
382.618371	2573.030129
383.003545	2573.796384
383.388657	2571.797567
383.773706	2573.090623
384.158693	2571.744635
384.543618	2575.160016
384.928480	2570.796898
385.313280	2574.789492
385.698017	2573.302351
386.082692	2574.829821
386.467305	2571.618606
386.851856	2576.077506
387.236344	2574.928123
387.620770	2577.859554
388.005133	2577.153793
388.389435	2575.664132
388.773674	2574.711354
389.157851	2575.449883
389.541965	2578.081365
389.926018	2577.864595
390.310008	2575.994327
390.693936	2576.604307
391.077802	2578.434246
391.461606	2577.962898
391.845348	2579.021540
392.229027	2578.439287
392.612645	2576.770665
392.996200	2576.044739
393.379694	2576.931982
393.763125	2579.200501
394.146494	2577.206725
394.529801	2579.165213
394.913047	2580.687642
395.296230	2580.680080
395.679351	2579.813001
396.062410	2581.932807
396.445408	2578.588001
396.828343	2582.946078
397.211217	2579.107240
397.594028	2579.946592
397.976778	2577.499112
398.359466	2579.495409
398.742092	2576.296797
399.124656	2583.162848
399.507158	2582.522622
399.889598	2584.546645
400.271977	2584.400451
400.654294	2583.334247
401.036549	2582.625965
401.418742	2584.218970
401.800874	2583.157807
402.182944	2581.942889
402.564952	2581.431212
402.946898	2588.067891
403.328783	2583.293918
403.710606	2586.419433
404.092367	2586.129567
404.474067	2586.157293
404.855705	2587.140318
405.237282	2588.216605
405.618797	2587.082345
406.000250	2586.517736
406.381642	2586.865576
406.762972	2589.408838
407.144240	2585.194433
407.525447	2589.164342
407.906593	2585.927921
408.287677	2587.198292
408.668700	2587.798189
409.049661	2590.694332
409.430560	2589.716348
409.811399	2591.571493
410.192176	2589.257603
410.572891	2590.752305
410.953545	2591.052254
411.334138	2590.497727
411.714669	2590.351533
412.095139	2589.441605
412.475547	2591.594178
412.855894	2591.379929
413.236180	2593.935794
413.616405	2591.939497
413.996568	2590.444795
414.376670	2595.818665
414.756711	2591.788262
415.136691	2593.373705
415.516609	2591.679877
415.896466	2593.199785
416.276262	2594.371854
416.655997	2592.894796
417.035670	2593.058633
417.415283	2596.342945
417.794834	2592.657861
418.174324	2595.233891
418.553753	2596.375712
418.933121	2598.535847
419.312428	2599.002153
419.691674	2601.084150
420.070859	2600.587596
420.449983	2601.681527
420.829045	2603.945005
421.208047	2603.740838
421.586988	2605.482557
421.965867	2607.851899
422.344686	2608.068669
422.723444	2613.845831
423.102141	2613.873557
423.480777	2616.222735
423.859352	2620.996708
424.237866	2623.073663
424.616319	2623.134157
424.994712	2631.426855
425.373044	2634.123872
425.751314	2642.598052
426.129524	2642.179636
426.507673	2651.447798
426.885762	2656.907367
427.263789	2662.006494
427.641756	2669.848009
428.019662	2681.233455
428.397508	2685.316790
428.775292	2693.400280
429.153016	2701.566949
429.530679	2711.462734
429.908282	2721.582850
430.285824	2726.291288
430.663305	2746.206366
431.040726	2751.497057
431.418086	2761.894437
431.795385	2783.909156
432.172624	2796.481794
432.549802	2802.775674
432.926920	2818.241934
433.303977	2834.171980
433.680974	2852.395752
434.057910	2869.147506
434.434786	2886.998232
434.811601	2900.672361
435.188355	2935.264759
435.565050	2944.764813
435.941683	2961.687967
436.318257	2997.351610
436.694770	3018.204343
437.071222	3049.862789
437.447614	3051.685166
437.823946	3071.043197
438.200218	3098.300716
438.576429	3114.744959
438.952580	3141.586583
439.328670	3166.666323
439.704700	3203.680996
440.080670	3210.983107
440.456580	3258.029675
440.832429	3288.044705
441.208218	3276.762603
441.583947	3320.781958
441.959616	3353.032740
442.335224	3383.516597
442.710773	3420.816095
443.086261	3463.890234
443.461689	3472.868529
443.837057	3501.051099
444.212365	3562.696849
444.587612	3593.193309
444.962800	3598.899895
445.337927	3650.657422
445.712995	3619.891260
446.088002	3742.368613
446.462949	3784.084161
446.837837	3823.306859
447.212664	3846.176053
447.587431	4003.389477
447.962139	4210.780026
448.336786	4439.809727
448.711374	4464.009786
449.085901	4280.468937
449.460369	4273.469294
449.834776	4267.593830
450.209124	4457.249599
450.583412	4493.520701
450.957640	4605.671251
451.331808	4538.669275
451.705917	4475.105366
452.079965	4500.389273
452.453954	4554.874064
452.827883	4555.012696
453.201752	4593.948047
453.575562	4638.680726
453.949311	4770.080922
454.323001	4799.221311
454.696632	4824.104447
455.070202	4972.624401
455.443713	5021.009395
455.817164	5124.635354
456.190556	5203.862128
456.563888	5210.765988
456.937160	5299.785203
457.310373	5190.382082
457.683526	5267.090800
458.056619	5286.423625
458.429653	5294.418895
458.802628	5357.839131
459.175542	5403.020472
459.548398	5544.538263
459.921194	5732.956430
460.293930	5806.332944
460.666607	6044.915632
461.039224	6263.638695
461.411782	6393.327419
461.784280	6339.762639
462.156719	6365.754828
462.529099	6352.315112
462.901419	6239.330251
463.273680	6131.071472
463.645882	6137.935003
464.018024	6158.931409
464.390106	6236.597946
464.762130	6493.684189
465.134094	6877.792386
465.505999	7483.734037
465.877845	8176.262547
466.249631	8524.366823
466.621358	8472.009399
466.993026	8301.784757
467.364634	8110.278884
467.736184	7846.679470
468.107674	7706.623613
468.479105	7635.684496
468.850477	7585.406548
469.221790	7419.005622
469.593043	7207.098199
469.964238	7118.895651
470.335373	7096.081909
470.706449	7256.738441
471.077467	7451.064839
471.448425	8115.640151
471.819324	8688.489148
472.190164	8718.073159
472.560945	8241.807629
472.931667	7784.912732
473.302330	7601.558405
473.672934	7480.285888
474.043479	7560.846047
474.413965	7469.843137
474.784393	7422.794049
475.154761	7575.006648
475.525070	7590.114986
475.895321	7547.580250
476.265513	7643.757904
476.635645	7811.005745
477.005719	7802.657594
477.375734	7890.928198
477.745691	8001.659662
478.115588	8204.424953
478.485427	8438.067310
478.855207	8916.777800
479.224928	9348.489612
479.594591	9727.612108
479.964194	9732.272654
480.333739	9818.463782
480.703226	9822.378238
481.072653	9929.308673
481.442022	10046.233195
481.811333	10191.867089
482.180584	10026.045895
482.549777	9975.788112
482.918912	9913.335777
483.287988	9904.007122
483.657005	9811.259973
484.025964	9723.894257
484.394864	9789.794740
484.763706	9744.694057
485.132489	9657.474534
485.501213	9648.322319
485.869879	9707.026556
486.238487	9644.123038
486.607036	9727.211336
486.975527	9672.711422
487.343959	9728.827026
487.712333	9772.153222
488.080648	9812.895828
488.448905	9921.920862
488.817104	9925.111912
489.185244	10095.255896
489.553326	10305.761878
489.921350	10780.545309
490.289315	11405.456822
490.657222	11697.256450
491.025070	11869.560568
491.392861	11784.566714
491.760593	11618.558998
492.128267	11374.773839
492.495883	11135.263578
492.863440	10902.611808
493.230939	10675.477580
493.598380	10501.401497
493.965763	10475.426952
494.333088	10346.864926
494.700354	10274.728535
495.067563	10244.516900
495.434713	10255.650288
495.801805	10296.405496
496.168839	10250.551161
496.535815	10220.326923
496.902733	10262.922152
497.269593	10235.841074
497.636395	10235.742771
498.003139	10341.191107
498.369825	10275.136868
498.736453	10365.852432
499.103023	10306.442433
499.469535	10318.631943
499.835989	10363.659530
500.202385	10342.085912
500.568723	10362.058963
500.935003	10428.314848
501.301226	10389.019054
501.667390	10553.542151
502.033497	10660.021402
502.399546	10577.656510
502.765537	10482.567746
503.131470	10593.394993
503.497345	10682.250370
503.863163	10458.861720
504.228923	10586.024826
504.594625	10705.742147
504.960269	10618.066400
505.325856	10776.746799
505.691385	10640.681016
506.056856	10714.312109
506.422270	10818.568212
506.787625	10755.566391
507.152924	10801.624893
507.518164	10869.176355
507.883347	10732.772814
508.248472	10802.756633
508.613540	10912.452140
508.978550	10991.215128
509.343503	10971.179062
509.708398	11021.499860
510.073236	11151.606999
510.438016	11162.866416
510.802738	11072.012221
511.167403	11197.776407
511.532010	11261.317630
511.896561	11361.956705
512.261053	11558.791078
512.625488	11476.363171
512.989866	11463.508229
513.354186	11442.032913
513.718449	11455.074378
514.082655	11596.448497
514.446803	11553.326467
514.810894	11660.382931
515.174927	11652.243988
515.538904	11634.272274
515.902822	11795.475771
516.266684	11668.615135
516.630488	11766.171544
516.994235	11757.989751
517.357925	11877.092052
517.721558	11932.423757
518.085133	11995.609579
518.448651	12027.484795
518.812112	11987.636994
519.175516	11996.890032
519.538863	12091.341091
519.902152	12101.015065
520.265385	12205.447608
520.628560	12224.404867
520.991678	12176.405521
521.354739	12228.921741
521.717743	12300.496043
522.080690	12272.527722
522.443580	12411.860173
522.806413	12423.608582
523.169189	12421.478694
523.531908	12469.793113
523.894569	12437.640633
524.257174	12459.970424
524.619722	12560.244016
524.982213	12540.454966
525.344647	12523.446113
525.707025	12539.456818
526.069345	12637.114050
526.431608	12610.905091
526.793815	12698.512783
527.155964	12588.960948
527.518057	12620.246349
527.880093	12580.232191
528.242072	12703.707692
528.603995	12623.192904
528.965860	12632.551806
529.327669	12667.121518
529.689421	12611.595729
530.051117	12618.665948
530.412755	12658.060044
530.774337	12658.223882
531.135862	12622.030918
531.497331	12676.702231
531.858743	12637.308134
532.220098	12733.553844
532.581396	12664.036332
532.942638	12586.425248
533.303824	12650.389929
533.664953	12625.547122
534.026025	12582.835947
534.387040	12689.743696
534.747999	12659.030466
535.108902	12701.726519
535.469748	12582.498189
535.830537	12608.606325
536.191270	12646.606543
536.551947	12576.290008
536.912567	12639.672436
537.273131	12669.994976
537.633638	12545.181048
537.994089	12608.109771
538.354483	12522.112728
538.714821	12656.525013
539.075103	12733.568967
539.435328	12670.269719
539.795497	12643.874237
540.155609	12641.653609
540.515665	12739.083989
540.875665	12594.165940
541.235609	12702.734750
541.595496	12662.531548
541.955328	12839.546624
542.315102	12694.106815
542.674821	12627.132565
543.034483	12643.591933
543.394090	12650.563848
543.753640	12615.288374
544.113134	12862.100746
544.472571	12612.929114
544.831953	12901.273032
545.191278	12717.830485
545.550548	12644.474135
545.909761	12757.043100
546.268918	12799.792085
546.628019	12863.154347
546.987064	12749.269641
547.346053	12605.816046
547.704986	12800.298721
548.063863	12682.217253
548.422684	12734.456210
548.781449	12691.329139
549.140158	12792.162298
549.498811	12743.479876
549.857408	12619.664096
550.215949	12823.044407
550.574434	12780.156790
550.932864	12731.907907
551.291237	12927.008122
551.649555	12825.746465
552.007817	12867.454452
552.366022	12791.572483
552.724173	12827.326867
553.082267	12924.190117
553.440305	13009.592305
553.798288	12831.316940
554.156215	12898.828072
554.514086	12962.177732
554.871902	12899.773289
555.229661	12917.596288
555.587365	12873.617262
555.945014	12893.184501
556.302606	12874.592725
556.660143	12923.784305
557.017625	12967.170995
557.375050	12918.637287
557.732421	13027.364893
558.089735	13019.309129
558.446994	12987.849808
558.804197	13105.389351
559.161345	13093.666148
559.518437	12923.877566
559.875474	13012.160773
560.232455	13043.572202
560.589381	13085.562493
560.946251	13023.334490
561.303065	13197.534082
561.659825	13145.078356
562.016528	13070.784351
562.373177	13006.502078
562.729770	13142.194816
563.086307	13020.962627
563.442789	13135.767344
563.799216	13175.922655
564.155587	13114.801186
564.511904	13129.803659
564.868164	13155.805931
565.224370	13212.672667
565.580520	13149.012976
565.936615	13213.612842
566.292654	13146.888130
566.648638	13218.507803
567.004567	13221.751785
567.360441	13226.762692
567.716260	13194.733721
568.072023	13279.644396
568.427732	13261.954987
568.783385	13163.846571
569.138982	13271.608797
569.494525	13265.665276
569.850013	13220.620046
570.205445	13204.866440
570.560823	13220.809089
570.916145	13174.042305
571.271412	13179.431298
571.626625	13137.506543
571.981782	13142.290598
572.336884	13088.599788
572.691931	13168.222293
573.046923	13067.605903
573.401860	13035.629864
573.756743	13037.779917
574.111570	13062.111046
574.466342	13043.262171
574.821059	13092.630191
575.175722	12961.232516
575.530330	12985.034324
575.884882	12929.450562
576.239380	12915.300043
576.593823	12887.114952
576.948211	12892.040159
577.302544	12768.794030
577.656823	12784.461936
578.011047	12847.141122
578.365216	12780.232408
578.719330	12724.036145
579.073389	12690.184797
579.427394	12700.372969
579.781344	12702.500336
580.135239	12634.906025
580.489080	12654.606854
580.842866	12536.245603
581.196597	12629.625416
581.550273	12624.861526
581.903895	12588.275352
582.257463	12694.860467
582.610975	12539.313145
582.964434	12594.213831
583.317837	12516.864887
583.671186	12474.055408
584.024481	12524.487111
584.377721	12416.830750
584.730906	12491.520486
585.084037	12502.787465
585.437113	12418.338055
585.790135	12440.773711
586.143103	12352.792973
586.496016	12375.400028
586.848874	12382.258517
587.201679	12384.141388
587.554428	12260.161771
587.907124	12297.700723
588.259765	12241.234759
588.612352	12313.897951
588.964884	12169.352946
589.317362	12224.306564
589.669786	12213.515975
590.022155	12177.217146
590.374470	12270.576795
590.726731	12161.022440
591.078937	12047.679657
591.431090	12073.220663
591.783188	12008.252793
592.135232	11925.764392
592.487222	11992.897438
592.839157	11997.958757
593.191038	11930.697162
593.542866	11875.554500
593.894639	11728.042777
594.246358	11787.137703
594.598022	11799.039867
594.949633	11696.603621
595.301190	11690.962570
595.652692	11644.084880
596.004141	11734.762635
596.355535	11514.260045
596.706876	11499.381080
597.058162	11460.397837
597.409395	11546.256249
597.760573	11585.357958
598.111698	11475.347379
598.462768	11475.037348
598.813785	11485.553195
599.164748	11353.958915
599.515657	11439.782038
599.866511	11309.909312
600.217312	11443.215064
600.568060	11206.903416
600.918753	11365.349402
601.269392	11363.416119
601.619978	11272.864393
601.970510	11316.954325
602.320988	11359.317661
602.671412	11428.313413
603.021783	11352.582680
603.372100	11280.640373
603.722363	11293.039091
604.072572	11295.874740
604.422728	11302.657613
604.772830	11249.254149
605.122878	11260.601787
605.472872	11229.684390
605.822813	11292.408947
606.172701	11250.254818
606.522534	11277.469487
606.872314	11334.109371
607.222041	11267.944227
607.571714	11344.678150
607.921333	11215.894314
608.270899	11269.083528
608.620411	11339.266472
608.969870	11280.824375
609.319276	11260.493402
609.668627	11276.365475
610.017926	11350.551095
610.367171	11386.655838
610.716362	11380.528316
611.065500	11351.897083
611.414585	11360.784637
611.763616	11425.588670
612.112594	11392.889225
612.461518	11413.845302
612.810389	11466.679115
613.159207	11417.545509
613.507971	11411.259190
613.856682	11505.574137
614.205340	11454.323247
614.553945	11598.626275
614.902496	11468.655247
615.250994	11536.730988
615.599439	11527.581294
615.947830	11560.792416
616.296169	11528.813856
616.644454	11543.037472
616.992686	11557.797970
617.340864	11647.825416
617.688990	11543.428161
618.037063	11677.139726
618.385082	11641.534056
618.733048	11687.995851
619.080961	11675.922287
619.428821	11660.009885
619.776628	11660.972746
620.124382	11605.822523
620.472083	11621.850871
620.819731	11645.498924
621.167326	11559.738815
621.514868	11543.327338
621.862357	11456.483381
622.209793	11438.083169
622.557176	11358.594256
622.904506	11303.577623
623.251783	11227.345295
623.599007	11167.945379
623.946179	11116.160126
624.293297	11091.143400
624.640363	10961.989038
624.987376	10946.583272
625.334336	10881.000381
625.681243	10801.234204
626.028097	10771.816551
626.374899	10729.831301
626.721647	10710.659793
627.068343	10664.051805
627.414987	10610.255132
627.761577	10545.667869
628.108115	10589.520866
628.454600	10460.729467
628.801032	10478.857457
629.147412	10457.755187
629.493739	10430.013717
629.840014	10353.524290
630.186236	10397.087421
630.532405	10298.590836
630.878521	10335.124078
631.224585	10284.505852
631.570597	10206.705725
631.916556	10216.891377
632.262462	10195.022851
632.608316	10178.132465
632.954117	10150.864864
633.299866	10136.633687
633.645562	10111.571590
633.991206	10010.128452
634.336797	9912.083050
634.682336	9908.660107
635.027823	9846.805149
635.373257	9820.213063
635.718639	9745.490560
636.063968	9724.042971
636.409245	9599.344989
636.754470	9592.403320
637.099642	9530.487869
637.444762	9435.517572
637.789829	9441.715670
638.134845	9366.438640
638.479808	9347.529272
638.824719	9326.298453
639.169577	9232.298578
639.514383	9234.831758
639.859137	9167.431531
640.203839	9210.606493
640.548489	9119.782544
640.893086	9126.305797
641.237632	9055.291063
641.582125	9060.281806
641.926566	9046.040546
642.270955	9027.380715
642.615292	9031.010346
642.959576	9009.333384
643.303809	8984.246082
643.647990	9006.258280
643.992118	8986.350764
644.336195	8966.526426
644.680219	8960.782032
645.024192	9004.801387
645.368112	9080.007841
645.711981	9055.555724
646.055797	9195.820788
646.399562	9151.272112
646.743274	9311.570722
647.086935	9381.373059
647.430544	9352.373821
647.774101	9378.895332
648.117606	9402.487932
648.461059	9468.718611
648.804460	9383.833142
649.147810	9276.196945
649.491108	9245.839117
649.834354	9178.905197
650.177548	9039.451758
650.520690	8946.936502
650.863781	8943.639588
651.206820	8911.419053
651.549807	8824.660795
651.892742	8728.405004
652.235626	8689.971247
652.578458	8654.360536
652.921238	8549.439001
653.263967	8583.083662
653.606644	8514.902056
653.949269	8499.140889
654.291843	8424.191534
654.634365	8485.040781
654.976836	8410.580418
655.319255	8402.796877
655.661622	8393.095176
656.003938	8346.774534
656.346203	8308.660891
656.688416	8350.872992
657.030577	8306.641908
657.372687	8271.847865
657.714746	8305.484964
658.056753	8319.383425
658.398708	8220.549083
658.740612	8216.458187
659.082465	8250.541428
659.424266	8213.277219
659.766016	8223.578817
660.107715	8196.442285
660.449362	8219.782828
660.790958	8207.114408
661.132503	8209.972742
661.473996	8214.008186
661.815438	8224.894558
662.156829	8254.715503
662.498168	8208.225983
662.839456	8197.047224
663.180693	8221.658137
663.521879	8240.123883
663.863013	8219.881130
664.204097	8213.977939
664.545129	8292.007439
664.886110	8283.576109
665.227040	8275.202753
665.567918	8294.429713
665.908746	8312.615676
666.249522	8327.567738
666.590248	8325.163108
666.930922	8343.621293
667.271545	8337.007299
667.612118	8355.064712
667.952639	8316.893095
668.293109	8315.272364
668.633528	8287.858569
668.973896	8273.932382
669.314213	8283.629041
669.654480	8238.276301
669.994695	8226.018735
670.334859	8212.705048
670.674973	8190.975154
671.015035	8218.525060
671.355047	8207.414357
671.695008	8197.090074
672.034918	8170.661825
672.374777	8175.506373
672.714585	8150.119123
673.054342	8180.897888
673.394049	8147.177609
673.733705	8186.549021
674.073310	8138.668142
674.412864	8142.368349
674.752368	8078.471724
675.091820	8127.930484
675.431223	8058.249135
675.770574	8013.571909
676.109875	7981.454718
676.449125	7947.671425
676.788324	7938.703213
677.127473	7849.250458
677.466571	7836.531627
677.805619	7773.030733
678.144616	7777.774458
678.483562	7757.587158
678.822458	7704.922224
679.161303	7692.589041
679.500098	7673.309148
679.838842	7652.826940
680.177535	7673.183119
680.516179	7699.623971
680.854771	7720.131385
681.193314	7832.226482
681.531805	7997.306626
681.870247	8114.916745
682.208638	8261.568952
682.546978	8330.582348
682.885268	8361.865228
683.223508	8287.470400
683.561697	8237.976352
683.899836	8208.904018
684.237925	8124.472253
684.575963	8098.780012
684.913951	8008.203080
685.251889	8035.291720
685.589776	8025.302674
685.927614	8008.407247
686.265401	8031.851133
686.603137	8035.493367
686.940824	8101.860157
687.278460	8161.103797
687.616046	8172.025457
687.953582	8277.751056
688.291068	8267.698995
688.628504	8319.527098
688.965889	8321.329310
689.303224	8277.753576
689.640510	8237.999037
689.977745	8137.677555
690.314930	8010.189295
690.652065	7935.497039
690.989150	7822.439082
691.326185	7666.322109
691.663170	7562.081129
692.000105	7442.477234
692.336990	7330.717374
692.673825	7260.438648
693.010610	7165.221334
693.347345	7068.698361
693.684030	6960.520241
694.020665	6912.110041
694.357251	6794.391537
694.693786	6786.363499
695.030272	6745.141984
695.366707	6649.811244
695.703093	6596.385096
696.039429	6596.624551
696.375716	6548.244597
696.711952	6538.424429
697.048139	6509.059708
697.384276	6472.042516
697.720363	6489.043807
698.056400	6468.342309
698.392388	6435.768893
698.728326	6433.525580
699.064214	6405.700931
699.400053	6399.502832
699.735842	6340.622155
700.071581	6295.619775
700.407270	6250.922384
700.742910	6222.397015
701.078501	6183.605337
701.414042	6139.016331
701.749533	6086.686633
702.084974	6022.394278
702.420366	6064.165278
702.755709	5989.929247
703.091002	5939.787410
703.426246	5949.237053
703.761440	5933.117964
704.096584	5887.924019
704.431679	5877.834150
704.766725	5863.108940
705.101721	5849.742320
705.436668	5863.764290
705.771565	5806.751360
706.106413	5869.949785
706.441212	5863.033322
706.775961	5878.066043
707.110661	5886.651128
707.445311	5948.765705
707.779913	5915.161374
708.114465	5952.881807
708.448967	5997.218755
708.783421	6113.248473
709.117825	6155.044679
709.452180	6189.100194
709.786485	6258.436224
710.120742	6381.689915
710.454949	6384.694443
710.789107	6459.089271
711.123216	6582.610143
711.457275	6616.312777
711.791286	6717.902109
712.125247	6744.723568
712.459159	6709.886675
712.793023	6842.721078
713.126837	6673.174472
713.460602	6730.653708
713.794318	6686.263828
714.127985	6634.166023
714.461602	6490.132696
714.795171	6491.551781
715.128691	6321.765719
715.462162	6235.236834
715.795584	6167.012379
716.128957	6123.797087
716.462281	6048.585593
716.795556	6017.635428
717.128782	5934.100989
717.461960	5836.456359
717.795088	5821.189225
718.128167	5751.916209
718.461198	5670.032747
718.794180	5647.571886
719.127113	5585.558132
719.459997	5556.410181
719.792833	5492.659749
720.125619	5483.893183
720.458357	5426.020737
720.791046	5393.835490
721.123686	5369.227097
721.456278	5327.365356
721.788821	5314.931350
722.121315	5273.049444
722.453761	5282.665445
722.786158	5264.552579
723.118506	5269.810502
723.450805	5244.118262
723.783056	5274.183703
724.115259	5252.526906
724.447412	5240.967541
724.779518	5284.775168
725.111574	5289.206342
725.443582	5326.556251
725.775542	5315.548891
726.107453	5395.869595
726.439315	5370.401686
726.771129	5446.250887
727.102895	5506.691801
727.434612	5548.203182
727.766281	5580.854736
728.097901	5638.346575
728.429473	5650.644470
728.760996	5659.824411
729.092471	5685.388102
729.423897	5672.142470
729.755276	5638.424713
730.086606	5654.120345
730.417887	5742.073356
730.749120	5835.556513
731.080305	5876.344489
731.411442	5953.580007
731.742530	5977.633873
732.073570	6002.804354
732.404562	6061.725360
732.735506	6056.648918
733.066401	6033.885588
733.397249	5968.874868
733.728048	5875.830291
734.058798	5730.516511
734.389501	5604.530515
734.720156	5520.093708
735.050762	5409.621863
735.381320	5336.237787
735.711831	5276.570690
736.042293	5199.587229
736.372707	5194.866189
736.703073	5148.457326
737.033391	5174.809958
737.363661	5164.936858
737.693883	5177.048230
738.024056	5204.363723
738.354182	5232.006890
738.684260	5278.914826
739.014290	5316.509231
739.344272	5354.358214
739.674207	5411.000619
740.004093	5441.532367
740.333931	5445.527481
740.663722	5468.051357
740.993464	5477.523685
741.323159	5457.490139
741.652806	5414.784005
741.982405	5388.935488
742.311956	5330.243855
742.641460	5317.426721
742.970915	5265.707003
743.300323	5204.114185
743.629683	5173.501779
743.958996	5117.166884
744.288260	5069.001180
744.617477	5009.460112
744.946647	4996.375797
745.275768	4939.894709
745.604842	4905.014966
745.933869	4869.210171
746.262847	4867.919635
746.591778	4852.224003
746.920662	4827.557637
747.249498	4823.801977
747.578286	4845.829299
747.907027	4869.094224
748.235720	4907.893465
748.564365	4921.270167
748.892963	4904.273916
749.221514	4926.180250
749.550017	4895.572885
749.878473	4894.821753
750.206881	4852.224003
750.535242	4843.258311
750.863555	4832.021579
751.191821	4805.981499
751.520039	4810.662210
751.848210	4791.397441
752.176334	4802.046878
752.504411	4782.691368
752.832440	4751.073251
753.160421	4767.870376
753.488356	4745.185183
753.816243	4724.226586
754.144082	4691.411195
754.471875	4681.177653
754.799620	4671.801107
755.127318	4663.236186
755.454969	4655.994569
755.782572	4648.110204
756.110129	4653.194208
756.437638	4638.106034
756.765100	4634.199140
757.092515	4637.831292
757.419882	4638.831961
757.747203	4636.281137
758.074477	4649.342766
758.401703	4640.679543
758.728882	4670.195499
759.056014	4679.710677
759.383099	4703.041137
759.710138	4731.458121
760.037129	4750.889249
760.364073	4769.720479
760.690970	4764.167648
761.017820	4764.230662
761.344623	4796.420950
761.671379	4860.453687
761.998088	4948.726811
762.324751	5177.310370
762.651366	5641.542666
762.977935	6330.496998
763.304456	6890.047431
763.630931	7191.682351
763.957359	7133.058772
764.283740	6836.417116
764.610074	6517.082705
764.936362	6115.650583
765.262602	5798.574609
765.588796	5449.646104
765.914943	5200.507240
766.241044	4976.465760
766.567097	4802.825736
766.893104	4654.661184
767.219064	4553.722160
767.544978	4458.008293
767.870845	4375.784553
768.196665	4325.352850
768.522438	4278.354173
768.848165	4237.099890
769.173846	4198.570351
769.499479	4170.783511
769.825066	4137.690857
770.150607	4091.546655
770.476101	4076.655087
770.801548	4054.358063
771.126949	4022.230790
771.452303	4006.993902
771.777611	3971.025269
772.102872	3963.599650
772.428087	3940.357410
772.753256	3913.122576
773.078378	3896.012900
773.403453	3861.773383
773.728482	3840.582893
774.053465	3822.661591
774.378401	3801.929846
774.703291	3780.580559
775.028135	3753.839759
775.352932	3747.432452
775.677683	3728.913774
776.002388	3706.556256
776.327046	3712.782081
776.651658	3688.645037
776.976224	3671.187521
777.300743	3666.975637
777.625216	3657.760408
777.949643	3644.408912
778.274024	3646.760610
778.598359	3630.192858
778.922647	3630.555821
779.246889	3616.939664
779.571086	3617.479068
779.895236	3618.757000
780.219339	3618.222638
780.543397	3620.029892
780.867409	3634.618991
781.191374	3634.155205
781.515294	3625.537352
781.839167	3643.945126
782.162995	3641.018736
782.486776	3632.768888
782.810511	3625.965850
783.134201	3612.463120
783.457844	3610.124024
783.781441	3603.084053
784.104993	3594.645162
784.428498	3591.295315
784.751958	3586.390272
785.075372	3579.562029
785.398739	3571.975093
785.722061	3580.184612
786.045337	3575.720670
786.368568	3602.153960
786.691752	3599.308229
787.014891	3647.761279
787.337983	3686.144624
787.661030	3774.024539
787.984031	3876.105384
788.306987	3950.225469
788.629897	3997.345134
788.952760	4006.910723
789.275579	3989.032271
789.598351	3939.966721
789.921078	3892.796644
790.243759	3822.069256
790.566395	3776.661062
790.888984	3730.161459
791.211529	3695.717776
791.534027	3648.711537
791.856480	3609.877008
792.178888	3590.965119
792.501249	3574.795618
792.823566	3540.235988
793.145836	3540.316647
793.468062	3528.805172
793.790241	3514.725229
794.112375	3518.107843
794.434464	3539.646173
794.756507	3540.301523
795.078505	3557.048236
795.400457	3597.634566
795.722364	3647.428563
796.044226	3695.415306
796.366042	3740.057244
796.687812	3734.280082
797.009538	3759.503495
797.331218	3749.252309
797.652852	3741.400712
797.974442	3719.265005
798.295986	3707.057851
798.617484	3681.121115
798.938938	3657.289060
799.260346	3639.997902
799.581709	3605.314764
799.903026	3591.587702
800.224299	3573.880649
800.545526	3545.166237
800.866708	3524.550438
801.187845	3513.893439
801.508936	3491.087259
801.829983	3481.987976
802.150984	3453.641568
802.471940	3444.610341
802.792851	3437.741769
803.113717	3430.840429
803.434538	3422.399017
803.755314	3411.124476
804.076045	3406.171543
804.396731	3397.374729
804.717372	3395.723751
805.037967	3392.273082
805.358518	3394.586971
805.679024	3409.223961
805.999485	3406.761358
806.319901	3410.408633
806.640272	3414.461720
806.960598	3427.404883
807.280879	3427.392280
807.601115	3437.156995
807.921306	3426.094183
808.241453	3432.362858
808.561554	3435.926953
808.881611	3431.704987
809.201623	3436.463836
809.521590	3427.543514
809.841513	3428.579472
810.161390	3432.506530
810.481223	3409.362593
810.801011	3410.764034
811.120755	3409.334867
811.440453	3393.659399
811.760107	3390.014645
812.079716	3384.812174
812.399281	3367.636963
812.718801	3369.688712
813.038276	3363.271323
813.357707	3357.244624
813.677093	3365.660830
813.996434	3348.329343
814.315731	3354.973584
814.634983	3357.842001
814.954191	3358.220087
815.273354	3374.679455
815.592473	3380.234806
815.911547	3403.000657
816.230577	3417.995569
816.549562	3440.108590
816.868502	3459.738843
817.187399	3483.699448
817.506250	3507.894466
817.825058	3517.913759
818.143821	3560.977816
818.462539	3607.258128
818.781213	3663.991274
819.099843	3748.806167
819.418429	3900.965834
819.736970	4051.983680
820.055466	4237.588882
820.373919	4478.815655
820.692327	4811.932581
821.010691	5319.591897
821.329011	6400.458131
821.647286	8140.364490
821.965517	10311.760851
822.283704	11924.834300
822.601847	13006.600380
822.919945	12605.813526
823.237999	11926.873446
823.556010	11026.919100
823.873976	10079.565305
824.191897	9106.559598
824.509775	8337.773554
824.827609	7538.622120
825.145398	6986.971175
825.463144	6609.565193
825.780845	6482.298743
826.098502	6542.359050
826.416116	6926.172339
826.733685	7427.333608
827.051210	7721.618525
827.368692	7621.319728
827.686129	7180.075094
828.003522	6626.556402
828.320872	6061.982459
828.638177	5595.141366
828.955439	5228.946909
829.272656	4893.874016
829.589830	4612.696098
829.906960	4346.719780
830.224046	4140.246722
830.541088	3968.996205
830.858086	3852.611086
831.175041	3758.260851
831.491952	3714.264181
831.808819	3691.652085
832.125642	3732.238415
832.442421	3833.353878
832.759157	4049.574008
833.075849	4426.906894
833.392497	4888.868150
833.709101	5277.679743
834.025662	5384.035487
834.342179	5259.715592
834.658653	4991.160723
834.975083	4719.898756
835.291469	4476.103514
835.607811	4250.519442
835.924110	4090.311572
836.240366	3932.067232
836.556578	3772.008077
836.872746	3636.834578
837.188871	3521.190509
837.504952	3426.704162
837.820990	3354.363605
838.136984	3295.918988
838.452935	3268.227929
838.768842	3252.764190
839.084706	3287.946403
839.400526	3421.196702
839.716303	3645.853202
840.032037	3857.594267
840.347727	3925.972477
840.663373	3831.750792
840.978977	3685.385931
841.294537	3554.789799
841.610054	3447.216617
841.925527	3369.159391
842.240957	3303.891572
842.556344	3241.149372
842.871687	3184.156607
843.186987	3121.154787
843.502244	3071.060841
843.817458	3028.896630
844.132629	2998.430417
844.447756	2975.057107
844.762840	2951.106585
845.077881	2934.241405
845.392879	2922.092224
845.707833	2911.604103
846.022745	2897.264541
846.337613	2897.902247
846.652438	2886.166441
846.967221	2882.771224
847.281960	2875.161602
847.596656	2869.565922
847.911309	2863.665251
848.225919	2863.826568
848.540485	2857.426823
848.855009	2853.338447
849.169490	2849.527335
849.483928	2846.568178
849.798323	2846.358970
850.112675	2839.646673
850.426984	2840.201200
850.741251	2839.593741
851.055474	2837.975531
851.369654	2836.995027
851.683792	2835.664162
851.997887	2837.766323
852.311938	2834.880262
852.625947	2837.605006
852.939914	2834.373627
853.253837	2835.298678
853.567718	2832.442865
853.881555	2832.720128
854.195350	2834.287927
854.509103	2832.442865
854.822812	2833.884635
855.136479	2831.159891
855.450103	2833.390602
855.763685	2832.798266
856.077224	2833.201558
856.390720	2833.526713
856.704173	2837.763802
857.017584	2837.226920
857.330953	2836.914368
857.644278	2843.190605
857.957561	2844.871829
858.270802	2847.193281
858.584000	2845.577591
858.897155	2844.569360
859.210268	2839.296313
859.523339	2838.593072
859.836367	2838.895542
860.149352	2839.011488
860.462295	2835.764985
860.775195	2829.579489
861.088054	2829.566886
861.400869	2830.088646
861.713642	2827.084118
862.026373	2831.764829
862.339062	2831.782473
862.651708	2835.006291
862.964312	2841.975687
863.276873	2840.992662
863.589392	2849.018178
863.901869	2855.755681
864.214303	2864.176928
864.526696	2871.221941
864.839045	2876.928527
865.151353	2885.490927
865.463619	2886.678118
865.775842	2887.673746
866.088023	2892.087276
866.400162	2892.314128
866.712258	2896.483163
867.024313	2895.495096
867.336325	2898.582803
867.648296	2900.826117
867.960224	2899.533061
868.272110	2899.797721
868.583954	2902.419121
868.895755	2905.645460
869.207515	2902.167063
869.519233	2910.976480
869.830909	2915.044691
870.142542	2917.552665
870.454134	2919.001997
870.765684	2922.082142
871.077191	2928.275199
871.388657	2934.498504
871.700081	2938.599482
872.011463	2945.052159
872.322803	2954.479117
872.634101	2960.732668
872.945357	2962.794500
873.256571	2975.062148
873.567744	2979.944506
873.878874	2985.981287
874.189963	2994.210971
874.501010	2995.133502
874.812015	2993.860611
875.122979	3005.682117
875.433900	3005.334277
875.744780	3007.630523
876.055618	3012.855678
876.366415	3014.178981
876.677169	3020.117461
876.987882	3027.515354
877.298554	3037.108670
877.609183	3050.089641
877.919771	3068.988927
878.230317	3092.238728
878.540822	3129.621404
878.851285	3180.716019
879.161707	3244.660535
879.472087	3352.778162
879.782425	3514.180784
880.092722	3790.352836
880.402977	4211.450499
880.713191	4756.623561
881.023363	5351.731773
881.333494	5790.924658
881.643583	6073.541825
881.953631	6155.619371
882.263637	6098.694662
882.573602	5953.524554
882.883526	5785.223113
883.193408	5586.195838
883.503248	5364.972363
883.813048	5153.521165
884.122806	4937.732054
884.432522	4693.851114
884.742197	4467.798213
885.051831	4266.530146
885.361424	4065.491451
885.670975	3899.392994
885.980485	3751.326744
886.289954	3626.167497
886.599382	3523.234697
886.908768	3438.170267
887.218113	3356.584233
887.527417	3297.292702
887.836680	3236.529154
888.145901	3189.427133
888.455082	3152.851041
888.764221	3121.492544
889.073319	3090.602874
889.382376	3070.967579
889.691392	3056.393604
890.000366	3050.220711
890.309300	3040.685368
890.618193	3035.193031
890.927044	3030.081301
891.235855	3032.226312
891.544625	3033.539533
891.853353	3039.651932
892.162041	3056.128943
892.470687	3082.010227
892.779293	3115.601956
893.087858	3161.249604
893.396381	3240.365472
893.704864	3347.346318
894.013306	3502.843229
894.321707	3686.961291
894.630068	3843.098429
894.938387	3921.828649
895.246665	3924.576078
895.554903	3872.011967
895.863100	3787.542393
896.171256	3707.224209
896.479371	3636.680823
896.787446	3560.398083
897.095480	3489.219511
897.403473	3433.663475
897.711425	3377.467213
898.019336	3325.407217
898.327207	3269.087446
898.635038	3222.136660
898.942827	3172.829134
899.250576	3132.467136
899.558284	3092.647062
899.865952	3066.647311
900.173579	3035.412321
900.481165	3010.816532
900.788711	2993.769870
901.096216	2978.853096
901.403681	2967.011425
901.711105	2959.016155
902.018489	2952.140022
902.325832	2958.630507
902.633135	2965.857001
902.940397	3006.380316
903.247619	3099.392125
903.554800	3273.231275
903.861941	3551.195457
904.169041	3812.417967
904.476101	3980.321157
904.783121	3998.870083
905.090100	3931.331224
905.397039	3830.180472
905.703938	3724.895974
906.010796	3621.474182
906.317614	3537.990154
906.624391	3448.920527
906.931129	3384.965929
907.237826	3313.568067
907.544483	3247.740680
907.851099	3175.702592
908.157675	3103.624174
908.464211	3029.728420
908.770707	2972.581900
909.077163	2924.154056
909.383578	2889.387738
909.689954	2860.645600
909.996289	2840.087774
910.302584	2829.483707
910.608839	2819.761842
910.915054	2809.767755
911.221229	2803.720891
911.527363	2804.358597
911.833458	2803.524286
912.139513	2809.016623
912.445527	2810.874288
912.751502	2821.289312
913.057436	2838.456961
913.363331	2857.389014
913.669186	2887.338509
913.975000	2924.590116
914.280775	2983.916935
914.586510	3065.777712
914.892205	3177.676203
915.197859	3321.921259
915.503475	3501.814834
915.809050	3676.422759
916.114585	3810.245229
916.420081	3886.480078
916.725536	3919.643309
917.030952	3878.053790
917.336328	3838.400073
917.641665	3795.482210
917.946961	3733.259248
918.252218	3677.136083
918.557435	3600.787807
918.862612	3534.012684
919.167750	3475.252994
919.472848	3401.135430
919.777906	3334.466170
920.082925	3264.000922
920.387904	3191.211702
920.692843	3135.224647
920.997743	3086.154055
921.302603	3034.812424
921.607423	2998.937053
921.912204	2966.104018
922.216946	2940.774740
922.521647	2914.648960
922.826310	2893.105589
923.130932	2875.343084
923.435516	2852.476410
923.740059	2840.654904
924.044564	2827.207626
924.349028	2814.085503
924.653454	2797.973975
924.957840	2785.597942
925.262186	2775.951695
925.566493	2764.982144
925.870761	2752.545617
926.174989	2749.815832
926.479178	2742.722929
926.783328	2733.835375
927.087438	2727.627194
927.391509	2722.454970
927.695541	2712.826366
927.999533	2710.676314
928.303486	2703.107022
928.607400	2699.991588
928.911275	2696.830785
929.215110	2694.108562
929.518906	2690.158818
929.822663	2690.168900
930.126381	2687.267716
930.430060	2690.153777
930.733699	2686.539269
931.037299	2689.775690
931.340861	2689.453056
931.644383	2689.662264
931.947866	2691.615711
932.251309	2690.365505
932.554714	2686.877027
932.858080	2690.310052
933.161407	2689.740402
933.464694	2688.051616
933.767943	2687.103879
934.071153	2685.883919
934.374323	2680.943589
934.677455	2681.609021
934.980548	2681.994669
935.283602	2678.370080
935.586617	2678.735563
935.889593	2681.656912
936.192530	2680.217662
936.495428	2680.762107
936.798287	2683.103723
937.101108	2691.139322
937.403890	2696.240970
937.706632	2706.381251
938.009336	2716.597149
938.312002	2729.812534
938.614628	2738.294275
938.917216	2747.690986
939.219765	2755.971081
939.522275	2767.653955
939.824747	2765.813934
940.127179	2765.017432
940.429573	2764.160436
940.731929	2763.580703
941.034246	2763.268152
941.336524	2764.528440
941.638763	2763.552977
941.940964	2764.646907
942.243126	2756.991915
942.545250	2753.659712
942.847335	2747.854824
943.149381	2742.337281
943.451389	2736.030797
943.753359	2731.012329
944.055290	2727.775908
944.357182	2721.025803
944.659036	2717.156717
944.960851	2714.063969
945.262628	2712.657487
945.564367	2711.742518
945.866067	2710.104143
946.167729	2710.325954
946.469352	2709.342929
946.770937	2704.546271
947.072484	2702.849923
947.373992	2702.053420
947.675462	2702.043338
947.976893	2700.929243
948.278286	2698.935467
948.579641	2698.874973
948.880958	2696.583768
949.182236	2696.319108
949.483476	2694.456402
949.784678	2695.948583
950.085841	2692.545804
950.386967	2695.762060
950.688054	2696.485466
950.989103	2700.362113
951.290114	2701.521579
951.591087	2704.921837
951.892021	2709.105995
952.192917	2718.316183
952.493776	2721.197202
952.794596	2724.589899
953.095378	2727.228943
953.396122	2724.514281
953.696828	2723.886658
953.997496	2724.068139
954.298126	2718.086810
954.598718	2718.265771
954.899272	2713.282591
955.199788	2708.881663
955.500266	2703.853112
955.800706	2698.267514
956.101108	2690.214271
956.401472	2685.689835
956.701798	2681.009124
957.002087	2669.885818
957.302337	2666.979592
957.602550	2662.392142
957.902724	2655.500885
958.202861	2651.992242
958.502960	2649.103661
958.803022	2643.230717
959.103045	2640.523617
959.403031	2636.657052
959.702979	2632.475415
960.002889	2629.334776
960.302762	2627.628346
960.602596	2623.033334
960.902393	2622.025103
961.202153	2621.490741
961.501875	2619.325565
961.801559	2617.629217
962.101205	2615.406068
962.400814	2611.536982
962.700385	2613.198043
962.999918	2610.798453
963.299414	2610.246447
963.598873	2609.989348
963.898293	2609.480192
964.197677	2609.825511
964.497022	2608.628237
964.796331	2607.602362
965.095601	2607.108329
965.394835	2608.731580
965.694030	2605.490118
965.993189	2608.545058
966.292309	2603.854264
966.591393	2606.561364
966.890439	2608.676128
967.189447	2606.770572
967.488419	2603.145982
967.787353	2604.998606
968.086249	2603.985334
968.385108	2607.390633
968.683930	2606.831065
968.982714	2605.989193
969.281462	2605.817793
969.580172	2605.369131
969.878844	2604.683534
970.177480	2608.633278
970.476078	2611.718464
970.774639	2612.973711
971.073162	2614.070162
971.371649	2613.613938
971.670098	2615.108640
971.968510	2615.307766
972.266885	2615.043105
972.565223	2620.633745
972.863524	2621.437809
973.161788	2621.946965
973.460014	2622.398148
973.758204	2624.346554
974.056356	2620.490072
974.354471	2620.989146
974.652550	2621.538632
974.950591	2621.168107
975.248595	2620.288426
975.546563	2626.176493
975.844493	2622.771194
976.142386	2624.601133
976.440243	2621.873868
976.738062	2622.657768
977.035845	2617.198198
977.333590	2614.561675
977.631299	2616.321037
977.928971	2615.587550
978.226606	2612.903135
978.524204	2614.702827
978.821765	2614.788527
979.119290	2613.636623
979.416777	2613.525718
979.714228	2613.079576
980.011642	2613.334154
980.309020	2616.736933
980.606360	2617.805657
980.903664	2624.649024
981.200931	2626.133643
981.498162	2633.274438
981.795356	2644.448155
982.092513	2659.516164
982.389633	2676.807322
982.686717	2693.491021
982.983764	2707.994420
983.280775	2724.932697
983.577749	2730.810682
983.874686	2729.464694
984.171587	2729.356310
984.468451	2723.006976
984.765279	2715.306614
985.062070	2708.022147
985.358824	2701.430838
985.655543	2692.296267
985.952224	2683.156655
986.248869	2668.736435
986.545478	2652.670277
986.842050	2640.279121
987.138586	2630.768984
987.435086	2620.918570
987.731549	2614.498660
988.027975	2614.183588
988.324366	2606.727722
988.620719	2605.525407
988.917037	2599.009715
989.213318	2599.997781
989.509563	2597.608274
989.805772	2598.571135
990.101944	2596.703387
990.398080	2595.730445
990.694180	2595.490990
990.990244	2595.327152
991.286271	2593.751792
991.582262	2593.850094
991.878217	2593.618201
992.174136	2596.635332
992.470019	2595.233891
992.765865	2598.813110
993.061676	2596.519385
993.357450	2599.206320
993.653188	2599.050044
993.948890	2603.057762
994.244556	2605.379213
994.540186	2614.256685
994.835780	2615.421192
995.131337	2623.265227
995.426859	2627.766977
995.722345	2637.511528
996.017795	2647.717344
996.313208	2657.449291
996.608586	2663.687719
996.903928	2666.183090
997.199234	2666.835920
997.494504	2664.693429
997.789738	2668.769202
998.084936	2665.129489
998.380099	2657.005670
998.675225	2653.113899
998.970316	2647.535862
999.265371	2640.775675
999.560390	2632.798049
999.855373	2627.983747
1000.150320	2622.120885
1000.445232	2620.048971
1000.740108	2611.728546
1001.034948	2606.369800
1001.329752	2604.131528
1001.624521	2601.411825
1001.919254	2596.496700
1002.213951	2595.604416
1002.508613	2589.476893
1002.803239	2594.570979
1003.097829	2588.574527
1003.392384	2590.729620
1003.686903	2588.990422
1003.981386	2589.824733
1004.275834	2588.894640
1004.570246	2586.119485
1004.864623	2588.440936
1005.158964	2585.927921
1005.453270	2584.145873
1005.747540	2586.169896
1006.041775	2585.385997
1006.335974	2585.822057
1006.630138	2585.761563
1006.924266	2587.074783
1007.218359	2583.205698
1007.512416	2583.911459
1007.806438	2585.348188
1008.100425	2584.168558
1008.394376	2581.990780
1008.688292	2584.652509
1008.982172	2581.784092
1009.276017	2581.055646
1009.569827	2582.867941
1009.863602	2582.429360
1010.157341	2582.517580
1010.451045	2581.736202
1010.744714	2581.156469
1011.038347	2581.532035
1011.331945	2580.246541
1011.625508	2582.313414
1011.919036	2580.851479
1012.212528	2581.219483
1012.505986	2580.191088
1012.799408	2580.488516
1013.092795	2580.727971
1013.386147	2581.181675
1013.679464	2580.032292
1013.972745	2577.047928
1014.265992	2581.300142
1014.559204	2582.885585
1014.852380	2580.944740
1015.145521	2579.190419
1015.438628	2579.639082
1015.731699	2578.961046
1016.024736	2578.766962
1016.317737	2582.825091
1016.610703	2581.534555
1016.903635	2578.542631
1017.196531	2580.826273
1017.489393	2578.235120
1017.782219	2579.208063
1018.075011	2581.819381
1018.367768	2580.496078
1018.660490	2581.801737
1018.953177	2581.801737
1019.245829	2581.801737
