Dividing Wavelength (nm)	Counts (n)	Blue Motor Position (mm): 13.500000	Red Motor Position (mm): 0.000000	
326.493990	2157.013949
326.888308	2157.013949
327.282561	2157.013949
327.676750	2134.326236
328.070874	2131.979579
328.464933	2141.857720
328.858929	2146.856024
329.252859	2161.394712
329.646726	2175.164623
330.040528	2188.803465
330.434265	2207.977494
330.827938	2227.958107
331.221547	2244.737588
331.615091	2263.893972
332.008571	2285.775100
332.401986	2307.252936
332.795338	2327.498210
333.188625	2347.677949
333.581847	2367.585466
333.975006	2386.736809
334.368100	2403.670045
334.761129	2424.008580
335.154095	2441.425767
335.546996	2462.510392
335.939833	2482.352374
336.332606	2497.869046
336.725315	2508.354646
337.117960	2516.549041
337.510540	2526.099507
337.903056	2535.871784
338.295508	2538.931764
338.687896	2550.269319
339.080220	2557.485731
339.472480	2562.234498
339.864676	2565.133161
340.256807	2566.900086
340.648875	2570.867474
341.040879	2573.065417
341.432818	2574.492063
341.824694	2574.963411
342.216506	2575.429718
342.608253	2573.751014
342.999937	2572.430232
343.391557	2574.025757
343.783113	2571.444686
344.174605	2570.630540
344.566033	2568.243553
344.957397	2567.331104
345.348697	2565.775908
345.739934	2564.850857
346.131106	2562.287430
346.522215	2562.325239
346.913260	2556.525391
347.304241	2556.543035
347.695159	2555.686039
348.086012	2551.975750
348.476802	2552.051367
348.867528	2552.736964
349.258191	2550.191181
349.648789	2548.714123
350.039324	2547.320244
350.429796	2548.240255
350.820203	2545.913762
351.210548	2547.169010
351.600828	2543.405788
351.991045	2543.219266
352.381198	2543.501570
352.771288	2541.921168
353.161314	2543.922507
353.551276	2539.899666
353.941175	2541.366642
354.331010	2541.240613
354.720782	2542.453010
355.110490	2542.856302
355.500135	2542.185829
355.889717	2543.405788
356.279235	2541.220448
356.668689	2544.459389
357.058080	2543.962836
357.447408	2540.398740
357.836672	2541.467465
358.225873	2540.933102
358.615010	2543.819163
359.004084	2546.443083
359.393095	2547.398382
359.782043	2547.269833
360.170927	2551.469114
360.559748	2550.957437
360.948505	2550.710420
361.337199	2548.457024
361.725830	2549.838301
362.114398	2550.377704
362.502903	2548.293187
362.891344	2553.525905
363.279722	2552.328631
363.668037	2549.782848
364.056289	2552.288301
364.444478	2555.048333
364.832603	2553.004145
365.220665	2554.398024
365.608665	2551.950544
365.996601	2552.991542
366.384474	2555.333158
366.772284	2556.222922
367.160031	2553.704866
367.547715	2552.719320
367.935336	2555.796944
368.322893	2554.713096
368.710388	2555.088662
369.097820	2556.006152
369.485189	2555.212171
369.872495	2556.376677
370.259738	2553.616645
370.646918	2555.018086
371.034035	2556.744681
371.421090	2555.529763
371.808081	2556.601008
372.195010	2553.891388
372.581875	2557.707542
372.968678	2561.725341
373.355418	2557.578992
373.742096	2561.140567
374.128710	2560.722152
374.515262	2561.987481
374.901751	2559.729044
375.288177	2562.778942
375.674540	2558.806513
376.060841	2559.088818
376.447079	2562.415979
376.833254	2564.576114
377.219367	2560.326421
377.605417	2556.820299
377.991404	2558.083108
378.377329	2558.090669
378.763191	2556.298539
379.148991	2560.535629
379.534727	2564.424879
379.920402	2563.519992
380.306013	2562.751216
380.691563	2562.680640
381.077049	2561.536298
381.462474	2563.232646
381.847835	2559.996226
382.233134	2564.989488
382.618371	2564.591237
383.003545	2565.914540
383.388657	2568.442679
383.773706	2564.389591
384.158693	2565.816238
384.543618	2564.606361
384.928480	2565.498645
385.313280	2565.284396
385.698017	2567.038717
386.082692	2564.157698
386.467305	2568.498132
386.851856	2564.810528
387.236344	2566.832030
387.620770	2566.801783
388.005133	2565.460836
388.389435	2568.203224
388.773674	2567.774726
389.157851	2565.831361
389.541965	2569.211455
389.926018	2567.794891
390.310008	2570.335632
390.693936	2569.692885
391.077802	2565.763306
391.461606	2569.879408
391.845348	2568.155333
392.229027	2566.627863
392.612645	2568.213306
392.996200	2572.016857
393.379694	2571.114490
393.763125	2566.418656
394.146494	2569.448389
394.529801	2572.475602
394.913047	2572.382341
395.296230	2572.344532
395.679351	2569.297154
396.062410	2571.732032
396.445408	2569.914696
396.828343	2571.462330
397.211217	2567.404201
397.594028	2568.591393
397.976778	2568.916547
398.359466	2571.936198
398.742092	2568.001578
399.124656	2572.412587
399.507158	2574.295458
399.889598	2572.795715
400.271977	2574.512228
400.654294	2574.252609
401.036549	2572.462999
401.418742	2571.694223
401.800874	2574.466858
402.182944	2576.972311
402.564952	2575.538103
402.946898	2574.794533
403.328783	2575.293607
403.710606	2574.025757
404.092367	2577.438618
404.474067	2576.034657
404.855705	2575.475088
405.237282	2574.509707
405.618797	2573.859399
406.000250	2574.580284
406.381642	2574.744121
406.762972	2577.506673
407.144240	2576.221179
407.525447	2579.681931
407.906593	2578.993814
408.287677	2575.026426
408.668700	2576.798391
409.049661	2580.191088
409.430560	2575.727146
409.811399	2578.464493
410.192176	2575.240675
410.572891	2577.816704
410.953545	2579.344174
411.334138	2578.333423
411.714669	2578.812332
412.095139	2578.030953
412.475547	2579.752507
412.855894	2576.301838
413.236180	2579.248392
413.616405	2577.360480
413.996568	2579.974318
414.376670	2577.700758
414.756711	2580.438104
415.136691	2580.901891
415.516609	2581.133784
415.896466	2581.637899
416.276262	2582.028588
416.655997	2575.631364
417.035670	2574.638257
417.415283	2575.724626
417.794834	2576.503484
418.174324	2577.201684
418.553753	2580.606983
418.933121	2579.772672
419.312428	2581.995821
419.691674	2583.336768
420.070859	2580.826273
420.449983	2577.559606
420.829045	2583.392221
421.208047	2582.512539
421.586988	2578.708989
421.965867	2584.264340
422.344686	2580.317117
422.723444	2584.902046
423.102141	2582.958681
423.480777	2584.181161
423.859352	2581.640420
424.237866	2585.280133
424.616319	2582.772159
424.994712	2585.489341
425.373044	2583.331727
425.751314	2581.557241
426.129524	2583.137642
426.507673	2584.581933
426.885762	2584.168558
427.263789	2581.244689
427.641756	2584.927252
428.019662	2583.089751
428.397508	2583.656881
428.775292	2585.824577
429.153016	2582.613362
429.530679	2586.285843
429.908282	2586.101841
430.285824	2586.515215
430.663305	2585.685946
431.040726	2584.985225
431.418086	2582.613362
431.795385	2583.790472
432.172624	2582.441963
432.549802	2585.554876
432.926920	2583.619072
433.303977	2584.833991
433.680974	2585.887592
434.057910	2584.498754
434.434786	2583.387179
434.811601	2584.912128
435.188355	2586.116964
435.565050	2582.515060
435.941683	2586.875658
436.318257	2584.413054
436.694770	2586.260637
437.071222	2580.990111
437.447614	2582.615883
437.823946	2581.194278
438.200218	2586.716862
438.576429	2585.229721
438.952580	2587.533528
439.328670	2586.482448
439.704700	2585.391038
440.080670	2587.906574
440.456580	2589.416399
440.832429	2590.565782
441.208218	2585.103692
441.583947	2588.246852
441.959616	2589.146698
442.335224	2585.373394
442.710773	2587.649475
443.086261	2589.925556
443.461689	2585.310380
443.837057	2586.363981
444.212365	2588.660226
444.587612	2589.187027
444.962800	2588.440936
445.337927	2589.814651
445.712995	2590.580906
446.088002	2590.220463
446.462949	2588.909763
446.837837	2587.137798
447.212664	2590.459918
447.587431	2587.979671
447.962139	2587.185689
448.336786	2590.538056
448.711374	2588.234249
449.085901	2592.148705
449.460369	2588.632500
449.834776	2588.617377
450.209124	2587.314238
450.583412	2591.397573
450.957640	2589.930597
451.331808	2590.404466
451.705917	2586.038826
452.079965	2587.412541
452.453954	2591.238777
452.827883	2589.575196
453.201752	2589.665937
453.575562	2590.936307
453.949311	2589.648293
454.323001	2590.260793
454.696632	2590.923704
455.070202	2590.089393
455.443713	2590.429671
455.817164	2587.712489
456.190556	2588.806420
456.563888	2588.025041
456.937160	2584.849114
457.310373	2590.313725
457.683526	2589.776842
458.056619	2593.255238
458.429653	2591.067377
458.802628	2592.920001
459.175542	2591.780701
459.548398	2592.826740
459.921194	2590.875813
460.293930	2589.239959
460.666607	2592.713314
461.039224	2594.462594
461.411782	2590.694332
461.784280	2592.544435
462.156719	2590.994281
462.529099	2593.547625
462.901419	2594.765064
463.273680	2593.257759
463.645882	2591.952100
464.018024	2592.776328
464.390106	2595.541401
464.762130	2594.853284
465.134094	2595.760692
465.505999	2596.804210
465.877845	2595.763212
466.249631	2593.187182
466.621358	2594.029055
466.993026	2597.966196
467.364634	2596.771443
467.736184	2595.201123
468.107674	2594.271031
468.479105	2594.823037
468.850477	2593.807244
469.221790	2592.773808
469.593043	2596.468974
469.964238	2593.605598
470.335373	2593.416555
470.706449	2594.782708
471.077467	2594.654158
471.448425	2596.108531
471.819324	2596.847060
472.190164	2598.903851
472.560945	2595.579210
472.931667	2597.194900
473.302330	2595.085177
473.672934	2594.568459
474.043479	2596.640373
474.413965	2594.840681
474.784393	2592.264651
475.154761	2592.231884
475.525070	2590.870772
475.895321	2593.040989
476.265513	2591.596698
476.635645	2595.193562
477.005719	2596.262286
477.375734	2595.155753
477.745691	2598.535847
478.115588	2597.787235
478.485427	2598.208172
478.855207	2598.384612
479.224928	2595.548963
479.594591	2596.597523
479.964194	2596.398397
480.333739	2597.338573
480.703226	2597.383943
481.072653	2599.410487
481.442022	2599.932246
481.811333	2599.786053
482.180584	2599.198758
482.549777	2599.009715
482.918912	2599.118100
483.287988	2599.781012
483.657005	2598.636670
484.025964	2600.761516
484.394864	2597.726742
484.763706	2597.431834
485.132489	2599.743203
485.501213	2599.546598
485.869879	2597.928388
486.238487	2598.319077
486.607036	2599.009715
486.975527	2598.074581
487.343959	2601.043821
487.712333	2601.242946
488.080648	2601.714294
488.448905	2599.249170
488.817104	2600.040631
489.185244	2599.402925
489.553326	2600.234716
489.921350	2601.605909
490.289315	2602.757813
490.657222	2602.299068
491.025070	2603.859305
491.392861	2604.373503
491.760593	2606.039604
492.128267	2601.552977
492.495883	2603.108173
492.863440	2602.611620
493.230939	2604.527258
493.598380	2605.485077
493.965763	2600.890066
494.333088	2599.912082
494.700354	2599.145826
495.067563	2603.302258
495.434713	2598.107349
495.801805	2604.134048
496.168839	2604.502052
496.535815	2605.308637
496.902733	2604.948194
497.269593	2606.289141
497.636395	2605.043976
498.003139	2604.136569
498.369825	2601.958790
498.736453	2606.823504
499.103023	2606.715119
499.469535	2606.309306
499.835989	2607.345263
500.202385	2609.651591
500.568723	2605.086826
500.935003	2609.250819
501.301226	2608.514811
501.667390	2607.272166
502.033497	2611.179061
502.399546	2607.176384
502.765537	2609.192846
503.131470	2611.935234
503.497345	2606.624378
503.863163	2609.868361
504.228923	2609.644029
504.594625	2610.266612
504.960269	2609.858278
505.325856	2609.822990
505.691385	2611.668052
506.056856	2610.677466
506.422270	2611.988166
506.787625	2611.332816
507.152924	2612.444390
507.518164	2612.275512
507.883347	2614.324741
508.248472	2614.077724
508.613540	2613.669391
508.978550	2612.764503
509.343503	2614.279370
509.708398	2619.789351
510.073236	2615.922786
510.438016	2617.409927
510.802738	2615.794237
511.167403	2617.871192
511.532010	2616.598301
511.896561	2616.192488
512.261053	2620.122067
512.625488	2616.300873
512.989866	2617.276336
513.354186	2615.065790
513.718449	2614.317179
514.082655	2618.085441
514.446803	2620.903446
514.810894	2621.402521
515.174927	2623.010649
515.538904	2622.161214
515.902822	2621.831019
516.266684	2620.699280
516.630488	2623.091307
516.994235	2626.252111
517.357925	2622.272120
517.721558	2627.111627
518.085133	2625.627007
518.448651	2625.795886
518.812112	2625.909312
519.175516	2625.359826
519.538863	2626.032820
519.902152	2625.069960
520.265385	2628.071967
520.628560	2627.328397
520.991678	2628.724797
521.354739	2627.136833
521.717743	2629.543984
522.080690	2628.974334
522.443580	2629.924591
522.806413	2630.859725
523.169189	2628.860908
523.531908	2631.449540
523.894569	2630.463995
524.257174	2631.081536
524.619722	2633.355096
524.982213	2631.487349
525.344647	2631.608337
525.707025	2635.840385
526.069345	2633.660086
526.431608	2634.249901
526.793815	2634.575056
527.155964	2633.967597
527.518057	2633.095477
527.880093	2636.631846
528.242072	2634.627988
528.603995	2639.275932
528.965860	2638.358442
529.327669	2636.364665
529.689421	2634.902731
530.051117	2637.337608
530.412755	2637.743421
530.774337	2637.340128
531.135862	2638.739049
531.497331	2637.524131
531.858743	2636.263842
532.220098	2635.961373
532.581396	2634.834675
532.942638	2635.590848
533.303824	2639.999337
533.664953	2640.541261
534.026025	2640.102681
534.387040	2639.422125
534.747999	2641.670480
535.108902	2639.598565
535.469748	2638.590335
535.830537	2640.823566
536.191270	2640.818525
536.551947	2643.197949
536.912567	2641.007568
537.273131	2644.818680
537.633638	2641.279790
537.994089	2640.533699
538.354483	2643.371869
538.714821	2643.780202
539.075103	2644.821201
539.435328	2646.900677
539.795497	2644.415388
540.155609	2646.167189
540.515665	2646.850265
540.875665	2647.540903
541.235609	2648.723054
541.595496	2645.829432
541.955328	2648.591984
542.315102	2649.597694
542.674821	2650.250523
543.034483	2650.598363
543.394090	2650.477375
543.753640	2651.142808
544.113134	2653.789413
544.472571	2653.648261
544.831953	2653.040802
545.191278	2655.082469
545.550548	2656.695639
545.909761	2657.393838
546.268918	2658.936432
546.628019	2659.193530
546.987064	2661.746875
547.346053	2661.406597
547.704986	2660.907523
548.063863	2662.233346
548.422684	2664.239725
548.781449	2663.695281
549.140158	2667.148471
549.498811	2669.600992
549.857408	2670.089984
550.215949	2669.258194
550.574434	2668.721311
550.932864	2673.172650
551.291237	2672.514779
551.649555	2675.789009
552.007817	2678.344874
552.366022	2682.841583
552.724173	2680.903259
553.082267	2686.267047
553.440305	2687.108920
553.798288	2689.291739
554.156215	2691.681246
554.514086	2693.123016
554.871902	2693.889272
555.229661	2698.917823
555.587365	2700.248687
555.945014	2702.066023
556.302606	2704.639532
556.660143	2705.814121
557.017625	2709.473999
557.375050	2713.665718
557.732421	2714.240410
558.089735	2719.599156
558.446994	2722.674260
558.804197	2726.369426
559.161345	2727.758264
559.518437	2728.494272
559.875474	2732.239850
560.232455	2738.422825
560.589381	2740.172105
560.946251	2744.754514
561.303065	2749.205853
561.659825	2753.306832
562.016528	2753.604260
562.373177	2758.569796
562.729770	2764.840992
563.086307	2766.315529
563.442789	2771.765016
563.799216	2777.080913
564.155587	2778.396654
564.511904	2787.324538
564.868164	2792.116154
565.224370	2795.065229
565.580520	2801.618729
565.936615	2804.719039
566.292654	2810.952426
566.648638	2817.989877
567.004567	2821.153201
567.360441	2828.155363
567.716260	2834.295489
568.072023	2841.332939
568.427732	2846.958867
568.783385	2852.015144
569.138982	2858.803058
569.494525	2865.590972
569.850013	2872.593134
570.205445	2882.826677
570.560823	2891.096690
570.916145	2896.684809
571.271412	2906.318454
571.626625	2915.868920
571.981782	2923.735640
572.336884	2930.682350
572.691931	2940.880604
573.046923	2945.160544
573.401860	2955.721761
573.756743	2963.901033
574.111570	2972.362610
574.466342	2981.592963
574.821059	2993.709376
575.175722	2995.869511
575.530330	3007.867457
575.884882	3015.779548
576.239380	3025.140970
576.593823	3036.402908
576.948211	3048.720968
577.302544	3052.700958
577.656823	3063.796538
578.011047	3080.061821
578.365216	3090.330651
578.719330	3095.938935
579.073389	3110.240688
579.427394	3120.665795
579.781344	3133.288844
580.135239	3143.078765
580.489080	3158.108965
580.842866	3164.952331
581.196597	3188.358408
581.550273	3196.507434
581.903895	3210.680638
582.257463	3232.433217
582.610975	3240.065523
582.964434	3260.411620
583.317837	3272.520472
583.671186	3282.759055
584.024481	3302.795121
584.377721	3315.549241
584.730906	3336.333918
585.084037	3354.852597
585.437113	3365.277703
585.790135	3383.002400
586.143103	3392.043709
586.496016	3413.244282
586.848874	3427.513268
587.201679	3447.506484
587.554428	3456.663740
587.907124	3478.023108
588.259765	3493.204543
588.612352	3524.154707
588.964884	3531.308105
589.317362	3555.450190
589.669786	3575.554312
590.022155	3592.346395
590.374470	3623.452835
590.726731	3628.728403
591.078937	3640.877583
591.431090	3661.773166
591.783188	3674.499559
592.135232	3687.334337
592.487222	3712.313254
592.839157	3734.116244
593.191038	3750.187443
593.542866	3765.860390
593.894639	3767.070267
594.246358	3801.297181
594.598022	3823.238803
594.949633	3832.345648
595.301190	3851.451621
595.652692	3867.197665
596.004141	3903.461205
596.355535	3894.981984
596.706876	3914.501332
597.058162	3933.100669
597.409395	3967.917398
597.760573	3997.377901
598.111698	4003.026514
598.462768	4030.543652
598.813785	4056.873599
599.164748	4061.307294
599.515657	4097.417079
599.866511	4101.570989
600.217312	4147.258967
600.568060	4132.354795
600.918753	4187.010985
601.269392	4211.395047
601.619978	4218.009040
601.970510	4254.207046
602.320988	4289.487561
602.671412	4329.673119
603.021783	4341.355993
603.372100	4358.077500
603.722363	4387.593456
604.072572	4410.122372
604.422728	4443.310809
604.772830	4458.686328
605.122878	4488.053570
605.472872	4509.049975
605.822813	4549.313671
606.172701	4569.442998
606.522534	4612.403712
606.872314	4653.035412
607.222041	4670.445036
607.571714	4715.870874
607.921333	4711.124627
608.270899	4755.620372
608.620411	4801.630983
608.969870	4815.852078
609.319276	4846.000698
609.668627	4881.492942
610.017926	4930.308955
610.367171	4972.556345
610.716362	5005.893496
611.065500	5022.042832
611.414585	5063.332403
611.763616	5113.691009
612.112594	5138.541377
612.461518	5175.810627
612.810389	5225.014809
613.159207	5243.609105
613.507971	5270.579278
613.856682	5337.271223
614.205340	5354.995920
614.553945	5431.429895
614.902496	5426.542496
615.250994	5479.646011
615.599439	5514.553480
615.947830	5557.332712
616.296169	5580.713583
616.644454	5625.259739
616.992686	5664.409340
617.340864	5728.207663
617.688990	5728.316047
618.037063	5803.903108
618.385082	5832.453683
618.733048	5880.158122
619.080961	5915.063071
619.428821	5945.025169
619.776628	5983.211909
620.124382	5994.052911
620.472083	6043.516712
620.819731	6083.498103
621.167326	6082.318473
621.514868	6115.126303
621.862357	6110.077587
622.209793	6133.897039
622.557176	6137.269571
622.904506	6140.143029
623.251783	6141.420961
623.599007	6152.715666
623.946179	6157.908055
624.293297	6186.567014
624.640363	6162.813097
624.987376	6185.445358
625.334336	6190.552047
625.681243	6191.252767
626.028097	6203.563265
626.374899	6220.231840
626.721647	6241.157669
627.068343	6252.908599
627.414987	6258.736173
627.761577	6258.602582
628.108115	6314.365306
628.454600	6284.864473
628.801032	6321.541388
629.147412	6344.559297
629.493739	6360.587645
629.840014	6354.200503
630.186236	6403.583646
630.532405	6387.736779
630.878521	6439.567402
631.224585	6443.774245
631.570597	6436.701507
631.916556	6468.261650
632.262462	6488.605227
632.608316	6505.278843
632.954117	6515.502303
633.299866	6539.407454
633.645562	6554.256173
633.991206	6533.413522
634.336797	6504.089131
634.682336	6533.973091
635.027823	6526.817173
635.373257	6533.705909
635.718639	6528.248860
636.063968	6537.338061
636.409245	6498.077555
636.754470	6519.263004
637.099642	6512.954000
637.444762	6485.552808
637.789829	6515.114134
638.134845	6501.407237
638.479808	6508.452249
638.824719	6515.905595
639.169577	6491.876935
639.514383	6513.891654
639.859137	6499.378172
640.203839	6545.809720
640.548489	6525.239292
640.893086	6547.367436
641.237632	6527.701895
641.582125	6558.722635
641.926566	6580.197951
642.270955	6586.743889
642.615292	6607.281550
642.959576	6615.541480
643.303809	6637.619214
643.647990	6668.801271
643.992118	6666.797412
644.336195	6680.267375
644.680219	6698.236568
645.024192	6740.897333
645.368112	6804.166334
645.711981	6816.459188
646.055797	6921.753768
646.399562	6918.282933
646.743274	7036.838269
647.086935	7101.019719
647.430544	7107.565658
647.774101	7139.803836
648.117606	7182.706576
648.461059	7249.554797
648.804460	7227.285500
649.147810	7164.573546
649.491108	7166.199318
649.834354	7144.585371
650.177548	7073.749597
650.520690	7021.172883
650.863781	7040.233486
651.206820	7049.960393
651.549807	7000.310068
651.892742	6956.993954
652.235626	6948.575227
652.578458	6939.586850
652.921238	6883.501493
653.263967	6932.486384
653.606644	6899.131590
653.949269	6903.149390
654.291843	6865.320571
654.634365	6929.885149
654.976836	6891.592544
655.319255	6903.809781
655.661622	6909.783548
656.003938	6895.693523
656.346203	6886.768160
656.688416	6924.090343
657.030577	6912.324290
657.372687	6901.032105
657.714746	6939.670029
658.056753	6971.056252
658.398708	6916.306801
658.740612	6922.572955
659.082465	6973.309648
659.424266	6947.042716
659.766016	6972.104813
660.107715	6969.785882
660.449362	6995.863771
660.790958	7002.553382
661.132503	7012.668457
661.473996	7018.488469
661.815438	7046.991153
662.156829	7083.398366
662.498168	7055.162863
662.839456	7070.465286
663.180693	7109.985411
663.521879	7135.786037
663.863013	7132.025336
664.204097	7143.183930
664.545129	7208.492078
664.886110	7218.551701
665.227040	7236.115081
665.567918	7254.293481
665.908746	7273.452387
666.249522	7302.703682
666.590248	7316.166083
666.930922	7331.370203
667.271545	7336.640729
667.612118	7362.096036
667.952639	7346.501226
668.293109	7362.327929
668.633528	7358.907506
668.973896	7358.516817
669.314213	7371.326388
669.654480	7346.213881
669.994695	7358.899944
670.334859	7351.108841
670.674973	7344.835125
671.015035	7371.855710
671.355047	7378.890640
671.695008	7379.450208
672.034918	7363.046293
672.374777	7379.145218
672.714585	7370.199691
673.054342	7407.831904
673.394049	7382.858028
673.733705	7430.277642
674.073310	7392.738689
674.412864	7420.603667
674.752368	7369.017540
675.091820	7431.941222
675.431223	7374.756894
675.770574	7346.400403
676.109875	7333.868095
676.449125	7299.159751
676.788324	7303.003630
677.127473	7244.264106
677.466571	7238.320585
677.805619	7194.833072
678.144616	7200.438835
678.483562	7197.744338
678.822458	7164.714698
679.161303	7157.901579
679.500098	7139.571943
679.838842	7133.804863
680.177535	7154.415621
680.516179	7181.723551
680.854771	7213.132460
681.193314	7325.711508
681.531805	7469.724670
681.870247	7579.009324
682.208638	7717.784728
682.546978	7788.509596
682.885268	7829.111049
683.223508	7765.148889
683.561697	7730.667396
683.899836	7711.972277
684.237925	7632.702654
684.575963	7612.190199
684.913951	7542.455918
685.251889	7569.199239
685.589776	7563.739669
685.927614	7548.830457
686.265401	7581.267761
686.603137	7584.289933
686.940824	7660.373547
687.278460	7703.248561
687.616046	7718.619039
687.953582	7820.435223
688.291068	7804.396792
688.628504	7858.480811
688.965889	7865.908951
689.303224	7832.435690
689.640510	7798.269269
689.977745	7708.940023
690.314930	7605.498067
690.652065	7547.008079
690.989150	7445.849766
691.326185	7326.805438
691.663170	7230.920172
692.000105	7123.573842
692.336990	7020.948552
692.673825	6962.675334
693.010610	6880.691049
693.347345	6798.205169
693.684030	6688.940680
694.020665	6654.617984
694.357251	6554.803138
694.693786	6542.071704
695.030272	6504.058884
695.366707	6423.947387
695.703093	6380.086828
696.039429	6376.298401
696.375716	6335.276012
696.711952	6325.886863
697.048139	6298.614220
697.384276	6270.169510
697.720363	6291.864115
698.056400	6275.097238
698.392388	6237.079376
698.728326	6245.341827
699.064214	6222.500359
699.400053	6223.082612
699.735842	6171.814078
700.071581	6128.445031
700.407270	6090.676707
700.742910	6068.964457
701.078501	6024.214134
701.414042	5990.461089
701.749533	5941.272030
702.084974	5892.413167
702.420366	5930.065545
702.755709	5857.505697
703.091002	5814.176980
703.426246	5818.840047
703.761440	5810.804448
704.096584	5769.663591
704.431679	5759.896356
704.766725	5740.387090
705.101721	5733.889043
705.436668	5752.954687
705.771565	5700.904773
706.106413	5756.677579
706.441212	5756.748155
706.775961	5774.266165
707.110661	5779.791269
707.445311	5839.468449
707.779913	5807.283202
708.114465	5846.558832
708.448967	5895.004320
708.783421	6003.714282
709.117825	6046.329676
709.452180	6079.505510
709.786485	6140.637062
710.120742	6269.272184
710.454949	6272.251506
710.789107	6343.311611
711.123216	6459.936185
711.457275	6492.330639
711.791286	6589.380413
712.125247	6615.150791
712.459159	6574.957671
712.793023	6705.147990
713.126837	6543.382404
713.460602	6598.661177
713.794318	6554.944291
714.127985	6506.256827
714.461602	6375.501899
714.795171	6375.970726
715.128691	6218.396860
715.462162	6136.936855
715.795584	6071.437143
716.128957	6028.909969
716.462281	5962.853210
716.795556	5930.378097
717.128782	5847.768708
717.461960	5754.661118
717.795088	5747.023769
718.128167	5674.060629
718.461198	5597.835862
718.794180	5578.084622
719.127113	5517.764695
719.459997	5493.922558
719.792833	5427.666673
720.125619	5422.867495
720.458357	5363.492785
720.791046	5335.511860
721.123686	5310.031348
721.456278	5268.371253
721.788821	5258.611579
722.121315	5220.908789
722.453761	5230.313062
722.786158	5218.836875
723.118506	5217.379982
723.450805	5196.280232
723.783056	5218.877204
724.115259	5204.429257
724.447412	5190.137586
724.779518	5233.143670
725.111574	5234.121654
725.443582	5270.365029
725.775542	5266.095172
726.107453	5349.697667
726.439315	5326.689841
726.771129	5395.098299
727.102895	5457.185150
727.434612	5497.799206
727.766281	5529.107292
728.097901	5581.371454
728.429473	5595.095995
728.760996	5605.969764
729.092471	5630.961284
729.423897	5619.732114
729.755276	5591.766313
730.086606	5604.028920
730.417887	5689.980593
730.749120	5778.024345
731.080305	5819.613864
731.411442	5895.619341
731.742530	5921.815697
732.073570	5943.217915
732.404562	6004.835939
732.735506	5994.912428
733.066401	5974.062215
733.397249	5917.077012
733.728048	5818.746786
734.058798	5673.899312
734.389501	5554.514707
734.720156	5467.012879
735.050762	5365.637796
735.381320	5291.817659
735.711831	5234.751798
736.042293	5159.701620
736.372707	5159.893184
736.703073	5108.821254
737.033391	5142.675123
737.363661	5129.719358
737.693883	5137.752436
738.024056	5162.930479
738.354182	5192.469120
738.684260	5241.706070
739.014290	5279.376092
739.344272	5312.423376
739.674207	5362.124112
740.004093	5390.914141
740.333931	5401.351850
740.663722	5418.839613
740.993464	5428.836221
741.323159	5410.940125
741.652806	5367.802971
741.982405	5340.116954
742.311956	5285.100322
742.641460	5274.072798
742.970915	5224.213266
743.300323	5167.903577
743.629683	5129.648781
743.958996	5083.280248
744.288260	5034.038258
744.617477	4975.742354
744.946647	4965.687773
745.275768	4914.489815
745.604842	4878.231316
745.933869	4844.957180
746.262847	4837.662630
746.591778	4824.893387
746.920662	4802.404800
747.249498	4796.993121
747.578286	4816.366276
747.907027	4837.377805
748.235720	4881.487901
748.564365	4891.769334
748.892963	4874.659658
749.221514	4895.338471
749.550017	4871.345099
749.878473	4866.145149
750.206881	4824.991690
750.535242	4821.414991
750.863555	4802.550993
751.191821	4781.824289
751.520039	4790.742091
751.848210	4771.931025
752.176334	4773.692908
752.504411	4755.958129
752.832440	4730.729675
753.160421	4741.739555
753.488356	4721.176688
753.816243	4698.393193
754.144082	4669.706507
754.471875	4663.130322
754.799620	4647.815297
755.127318	4640.510665
755.454969	4633.924397
755.782572	4625.049446
756.110129	4628.331237
756.437638	4613.283393
756.765100	4614.165595
757.092515	4617.122232
757.419882	4617.255822
757.747203	4612.063434
758.074477	4626.619765
758.401703	4616.945791
758.728882	4646.035769
759.056014	4656.140762
759.383099	4681.936347
759.710138	4708.599009
760.037129	4727.896546
760.364073	4741.343824
760.690970	4737.315942
761.017820	4737.573041
761.344623	4775.772384
761.671379	4840.024411
761.998088	4926.129839
762.324751	5152.712060
762.651366	5609.652327
762.977935	6299.758562
763.304456	6842.519432
763.630931	7144.129146
763.957359	7077.018786
764.283740	6792.060003
764.610074	6469.917669
764.936362	6076.556435
765.262602	5763.248723
765.588796	5420.422535
765.914943	5170.807282
766.241044	4947.761430
766.567097	4778.555101
766.893104	4630.660250
767.219064	4535.818502
767.544978	4437.785704
767.870845	4357.449876
768.196665	4310.279800
768.522438	4258.633179
768.848165	4219.642374
769.173846	4179.476981
769.499479	4154.452693
769.825066	4117.669914
770.150607	4074.542843
770.476101	4056.997107
770.801548	4040.595713
771.126949	4007.697143
771.452303	3992.550996
771.777611	3954.802836
772.102872	3949.784368
772.428087	3926.335441
772.753256	3895.654978
773.078378	3880.181157
773.403453	3847.514480
773.728482	3818.026250
774.053465	3807.278510
774.378401	3791.638330
774.703291	3766.818209
775.028135	3742.744179
775.352932	3735.406780
775.677683	3711.675548
776.002388	3697.517468
776.327046	3699.047458
776.651658	3676.664735
776.976224	3658.057836
777.300743	3657.541117
777.625216	3644.250115
777.949643	3632.806696
778.274024	3636.002788
778.598359	3616.458234
778.922647	3616.606948
779.246889	3609.834158
779.571086	3606.532202
779.895236	3608.377265
780.219339	3610.323150
780.543397	3606.287706
780.867409	3624.387969
781.191374	3623.049543
781.515294	3614.834983
781.839167	3631.369967
782.162995	3628.599853
782.486776	3618.683904
782.810511	3614.656022
783.134201	3600.142540
783.457844	3600.818054
783.781441	3592.149790
784.104993	3582.901794
784.428498	3577.119590
784.751958	3574.656987
785.075372	3570.961821
785.398739	3558.144687
785.722061	3566.031572
786.045337	3564.909916
786.368568	3590.894543
786.691752	3589.331785
787.014891	3635.148312
787.337983	3677.980476
787.661030	3763.128085
787.984031	3859.754401
788.306987	3938.645938
788.629897	3980.583297
788.952760	3989.922035
789.275579	3977.944253
789.598351	3928.609001
789.921078	3873.453737
790.243759	3814.353770
790.566395	3767.062705
790.888984	3720.716858
791.211529	3685.154038
791.534027	3638.518323
791.856480	3602.045575
792.178888	3580.300558
792.501249	3562.139802
792.823566	3530.824154
793.145836	3525.024306
793.468062	3515.057945
793.790241	3498.137312
794.112375	3507.287007
794.434464	3528.661499
794.756507	3528.764843
795.078505	3544.553736
795.400457	3586.002103
795.722364	3634.026655
796.044226	3679.820497
796.366042	3722.627455
796.687812	3721.006724
797.009538	3744.269128
797.331218	3735.374012
797.652852	3726.403279
797.974442	3707.395608
798.295986	3697.767005
798.617484	3666.622756
798.938938	3644.121566
799.260346	3626.099441
799.581709	3592.527877
799.903026	3581.795260
800.224299	3564.115934
800.545526	3531.865152
800.866708	3514.944519
801.187845	3499.934484
801.508936	3478.872543
801.829983	3474.209476
802.150984	3444.108746
802.471940	3436.269752
802.792851	3429.136519
803.113717	3423.969336
803.434538	3407.457037
803.755314	3404.381933
804.076045	3398.224164
804.396731	3386.891650
804.717372	3389.946589
805.037967	3385.520456
805.358518	3383.622462
805.679024	3399.086201
805.999485	3396.772311
806.319901	3401.354720
806.640272	3402.662900
806.960598	3416.095054
807.280879	3417.017585
807.601115	3428.294646
807.921306	3419.444901
808.241453	3419.775096
808.561554	3423.492947
808.881611	3424.231476
809.201623	3424.244079
809.521590	3417.670415
809.841513	3413.355187
810.161390	3421.168975
810.481223	3400.119637
810.801011	3397.256262
811.120755	3394.158473
811.440453	3384.411402
811.760107	3378.346894
812.079716	3374.165257
812.399281	3359.745036
812.718801	3358.835108
813.038276	3357.660519
813.357707	3347.737008
813.677093	3358.671271
813.996434	3338.478929
814.315731	3346.383458
814.634983	3347.096781
814.954191	3346.128880
815.273354	3361.552290
815.592473	3371.601830
815.911547	3393.566138
816.230577	3407.288158
816.549562	3434.286058
816.868502	3448.681072
817.187399	3469.569093
817.506250	3497.267713
817.825058	3507.027387
818.143821	3551.185374
818.462539	3596.041561
818.781213	3652.023575
819.099843	3731.038620
819.418429	3883.735170
819.736970	4036.530022
820.055466	4221.431984
820.373919	4453.929999
820.692327	4789.199497
821.010691	5302.537673
821.329011	6376.144646
821.647286	8092.090401
821.965517	10230.333613
822.283704	11821.944350
822.601847	12875.263199
822.919945	12463.915127
823.237999	11800.254785
823.556010	10919.514797
823.873976	9980.042845
824.191897	9028.885499
824.509775	8268.351824
824.827609	7481.657082
825.145398	6937.252795
825.463144	6559.471247
825.780845	6431.718326
826.098502	6498.067472
826.416116	6871.138063
826.733685	7370.809670
827.051210	7645.605487
827.368692	7556.513175
827.686129	7124.430838
828.003522	6582.915133
828.320872	6017.854719
828.638177	5566.495009
828.955439	5202.685018
829.272656	4863.485941
829.589830	4587.782716
829.906960	4328.271678
830.224046	4119.446921
830.541088	3953.179585
830.858086	3835.153570
831.175041	3740.299220
831.491952	3696.219370
831.808819	3681.141279
832.125642	3716.724264
832.442421	3818.442145
832.759157	4028.186913
833.075849	4402.575765
833.392497	4860.577195
833.709101	5242.709259
834.025662	5343.401266
834.342179	5223.966249
834.658653	4958.047904
834.975083	4692.053942
835.291469	4448.725008
835.607811	4224.998600
835.924110	4070.068819
836.240366	3913.674583
836.556578	3752.697937
836.872746	3620.662557
837.188871	3509.363962
837.504952	3417.148655
837.820990	3342.247191
838.136984	3287.989252
838.452935	3260.726692
838.768842	3244.673138
839.084706	3275.189763
839.400526	3410.043149
839.716303	3630.107158
840.032037	3844.991382
840.347727	3909.059406
840.663373	3818.464831
840.978977	3666.653003
841.294537	3538.968138
841.610054	3435.009463
841.925527	3361.138915
842.240957	3290.908081
842.556344	3232.846591
842.871687	3174.961542
843.186987	3111.226234
843.502244	3059.667833
843.817458	3021.357584
844.132629	2988.879951
844.447756	2970.832620
844.762840	2946.047787
845.077881	2927.450971
845.392879	2915.027047
845.707833	2903.051786
846.022745	2892.538460
846.337613	2890.307749
846.652438	2880.532952
846.967221	2877.621685
847.281960	2869.331508
847.596656	2864.812113
847.911309	2858.563603
848.225919	2857.265506
848.540485	2852.118488
848.855009	2850.999352
849.169490	2845.353260
849.483928	2841.025429
849.798323	2836.337156
850.112675	2834.277845
850.426984	2834.746672
850.741251	2835.649038
851.055474	2830.015549
851.369654	2832.639470
851.683792	2831.883297
851.997887	2830.388594
852.311938	2828.838440
852.625947	2829.035045
852.939914	2827.484890
853.253837	2832.722649
853.567718	2826.660661
853.881555	2826.665702
854.195350	2830.829695
854.509103	2827.706701
854.822812	2825.150836
855.136479	2827.928511
855.450103	2829.493790
855.763685	2825.740651
856.077224	2827.336176
856.390720	2830.237360
856.704173	2830.655776
857.017584	2831.293482
857.330953	2832.889007
857.644278	2834.981086
857.957561	2838.020901
858.270802	2839.712208
858.584000	2839.591221
858.897155	2839.797908
859.210268	2836.107783
859.523339	2833.713235
859.836367	2832.876404
860.149352	2832.087463
860.462295	2832.185766
860.775195	2825.513799
861.088054	2823.724189
861.400869	2824.107317
861.713642	2824.409786
862.026373	2826.451453
862.339062	2827.762153
862.651708	2827.305929
862.964312	2835.117197
863.276873	2836.145592
863.589392	2841.753876
863.901869	2850.893488
864.214303	2858.445136
864.526696	2862.331866
864.839045	2870.808566
865.151353	2878.234186
865.463619	2879.615462
865.775842	2882.236862
866.088023	2888.450084
866.400162	2886.146277
866.712258	2887.003273
867.024313	2890.559807
867.336325	2887.557800
867.648296	2890.529560
867.960224	2891.479817
868.272110	2892.697256
868.583954	2894.091135
868.895755	2897.574572
869.207515	2896.112638
869.519233	2902.517424
869.830909	2903.029101
870.142542	2907.767785
870.454134	2909.633012
870.765684	2913.834814
871.077191	2920.559713
871.388657	2927.861825
871.700081	2933.641508
872.011463	2941.026798
872.322803	2944.338836
872.634101	2948.722119
872.945357	2954.617749
873.256571	2966.348514
873.567744	2971.268680
873.878874	2976.395533
874.189963	2983.274188
874.501010	2986.981956
874.812015	2988.862307
875.122979	2993.626197
875.433900	2998.047289
875.744780	3000.262876
876.055618	3004.565501
876.366415	3009.112622
876.677169	3014.569671
876.987882	3020.457738
877.298554	3027.628780
877.609183	3041.607899
877.919771	3060.068605
878.230317	3080.250864
878.540822	3119.561782
878.851285	3168.844102
879.161707	3236.236767
879.472087	3339.338446
879.782425	3502.104700
880.092722	3772.068571
880.402977	4190.083569
880.713191	4722.386565
881.023363	5308.125792
881.333494	5736.051698
881.643583	6015.447568
881.953631	6092.221820
882.263637	6041.086876
882.573602	5897.154372
882.883526	5734.685545
883.193408	5543.439292
883.503248	5326.498277
883.813048	5110.608343
884.122806	4895.086413
884.432522	4657.277543
884.742197	4436.711938
885.051831	4231.063108
885.361424	4037.613871
885.670975	3873.191597
885.980485	3727.048547
886.289954	3607.447172
886.599382	3509.061493
886.908768	3421.559665
887.218113	3344.477902
887.527417	3284.669653
887.836680	3225.473904
888.145901	3178.571008
888.455082	3143.275370
888.764221	3108.118363
889.073319	3080.326482
889.382376	3061.414593
889.691392	3046.870864
890.000366	3034.472146
890.309300	3030.850077
890.618193	3027.931249
890.927044	3021.929755
891.235855	3023.857997
891.544625	3027.041485
891.853353	3033.839481
892.162041	3046.843138
892.470687	3069.155285
892.779293	3106.021243
893.087858	3149.959940
893.396381	3224.148080
893.704864	3331.078515
894.013306	3489.232114
894.321707	3668.629135
894.630068	3820.014985
894.938387	3895.554155
895.246665	3903.325094
895.554903	3845.445086
895.863100	3755.727671
896.171256	3685.660674
896.479371	3617.221969
896.787446	3541.672717
897.095480	3469.685040
897.403473	3415.946340
897.711425	3358.799820
898.019336	3309.134372
898.327207	3257.122267
898.635038	3210.088302
898.942827	3160.982422
899.250576	3117.142028
899.558284	3081.352356
899.865952	3053.890671
900.173579	3024.689787
900.481165	3006.811335
900.788711	2984.350474
901.096216	2971.661890
901.403681	2953.813685
901.711105	2948.747325
902.018489	2944.779937
902.325832	2951.698921
902.633135	2959.026238
902.940397	2997.795231
903.247619	3087.489961
903.554800	3260.978750
903.861941	3527.655789
904.169041	3786.700520
904.476101	3952.849389
904.783121	3980.338801
905.090100	3912.436979
905.397039	3807.858243
905.703938	3700.345555
906.010796	3605.254270
906.317614	3516.522400
906.624391	3431.631890
906.931129	3361.978268
907.237826	3297.053247
907.544483	3234.411869
907.851099	3161.675581
908.157675	3087.989035
908.464211	3018.539579
908.770707	2961.503965
909.077163	2915.775658
909.383578	2877.984648
909.689954	2850.714527
909.996289	2833.579645
910.302584	2820.301246
910.608839	2809.001499
910.915054	2803.736014
911.221229	2794.828295
911.527363	2797.847946
911.833458	2799.014973
912.139513	2800.418935
912.445527	2807.542085
912.751502	2814.445945
913.057436	2830.791887
913.363331	2849.164372
913.669186	2880.903477
913.975000	2916.678025
914.280775	2972.324802
914.586510	3054.674570
914.892205	3162.706497
915.197859	3310.107315
915.503475	3486.696414
915.809050	3659.991118
916.114585	3791.393834
916.420081	3858.615100
916.725536	3895.037437
917.030952	3858.184082
917.336328	3819.291580
917.641665	3774.498407
917.946961	3712.628326
918.252218	3652.414264
918.557435	3581.162596
918.862612	3515.836803
919.167750	3454.884212
919.472848	3382.110115
919.777906	3319.504026
920.082925	3248.043149
920.387904	3179.213755
920.692843	3122.838532
920.997743	3071.333063
921.302603	3022.567461
921.607423	2988.350630
921.912204	2952.487861
922.216946	2931.224274
922.521647	2905.438772
922.826310	2884.656616
923.130932	2864.678523
923.435516	2845.335616
923.740059	2836.450582
924.044564	2818.919969
924.349028	2806.496046
924.653454	2795.337452
924.957840	2779.707354
925.262186	2768.987341
925.566493	2759.915784
925.870761	2744.245357
926.174989	2743.685789
926.479178	2734.573904
926.783328	2726.782801
927.087438	2717.539845
927.391509	2718.084290
927.695541	2708.947198
927.999533	2704.379913
928.303486	2700.495704
928.607400	2695.283151
928.911275	2694.257276
929.215110	2689.274095
929.518906	2686.458611
929.822663	2685.571368
930.126381	2685.843590
930.430060	2687.048426
930.733699	2685.100020
931.037299	2686.206553
931.340861	2684.331244
931.644383	2685.853672
931.947866	2682.955009
932.251309	2685.641944
932.554714	2684.658919
932.858080	2686.929959
933.161407	2682.791172
933.464694	2683.875020
933.767943	2681.704803
934.071153	2680.936027
934.374323	2677.709688
934.677455	2679.143897
934.980548	2675.118535
935.283602	2674.783299
935.586617	2673.873370
935.889593	2676.141890
936.192530	2675.257167
936.495428	2678.924607
936.798287	2678.523835
937.101108	2684.439629
937.403890	2690.375587
937.706632	2701.307330
938.009336	2712.110522
938.312002	2722.638972
938.614628	2734.336970
938.917216	2743.995820
939.219765	2748.759711
939.522275	2757.317069
939.824747	2759.988881
940.127179	2757.115423
940.429573	2756.591143
940.731929	2758.897471
941.034246	2755.519898
941.336524	2759.310846
941.638763	2757.833788
941.940964	2758.017790
942.243126	2750.768611
942.545250	2748.109402
942.847335	2740.935840
943.149381	2736.343349
943.451389	2732.691033
943.753359	2727.281875
944.055290	2719.881461
944.357182	2714.976418
944.659036	2714.414330
944.960851	2711.772765
945.262628	2704.750438
945.564367	2708.485933
945.866067	2706.411498
946.167729	2704.460571
946.469352	2705.453679
946.770937	2702.045859
947.072484	2699.719366
947.373992	2695.956145
947.675462	2697.634849
947.976893	2697.907071
948.278286	2694.249714
948.579641	2694.847091
948.880958	2693.425486
949.182236	2693.054961
949.483476	2690.869621
949.784678	2690.365505
950.085841	2690.698221
950.386967	2690.380629
950.688054	2693.843901
950.989103	2696.286340
951.290114	2700.745241
951.591087	2702.217258
951.892021	2704.183308
952.192917	2711.243444
952.493776	2717.098744
952.794596	2717.315514
953.095378	2719.100082
953.396122	2718.709393
953.696828	2719.100082
953.997496	2717.207129
954.298126	2715.518342
954.598718	2711.286294
954.899272	2709.426108
955.199788	2707.059286
955.500266	2698.690971
955.800706	2690.342820
956.101108	2685.266378
956.401472	2680.210101
956.701798	2672.575273
957.002087	2663.201248
957.302337	2663.443223
957.602550	2656.993067
957.902724	2651.651964
958.202861	2647.487971
958.502960	2644.042342
958.803022	2641.269708
959.103045	2634.890128
959.403031	2630.423665
959.702979	2629.559107
960.002889	2627.774539
960.302762	2625.553911
960.602596	2619.643158
960.902393	2617.483023
961.202153	2617.573764
961.501875	2618.156017
961.801559	2615.804319
962.101205	2613.008999
962.400814	2613.437498
962.700385	2612.935903
962.999918	2611.746190
963.299414	2607.473812
963.598873	2608.736622
963.898293	2607.627568
964.197677	2609.507918
964.497022	2607.173864
964.796331	2602.611620
965.095601	2604.774275
965.394835	2606.515993
965.694030	2603.372834
965.993189	2605.664038
966.292309	2601.069027
966.591393	2601.449634
966.890439	2603.352669
967.189447	2603.932402
967.488419	2603.208996
967.787353	2604.491970
968.086249	2604.502052
968.385108	2601.406784
968.683930	2606.052207
968.982714	2604.446600
969.281462	2601.825200
969.580172	2605.422063
969.878844	2605.081785
970.177480	2607.733432
970.476078	2608.313165
970.774639	2612.162086
971.073162	2610.833742
971.371649	2609.029008
971.670098	2611.095882
971.968510	2612.555296
972.266885	2612.537652
972.565223	2616.618466
972.863524	2615.615276
973.161788	2619.028137
973.460014	2619.496964
973.758204	2621.823457
974.056356	2620.023765
974.354471	2618.581995
974.652550	2621.097531
974.950591	2620.374125
975.248595	2621.599126
975.546563	2622.584671
975.844493	2621.284053
976.142386	2620.543004
976.440243	2618.365225
976.738062	2619.086110
977.035845	2613.916407
977.333590	2615.302724
977.631299	2614.871706
977.928971	2614.357508
978.226606	2614.541510
978.524204	2613.936572
978.821765	2612.507405
979.119290	2609.636467
979.416777	2612.784668
979.714228	2610.488422
980.011642	2611.509256
980.309020	2615.156531
980.606360	2612.081427
980.903664	2615.746346
981.200931	2623.013169
981.498162	2629.715383
981.795356	2642.494708
982.092513	2658.124806
982.389633	2675.000068
982.686717	2690.552028
982.983764	2706.277907
983.280775	2718.104454
983.577749	2723.606874
983.874686	2727.130640
984.171587	2723.483365
984.468451	2719.009341
984.765279	2711.656818
985.062070	2703.538040
985.358824	2698.363296
985.655543	2686.259485
985.952224	2678.896880
986.248869	2666.566218
986.545478	2650.590801
986.842050	2638.885242
987.138586	2631.230250
987.435086	2617.107457
987.731549	2613.553444
988.027975	2611.559668
988.324366	2605.439707
988.620719	2604.950715
988.917037	2601.966352
989.213318	2600.121290
989.509563	2597.348655
989.805772	2595.778336
990.101944	2595.821185
990.398080	2595.803541
990.694180	2594.883531
990.990244	2594.449992
991.286271	2594.795311
991.582262	2593.419076
991.878217	2593.590475
992.174136	2595.508634
992.470019	2595.296905
992.765865	2595.974941
993.061676	2596.559714
993.357450	2597.837647
993.653188	2601.394181
993.948890	2601.976434
994.244556	2604.129007
994.540186	2607.688062
994.835780	2614.133177
995.131337	2618.624845
995.426859	2626.068108
995.722345	2637.279635
996.017795	2647.543424
996.313208	2656.483910
996.608586	2660.655465
996.903928	2664.015394
997.199234	2666.178049
997.494504	2666.543533
997.789738	2664.436330
998.084936	2659.085146
998.380099	2655.692449
998.675225	2654.386790
998.970316	2644.974956
999.265371	2641.216776
999.560390	2631.177318
999.855373	2626.042903
1000.150320	2620.275823
1000.445232	2615.247272
1000.740108	2608.781992
1001.034948	2605.961466
1001.329752	2604.096239
1001.624521	2599.226485
1001.919254	2594.767584
1002.213951	2592.264651
1002.508613	2593.040989
1002.803239	2591.921853
1003.097829	2588.466142
1003.392384	2591.200968
1003.686903	2589.323138
1003.981386	2588.385483
1004.275834	2588.488827
1004.570246	2589.025710
1004.864623	2585.640575
1005.158964	2587.657037
1005.453270	2586.943713
1005.747540	2588.403127
1006.041775	2585.592684
1006.335974	2584.178641
1006.630138	2585.290215
1006.924266	2586.006059
1007.218359	2581.937848
1007.512416	2587.168045
1007.806438	2582.502457
1008.100425	2582.978846
1008.394376	2585.454052
1008.688292	2586.081676
1008.982172	2584.715523
1009.276017	2583.356933
1009.569827	2582.923393
1009.863602	2583.838363
1010.157341	2580.231417
1010.451045	2583.888774
1010.744714	2583.616552
1011.038347	2580.279308
1011.331945	2584.713003
1011.625508	2584.392890
1011.919036	2582.194947
1012.212528	2584.634865
1012.505986	2582.111767
1012.799408	2581.310224
1013.092795	2580.821232
1013.386147	2580.092785
1013.679464	2579.581108
1013.972745	2581.269895
1014.265992	2581.590008
1014.559204	2580.347364
1014.852380	2579.785275
1015.145521	2581.237127
1015.438628	2580.533886
1015.731699	2581.756366
1016.024736	2580.922055
1016.317737	2581.126222
1016.610703	2581.942889
1016.903635	2581.027919
1017.196531	2580.123032
1017.489393	2577.171437
1017.782219	2579.061869
1018.075011	2579.089596
1018.367768	2584.196285
1018.660490	2584.410534
1018.953177	2584.410534
1019.245829	2584.410534
