Dividing Wavelength (nm)	Counts (n)	Blue Motor Position (mm): 23.500000	Red Motor Position (mm): 0.000000	
326.493990	2155.373053
326.888308	2155.373053
327.282561	2155.373053
327.676750	2132.609723
328.070874	2132.965124
328.464933	2137.706330
328.858929	2147.997845
329.252859	2158.526295
329.646726	2175.136897
330.040528	2186.814730
330.434265	2205.484643
330.827938	2222.173383
331.221547	2243.636095
331.615091	2264.486308
332.008571	2286.369957
332.401986	2305.014664
332.795338	2324.531491
333.188625	2344.280211
333.581847	2367.164529
333.975006	2385.042981
334.368100	2402.707184
334.761129	2420.608322
335.154095	2436.654314
335.546996	2461.524847
335.939833	2488.038796
336.332606	2503.026146
336.725315	2515.578619
337.117960	2523.815864
337.510540	2531.029756
337.903056	2541.096940
338.295508	2545.817980
338.687896	2552.189999
339.080220	2559.681153
339.472480	2567.200034
339.864676	2569.181208
340.256807	2574.925603
340.648875	2578.295614
341.040879	2578.855182
341.432818	2577.794019
341.824694	2579.692014
342.216506	2580.468351
342.608253	2578.613207
342.999937	2576.503484
343.391557	2580.982549
343.783113	2578.358628
344.174605	2576.092630
344.566033	2571.210272
344.957397	2572.097515
345.348697	2570.638101
345.739934	2569.476115
346.131106	2567.565518
346.522215	2564.959242
346.913260	2559.668551
347.304241	2560.485218
347.695159	2558.927501
348.086012	2559.965979
348.476802	2558.272151
348.867528	2555.265103
349.258191	2554.342572
349.648789	2555.663354
350.039324	2551.721172
350.429796	2551.574978
350.820203	2550.879299
351.210548	2548.749411
351.600828	2548.860317
351.991045	2548.273022
352.381198	2546.848896
352.771288	2547.962991
353.161314	2547.882333
353.551276	2550.097920
353.941175	2546.569112
354.331010	2549.195553
354.720782	2552.648744
355.110490	2548.930893
355.500135	2548.068856
355.889717	2549.878630
356.279235	2548.149514
356.668689	2549.140101
357.058080	2552.941131
357.447408	2547.221942
357.836672	2546.924514
358.225873	2546.768238
358.615010	2548.152035
359.004084	2552.124464
359.393095	2552.699155
359.782043	2555.302911
360.170927	2551.945503
360.559748	2552.815102
360.948505	2554.266954
361.337199	2558.214178
361.725830	2556.336348
362.114398	2555.272664
362.502903	2556.643858
362.891344	2556.195196
363.279722	2558.476318
363.668037	2556.658982
364.056289	2558.771225
364.444478	2557.021945
364.832603	2557.548745
365.220665	2560.177707
365.608665	2560.848181
365.996601	2560.603685
366.384474	2559.945814
366.772284	2559.129147
367.160031	2560.838098
367.547715	2560.132337
367.935336	2561.841288
368.322893	2559.401369
368.710388	2559.774415
369.097820	2563.361196
369.485189	2562.042934
369.872495	2564.195507
370.259738	2563.716597
370.646918	2563.812379
371.034035	2564.906309
371.421090	2564.056875
371.808081	2564.160219
372.195010	2564.066957
372.581875	2562.332800
372.968678	2565.496124
373.355418	2565.854046
373.742096	2567.192473
374.128710	2564.419838
374.515262	2568.130127
374.901751	2566.915209
375.288177	2565.412945
375.674540	2566.993347
376.060841	2564.717266
376.447079	2566.360682
376.833254	2566.960580
377.219367	2565.286917
377.605417	2563.489745
377.991404	2562.831875
378.377329	2565.377657
378.763191	2565.470919
379.148991	2568.679613
379.534727	2569.304716
379.920402	2571.192628
380.306013	2569.728173
380.691563	2567.502504
381.077049	2569.561815
381.462474	2570.393605
381.847835	2569.145920
382.233134	2570.237330
382.618371	2570.204562
383.003545	2570.794377
383.388657	2573.035170
383.773706	2570.559963
384.158693	2568.505693
384.543618	2571.759758
384.928480	2573.559450
385.313280	2571.994172
385.698017	2570.776733
386.082692	2571.454768
386.467305	2573.972825
386.851856	2575.107084
387.236344	2570.423852
387.620770	2572.505849
388.005133	2571.442165
388.389435	2577.400809
388.773674	2570.635581
389.157851	2571.278328
389.541965	2574.363514
389.926018	2575.989286
390.310008	2576.528690
390.693936	2577.491550
391.077802	2573.632547
391.461606	2576.856365
391.845348	2577.335274
392.229027	2578.013309
392.612645	2574.391240
392.996200	2576.579101
393.379694	2577.229410
393.763125	2576.957188
394.146494	2578.953485
394.529801	2577.937692
394.913047	2576.732856
395.296230	2578.419122
395.679351	2576.304358
396.062410	2576.710171
396.445408	2580.813670
396.828343	2580.904411
397.211217	2574.280335
397.594028	2575.512897
397.976778	2576.667321
398.359466	2578.882908
398.742092	2575.104564
399.124656	2578.270408
399.507158	2582.696541
399.889598	2578.212435
400.271977	2580.430543
400.654294	2580.017168
401.036549	2583.808116
401.418742	2581.796695
401.800874	2578.023392
402.182944	2582.678897
402.564952	2582.094123
402.946898	2580.337281
403.328783	2583.619072
403.710606	2582.205029
404.092367	2581.912642
404.474067	2582.469689
404.855705	2585.557396
405.237282	2586.472366
405.618797	2583.873651
406.000250	2583.518249
406.381642	2581.501788
406.762972	2585.491861
407.144240	2584.019844
407.525447	2583.939186
407.906593	2583.155286
408.287677	2585.222159
408.668700	2585.575040
409.049661	2585.988415
409.430560	2584.307190
409.811399	2586.449680
410.192176	2584.874320
410.572891	2586.258117
410.953545	2585.103692
411.334138	2585.396079
411.714669	2587.924218
412.095139	2587.765422
412.475547	2586.321131
412.855894	2584.181161
413.236180	2587.125195
413.616405	2588.493868
413.996568	2587.379773
414.376670	2589.335741
414.756711	2589.378591
415.136691	2588.183837
415.516609	2586.099320
415.896466	2590.984198
416.276262	2590.807758
416.655997	2584.072776
417.035670	2587.213415
417.415283	2587.367170
417.794834	2583.074628
418.174324	2585.353229
418.553753	2586.973960
418.933121	2589.469332
419.312428	2591.263982
419.691674	2590.545618
420.070859	2591.231215
420.449983	2588.511512
420.829045	2591.911771
421.208047	2589.628128
421.586988	2591.309353
421.965867	2592.287337
422.344686	2589.779362
422.723444	2588.272057
423.102141	2591.155598
423.480777	2593.046030
423.859352	2591.329517
424.237866	2592.244487
424.616319	2591.841194
424.994712	2592.836822
425.373044	2593.008222
425.751314	2592.935125
426.129524	2595.160794
426.507673	2595.236412
426.885762	2593.053592
427.263789	2594.765064
427.641756	2592.239446
428.019662	2593.227512
428.397508	2592.718355
428.775292	2595.115424
429.153016	2591.117789
429.530679	2596.330342
429.908282	2595.080136
430.285824	2592.950248
430.663305	2593.194744
431.040726	2597.411669
431.418086	2596.635332
431.795385	2596.290013
432.172624	2591.967223
432.549802	2594.691967
432.926920	2595.977461
433.303977	2597.888058
433.680974	2594.437389
434.057910	2595.488469
434.434786	2594.858325
434.811601	2597.706577
435.188355	2596.025352
435.565050	2594.578541
435.941683	2597.184817
436.318257	2593.459405
436.694770	2595.231370
437.071222	2597.260435
437.447614	2593.408993
437.823946	2593.978644
438.200218	2598.467791
438.576429	2598.051896
438.952580	2598.729931
439.328670	2597.693974
439.704700	2596.698346
440.080670	2599.082812
440.456580	2600.307812
440.832429	2600.199427
441.208218	2597.782194
441.583947	2600.834613
441.959616	2599.433172
442.335224	2601.986517
442.710773	2597.409149
443.086261	2600.098604
443.461689	2602.528441
443.837057	2600.648090
444.212365	2602.629264
444.587612	2600.796804
444.962800	2599.397884
445.337927	2602.646908
445.712995	2601.114397
446.088002	2604.539861
446.462949	2602.437700
446.837837	2603.846702
447.212664	2602.357041
447.587431	2604.111363
447.962139	2604.176898
448.336786	2610.969853
448.711374	2604.746548
449.085901	2608.315685
449.460369	2602.157916
449.834776	2604.817124
450.209124	2606.009357
450.583412	2605.969028
450.957640	2607.887187
451.331808	2605.706888
451.705917	2606.999944
452.079965	2607.937599
452.453954	2607.269646
452.827883	2605.265787
453.201752	2607.914913
453.575562	2609.641509
453.949311	2607.824173
454.323001	2612.083948
454.696632	2611.501694
455.070202	2614.861623
455.443713	2613.727364
455.817164	2610.057404
456.190556	2610.387599
456.563888	2610.841303
456.937160	2610.490943
457.310373	2617.276336
457.683526	2614.730553
458.056619	2614.755759
458.429653	2616.774741
458.802628	2615.285080
459.175542	2616.268105
459.548398	2621.112654
459.921194	2621.226080
460.293930	2623.744137
460.666607	2626.461318
461.039224	2629.334776
461.411782	2629.881741
461.784280	2631.832668
462.156719	2629.896865
462.529099	2631.517596
462.901419	2632.046917
463.273680	2630.166567
463.645882	2632.793008
464.018024	2637.927423
464.390106	2635.542957
464.762130	2645.267343
465.134094	2652.987870
465.505999	2664.045641
465.877845	2676.078875
466.249631	2684.081707
466.621358	2685.374763
466.993026	2687.918025
467.364634	2688.744774
467.736184	2683.212108
468.107674	2685.823426
468.479105	2693.806093
468.850477	2695.716690
469.221790	2697.665096
469.593043	2699.132072
469.964238	2702.187011
470.335373	2705.307485
470.706449	2720.320041
471.077467	2732.630539
471.448425	2760.987029
471.819324	2786.669188
472.190164	2792.690846
472.560945	2789.827471
472.931667	2782.331275
473.302330	2786.470062
473.672934	2793.555404
474.043479	2806.622075
474.413965	2817.188333
474.784393	2820.414672
475.154761	2840.627178
475.525070	2853.640917
475.895321	2864.731455
476.265513	2882.468755
476.635645	2913.066038
477.005719	2929.548091
477.375734	2951.383848
477.745691	2977.055924
478.115588	3007.867457
478.485427	3043.757952
478.855207	3106.631222
479.224928	3172.942560
479.594591	3230.482290
479.964194	3252.141607
480.333739	3281.458438
480.703226	3311.271822
481.072653	3354.023327
481.442022	3400.590985
481.811333	3448.590332
482.180584	3463.698670
482.549777	3485.032833
482.918912	3519.184130
483.287988	3554.242834
483.657005	3575.609765
484.025964	3597.659772
484.394864	3646.044766
484.763706	3674.733973
485.132489	3696.927652
485.501213	3736.964496
485.869879	3784.250519
486.238487	3814.257988
486.607036	3872.377450
486.975527	3905.762492
487.343959	3957.973722
487.712333	4012.345087
488.080648	4064.417686
488.448905	4132.218684
488.817104	4184.313968
489.185244	4271.657000
489.553326	4373.498390
489.921350	4548.887694
490.289315	4766.597484
490.657222	4900.982043
491.025070	5008.782077
491.392861	5050.122059
491.760593	5066.115119
492.128267	5057.789654
492.495883	5052.241864
492.863440	5045.741296
493.230939	5050.996699
493.598380	5051.410074
493.965763	5106.535091
494.333088	5125.041167
494.700354	5168.022044
495.067563	5221.385178
495.434713	5283.167039
495.801805	5369.645513
496.168839	5418.257360
496.535815	5470.879444
496.902733	5552.639398
497.269593	5602.206543
497.636395	5669.760525
498.003139	5779.055261
498.369825	5814.930632
498.736453	5918.735552
499.103023	5962.822963
499.469535	6035.602101
499.835989	6124.432273
500.202385	6177.099728
500.568723	6254.647797
500.935003	6352.063054
501.301226	6408.760911
501.667390	6555.118210
502.033497	6673.930645
502.399546	6702.093051
502.765537	6725.569704
503.131470	6848.006728
503.497345	6960.653832
503.863163	6911.701707
504.228923	7052.992647
504.594625	7183.311515
504.960269	7199.055038
505.325856	7358.695778
505.691385	7355.111517
506.056856	7467.720812
506.422270	7591.566838
506.787625	7625.513968
507.152924	7729.593631
507.518164	7835.399888
507.883347	7815.162176
508.248472	7926.082684
508.613540	8061.578817
508.978550	8177.908483
509.343503	8232.743634
509.708398	8331.336001
510.073236	8484.251841
510.438016	8555.455618
510.802738	8560.917708
511.167403	8708.799957
511.532010	8817.996390
511.896561	8943.679917
512.261053	9151.340168
512.625488	9149.331268
512.989866	9205.270431
513.354186	9241.637315
513.718449	9318.207401
514.082655	9480.744283
514.446803	9509.088171
514.810894	9648.092947
515.174927	9704.085043
515.538904	9744.658769
515.902822	9927.685422
516.266684	9887.961129
516.630488	10011.113997
516.994235	10064.845135
517.357925	10208.817969
517.721558	10308.358072
518.085133	10409.602085
518.448651	10487.593776
518.812112	10499.223718
519.175516	10552.435618
519.538863	10683.079640
519.902152	10734.005376
520.265385	10861.768379
520.628560	10931.631210
520.991678	10928.793040
521.354739	11017.774447
521.717743	11123.888215
522.080690	11141.348251
522.443580	11295.040429
522.806413	11353.356497
523.169189	11378.889941
523.531908	11472.035341
523.894569	11469.416461
524.257174	11522.640963
524.619722	11652.995120
524.982213	11674.394818
525.344647	11690.473578
525.707025	11730.938920
526.069345	11853.207065
526.431608	11867.798685
526.793815	11961.400309
527.155964	11896.898746
527.518057	11946.808689
527.880093	11942.866507
528.242072	12065.600959
528.603995	12014.050120
528.965860	12052.327601
529.327669	12106.998914
529.689421	12091.830082
530.051117	12122.538271
530.412755	12174.333606
530.774337	12204.038605
531.135862	12176.501303
531.497331	12246.364133
531.858743	12232.972308
532.220098	12325.311123
532.581396	12283.303188
532.942638	12221.203734
533.303824	12304.289511
533.664953	12295.422122
534.026025	12267.171496
534.387040	12386.500648
534.747999	12372.710572
535.108902	12427.044128
535.469748	12323.246770
535.830537	12362.166999
536.191270	12411.729103
536.551947	12349.135616
536.912567	12420.573807
537.273131	12459.443624
537.633638	12355.424455
537.994089	12420.946853
538.354483	12346.219308
538.714821	12462.496043
539.075103	12562.084037
539.435328	12496.846465
539.795497	12481.435658
540.155609	12496.591887
540.515665	12596.384048
540.875665	12457.691823
541.235609	12566.895818
541.595496	12535.585212
541.955328	12710.823281
542.315102	12573.978639
542.674821	12520.882686
543.034483	12536.953885
543.394090	12530.571784
543.753640	12512.373219
544.113134	12761.570056
544.472571	12533.167978
544.831953	12815.535608
545.191278	12627.848409
545.550548	12560.864077
545.909761	12686.451823
546.268918	12721.593706
546.628019	12799.920634
546.987064	12690.182277
547.346053	12542.993187
547.704986	12741.702869
548.063863	12625.703398
548.422684	12684.586596
548.781449	12643.833908
549.140158	12739.267992
549.498811	12683.994260
549.857408	12564.420612
550.215949	12769.348557
550.574434	12749.257038
550.932864	12681.466122
551.291237	12870.002755
551.649555	12765.875202
552.007817	12830.253257
552.366022	12746.834763
552.724173	12787.569807
553.082267	12875.096841
553.440305	12967.178557
553.798288	12797.700006
554.156215	12869.521325
554.514086	12915.481524
554.871902	12857.246115
555.229661	12879.071791
555.587365	12841.444618
555.945014	12854.118079
556.302606	12833.837517
556.660143	12900.826890
557.017625	12923.791866
557.375050	12895.379923
557.732421	13005.168692
558.089735	12995.913134
558.446994	12973.263230
558.804197	13091.069954
559.161345	13080.425558
559.518437	12898.686920
559.875474	12999.278104
560.232455	13028.093339
560.589381	13073.604876
560.946251	13014.688911
561.303065	13179.622862
561.659825	13145.259837
562.016528	13055.308008
562.373177	12995.640912
562.729770	13115.746402
563.086307	12999.620902
563.442789	13118.294705
563.799216	13151.646979
564.155587	13092.612547
564.511904	13118.294705
564.868164	13135.759783
565.224370	13191.938401
565.580520	13134.267601
565.936615	13195.323536
566.292654	13141.433601
566.648638	13210.444477
567.004567	13209.136298
567.360441	13210.759549
567.716260	13180.094210
568.072023	13264.233588
568.427732	13249.977205
568.783385	13156.534378
569.138982	13254.854522
569.494525	13252.341507
569.850013	13199.411912
570.205445	13184.331300
570.560823	13202.618086
570.916145	13157.262824
571.271412	13170.717664
571.626625	13126.481539
571.981782	13119.524747
572.336884	13076.354826
572.691931	13164.658197
573.046923	13057.299264
573.401860	13035.282025
573.756743	13028.990665
574.111570	13051.166701
574.466342	13025.524872
574.821059	13076.188468
575.175722	12951.288840
575.530330	12967.080254
575.884882	12906.006676
576.239380	12911.345257
576.593823	12885.892472
576.948211	12890.202658
577.302544	12764.166250
577.656823	12784.524950
578.011047	12840.522087
578.365216	12775.193774
578.719330	12727.638050
579.073389	12692.967514
579.427394	12712.091131
579.781344	12694.845344
580.135239	12620.727779
580.489080	12646.541008
580.842866	12527.053059
581.196597	12620.677368
581.550273	12609.695214
581.903895	12567.830952
582.257463	12682.945700
582.610975	12529.906352
582.964434	12597.861106
583.317837	12510.366839
583.671186	12470.244296
584.024481	12516.174249
584.377721	12410.131057
584.730906	12482.577479
585.084037	12494.653563
585.437113	12408.880851
585.790135	12428.415322
586.143103	12347.098990
586.496016	12357.700536
586.848874	12368.052546
587.201679	12372.425747
587.554428	12249.373702
587.907124	12299.139973
588.259765	12233.791495
588.612352	12308.115747
588.964884	12169.007627
589.317362	12221.294475
589.669786	12211.514637
590.022155	12152.865853
590.374470	12265.613779
590.726731	12156.218220
591.078937	12044.274358
591.431090	12055.259032
591.783188	11991.755617
592.135232	11915.324163
592.487222	11978.197434
592.839157	12000.038233
593.191038	11926.674321
593.542866	11869.275743
593.894639	11727.548744
594.246358	11786.779781
594.598022	11792.851851
594.949633	11694.957684
595.301190	11675.546721
595.652692	11640.785445
596.004141	11719.712270
596.355535	11502.751091
596.706876	11483.304840
597.058162	11458.653598
597.409395	11553.449975
597.760573	11582.595406
598.111698	11473.698921
598.462768	11469.784465
598.813785	11481.222843
599.164748	11355.781292
599.515657	11426.647312
599.866511	11308.379322
600.217312	11439.303129
600.568060	11203.873682
600.918753	11365.964422
601.269392	11365.651871
601.619978	11277.318253
601.970510	11312.699591
602.320988	11360.063752
602.671412	11422.977352
603.021783	11359.625172
603.372100	11277.938315
603.722363	11297.440018
604.072572	11294.785851
604.422728	11299.751387
604.772830	11250.945456
605.122878	11254.839748
605.472872	11225.031405
605.822813	11291.516662
606.172701	11246.332801
606.522534	11289.538010
606.872314	11340.988026
607.222041	11275.221133
607.571714	11347.715446
607.921333	11208.965248
608.270899	11267.765266
608.620411	11329.312713
608.969870	11274.631318
609.319276	11255.343863
609.668627	11271.248703
610.017926	11351.718122
610.367171	11381.453368
610.716362	11377.175949
611.065500	11343.916936
611.414585	11359.471416
611.763616	11426.657394
612.112594	11392.342260
612.461518	11418.284038
612.810389	11465.025616
613.159207	11410.984447
613.507971	11404.325083
613.856682	11502.751091
614.205340	11461.406068
614.553945	11592.675193
614.902496	11473.673716
615.250994	11533.461800
615.599439	11520.175839
615.947830	11555.136241
616.296169	11524.493588
616.644454	11539.307018
616.992686	11555.085830
617.340864	11641.153449
617.688990	11532.539269
618.037063	11673.638645
618.385082	11636.109775
618.733048	11678.571414
619.080961	11659.409988
619.428821	11644.987247
619.776628	11652.788432
620.124382	11601.436719
620.472083	11620.731735
620.819731	11638.824436
621.167326	11557.500542
621.514868	11543.755836
621.862357	11452.599172
622.209793	11446.688419
622.557176	11361.056859
622.904506	11307.633231
623.251783	11229.061807
623.599007	11161.338947
623.946179	11114.952770
624.293297	11097.081879
624.640363	10951.518562
624.987376	10943.268714
625.334336	10878.832685
625.681243	10791.305652
626.028097	10764.489234
626.374899	10732.913967
626.721647	10700.592609
627.068343	10661.188430
627.414987	10596.921280
627.761577	10524.593325
628.108115	10582.014588
628.454600	10451.859557
628.801032	10466.909922
629.147412	10446.326891
629.493739	10421.410988
629.840014	10348.629329
630.186236	10390.914528
630.532405	10287.369228
630.878521	10330.382873
631.224585	10283.880749
631.570597	10205.838647
631.916556	10207.890396
632.262462	10198.342451
632.608316	10182.876191
632.954117	10150.234720
633.299866	10133.319128
633.645562	10110.971693
633.991206	10008.013688
634.336797	9917.025902
634.682336	9903.797914
635.027823	9853.058701
635.373257	9813.682248
635.718639	9739.758768
636.063968	9711.326660
636.409245	9592.622611
636.754470	9582.895704
637.099642	9529.474597
637.444762	9428.031458
637.789829	9438.053272
638.134845	9364.258341
638.479808	9339.385288
638.824719	9313.733377
639.169577	9232.212878
639.514383	9224.139470
639.859137	9153.071804
640.203839	9192.891878
640.548489	9103.849978
640.893086	9117.377914
641.237632	9051.041371
641.582125	9049.249240
641.926566	9045.062562
642.270955	9030.907002
642.615292	9019.541721
642.959576	9000.869287
643.303809	8997.784101
643.647990	9010.205504
643.992118	8989.360333
644.336195	8960.885375
644.680219	8955.319941
645.024192	8988.299170
645.368112	9065.481756
645.711981	9043.787150
646.055797	9185.463738
646.399562	9141.416656
646.743274	9301.954721
647.086935	9374.388540
647.430544	9343.682872
647.774101	9374.575063
648.117606	9389.322958
648.461059	9450.386455
648.804460	9384.644768
649.147810	9266.896017
649.491108	9237.304443
649.834354	9167.333228
650.177548	9032.568062
650.520690	8944.879712
650.863781	8932.090304
651.206820	8907.108867
651.549807	8816.998242
651.892742	8727.303512
652.235626	8686.989404
652.578458	8650.219228
652.921238	8542.489771
653.263967	8581.092406
653.606644	8512.759566
653.949269	8486.233014
654.291843	8409.788957
654.634365	8483.689752
654.976836	8408.558916
655.319255	8398.988285
655.661622	8391.240032
656.003938	8348.531376
656.346203	8309.275911
656.688416	8346.444339
657.030577	8299.380126
657.372687	8257.054599
657.714746	8292.516595
658.056753	8311.115933
658.398708	8211.800161
658.740612	8198.700722
659.082465	8243.186384
659.424266	8205.617185
659.766016	8218.530101
660.107715	8194.105711
660.449362	8209.206487
660.790958	8210.897794
661.132503	8205.453348
661.473996	8199.706433
661.815438	8224.113179
662.156829	8249.639061
662.498168	8197.798356
662.839456	8194.564456
663.180693	8215.250830
663.521879	8231.742965
663.863013	8217.428609
664.204097	8213.284780
664.545129	8277.151158
664.886110	8275.296014
665.227040	8272.677134
665.567918	8291.135319
665.908746	8301.535220
666.249522	8322.042633
666.590248	8317.460225
666.930922	8335.046290
667.271545	8323.794434
667.612118	8342.923093
667.952639	8308.481930
668.293109	8309.767424
668.633528	8284.586860
668.973896	8266.920137
669.314213	8277.088144
669.654480	8230.470074
669.994695	8224.468580
670.334859	8213.418371
670.674973	8185.339144
671.015035	8214.592960
671.355047	8197.367337
671.695008	8191.446502
672.034918	8159.387284
672.374777	8167.047317
672.714585	8148.231211
673.054342	8175.874378
673.394049	8139.290724
673.733705	8181.200357
674.073310	8125.064588
674.412864	8142.030591
674.752368	8073.768327
675.091820	8128.215309
675.431223	8055.050523
675.770574	8007.855241
676.109875	7980.605283
676.449125	7939.567771
676.788324	7927.156450
677.127473	7839.795774
677.466571	7832.652459
677.805619	7769.809435
678.144616	7767.014116
678.483562	7749.327227
678.822458	7701.985752
679.161303	7686.022938
679.500098	7665.709608
679.838842	7643.697410
680.177535	7651.652351
680.516179	7686.002773
680.854771	7699.807973
681.193314	7824.984864
681.531805	7981.805078
681.870247	8104.494160
682.208638	8256.331193
682.546978	8331.600661
682.885268	8361.247687
683.223508	8286.426882
683.561697	8236.806804
683.899836	8197.959673
684.237925	8117.407075
684.575963	8086.650996
684.913951	8007.971187
685.251889	8025.368209
685.589776	8021.179010
685.927614	8003.557657
686.265401	8030.331225
686.603137	8032.589662
686.940824	8102.056762
687.278460	8159.427613
687.616046	8166.346597
687.953582	8271.053883
688.291068	8251.342971
688.628504	8318.581881
688.965889	8318.425606
689.303224	8276.367259
689.640510	8233.081392
689.977745	8121.288764
690.314930	8006.615117
690.652065	7934.665248
690.989150	7818.683422
691.326185	7672.379055
691.663170	7560.853608
692.000105	7441.171575
692.336990	7319.672206
692.673825	7252.226608
693.010610	7154.201372
693.347345	7057.532206
693.684030	6951.612522
694.020665	6901.105202
694.357251	6783.401821
694.693786	6773.755573
695.030272	6736.453555
695.366707	6641.904194
695.703093	6591.197748
696.039429	6591.255722
696.375716	6539.631786
696.711952	6525.657707
697.048139	6500.923286
697.384276	6465.927596
697.720363	6490.052038
698.056400	6462.129087
698.392388	6435.597494
698.728326	6430.805877
699.064214	6403.525673
699.400053	6399.205404
699.735842	6336.294325
700.071581	6290.389578
700.407270	6251.663434
700.742910	6220.788887
701.078501	6179.834553
701.414042	6131.620958
701.749533	6080.233956
702.084974	6023.412591
702.420366	6067.505043
702.755709	5992.906048
703.091002	5942.701197
703.426246	5943.306136
703.761440	5929.609321
704.096584	5887.114914
704.431679	5872.803078
704.766725	5855.902610
705.101721	5847.370457
705.436668	5857.833372
705.771565	5801.059898
706.106413	5858.095512
706.441212	5855.310275
706.775961	5872.369539
707.110661	5878.670982
707.445311	5939.162307
707.779913	5912.232463
708.114465	5944.611794
708.448967	5992.598538
708.783421	6105.812771
709.117825	6151.843547
709.452180	6180.247928
709.786485	6242.670016
710.120742	6377.427620
710.454949	6380.863166
710.789107	6452.898734
711.123216	6576.381797
711.457275	6609.666016
711.791286	6717.823971
712.125247	6738.369194
712.459159	6704.568257
712.793023	6834.793864
713.126837	6663.548388
713.460602	6722.280351
713.794318	6679.017169
714.127985	6628.066227
714.461602	6477.950748
714.795171	6484.685729
715.128691	6316.921171
715.462162	6227.793571
715.795584	6161.782182
716.128957	6113.523216
716.462281	6049.379574
716.795556	6007.550600
717.128782	5925.679741
717.461960	5827.238609
717.795088	5814.121527
718.128167	5750.396301
718.461198	5666.992932
718.794180	5642.497965
719.127113	5581.976392
719.459997	5549.463471
719.792833	5485.604654
720.125619	5477.717769
720.458357	5420.661990
720.791046	5391.919851
721.123686	5364.085120
721.456278	5318.550898
721.788821	5312.438499
722.121315	5268.701448
722.453761	5279.897851
722.786158	5263.090644
723.118506	5263.183906
723.450805	5239.248507
723.783056	5269.228249
724.115259	5248.478860
724.447412	5235.858331
724.779518	5280.858191
725.111574	5284.087050
725.443582	5319.186084
725.775542	5311.352131
726.107453	5395.010079
726.439315	5370.497468
726.771129	5440.725782
727.102895	5503.042006
727.434612	5545.856525
727.766281	5576.423562
728.097901	5631.135204
728.429473	5646.626670
728.760996	5653.989275
729.092471	5676.266134
729.423897	5660.116798
729.755276	5633.496985
730.086606	5650.276465
730.417887	5733.795782
730.749120	5827.762889
731.080305	5869.417944
731.411442	5945.299912
731.742530	5967.765814
732.073570	5993.715153
732.404562	6055.229833
732.735506	6045.318925
733.066401	6030.152613
733.397249	5959.548733
733.728048	5862.819073
734.058798	5716.802052
734.389501	5592.318320
734.720156	5515.715466
735.050762	5404.111882
735.381320	5328.608000
735.711831	5274.274444
736.042293	5198.727713
736.372707	5191.634809
736.703073	5143.085977
737.033391	5178.061502
737.363661	5163.631199
737.693883	5178.295916
738.024056	5200.388773
738.354182	5222.138831
738.684260	5272.318476
739.014290	5312.403211
739.344272	5348.092060
739.674207	5402.259258
740.004093	5433.884937
740.333931	5439.415082
740.663722	5459.151200
740.993464	5471.229804
741.323159	5452.650632
741.652806	5406.544239
741.982405	5377.650865
742.311956	5326.314275
742.641460	5314.064271
742.970915	5257.368935
743.300323	5199.942631
743.629683	5162.837218
743.958996	5112.241677
744.288260	5065.893309
744.617477	5006.652189
744.946647	4990.185260
745.275768	4935.420685
745.604842	4904.478083
745.933869	4868.317887
746.262847	4863.145663
746.591778	4845.794011
746.920662	4823.607893
747.249498	4824.681659
747.578286	4840.210933
747.907027	4865.204974
748.235720	4905.561931
748.564365	4911.674330
748.892963	4898.930293
749.221514	4920.236730
749.550017	4895.535076
749.878473	4889.520980
750.206881	4855.951936
750.535242	4843.122200
750.863555	4825.011854
751.191821	4805.961334
751.520039	4809.144823
751.848210	4790.946257
752.176334	4796.254592
752.504411	4773.566879
752.832440	4745.696860
753.160421	4761.700003
753.488356	4736.269903
753.816243	4721.630392
754.144082	4688.419270
754.471875	4675.085418
754.799620	4664.597298
755.127318	4659.641844
755.454969	4653.620185
755.782572	4644.863701
756.110129	4647.711953
756.437638	4631.958347
756.765100	4629.253768
757.092515	4629.248727
757.419882	4635.366167
757.747203	4635.915653
758.074477	4643.197600
758.401703	4636.578565
758.728882	4665.749202
759.056014	4678.314277
759.383099	4701.397721
759.710138	4726.679107
760.037129	4750.344804
760.364073	4759.134056
760.690970	4758.120784
761.017820	4763.537504
761.344623	4798.127381
761.671379	4858.114591
761.998088	4948.257984
762.324751	5173.229556
762.651366	5637.517305
762.977935	6326.645556
763.304456	6879.070318
763.630931	7182.293202
763.957359	7110.736543
764.283740	6822.437996
764.610074	6497.210476
764.936362	6101.830259
765.262602	5790.198732
765.588796	5443.420279
765.914943	5188.728584
766.241044	4967.235407
766.567097	4796.133605
766.893104	4649.720853
767.219064	4551.221748
767.544978	4451.651398
767.870845	4369.616701
768.196665	4323.913600
768.522438	4272.382926
768.848165	4230.584199
769.173846	4191.676573
769.499479	4165.213036
769.825066	4130.171976
770.150607	4087.302003
770.476101	4074.578131
770.801548	4051.076272
771.126949	4022.034185
771.452303	4002.086339
771.777611	3965.346410
772.102872	3961.540338
772.428087	3936.125361
772.753256	3907.647883
773.078378	3889.615676
773.403453	3860.873537
773.728482	3836.139116
774.053465	3821.968432
774.378401	3798.073363
774.703291	3779.232051
775.028135	3753.005448
775.352932	3748.423039
775.677683	3730.368147
776.002388	3706.304199
776.327046	3712.288048
776.651658	3688.133360
776.976224	3671.913447
777.300743	3669.045031
777.625216	3651.448883
777.949643	3645.465033
778.274024	3650.249088
778.598359	3624.902167
778.922647	3627.805872
779.246889	3617.123667
779.571086	3614.348511
779.895236	3615.417236
780.219339	3615.583594
780.543397	3618.517546
780.867409	3630.462560
781.191374	3630.986840
781.515294	3626.593474
781.839167	3645.482677
782.162995	3640.000423
782.486776	3632.826861
782.810511	3625.250007
783.134201	3611.069241
783.457844	3606.310392
783.781441	3603.230247
784.104993	3593.989812
784.428498	3588.590736
784.751958	3584.603183
785.075372	3578.702512
785.398739	3567.622056
785.722061	3573.658838
786.045337	3573.699167
786.368568	3599.192282
786.691752	3597.692539
787.014891	3641.449754
787.337983	3690.953885
787.661030	3777.266001
787.984031	3873.468860
788.306987	3949.232361
788.629897	3995.205164
788.952760	4005.647914
789.275579	3986.443638
789.598351	3933.463632
789.921078	3887.024523
790.243759	3825.721572
790.566395	3777.896145
790.888984	3728.875965
791.211529	3694.374308
791.534027	3648.615755
791.856480	3609.188890
792.178888	3590.705500
792.501249	3571.216399
792.823566	3543.371586
793.145836	3535.348589
793.468062	3523.532125
793.790241	3511.836648
794.112375	3515.037781
794.434464	3539.709187
794.756507	3536.286244
795.078505	3553.479099
795.400457	3591.418823
795.722364	3644.688696
796.044226	3691.309287
796.366042	3738.764188
796.687812	3732.860997
797.009538	3756.390583
797.331218	3748.289448
797.652852	3735.638673
797.974442	3717.752659
798.295986	3708.297975
798.617484	3674.340763
798.938938	3653.455262
799.260346	3640.955721
799.581709	3603.136985
799.903026	3591.267588
800.224299	3572.983323
800.545526	3542.297820
800.866708	3525.054553
801.187845	3511.526617
801.508936	3486.623317
801.829983	3482.555106
802.150984	3451.075621
802.471940	3443.201338
802.792851	3438.003909
803.113717	3431.180707
803.434538	3423.752567
803.755314	3410.166657
804.076045	3402.617529
804.396731	3395.103689
804.717372	3397.137795
805.037967	3395.259965
805.358518	3394.879358
805.679024	3408.074578
805.999485	3406.350504
806.319901	3410.544744
806.640272	3412.364600
806.960598	3427.883792
807.280879	3427.896395
807.601115	3436.294958
807.921306	3426.071498
808.241453	3427.203237
808.561554	3433.489555
808.881611	3432.130964
809.201623	3433.083742
809.521590	3423.818102
809.841513	3422.860283
810.161390	3431.152981
810.481223	3408.908889
810.801011	3408.979465
811.120755	3408.883683
811.440453	3396.084194
811.760107	3390.007083
812.079716	3383.302348
812.399281	3369.706356
812.718801	3367.881459
813.038276	3365.862477
813.357707	3357.037937
813.677093	3366.139740
813.996434	3347.847913
814.315731	3354.671115
814.634983	3357.100951
814.954191	3357.501723
815.273354	3372.806666
815.592473	3384.199674
815.911547	3398.997981
816.230577	3417.259561
816.549562	3442.606482
816.868502	3458.327320
817.187399	3481.239365
817.506250	3506.770288
817.825058	3517.054242
818.143821	3561.260120
818.462539	3605.967593
818.781213	3661.841222
819.099843	3747.097216
819.418429	3897.797469
819.736970	4049.478226
820.055466	4233.518150
820.373919	4472.788956
820.692327	4803.627280
821.010691	5317.154499
821.329011	6396.394961
821.647286	8121.011500
821.965517	10285.229258
822.283704	11900.724981
822.601847	12971.057725
822.919945	12559.780229
823.237999	11880.225129
823.556010	10994.111271
823.873976	10048.360562
824.191897	9080.285104
824.509775	8317.525760
824.827609	7520.078236
825.145398	6973.763352
825.463144	6591.381751
825.780845	6464.785775
826.098502	6530.673655
826.416116	6904.754997
826.733685	7415.746516
827.051210	7693.072992
827.368692	7597.580935
827.686129	7161.022053
828.003522	6612.829340
828.320872	6048.046189
828.638177	5589.250777
828.955439	5223.197473
829.272656	4885.190628
829.589830	4606.618987
829.906960	4344.297506
830.224046	4133.637769
830.541088	3968.313129
830.858086	3852.512784
831.175041	3755.667177
831.491952	3709.896021
831.808819	3691.876416
832.125642	3727.610635
832.442421	3829.091583
832.759157	4047.923030
833.075849	4423.655350
833.392497	4881.777767
833.709101	5271.279999
834.025662	5377.025762
834.342179	5247.568932
834.658653	4982.016070
834.975083	4710.181932
835.291469	4468.403152
835.607811	4246.073144
835.924110	4087.102878
836.240366	3926.768980
836.556578	3768.322994
836.872746	3628.158752
837.188871	3521.742515
837.504952	3425.388421
837.820990	3350.602904
838.136984	3295.326652
838.452935	3267.648197
838.768842	3252.431474
839.084706	3285.171248
839.400526	3421.695776
839.716303	3645.091988
840.032037	3854.715768
840.347727	3919.429060
840.663373	3826.447498
840.978977	3682.267977
841.294537	3550.620765
841.610054	3444.975824
841.925527	3368.791387
842.240957	3301.844864
842.556344	3240.826738
842.871687	3185.255578
843.186987	3123.884571
843.502244	3068.439441
843.817458	3026.741537
844.132629	2992.580158
844.447756	2977.713795
844.762840	2947.729012
845.077881	2934.432969
845.392879	2923.544076
845.707833	2911.029412
846.022745	2899.366703
846.337613	2898.250087
846.652438	2885.833725
846.967221	2882.607387
847.281960	2876.603372
847.596656	2871.244626
847.911309	2868.577855
848.225919	2860.786752
848.540485	2858.493027
848.855009	2855.886751
849.169490	2849.512212
849.483928	2845.426356
849.798323	2844.004751
850.112675	2841.700944
850.426984	2840.196159
850.741251	2835.764985
851.055474	2838.635922
851.369654	2837.025273
851.683792	2834.310612
851.997887	2839.593741
852.311938	2834.058554
852.625947	2835.719615
852.939914	2832.705005
853.253837	2838.056189
853.567718	2836.284224
853.881555	2833.262052
854.195350	2835.759944
854.509103	2836.566528
854.822812	2838.255315
855.136479	2833.927484
855.450103	2834.008143
855.763685	2830.751557
856.077224	2831.028821
856.390720	2833.103256
856.704173	2836.541323
857.017584	2839.623988
857.330953	2838.656087
857.644278	2845.602797
857.957561	2844.138342
858.270802	2847.384845
858.584000	2847.291583
858.897155	2846.154803
859.210268	2841.307734
859.523339	2839.916375
859.836367	2840.728001
860.149352	2839.056858
860.462295	2839.117352
860.775195	2831.502689
861.088054	2830.282730
861.400869	2831.333811
861.713642	2827.686536
862.026373	2828.926660
862.339062	2834.723987
862.651708	2837.511745
862.964312	2841.567353
863.276873	2840.874194
863.589392	2850.255782
863.901869	2853.419106
864.214303	2862.606609
864.526696	2868.802187
864.839045	2877.750235
865.151353	2883.008158
865.463619	2886.549569
865.775842	2886.791544
866.088023	2892.944273
866.400162	2893.753378
866.712258	2893.695404
867.024313	2896.190776
867.336325	2894.673388
867.648296	2897.130951
867.960224	2897.748492
868.272110	2898.996178
868.583954	2902.625808
868.895755	2907.576222
869.207515	2904.130593
869.519233	2909.259967
869.830909	2911.379772
870.142542	2914.215421
870.454134	2917.582912
870.765684	2923.435692
871.077191	2929.454829
871.388657	2937.646704
871.700081	2938.889349
872.011463	2947.204732
872.322803	2952.989456
872.634101	2955.807461
872.945357	2963.780046
873.256571	2976.009885
873.567744	2979.672283
873.878874	2986.193016
874.189963	2993.485045
874.501010	2994.649551
874.812015	2993.462360
875.122979	3004.399143
875.433900	3006.387878
875.744780	3010.125894
876.055618	3013.831142
876.366415	3019.545290
876.677169	3019.658716
876.987882	3027.472504
877.298554	3035.072043
877.609183	3048.559651
877.919771	3066.301992
878.230317	3090.116402
878.540822	3129.475211
878.851285	3178.366842
879.161707	3243.974938
879.472087	3351.827904
879.782425	3512.570136
880.092722	3789.962147
880.402977	4210.573338
880.713191	4747.632663
881.023363	5347.724056
881.333494	5777.051402
881.643583	6067.028654
881.953631	6143.835674
882.263637	6083.223361
882.573602	5942.005518
882.883526	5770.623931
883.193408	5571.745371
883.503248	5354.879973
883.813048	5138.710255
884.122806	4923.815949
884.432522	4682.964742
884.742197	4453.347746
885.051831	4256.321810
885.361424	4057.246644
885.670975	3892.889905
885.980485	3742.116556
886.289954	3619.298924
886.599382	3517.349150
886.908768	3436.181532
887.218113	3355.921321
887.527417	3292.901857
887.836680	3235.830954
888.145901	3190.818492
888.455082	3152.828356
888.764221	3119.216463
889.073319	3086.736309
889.382376	3070.160995
889.691392	3053.497461
890.000366	3046.916234
890.309300	3039.445244
890.618193	3036.755789
890.927044	3030.066178
891.235855	3030.459388
891.544625	3034.318391
891.853353	3038.968855
892.162041	3054.727502
892.470687	3079.693817
892.779293	3114.392079
893.087858	3164.092814
893.396381	3238.749782
893.704864	3344.087213
894.013306	3498.482631
894.321707	3684.755787
894.630068	3837.482583
894.938387	3911.038059
895.246665	3924.039195
895.554903	3864.344372
895.863100	3774.637039
896.171256	3700.900082
896.479371	3627.838639
896.787446	3552.390210
897.095480	3482.650888
897.403473	3428.564348
897.711425	3374.409753
898.019336	3321.880930
898.327207	3268.399329
898.635038	3218.660784
898.942827	3167.634225
899.250576	3129.286168
899.558284	3087.048860
899.865952	3062.679923
900.173579	3032.553987
900.481165	3011.358456
900.788711	2992.282730
901.096216	2979.125318
901.403681	2961.443471
901.711105	2955.923408
902.018489	2948.545679
902.325832	2960.137812
902.633135	2970.633494
902.940397	3005.850995
903.247619	3094.839963
903.554800	3269.034514
903.861941	3546.902914
904.169041	3809.284889
904.476101	3974.337307
904.783121	3998.302953
905.090100	3929.087911
905.397039	3827.579237
905.703938	3719.648133
906.010796	3617.811784
906.317614	3531.350954
906.624391	3449.608645
906.931129	3377.893190
907.237826	3310.674445
907.544483	3247.468458
907.851099	3174.775019
908.157675	3103.946808
908.464211	3030.431661
908.770707	2972.430666
909.077163	2924.554828
909.383578	2886.993190
909.689954	2860.111238
909.996289	2840.022239
910.302584	2828.979592
910.608839	2818.075576
910.915054	2809.689617
911.221229	2806.496046
911.527363	2806.319605
911.833458	2805.094605
912.139513	2810.418063
912.445527	2813.841007
912.751502	2823.076401
913.057436	2838.023422
913.363331	2858.303984
913.669186	2887.935886
913.975000	2924.706062
914.280775	2986.349292
914.586510	3065.157650
914.892205	3174.273425
915.197859	3319.872030
915.503475	3500.277282
915.809050	3672.946884
916.114585	3807.172646
916.420081	3879.825755
916.725536	3908.535126
917.030952	3875.548336
917.336328	3836.244980
917.641665	3787.600366
917.946961	3723.134091
918.252218	3669.924712
918.557435	3597.516099
918.862612	3530.526726
919.167750	3469.322077
919.472848	3397.273906
919.777906	3330.513906
920.082925	3263.300202
920.387904	3188.348326
920.692843	3136.011067
920.997743	3082.403437
921.302603	3033.993237
921.607423	2999.597444
921.912204	2964.974799
922.216946	2937.467743
922.521647	2915.155596
922.826310	2893.145919
923.130932	2875.776623
923.435516	2853.232583
923.740059	2841.907631
924.044564	2824.845846
924.349028	2814.730771
924.653454	2798.203348
924.957840	2787.115330
925.262186	2777.164092
925.566493	2765.839140
925.870761	2751.562592
926.174989	2749.896491
926.479178	2740.048597
926.783328	2732.083574
927.087438	2727.107955
927.391509	2721.718962
927.695541	2713.753938
927.999533	2708.606920
928.303486	2704.831096
928.607400	2703.313709
928.911275	2700.306661
929.215110	2693.213757
929.518906	2690.688139
929.822663	2693.092769
930.126381	2686.902232
930.430060	2691.346010
930.733699	2688.250741
931.037299	2692.306349
931.340861	2689.574044
931.644383	2690.521781
931.947866	2691.477080
932.251309	2692.076977
932.554714	2689.684949
932.858080	2692.616380
933.161407	2689.153108
933.464694	2688.991791
933.767943	2685.934331
934.071153	2686.264527
934.374323	2685.830987
934.677455	2682.271933
934.980548	2680.159689
935.283602	2677.971828
935.586617	2679.400996
935.889593	2680.263033
936.192530	2681.528362
936.495428	2680.396623
936.798287	2687.978519
937.101108	2689.064887
937.403890	2696.051927
937.706632	2706.403936
938.009336	2717.617983
938.312002	2730.064592
938.614628	2739.355438
938.917216	2751.297932
939.219765	2754.168869
939.522275	2763.464757
939.824747	2766.731424
940.127179	2764.551125
940.429573	2764.470467
940.731929	2765.178749
941.034246	2765.052720
941.336524	2764.278903
941.638763	2766.116403
941.940964	2764.679675
942.243126	2758.683222
942.545250	2758.557193
942.847335	2749.140318
943.149381	2740.570356
943.451389	2735.216651
943.753359	2730.540981
944.055290	2725.920763
944.357182	2720.987994
944.659036	2719.828529
944.960851	2715.447766
945.262628	2715.314176
945.564367	2712.987683
945.866067	2709.476519
946.167729	2712.148331
946.469352	2708.433001
946.770937	2706.340922
947.072484	2704.006867
947.373992	2706.630788
947.675462	2702.650797
947.976893	2701.125848
948.278286	2700.959490
948.579641	2700.556198
948.880958	2696.805579
949.182236	2696.364478
949.483476	2696.112421
949.784678	2694.834488
950.085841	2695.893130
950.386967	2697.438244
950.688054	2697.234077
950.989103	2700.074767
951.290114	2703.016281
951.591087	2707.671786
951.892021	2711.936602
952.192917	2715.639330
952.493776	2722.684342
952.794596	2722.822974
953.095378	2725.250290
953.396122	2724.970506
953.696828	2724.960423
953.997496	2724.433623
954.298126	2720.105792
954.598718	2717.925493
954.899272	2713.426263
955.199788	2708.155737
955.500266	2706.242619
955.800706	2698.159129
956.101108	2691.030937
956.401472	2687.928107
956.701798	2679.078362
957.002087	2672.154337
957.302337	2668.817093
957.602550	2666.782987
957.902724	2659.715290
958.202861	2655.505926
958.502960	2649.605256
958.803022	2646.978815
959.103045	2641.378093
959.403031	2638.169398
959.702979	2633.733183
960.002889	2632.523306
960.302762	2627.323356
960.602596	2624.344034
960.902393	2623.875207
961.202153	2624.432254
961.501875	2622.703138
961.801559	2619.038219
962.101205	2618.060236
962.400814	2618.382869
962.700385	2615.784155
962.999918	2614.176027
963.299414	2612.668722
963.598873	2613.094699
963.898293	2611.887343
964.197677	2610.616972
964.497022	2611.133690
964.796331	2606.636981
965.095601	2610.357352
965.394835	2609.107146
965.694030	2610.679986
965.993189	2610.075048
966.292309	2608.416508
966.591393	2607.090685
966.890439	2606.868874
967.189447	2608.078751
967.488419	2606.677310
967.787353	2603.647577
968.086249	2607.267125
968.385108	2608.930706
968.683930	2609.270984
968.982714	2608.918103
969.281462	2608.880294
969.580172	2610.654781
969.878844	2609.964142
970.177480	2612.126798
970.476078	2613.586212
970.774639	2616.852879
971.073162	2613.152672
971.371649	2615.675770
971.670098	2614.929679
971.968510	2615.436315
972.266885	2615.658126
972.565223	2622.035185
972.863524	2619.116357
973.161788	2622.060391
973.460014	2621.677263
973.758204	2621.803292
974.056356	2623.653396
974.354471	2626.264713
974.652550	2624.117182
974.950591	2623.229939
975.248595	2624.770011
975.546563	2624.044085
975.844493	2625.125413
976.142386	2622.612397
976.440243	2620.686677
976.738062	2621.188272
977.035845	2618.397993
977.333590	2619.063425
977.631299	2617.898919
977.928971	2616.623507
978.226606	2614.017230
978.524204	2612.739298
978.821765	2614.738115
979.119290	2614.959926
979.416777	2614.816253
979.714228	2612.956067
980.011642	2615.910183
980.309020	2615.496809
980.606360	2618.844135
980.903664	2621.410082
981.200931	2629.405352
981.498162	2634.330560
981.795356	2644.783392
982.092513	2661.469611
982.389633	2676.686334
982.686717	2696.437575
982.983764	2712.720502
983.280775	2723.508571
983.577749	2727.949828
983.874686	2732.214644
984.171587	2727.302039
984.468451	2722.006307
984.765279	2715.029350
985.062070	2707.480222
985.358824	2702.764223
985.655543	2693.806093
985.952224	2682.584484
986.248869	2669.036383
986.545478	2656.292346
986.842050	2642.890439
987.138586	2632.137658
987.435086	2623.113992
987.731549	2615.098558
988.027975	2615.451438
988.324366	2609.636467
988.620719	2605.245622
988.917037	2602.475508
989.213318	2598.732452
989.509563	2601.782350
989.805772	2598.321598
990.101944	2599.128182
990.398080	2595.649786
990.694180	2596.620208
990.990244	2597.056268
991.286271	2596.809252
991.582262	2598.866042
991.878217	2598.951742
992.174136	2597.499890
992.470019	2598.490476
992.765865	2600.547267
993.061676	2601.580704
993.357450	2603.519027
993.653188	2601.132041
993.948890	2606.934409
994.244556	2608.534975
994.540186	2612.729215
994.835780	2618.912191
995.131337	2625.067439
995.426859	2630.650517
995.722345	2639.220479
996.017795	2650.558034
996.313208	2657.081287
996.608586	2665.331135
996.903928	2667.120745
997.199234	2670.200890
997.494504	2670.757937
997.789738	2668.383554
998.084936	2662.689571
998.380099	2659.082625
998.675225	2653.013076
998.970316	2648.609628
999.265371	2642.610655
999.560390	2636.399953
999.855373	2630.027935
1000.150320	2624.606174
1000.445232	2619.408744
1000.740108	2613.167796
1001.034948	2606.299224
1001.329752	2605.036415
1001.624521	2602.699840
1001.919254	2598.634149
1002.213951	2594.286154
1002.508613	2594.326483
1002.803239	2591.596698
1003.097829	2590.162490
1003.392384	2592.481421
1003.686903	2592.178952
1003.981386	2592.335227
1004.275834	2591.558890
1004.570246	2591.243818
1004.864623	2588.940010
1005.158964	2590.210381
1005.453270	2590.981678
1005.747540	2587.737695
1006.041775	2586.376584
1006.335974	2588.193920
1006.630138	2587.924218
1006.924266	2584.970102
1007.218359	2586.129567
1007.512416	2587.213415
1007.806438	2584.196285
1008.100425	2585.459094
1008.394376	2586.124526
1008.688292	2585.433888
1008.982172	2584.120667
1009.276017	2584.902046
1009.569827	2585.441450
1009.863602	2586.626121
1010.157341	2584.894484
1010.451045	2584.317272
1010.744714	2583.485482
1011.038347	2585.433888
1011.331945	2581.592529
1011.625508	2587.349526
1011.919036	2586.847932
1012.212528	2583.856007
1012.505986	2582.525142
1012.799408	2582.361305
1013.092795	2584.932293
1013.386147	2582.729309
1013.679464	2585.050760
1013.972745	2585.890112
1014.265992	2583.493044
1014.559204	2582.890626
1014.852380	2583.349371
1015.145521	2582.303331
1015.438628	2581.108578
1015.731699	2581.884916
1016.024736	2583.170410
1016.317737	2582.507498
1016.610703	2583.729978
1016.903635	2579.966757
1017.196531	2579.180337
1017.489393	2578.923238
1017.782219	2581.123701
1018.075011	2581.073290
1018.367768	2586.104361
1018.660490	2586.641244
1018.953177	2586.641244
1019.245829	2586.641244
