Dividing Wavelength (nm)	Counts (n)	Blue Motor Position (mm): 19.000000	Red Motor Position (mm): 0.000000	
326.493990	2155.700728
326.888308	2155.700728
327.282561	2155.700728
327.676750	2130.774743
328.070874	2133.529734
328.464933	2138.369241
328.858929	2147.529018
329.252859	2158.130564
329.646726	2170.942657
330.040528	2186.711386
330.434265	2208.408512
330.827938	2223.486603
331.221547	2246.018041
331.615091	2262.845412
332.008571	2284.101437
332.401986	2306.312761
332.795338	2324.407983
333.188625	2345.212825
333.581847	2365.876514
333.975006	2380.417723
334.368100	2403.022257
334.761129	2421.921542
335.154095	2436.185487
335.546996	2458.835391
335.939833	2486.604587
336.332606	2499.285610
336.725315	2513.186592
337.117960	2518.333610
337.510540	2527.566483
337.903056	2535.619726
338.295508	2542.770603
338.687896	2550.176058
339.080220	2557.813406
339.472480	2565.947308
339.864676	2568.934191
340.256807	2569.660117
340.648875	2575.671693
341.040879	2576.334605
341.432818	2574.860068
341.824694	2575.875860
342.216506	2574.812177
342.608253	2576.611869
342.999937	2575.432239
343.391557	2575.235634
343.783113	2571.283369
344.174605	2573.234296
344.566033	2573.196487
344.957397	2567.999057
345.348697	2568.031825
345.739934	2565.654921
346.131106	2563.119220
346.522215	2561.475804
346.913260	2558.302398
347.304241	2558.234342
347.695159	2556.779969
348.086012	2558.438509
348.476802	2553.379711
348.867528	2552.865513
349.258191	2550.123126
349.648789	2550.234031
350.039324	2548.734288
350.429796	2550.423074
350.820203	2543.766231
351.210548	2545.255892
351.600828	2545.197918
351.991045	2547.834442
352.381198	2544.083823
352.771288	2541.527958
353.161314	2543.662887
353.551276	2544.711447
353.941175	2542.737835
354.331010	2545.858310
354.720782	2546.523742
355.110490	2544.338402
355.500135	2545.654143
355.889717	2545.071890
356.279235	2546.617003
356.668689	2543.781354
357.058080	2545.490305
357.447408	2543.793957
357.836672	2545.296221
358.225873	2544.880326
358.615010	2543.032743
359.004084	2547.993238
359.393095	2547.284956
359.782043	2551.751418
360.170927	2550.246634
360.559748	2550.163455
360.948505	2550.044988
361.337199	2553.147818
361.725830	2552.827705
362.114398	2552.273178
362.502903	2551.469114
362.891344	2555.580175
363.279722	2551.839639
363.668037	2555.504557
364.056289	2551.804351
364.444478	2554.816440
364.832603	2556.696790
365.220665	2556.089331
365.608665	2557.523540
365.996601	2555.522202
366.384474	2558.549414
366.772284	2559.424055
367.160031	2556.480021
367.547715	2556.474980
367.935336	2555.633107
368.322893	2556.704352
368.710388	2555.244938
369.097820	2562.695763
369.485189	2558.115875
369.872495	2559.562686
370.259738	2559.144271
370.646918	2560.139898
371.034035	2561.420352
371.421090	2559.313149
371.808081	2560.891030
372.195010	2557.798282
372.581875	2560.104610
372.968678	2562.688202
373.355418	2560.651576
373.742096	2558.531770
374.128710	2560.820454
374.515262	2563.088973
374.901751	2564.238357
375.288177	2561.047306
375.674540	2562.378171
376.060841	2561.674930
376.447079	2562.852039
376.833254	2564.961762
377.219367	2560.704508
377.605417	2560.946483
377.991404	2562.448747
378.377329	2561.009497
378.763191	2562.289951
379.148991	2561.609395
379.534727	2565.455795
379.920402	2566.267421
380.306013	2565.917061
380.691563	2564.568552
381.077049	2568.493090
381.462474	2566.630384
381.847835	2565.604509
382.233134	2566.537123
382.618371	2569.619788
383.003545	2567.290775
383.388657	2568.241033
383.773706	2565.564180
384.158693	2570.328070
384.543618	2565.435631
384.928480	2565.841443
385.313280	2568.903944
385.698017	2566.065775
386.082692	2568.351938
386.467305	2568.046948
386.851856	2573.299831
387.236344	2571.575756
387.620770	2569.246743
388.005133	2570.943091
388.389435	2570.060889
388.773674	2572.120201
389.157851	2569.042576
389.541965	2569.226578
389.926018	2571.026270
390.310008	2571.051476
390.693936	2571.860581
391.077802	2572.062227
391.461606	2571.253122
391.845348	2573.317475
392.229027	2572.165571
392.612645	2573.471230
392.996200	2572.987279
393.379694	2573.952660
393.763125	2572.790674
394.146494	2574.245047
394.529801	2575.132290
394.913047	2574.890315
395.296230	2574.749162
395.679351	2572.543658
396.062410	2574.693710
396.445408	2575.069276
396.828343	2573.935016
397.211217	2566.824468
397.594028	2570.171795
397.976778	2572.594069
398.359466	2572.924265
398.742092	2572.770509
399.124656	2575.215469
399.507158	2577.509194
399.889598	2578.514904
400.271977	2577.678073
400.654294	2577.705799
401.036549	2572.531055
401.418742	2574.837382
401.800874	2577.675552
402.182944	2578.267888
402.564952	2577.327713
402.946898	2576.180850
403.328783	2577.957857
403.710606	2577.980542
404.092367	2579.248392
404.474067	2580.324678
404.855705	2579.661767
405.237282	2577.410892
405.618797	2578.565316
406.000250	2580.594380
406.381642	2577.824266
406.762972	2580.828794
407.144240	2577.428536
407.525447	2581.403485
407.906593	2580.967426
408.287677	2580.392734
408.668700	2582.152097
409.049661	2579.865933
409.430560	2582.018506
409.811399	2582.268043
410.192176	2578.671180
410.572891	2579.523135
410.953545	2582.174782
411.334138	2581.204360
411.714669	2579.878536
412.095139	2582.958681
412.475547	2580.947261
412.855894	2582.237796
413.236180	2582.812488
413.616405	2582.625965
413.996568	2582.668815
414.376670	2585.411203
414.756711	2581.569843
415.136691	2582.033630
415.516609	2580.980028
415.896466	2581.600090
416.276262	2581.254771
416.655997	2579.175295
417.035670	2579.843248
417.415283	2578.910635
417.794834	2581.345512
418.174324	2579.427353
418.553753	2583.787951
418.933121	2584.972622
419.312428	2584.103023
419.691674	2584.203846
420.070859	2584.496233
420.449983	2582.283167
420.829045	2585.663260
421.208047	2585.128898
421.586988	2584.866758
421.965867	2585.380956
422.344686	2586.618559
422.723444	2585.428847
423.102141	2586.104361
423.480777	2585.819536
423.859352	2586.873137
424.237866	2587.709969
424.616319	2587.218456
424.994712	2584.090420
425.373044	2586.714341
425.751314	2586.353898
426.129524	2584.284505
426.507673	2587.163004
426.885762	2586.568147
427.263789	2587.964547
427.641756	2587.324321
428.019662	2585.948086
428.397508	2586.240472
428.775292	2585.365832
429.153016	2587.727613
429.530679	2586.361460
429.908282	2588.463621
430.285824	2586.363981
430.663305	2587.132757
431.040726	2586.981522
431.418086	2589.088724
431.795385	2590.752305
432.172624	2588.635021
432.549802	2586.815164
432.926920	2588.216605
433.303977	2589.923035
433.680974	2587.848601
434.057910	2586.951275
434.434786	2590.661564
434.811601	2590.275916
435.188355	2591.039651
435.565050	2589.948241
435.941683	2587.790627
436.318257	2590.139805
436.694770	2588.093097
437.071222	2586.190061
437.447614	2586.358940
437.823946	2588.098138
438.200218	2590.792634
438.576429	2592.294898
438.952580	2589.575196
439.328670	2592.050402
439.704700	2592.012594
440.080670	2591.692480
440.456580	2590.790114
440.832429	2593.144333
441.208218	2590.306163
441.583947	2591.347161
441.959616	2592.801534
442.335224	2591.173242
442.710773	2592.829261
443.086261	2592.567121
443.461689	2592.408324
443.837057	2595.405290
444.212365	2591.274065
444.587612	2593.661051
444.962800	2595.095259
445.337927	2594.029055
445.712995	2593.789600
446.088002	2590.895978
446.462949	2591.717686
446.837837	2594.392018
447.212664	2593.194744
447.587431	2594.381936
447.962139	2594.994436
448.336786	2594.570979
448.711374	2595.019642
449.085901	2593.288006
449.460369	2595.649786
449.834776	2595.455702
450.209124	2595.175918
450.583412	2595.382605
450.957640	2594.848243
451.331808	2594.235742
451.705917	2595.700198
452.079965	2595.785897
452.453954	2595.939653
452.827883	2594.044179
453.201752	2593.676174
453.575562	2593.746751
453.949311	2596.872266
454.323001	2595.518716
454.696632	2594.911257
455.070202	2596.922677
455.443713	2595.947214
455.817164	2595.778336
456.190556	2591.528643
456.563888	2595.559045
456.937160	2591.896647
457.310373	2594.376895
457.683526	2595.604416
458.056619	2598.586258
458.429653	2597.043665
458.802628	2598.613985
459.175542	2598.117431
459.548398	2599.402925
459.921194	2599.102977
460.293930	2596.789087
460.666607	2601.487442
461.039224	2599.382761
461.411782	2599.927205
461.784280	2599.642380
462.156719	2599.496187
462.529099	2600.179263
462.901419	2599.803697
463.273680	2601.144644
463.645882	2598.508120
464.018024	2598.704725
464.390106	2604.325612
464.762130	2602.818307
465.134094	2601.426948
465.505999	2603.680344
465.877845	2605.999275
466.249631	2605.666559
466.621358	2606.750407
466.993026	2610.692589
467.364634	2610.460696
467.736184	2608.585387
468.107674	2605.827876
468.479105	2603.970211
468.850477	2605.532968
469.221790	2606.596652
469.593043	2606.132866
469.964238	2605.570777
470.335373	2604.741507
470.706449	2608.807198
471.077467	2606.609255
471.448425	2607.804008
471.819324	2611.663011
472.190164	2612.996397
472.560945	2611.867178
472.931667	2609.996910
473.302330	2610.374997
473.672934	2609.139914
474.043479	2608.015737
474.413965	2611.156375
474.784393	2605.928699
475.154761	2609.296190
475.525070	2607.652773
475.895321	2606.775613
476.265513	2606.200921
476.635645	2613.563526
477.005719	2610.397682
477.375734	2612.661160
477.745691	2613.923969
478.115588	2615.136366
478.485427	2613.293825
478.855207	2618.130812
479.224928	2620.623662
479.594591	2619.880092
479.964194	2620.716924
480.333739	2621.949486
480.703226	2621.526029
481.072653	2620.283384
481.442022	2622.982922
481.811333	2625.382512
482.180584	2622.761112
482.549777	2620.386728
482.918912	2623.653396
483.287988	2626.153808
483.657005	2626.007615
484.025964	2625.448047
484.394864	2624.510392
484.763706	2628.122379
485.132489	2625.213633
485.501213	2627.043572
485.869879	2625.672378
486.238487	2624.454939
486.607036	2626.806638
486.975527	2627.461987
487.343959	2629.337297
487.712333	2626.932666
488.080648	2629.697739
488.448905	2629.491052
488.817104	2631.832668
489.185244	2632.364510
489.553326	2635.600930
489.921350	2639.890952
490.289315	2641.365490
490.657222	2645.758855
491.025070	2648.218938
491.392861	2648.511325
491.760593	2647.508136
492.128267	2647.931593
492.495883	2646.419247
492.863440	2650.923517
493.230939	2647.918990
493.598380	2647.868578
493.965763	2647.205667
494.333088	2646.114257
494.700354	2647.629123
495.067563	2652.977788
495.434713	2649.305307
495.801805	2655.987357
496.168839	2657.945845
496.535815	2657.371153
496.902733	2660.801658
497.269593	2663.599499
497.636395	2665.212668
498.003139	2669.837927
498.369825	2669.711898
498.736453	2672.749193
499.103023	2674.241375
499.469535	2678.886798
499.835989	2680.477282
500.202385	2683.592715
500.568723	2686.753518
500.935003	2691.121678
501.301226	2696.051927
501.667390	2702.751620
502.033497	2704.863864
502.399546	2707.114739
502.765537	2710.983824
503.131470	2715.049515
503.497345	2724.647872
503.863163	2724.899930
504.228923	2731.022411
504.594625	2740.456930
504.960269	2740.406519
505.325856	2753.228694
505.691385	2755.270361
506.056856	2762.247318
506.422270	2772.299379
506.787625	2778.820111
507.152924	2784.892181
507.518164	2795.385343
507.883347	2799.498924
508.248472	2808.643577
508.613540	2818.219249
508.978550	2830.675940
509.343503	2842.361335
509.708398	2851.400124
510.073236	2863.763553
510.438016	2876.081613
510.802738	2885.163252
511.167403	2902.648494
511.532010	2916.902356
511.896561	2935.516817
512.261053	2956.044395
512.625488	2957.670167
512.989866	2975.425111
513.354186	2990.220898
513.718449	3002.705315
514.082655	3029.352854
514.446803	3043.203425
514.810894	3065.008936
515.174927	3084.329158
515.538904	3099.661827
515.902822	3126.039665
516.266684	3141.039618
516.630488	3165.458967
516.994235	3183.939837
517.357925	3212.205587
517.721558	3239.183322
518.085133	3262.753236
518.448651	3287.316258
518.812112	3309.025988
519.175516	3333.399966
519.538863	3363.919112
519.902152	3386.846279
520.265385	3423.810540
520.628560	3456.769604
520.991678	3476.382213
521.354739	3510.833458
521.717743	3544.246226
522.080690	3576.640681
522.443580	3614.356073
522.806413	3647.516783
523.169189	3677.569622
523.531908	3720.782393
523.894569	3745.605034
524.257174	3784.038791
524.619722	3829.134433
524.982213	3867.106924
525.344647	3901.328797
525.707025	3938.620732
526.069345	3987.098988
526.431608	4023.528887
526.793815	4075.054520
527.155964	4101.946555
527.518057	4147.188391
527.880093	4181.127959
528.242072	4241.034511
528.603995	4275.284110
528.965860	4315.913289
529.327669	4368.600909
529.689421	4406.066764
530.051117	4454.580308
530.412755	4509.360006
530.774337	4554.599321
531.135862	4600.007514
531.497331	4652.493487
531.858743	4696.341444
532.220098	4759.600363
532.581396	4798.288698
532.942638	4833.412937
533.303824	4900.619080
533.664953	4950.098005
534.026025	4995.332278
534.387040	5066.946910
534.747999	5117.209734
535.108902	5178.520247
535.469748	5206.765832
535.830537	5269.858393
536.191270	5331.315100
536.551947	5371.919073
536.912567	5444.778870
537.273131	5510.984343
537.633638	5536.321183
537.994089	5611.358758
538.354483	5642.563500
538.714821	5742.937914
539.075103	5825.582590
539.435328	5866.799064
539.795497	5913.016363
540.155609	5978.258976
540.515665	6069.251803
540.875665	6087.049596
541.235609	6175.975550
541.595496	6224.418518
541.955328	6343.603998
542.315102	6359.965063
542.674821	6400.725312
543.034483	6469.884902
543.394090	6536.080293
543.753640	6589.108190
544.113134	6739.511015
544.472571	6710.950358
544.831953	6881.817747
545.191278	6882.836060
545.550548	6913.634990
545.909761	7027.020622
546.268918	7106.323013
546.628019	7202.362035
546.987064	7215.453912
547.346053	7216.704118
547.704986	7365.892025
548.063863	7380.077832
548.422684	7473.253478
548.781449	7520.194182
549.140158	7626.925491
549.498811	7670.438211
549.857408	7672.873088
550.215949	7831.167839
550.574434	7881.987711
550.932864	7926.170904
551.291237	8083.507836
551.649555	8093.028055
552.007817	8189.954320
552.366022	8209.244296
552.724173	8298.031618
553.082267	8399.908296
553.440305	8518.415740
553.798288	8487.596646
554.156215	8587.179599
554.514086	8678.991614
554.871902	8706.203762
555.229661	8787.608315
555.587365	8819.644847
555.945014	8889.757215
556.302606	8938.611037
556.660143	9040.248260
557.017625	9114.328016
557.375050	9157.644130
557.732421	9279.214076
558.089735	9337.033590
558.446994	9385.037978
558.804197	9512.571608
559.161345	9566.950535
559.518437	9509.443572
559.875474	9627.842632
560.232455	9708.375065
560.589381	9803.199168
560.946251	9807.620260
561.303065	9985.676335
561.659825	10007.055868
562.016528	10001.470270
562.373177	10017.685141
562.729770	10159.505402
563.086307	10133.200661
563.442789	10256.469475
563.799216	10346.166726
564.155587	10352.422798
564.511904	10417.375544
564.868164	10479.759823
565.224370	10575.312374
565.580520	10591.222255
565.936615	10681.612664
566.292654	10677.448671
566.648638	10782.193766
567.004567	10829.457104
567.360441	10883.281503
567.716260	10902.609287
568.072023	11008.453353
568.427732	11045.599096
568.783385	11014.895948
569.138982	11141.723817
569.494525	11189.801301
569.850013	11189.125787
570.205445	11229.081972
570.560823	11283.423090
570.916145	11294.322065
571.271412	11335.725061
571.626625	11343.516164
571.981782	11379.847760
572.336884	11370.309897
572.691931	11477.111782
573.046923	11431.824577
573.401860	11450.151692
573.756743	11482.699902
574.111570	11551.010057
574.466342	11563.194526
574.821059	11635.288067
575.175722	11564.772407
575.530330	11614.609254
575.884882	11585.448699
576.239380	11623.607713
576.593823	11634.196657
576.948211	11655.135089
577.302544	11592.077817
577.656823	11640.858542
578.011047	11718.746889
578.365216	11695.489526
578.719330	11679.584686
579.073389	11675.980261
579.427394	11709.564428
579.781344	11727.268960
580.135239	11685.497959
580.489080	11724.261912
580.842866	11637.067594
581.196597	11748.393915
581.550273	11765.022161
581.903895	11755.529668
582.257463	11866.165351
582.610975	11754.128228
582.964434	11828.568426
583.317837	11771.316042
583.671186	11753.719894
584.024481	11831.769558
584.377721	11746.707649
584.730906	11834.675784
585.084037	11859.412726
585.437113	11807.014972
585.790135	11842.696259
586.143103	11771.595826
586.496016	11800.095989
586.848874	11832.644199
587.201679	11849.000222
587.554428	11745.283523
587.907124	11802.520784
588.259765	11758.125863
588.612352	11835.772235
588.964884	11716.803524
589.317362	11773.355188
589.669786	11778.010694
590.022155	11747.642783
590.374470	11858.699402
590.726731	11765.672470
591.078937	11659.997282
591.431090	11694.267046
591.783188	11645.342648
592.135232	11579.522823
592.487222	11660.733291
592.839157	11679.665344
593.191038	11620.131838
593.542866	11579.903430
593.894639	11446.040631
594.246358	11522.290603
594.598022	11533.660926
594.949633	11445.740682
595.301190	11441.750609
595.652692	11403.828529
596.004141	11503.734116
596.355535	11295.007662
596.706876	11282.765219
597.058162	11262.588001
597.409395	11354.175684
597.760573	11383.915971
598.111698	11294.637137
598.462768	11303.973354
598.813785	11310.201699
599.164748	11195.268433
599.515657	11280.990733
599.866511	11159.322485
600.217312	11294.034719
600.568060	11072.160935
600.918753	11231.607590
601.269392	11230.929555
601.619978	11143.190793
601.970510	11188.319202
602.320988	11233.571120
602.671412	11294.521190
603.021783	11223.970242
603.372100	11159.720736
603.722363	11174.549290
604.072572	11185.216372
604.422728	11197.063083
604.772830	11149.598099
605.122878	11158.609162
605.472872	11134.663681
605.822813	11191.384224
606.172701	11156.635550
606.522534	11197.554596
606.872314	11249.100394
607.222041	11195.606190
607.571714	11270.752150
607.921333	11137.597633
608.270899	11196.624503
608.620411	11251.815055
608.969870	11209.353417
609.319276	11191.991683
609.668627	11209.025742
610.017926	11282.752617
610.367171	11321.020015
610.716362	11315.767133
611.065500	11291.924996
611.414585	11311.227574
611.763616	11377.065043
612.112594	11342.800321
612.461518	11368.691687
612.810389	11411.654920
613.159207	11357.956550
613.507971	11348.630415
613.856682	11451.396857
614.205340	11412.514437
614.553945	11543.597040
614.902496	11418.064747
615.250994	11485.447330
615.599439	11477.938532
615.947830	11514.968327
616.296169	11475.982564
616.644454	11501.478200
616.992686	11507.023469
617.340864	11597.310534
617.688990	11495.736325
618.037063	11630.935030
618.385082	11595.536048
618.733048	11630.569547
619.080961	11627.358332
619.428821	11604.098448
619.776628	11616.391302
620.124382	11566.236862
620.472083	11595.064700
620.819731	11605.202461
621.167326	11527.467868
621.514868	11515.858091
621.862357	11420.887794
622.209793	11408.524364
622.557176	11327.402116
622.904506	11279.922009
623.251783	11200.433095
623.599007	11137.464042
623.946179	11084.244581
624.293297	11063.711961
624.640363	10931.626169
624.987376	10919.998748
625.334336	10862.567402
625.681243	10775.310070
626.028097	10741.751109
626.374899	10705.845491
626.721647	10688.685403
627.068343	10640.900306
627.414987	10579.751110
627.761577	10519.156441
628.108115	10552.959898
628.454600	10432.378018
628.801032	10444.446541
629.147412	10430.752246
629.493739	10405.047403
629.840014	10328.908336
630.186236	10369.842505
630.532405	10269.919274
630.878521	10306.107197
631.224585	10259.405947
631.570597	10190.717706
631.916556	10190.279125
632.262462	10183.375265
632.608316	10166.429427
632.954117	10144.215582
633.299866	10116.285069
633.645562	10104.007339
633.991206	9996.287964
634.336797	9906.822606
634.682336	9889.168486
635.027823	9837.448768
635.373257	9799.655237
635.718639	9733.664013
636.063968	9700.899033
636.409245	9586.671528
636.754470	9575.707019
637.099642	9526.407055
637.444762	9427.144215
637.789829	9430.110934
638.134845	9360.888330
638.479808	9331.972272
638.824719	9303.343559
639.169577	9216.161844
639.514383	9219.441115
639.859137	9149.820260
640.203839	9188.228811
640.548489	9108.606306
640.893086	9116.793140
641.237632	9049.876864
641.582125	9054.033295
641.926566	9039.739104
642.270955	9021.946351
642.615292	9006.679217
642.959576	8996.349892
643.303809	8979.635947
643.647990	9006.903548
643.992118	8974.877098
644.336195	8956.862534
644.680219	8952.552348
645.024192	8986.804468
645.368112	9056.349706
645.711981	9035.575111
646.055797	9176.699692
646.399562	9135.475656
646.743274	9293.639338
647.086935	9359.867496
647.430544	9339.725566
647.774101	9362.869503
648.117606	9380.523624
648.461059	9453.048184
648.804460	9381.378100
649.147810	9269.812324
649.491108	9235.661027
649.834354	9173.934619
650.177548	9032.182414
650.520690	8934.063916
650.863781	8928.785828
651.206820	8900.608299
651.549807	8811.400040
651.892742	8725.196309
652.235626	8688.390845
652.578458	8650.347778
652.921238	8539.190335
653.263967	8579.222138
653.606644	8516.348867
653.949269	8492.332810
654.291843	8411.046725
654.634365	8473.728432
654.976836	8403.026249
655.319255	8396.016525
655.661622	8386.778611
656.003938	8346.348557
656.346203	8302.929099
656.688416	8339.069131
657.030577	8301.457082
657.372687	8264.371833
657.714746	8298.187893
658.056753	8313.538207
658.398708	8216.866520
658.740612	8206.832103
659.082465	8246.216118
659.424266	8207.147176
659.766016	8220.256696
660.107715	8194.186369
660.449362	8213.851910
660.790958	8211.437198
661.132503	8204.563584
661.473996	8198.862039
661.815438	8214.976088
662.156829	8245.036488
662.498168	8190.823919
662.839456	8187.834515
663.180693	8206.731280
663.521879	8224.773570
663.863013	8205.856640
664.204097	8202.325312
664.545129	8278.446735
664.886110	8273.014892
665.227040	8275.792568
665.567918	8290.926111
665.908746	8301.220148
666.249522	8322.592119
666.590248	8318.067684
666.930922	8336.843461
667.271545	8319.491810
667.612118	8342.242537
667.952639	8302.755179
668.293109	8306.039491
668.633528	8284.170965
668.973896	8271.810056
669.314213	8278.406406
669.654480	8227.921771
669.994695	8227.347079
670.334859	8208.309162
670.674973	8193.243673
671.015035	8215.041623
671.355047	8204.588790
671.695008	8187.413579
672.034918	8163.634456
672.374777	8171.639808
672.714585	8145.196436
673.054342	8177.888319
673.394049	8143.580746
673.733705	8183.791510
674.073310	8133.352245
674.412864	8137.790981
674.752368	8076.830828
675.091820	8133.127914
675.431223	8061.092346
675.770574	8014.171806
676.109875	7978.258626
676.449125	7942.063142
676.788324	7918.349554
677.127473	7834.885690
677.466571	7826.345976
677.805619	7762.777026
678.144616	7762.807273
678.483562	7744.054180
678.822458	7695.361675
679.161303	7681.843821
679.500098	7665.863364
679.838842	7644.561968
680.177535	7652.978174
680.516179	7691.467384
680.854771	7708.685445
681.193314	7826.744227
681.531805	7984.257599
681.870247	8103.138089
682.208638	8252.573013
682.546978	8331.048655
682.885268	8359.092594
683.223508	8291.974671
683.561697	8235.193635
683.899836	8202.141310
684.237925	8119.927652
684.575963	8082.222342
684.913951	8012.251127
685.251889	8023.250924
685.589776	8017.551900
685.927614	8003.718974
686.265401	8027.114969
686.603137	8031.150412
686.940824	8102.271011
687.278460	8152.795975
687.616046	8172.829521
687.953582	8279.112167
688.291068	8259.991071
688.628504	8316.267992
688.965889	8318.609608
689.303224	8278.923124
689.640510	8233.159529
689.977745	8127.670865
690.314930	8005.730394
690.652065	7938.894777
690.989150	7815.106723
691.326185	7670.352511
691.663170	7554.176600
692.000105	7437.988086
692.336990	7323.208575
692.673825	7251.183089
693.010610	7148.565362
693.347345	7059.503297
693.684030	6942.593898
694.020665	6895.615385
694.357251	6787.109590
694.693786	6774.993177
695.030272	6731.374593
695.366707	6643.794627
695.703093	6588.460402
696.039429	6591.159940
696.375716	6534.504932
696.711952	6522.443972
697.048139	6496.111505
697.384276	6461.665300
697.720363	6487.468446
698.056400	6461.839220
698.392388	6429.172543
698.728326	6430.858809
699.064214	6403.190436
699.400053	6396.402523
699.735842	6337.199212
700.071581	6292.958046
700.407270	6247.436427
700.742910	6222.767540
701.078501	6176.502351
701.414042	6136.989787
701.749533	6078.028452
702.084974	6022.023753
702.420366	6060.429783
702.755709	5985.976982
703.091002	5936.311535
703.426246	5945.284788
703.761440	5927.723929
704.096584	5887.535851
704.431679	5872.709817
704.766725	5855.920254
705.101721	5840.141443
705.436668	5859.249936
705.771565	5801.180885
706.106413	5855.756417
706.441212	5854.816242
706.775961	5874.670826
707.110661	5884.528802
707.445311	5942.398728
707.779913	5908.091155
708.114465	5950.756961
708.448967	5990.761037
708.783421	6102.326813
709.117825	6151.404966
709.452180	6181.364544
709.786485	6243.302680
710.120742	6371.625252
710.454949	6373.855962
710.789107	6451.769515
711.123216	6573.450366
711.457275	6603.601507
711.791286	6714.269958
712.125247	6735.215952
712.459159	6697.492998
712.793023	6825.823131
713.126837	6663.969325
713.460602	6719.285906
713.794318	6674.011303
714.127985	6625.916175
714.461602	6474.855479
714.795171	6477.497044
715.128691	6311.789276
715.462162	6225.973714
715.795584	6153.275234
716.128957	6112.973730
716.462281	6047.937804
716.795556	6007.288460
717.128782	5917.649183
717.461960	5820.518751
717.795088	5814.391229
718.128167	5741.153346
718.461198	5660.512528
718.794180	5639.765660
719.127113	5581.215178
719.459997	5547.048758
719.792833	5480.762626
720.125619	5478.673068
720.458357	5419.547895
720.791046	5388.393564
721.123686	5366.719123
721.456278	5321.479809
721.788821	5307.281399
722.121315	5266.075007
722.453761	5275.514568
722.786158	5256.890025
723.118506	5259.788688
723.450805	5235.870934
723.783056	5260.794399
724.115259	5241.212037
724.447412	5227.696703
724.779518	5278.322491
725.111574	5282.960352
725.443582	5317.081402
725.775542	5309.686029
726.107453	5392.789450
726.439315	5366.401531
726.771129	5437.083549
727.102895	5501.910267
727.434612	5543.434251
727.766281	5573.776956
728.097901	5626.935923
728.429473	5637.391276
728.760996	5650.979706
729.092471	5672.880999
729.423897	5662.544113
729.755276	5634.734588
730.086606	5649.127082
730.417887	5735.739147
730.749120	5826.147200
731.080305	5866.055494
731.411442	5939.351350
731.742530	5962.694413
732.073570	5989.984700
732.404562	6052.215223
732.735506	6046.581734
733.066401	6020.269431
733.397249	5957.643177
733.728048	5859.194484
734.058798	5713.626125
734.389501	5593.548361
734.720156	5508.052912
735.050762	5405.445267
735.381320	5329.447352
735.711831	5265.948978
736.042293	5193.878122
736.372707	5186.949057
736.703073	5143.214526
737.033391	5173.421120
737.363661	5158.456455
737.693883	5168.490872
738.024056	5194.919121
738.354182	5224.331733
738.684260	5273.117499
739.014290	5308.327438
739.344272	5340.792469
739.674207	5396.552672
740.004093	5428.342188
740.333931	5437.728816
740.663722	5453.580725
740.993464	5464.174709
741.323159	5446.896155
741.652806	5403.398559
741.982405	5372.035020
742.311956	5316.602492
742.641460	5306.948683
742.970915	5257.699130
743.300323	5200.338361
743.629683	5160.271270
743.958996	5113.663283
744.288260	5062.114964
744.617477	5000.234800
744.946647	4989.613089
745.275768	4934.651909
745.604842	4904.485645
745.933869	4865.673801
746.262847	4858.727091
746.591778	4846.605637
746.920662	4821.230989
747.249498	4814.327129
747.578286	4832.878575
747.907027	4858.585939
748.235720	4900.445160
748.564365	4908.901696
748.892963	4897.538935
749.221514	4912.788425
749.550017	4891.890322
749.878473	4887.622985
750.206881	4846.991285
750.535242	4834.330427
750.863555	4819.459023
751.191821	4796.809119
751.520039	4804.254903
751.848210	4788.763438
752.176334	4794.522956
752.504411	4771.157208
752.832440	4744.897837
753.160421	4757.248664
753.488356	4734.137495
753.816243	4715.669227
754.144082	4690.546637
754.471875	4674.074667
754.799620	4665.769366
755.127318	4658.333664
755.454969	4651.704547
755.782572	4643.812621
756.110129	4646.441582
756.437638	4632.938852
756.765100	4626.773521
757.092515	4631.045898
757.419882	4633.621928
757.747203	4624.497440
758.074477	4645.516531
758.401703	4633.689984
758.728882	4665.572761
759.056014	4675.246735
759.383099	4697.470662
759.710138	4725.323037
760.037129	4748.245164
760.364073	4759.192029
760.690970	4757.102471
761.017820	4754.075258
761.344623	4792.264519
761.671379	4851.140155
761.998088	4942.405204
762.324751	5169.511705
762.651366	5634.364063
762.977935	6319.441747
763.304456	6870.891046
763.630931	7177.879671
763.957359	7107.779907
764.283740	6816.955741
764.610074	6496.577811
764.936362	6095.629640
765.262602	5782.725221
765.588796	5437.900216
765.914943	5185.658521
766.241044	4961.712823
766.567097	4791.319303
766.893104	4646.635667
767.219064	4547.818969
767.544978	4450.292807
767.870845	4370.569479
768.196665	4318.925379
768.522438	4272.082977
768.848165	4229.245772
769.173846	4191.379145
769.499479	4161.429650
769.825066	4123.774752
770.150607	4081.761775
770.476101	4066.759302
770.801548	4048.016292
771.126949	4017.131662
771.452303	3999.454857
771.777611	3962.946820
772.102872	3957.373825
772.428087	3932.173097
772.753256	3908.184766
773.078378	3886.701889
773.403453	3855.020758
773.728482	3831.712983
774.053465	3818.530366
774.378401	3796.472797
774.703291	3773.618726
775.028135	3749.910179
775.352932	3742.693768
775.677683	3721.289028
776.002388	3702.571224
776.327046	3704.577603
776.651658	3686.132022
776.976224	3665.765760
777.300743	3663.701407
777.625216	3645.805311
777.949643	3643.216679
778.274024	3643.733397
778.598359	3626.091879
778.922647	3623.011734
779.246889	3612.390023
779.571086	3614.903038
779.895236	3616.427987
780.219339	3616.579222
780.543397	3614.872791
780.867409	3627.077425
781.191374	3627.110192
781.515294	3619.372021
781.839167	3639.546719
782.162995	3636.496821
782.486776	3627.982312
782.810511	3619.581229
783.134201	3607.038838
783.457844	3606.103704
783.781441	3597.437961
784.104993	3589.714913
784.428498	3582.594283
784.751958	3581.631423
785.075372	3576.330650
785.398739	3566.112231
785.722061	3573.006009
786.045337	3571.445772
786.368568	3596.956531
786.691752	3590.765994
787.014891	3643.735918
787.337983	3681.721012
787.661030	3769.971451
787.984031	3871.235629
788.306987	3945.998461
788.629897	3991.315914
788.952760	3996.679701
789.275579	3984.351560
789.598351	3936.551339
789.921078	3883.425139
790.243759	3819.750325
790.566395	3772.134106
790.888984	3724.200295
791.211529	3695.158208
791.534027	3647.640291
791.856480	3604.578755
792.178888	3591.343206
792.501249	3568.186666
792.823566	3534.993188
793.145836	3533.566542
793.468062	3523.970705
793.790241	3507.765916
794.112375	3511.304806
794.434464	3537.854043
794.756507	3532.389432
795.078505	3553.068245
795.400457	3592.366560
795.722364	3639.413128
796.044226	3686.041281
796.366042	3732.525760
796.687812	3728.858321
797.009538	3753.103750
797.331218	3739.827872
797.652852	3731.678847
797.974442	3714.170919
798.295986	3705.757233
798.617484	3676.137934
798.938938	3650.042401
799.260346	3634.860966
799.581709	3597.498455
799.903026	3588.492433
800.224299	3566.550811
800.545526	3535.315822
800.866708	3520.570447
801.187845	3505.371368
801.508936	3486.421671
801.829983	3478.600321
802.150984	3449.099488
802.471940	3439.309568
802.792851	3433.665996
803.113717	3427.604008
803.434538	3416.258892
803.755314	3405.707757
804.076045	3402.073085
804.396731	3392.517578
804.717372	3392.820047
805.037967	3390.095303
805.358518	3391.574882
805.679024	3405.755648
805.999485	3400.500245
806.319901	3409.591966
806.640272	3410.116246
806.960598	3421.473965
807.280879	3421.978081
807.601115	3432.627518
807.921306	3424.145777
808.241453	3425.585026
808.561554	3431.276489
808.881611	3426.605860
809.201623	3429.499482
809.521590	3421.035385
809.841513	3422.971188
810.161390	3429.990995
810.481223	3407.877973
810.801011	3404.311357
811.120755	3403.446799
811.440453	3387.294942
811.760107	3383.539283
812.079716	3379.705485
812.399281	3366.976572
812.718801	3368.090667
813.038276	3359.626569
813.357707	3351.409488
813.677093	3362.943648
813.996434	3345.392871
814.315731	3350.098788
814.634983	3350.978470
814.954191	3351.389324
815.273354	3369.666027
815.592473	3377.144579
815.911547	3396.185017
816.230577	3410.842172
816.549562	3440.398457
816.868502	3455.947896
817.187399	3476.311637
817.506250	3503.879187
817.825058	3511.619878
818.143821	3556.929769
818.462539	3600.175307
818.781213	3657.742764
819.099843	3742.030856
819.418429	3888.849421
819.736970	4042.846588
820.055466	4229.845670
820.373919	4464.955003
820.692327	4800.595026
821.010691	5314.079395
821.329011	6384.913733
821.647286	8110.573791
821.965517	10260.313355
822.283704	11867.725588
822.601847	12939.782406
822.919945	12521.540557
823.237999	11852.594565
823.556010	10962.450304
823.873976	10020.538434
824.191897	9063.792969
824.509775	8296.027759
824.827609	7499.419587
825.145398	6959.680889
825.463144	6580.752478
825.780845	6444.999246
826.098502	6509.737743
826.416116	6890.861577
826.733685	7391.223823
827.051210	7669.240937
827.368692	7578.409427
827.686129	7141.164948
828.003522	6590.746565
828.320872	6032.647985
828.638177	5578.039251
828.955439	5212.739600
829.272656	4879.032859
829.589830	4596.791258
829.906960	4335.072194
830.224046	4130.880258
830.541088	3961.434474
830.858086	3843.642873
831.175041	3746.777102
831.491952	3702.561142
831.808819	3683.417360
832.125642	3722.962692
832.442421	3825.129236
832.759157	4040.119324
833.075849	4411.710336
833.392497	4875.040265
833.709101	5257.071507
834.025662	5364.531263
834.342179	5235.036623
834.658653	4968.906550
834.975083	4701.279254
835.291469	4463.036844
835.607811	4237.593923
835.924110	4081.119028
836.240366	3923.265378
836.556578	3759.478289
836.872746	3627.032054
837.188871	3510.402440
837.504952	3419.933893
837.820990	3346.557378
838.136984	3292.702731
838.452935	3262.806168
838.768842	3245.830083
839.084706	3280.087244
839.400526	3414.728901
839.716303	3641.331287
840.032037	3852.555633
840.347727	3916.684152
840.663373	3825.623269
840.978977	3676.102646
841.294537	3548.500960
841.610054	3441.507511
841.925527	3367.826006
842.240957	3298.973927
842.556344	3236.635018
842.871687	3179.710309
843.186987	3116.849641
843.502244	3064.535067
843.817458	3025.503933
844.132629	2993.797596
844.447756	2972.997796
844.762840	2948.293621
845.077881	2931.826692
845.392879	2917.320772
845.707833	2908.760893
846.022745	2895.096845
846.337613	2894.456619
846.652438	2884.339023
846.967221	2879.945657
847.281960	2873.026674
847.596656	2868.776981
847.911309	2860.685929
848.225919	2859.158459
848.540485	2854.704600
848.855009	2853.988756
849.169490	2843.840913
849.483928	2845.222190
849.798323	2842.499967
850.112675	2839.820593
850.426984	2836.445541
850.741251	2836.110304
851.055474	2835.696929
851.369654	2834.731548
851.683792	2835.109635
851.997887	2833.264573
852.311938	2833.609892
852.625947	2832.231136
852.939914	2832.286589
853.253837	2835.782629
853.567718	2832.994871
853.881555	2831.159891
854.195350	2833.360355
854.509103	2833.829182
854.822812	2833.025118
855.136479	2831.369099
855.450103	2832.505879
855.763685	2830.882627
856.077224	2830.247442
856.390720	2834.091322
856.704173	2834.580314
857.017584	2834.950839
857.330953	2836.838751
857.644278	2840.370079
857.957561	2842.706654
858.270802	2843.856037
858.584000	2843.762776
858.897155	2843.319154
859.210268	2838.973679
859.523339	2836.823627
859.836367	2836.001919
860.149352	2836.264059
860.462295	2837.294975
860.775195	2830.232319
861.088054	2831.038903
861.400869	2828.306598
861.713642	2826.222081
862.026373	2827.603357
862.339062	2832.490756
862.651708	2833.647700
862.964312	2840.637260
863.276873	2840.334791
863.589392	2848.415761
863.901869	2854.820547
864.214303	2863.158615
864.526696	2866.468133
864.839045	2876.943650
865.151353	2881.982283
865.463619	2883.993704
865.775842	2885.311966
866.088023	2889.904457
866.400162	2886.758777
866.712258	2887.560320
867.024313	2892.304046
867.336325	2893.035013
867.648296	2897.677916
867.960224	2895.031310
868.272110	2895.517782
868.583954	2899.039028
868.895755	2900.753020
869.207515	2897.705642
869.519233	2908.902045
869.830909	2910.028743
870.142542	2913.776841
870.454134	2917.282963
870.765684	2920.065680
871.077191	2925.772266
871.388657	2932.565221
871.700081	2937.598813
872.011463	2941.815738
872.322803	2950.100875
872.634101	2956.833336
872.945357	2961.196454
873.256571	2970.522589
873.567744	2978.056593
873.878874	2979.140442
874.189963	2987.160917
874.501010	2991.309787
874.812015	2991.158552
875.122979	2998.470746
875.433900	3001.124913
875.744780	3006.211438
876.055618	3009.347035
876.366415	3010.362828
876.677169	3018.894981
876.987882	3021.632327
877.298554	3031.727238
877.609183	3047.518652
877.919771	3062.342165
878.230317	3087.966350
878.540822	3126.185858
878.851285	3176.357942
879.161707	3240.919999
879.472087	3347.832790
879.782425	3506.946729
880.092722	3783.098616
880.402977	4199.714693
880.713191	4731.185899
881.023363	5325.648843
881.333494	5756.947281
881.643583	6039.231732
881.953631	6116.520182
882.263637	6062.113529
882.573602	5922.065234
882.883526	5758.174802
883.193408	5561.665584
883.503248	5338.844063
883.813048	5126.485457
884.122806	4910.809772
884.432522	4667.463194
884.742197	4448.039411
885.051831	4240.522833
885.361424	4045.591497
885.670975	3881.743914
885.980485	3734.602716
886.289954	3612.846247
886.599382	3511.445958
886.908768	3428.294646
887.218113	3351.845548
887.527417	3290.048564
887.836680	3233.000346
888.145901	3185.424457
888.455082	3147.966163
888.764221	3114.313941
889.073319	3088.024323
889.382376	3068.000860
889.691392	3052.690876
890.000366	3042.429607
890.309300	3035.868546
890.618193	3033.537012
890.927044	3029.297402
891.235855	3030.212371
891.544625	3031.465098
891.853353	3037.466592
892.162041	3052.615259
892.470687	3076.190215
892.779293	3112.166409
893.087858	3156.052174
893.396381	3234.888258
893.704864	3336.419618
894.013306	3494.502640
894.321707	3677.773788
894.630068	3829.935976
894.938387	3908.041093
895.246665	3913.747679
895.554903	3856.212991
895.863100	3770.722583
896.171256	3695.480841
896.479371	3622.759677
896.787446	3543.878222
897.095480	3478.728870
897.403473	3419.744849
897.711425	3365.192003
898.019336	3317.951350
898.327207	3262.291971
898.635038	3216.152810
898.942827	3165.456447
899.250576	3123.927421
899.558284	3083.527614
899.865952	3058.203378
900.173579	3030.068698
900.481165	3005.356962
900.788711	2989.058912
901.096216	2977.290338
901.403681	2961.629994
901.711105	2954.426185
902.018489	2947.212294
902.325832	2956.931638
902.633135	2965.501600
902.940397	3002.859070
903.247619	3091.192689
903.554800	3265.873711
903.861941	3539.855381
904.169041	3799.358858
904.476101	3967.083087
904.783121	3986.403309
905.090100	3921.566509
905.397039	3818.585818
905.703938	3711.408367
906.010796	3606.890124
906.317614	3527.620501
906.624391	3443.034980
906.931129	3372.342880
907.237826	3305.557674
907.544483	3238.684247
907.851099	3168.191272
908.157675	3096.483380
908.464211	3027.081815
908.770707	2970.320943
909.077163	2921.973757
909.383578	2884.396996
909.689954	2859.445805
909.996289	2839.339163
910.302584	2826.549756
910.608839	2815.668425
910.915054	2807.206848
911.221229	2802.654687
911.527363	2803.035294
911.833458	2803.642753
912.139513	2808.452013
912.445527	2808.194915
912.751502	2820.775114
913.057436	2836.274142
913.363331	2856.642924
913.669186	2884.177706
913.975000	2921.373860
914.280775	2978.381748
914.586510	3058.825960
914.892205	3168.529030
915.197859	3312.421205
915.503475	3494.668998
915.809050	3667.343641
916.114585	3796.331645
916.420081	3869.327552
916.725536	3900.396183
917.030952	3858.060573
917.336328	3825.338444
917.641665	3776.968573
917.946961	3719.978328
918.252218	3659.771828
918.557435	3590.329934
918.862612	3522.899460
919.167750	3462.660192
919.472848	3389.739902
919.777906	3323.627690
920.082925	3255.524222
920.387904	3183.604600
920.692843	3130.566621
920.997743	3080.724733
921.302603	3029.322608
921.607423	2996.207268
921.912204	2962.814665
922.216946	2934.546395
922.521647	2912.861871
922.826310	2891.303377
923.130932	2872.146992
923.435516	2851.614373
923.740059	2838.774554
924.044564	2824.548418
924.349028	2810.735656
924.653454	2793.580610
924.957840	2783.780607
925.262186	2775.679472
925.566493	2761.624735
925.870761	2747.960688
926.174989	2746.276942
926.479178	2737.679255
926.783328	2730.082236
927.087438	2724.831874
927.391509	2718.991697
927.695541	2712.828887
927.999533	2707.092054
928.303486	2701.698019
928.607400	2698.017977
928.911275	2695.910774
929.215110	2692.525640
929.518906	2688.207891
929.822663	2690.519260
930.126381	2686.932479
930.430060	2689.148067
930.733699	2688.754857
931.037299	2691.325845
931.340861	2686.461132
931.644383	2688.669157
931.947866	2690.005063
932.251309	2688.613704
932.554714	2687.492047
932.858080	2689.695032
933.161407	2687.620597
933.464694	2686.418282
933.767943	2686.511543
934.071153	2685.009279
934.374323	2683.444001
934.677455	2681.808147
934.980548	2679.305214
935.283602	2678.143228
935.586617	2677.437466
935.889593	2680.983918
936.192530	2679.711027
936.495428	2680.424350
936.798287	2685.092458
937.101108	2687.542459
937.403890	2693.115455
937.706632	2705.226827
938.009336	2713.275029
938.312002	2725.257852
938.614628	2734.513410
938.917216	2746.612179
939.219765	2754.373036
939.522275	2760.427461
939.824747	2764.704880
940.127179	2761.846546
940.429573	2760.054416
940.731929	2761.281937
941.034246	2762.390991
941.336524	2762.557349
941.638763	2762.252359
941.940964	2765.861825
942.243126	2753.891605
942.545250	2751.870103
942.847335	2744.958681
943.149381	2738.140520
943.451389	2732.950652
943.753359	2728.204406
944.055290	2724.272306
944.357182	2717.000442
944.659036	2715.520863
944.960851	2714.711758
945.262628	2708.846375
945.564367	2709.509287
945.866067	2706.613144
946.167729	2706.376210
946.469352	2705.602393
946.770937	2704.485777
947.072484	2704.478215
947.373992	2700.546115
947.675462	2699.084181
947.976893	2699.842874
948.278286	2697.070240
948.579641	2697.725590
948.880958	2693.584282
949.182236	2698.179294
949.483476	2694.337934
949.784678	2693.793490
950.085841	2693.463294
950.386967	2696.384643
950.688054	2695.494879
950.989103	2696.447657
951.290114	2701.256918
951.591087	2706.013247
951.892021	2709.068186
952.192917	2713.333002
952.493776	2719.629403
952.794596	2719.178220
953.095378	2720.196533
953.396122	2724.305073
953.696828	2722.427244
953.997496	2723.861452
954.298126	2717.285267
954.598718	2715.934237
954.899272	2714.033722
955.199788	2707.772609
955.500266	2704.717670
955.800706	2696.145188
956.101108	2689.238807
956.401472	2684.245544
956.701798	2678.654905
957.002087	2668.368430
957.302337	2667.902124
957.602550	2662.661844
957.902724	2656.297388
958.202861	2648.730616
958.502960	2646.986376
958.803022	2642.293062
959.103045	2637.793832
959.403031	2634.811990
959.702979	2634.060858
960.002889	2631.348717
960.302762	2626.363016
960.602596	2623.371091
960.902393	2622.657768
961.202153	2620.371605
961.501875	2618.836573
961.801559	2616.938579
962.101205	2614.871706
962.400814	2615.690893
962.700385	2615.146449
962.999918	2615.254833
963.299414	2610.432970
963.598873	2611.252157
963.898293	2612.134359
964.197677	2608.451796
964.497022	2610.090171
964.796331	2606.629419
965.095601	2608.174533
965.394835	2607.057917
965.694030	2609.933896
965.993189	2609.260902
966.292309	2605.248143
966.591393	2605.018771
966.890439	2605.449789
967.189447	2604.978441
967.488419	2606.004316
967.787353	2607.393154
968.086249	2606.515993
968.385108	2608.184615
968.683930	2605.938781
968.982714	2607.168823
969.281462	2604.197063
969.580172	2606.810901
969.878844	2608.071189
970.177480	2612.535131
970.476078	2612.598145
970.774639	2613.495471
971.073162	2616.371449
971.371649	2612.290635
971.670098	2612.361211
971.968510	2611.930192
972.266885	2613.417333
972.565223	2617.172992
972.863524	2617.009155
973.161788	2621.279012
973.460014	2618.869341
973.758204	2621.689866
974.056356	2622.047788
974.354471	2623.797069
974.652550	2622.408231
974.950591	2624.845629
975.248595	2622.738426
975.546563	2622.592233
975.844493	2620.754732
976.142386	2621.984774
976.440243	2620.270782
976.738062	2620.502675
977.035845	2618.702983
977.333590	2616.903291
977.631299	2613.319030
977.928971	2616.575616
978.226606	2615.421192
978.524204	2614.448249
978.821765	2610.690069
979.119290	2612.600666
979.416777	2612.111674
979.714228	2612.918259
980.011642	2612.262909
980.309020	2618.876902
980.606360	2618.720627
980.903664	2621.967130
981.200931	2625.087604
981.498162	2631.779736
981.795356	2646.202477
982.092513	2657.356030
982.389633	2675.383196
982.686717	2693.395239
982.983764	2712.118084
983.280775	2722.278530
983.577749	2728.650548
983.874686	2729.139540
984.171587	2727.299519
984.468451	2724.370608
984.765279	2715.115050
985.062070	2706.202290
985.358824	2698.179294
985.655543	2688.767459
985.952224	2680.378979
986.248869	2669.290962
986.545478	2655.694970
986.842050	2642.986221
987.138586	2632.460292
987.435086	2626.410907
987.731549	2614.937241
988.027975	2612.716613
988.324366	2608.240068
988.620719	2606.221086
988.917037	2602.059613
989.213318	2602.508276
989.509563	2600.635487
989.805772	2597.492328
990.101944	2595.904364
990.398080	2595.188521
990.694180	2594.021493
990.990244	2595.861515
991.286271	2595.801021
991.582262	2596.673140
991.878217	2591.528643
992.174136	2597.053747
992.470019	2597.492328
992.765865	2598.772781
993.061676	2598.646752
993.357450	2600.249839
993.653188	2603.110694
993.948890	2604.653287
994.244556	2608.534975
994.540186	2611.269801
994.835780	2616.079062
995.131337	2623.265227
995.426859	2633.518934
995.722345	2637.975314
996.017795	2649.317910
996.313208	2657.197233
996.608586	2661.961124
996.903928	2667.720642
997.199234	2666.414983
997.494504	2665.925991
997.789738	2664.327946
998.084936	2663.412976
998.380099	2657.567758
998.675225	2654.159938
998.970316	2648.987714
999.265371	2640.687455
999.560390	2632.888790
999.855373	2627.489714
1000.150320	2622.688015
1000.445232	2618.150976
1000.740108	2613.250975
1001.034948	2609.822990
1001.329752	2603.577001
1001.624521	2603.493822
1001.919254	2594.870928
1002.213951	2595.228850
1002.508613	2592.120978
1002.803239	2592.226843
1003.097829	2588.743405
1003.392384	2590.606112
1003.686903	2589.058477
1003.981386	2589.245000
1004.275834	2589.343303
1004.570246	2591.085021
1004.864623	2589.171903
1005.158964	2587.951944
1005.453270	2585.050760
1005.747540	2587.737695
1006.041775	2587.626790
1006.335974	2585.186871
1006.630138	2585.408682
1006.924266	2586.250555
1007.218359	2586.190061
1007.512416	2585.385997
1007.806438	2582.865420
1008.100425	2586.860534
1008.394376	2584.730647
1008.688292	2585.935483
1008.982172	2586.394228
1009.276017	2581.900039
1009.569827	2585.615369
1009.863602	2583.689649
1010.157341	2584.113106
1010.451045	2584.874320
1010.744714	2583.059504
1011.038347	2581.413568
1011.331945	2581.521952
1011.625508	2583.389700
1011.919036	2582.205029
1012.212528	2582.651171
1012.505986	2585.025554
1012.799408	2583.364494
1013.092795	2580.395255
1013.386147	2581.227045
1013.679464	2582.547827
1013.972745	2580.629668
1014.265992	2580.044894
1014.559204	2581.448856
1014.852380	2579.487847
1015.145521	2582.552868
1015.438628	2580.533886
1015.731699	2581.229566
1016.024736	2580.422981
1016.317737	2584.334916
1016.610703	2584.886923
1016.903635	2581.075810
1017.196531	2579.951633
1017.489393	2578.441808
1017.782219	2579.034143
1018.075011	2581.400965
1018.367768	2584.559248
1018.660490	2584.917170
1018.953177	2584.917170
1019.245829	2584.917170
