Dividing Wavelength (nm)	Counts (n)	Blue Motor Position (mm): 21.000000	Red Motor Position (mm): 0.000000	
326.493990	2156.598054
326.888308	2156.598054
327.282561	2156.598054
327.676750	2133.144085
328.070874	2135.780609
328.464933	2141.409057
328.858929	2149.179996
329.252859	2160.852788
329.646726	2172.465085
330.040528	2189.226922
330.434265	2209.686445
330.827938	2226.251676
331.221547	2245.491240
331.615091	2263.659558
332.008571	2285.626386
332.401986	2306.922741
332.795338	2327.629280
333.188625	2346.916735
333.581847	2364.628829
333.975006	2384.261602
334.368100	2402.838254
334.761129	2420.895668
335.154095	2436.387133
335.546996	2462.175156
335.939833	2489.667088
336.332606	2500.994561
336.725315	2513.786489
337.117960	2522.109434
337.510540	2530.664272
337.903056	2539.816487
338.295508	2545.639019
338.687896	2552.174875
339.080220	2560.512944
339.472480	2566.786660
339.864676	2569.410580
340.256807	2573.420818
340.648875	2575.591035
341.040879	2575.918710
341.432818	2579.273598
341.824694	2580.833835
342.216506	2578.963567
342.608253	2581.116140
342.999937	2579.170254
343.391557	2576.667321
343.783113	2575.717064
344.174605	2573.456106
344.566033	2573.070458
344.957397	2570.449058
345.348697	2568.301527
345.739934	2570.012998
346.131106	2567.094170
346.522215	2563.479663
346.913260	2563.857749
347.304241	2562.922615
347.695159	2560.041596
348.086012	2557.205947
348.476802	2555.935576
348.867528	2555.247459
349.258191	2553.291491
349.648789	2555.688560
350.039324	2551.882488
350.429796	2550.864175
350.820203	2548.983825
351.210548	2551.491799
351.600828	2544.966025
351.991045	2549.944165
352.381198	2546.543907
352.771288	2545.956612
353.161314	2549.893753
353.551276	2547.849565
353.941175	2547.353012
354.331010	2547.549617
354.720782	2548.814946
355.110490	2547.156407
355.500135	2547.219421
355.889717	2547.433670
356.279235	2550.087838
356.668689	2548.739329
357.058080	2549.987015
357.447408	2545.933927
357.836672	2547.171530
358.225873	2546.569112
358.615010	2544.650953
359.004084	2549.268650
359.393095	2551.333003
359.782043	2551.557334
360.170927	2552.189999
360.559748	2555.378529
360.948505	2553.140256
361.337199	2553.079763
361.725830	2554.221584
362.114398	2556.162428
362.502903	2553.903991
362.891344	2556.399362
363.279722	2552.862993
363.668037	2554.110678
364.056289	2555.353323
364.444478	2559.908005
364.832603	2555.842315
365.220665	2558.090669
365.608665	2560.495300
365.996601	2558.320042
366.384474	2558.849363
366.772284	2560.139898
367.160031	2560.621329
367.547715	2559.973540
367.935336	2562.872204
368.322893	2560.502862
368.710388	2563.262893
369.097820	2563.555280
369.485189	2560.835578
369.872495	2563.025959
370.259738	2560.278530
370.646918	2562.567214
371.034035	2562.390774
371.421090	2562.035372
371.808081	2563.293140
372.195010	2563.270455
372.581875	2561.861452
372.968678	2563.777091
373.355418	2566.050651
373.742096	2566.723645
374.128710	2564.976886
374.515262	2565.460836
374.901751	2566.428738
375.288177	2566.206927
375.674540	2566.746331
376.060841	2564.767678
376.447079	2566.728687
376.833254	2568.142730
377.219367	2562.345403
377.605417	2562.516802
377.991404	2564.782801
378.377329	2563.945970
378.763191	2563.608212
379.148991	2568.389747
379.534727	2568.755230
379.920402	2570.456620
380.306013	2566.058213
380.691563	2569.786146
381.077049	2568.959397
381.462474	2568.397308
381.847835	2570.617937
382.233134	2568.384706
382.618371	2567.252967
383.003545	2569.334963
383.388657	2567.240364
383.773706	2569.612227
384.158693	2569.072823
384.543618	2570.996023
384.928480	2568.757751
385.313280	2571.759758
385.698017	2567.915878
386.082692	2575.316292
386.467305	2572.770509
386.851856	2574.398802
387.236344	2573.229254
387.620770	2574.857547
388.005133	2571.674058
388.389435	2575.170099
388.773674	2570.501990
389.157851	2574.338308
389.541965	2572.899059
389.926018	2574.320664
390.310008	2574.285376
390.693936	2576.826118
391.077802	2573.796384
391.461606	2576.390058
391.845348	2574.708833
392.229027	2574.955850
392.612645	2574.552557
392.996200	2576.952147
393.379694	2575.966601
393.763125	2578.237641
394.146494	2574.799574
394.529801	2578.716550
394.913047	2578.456931
395.296230	2578.464493
395.679351	2573.095664
396.062410	2578.212435
396.445408	2578.537589
396.828343	2576.120356
397.211217	2572.052145
397.594028	2574.353432
397.976778	2573.914851
398.359466	2578.073803
398.742092	2574.610531
399.124656	2577.340315
399.507158	2578.232600
399.889598	2578.577919
400.271977	2578.020871
400.654294	2579.134966
401.036549	2578.976170
401.418742	2580.536407
401.800874	2577.509194
402.182944	2581.146387
402.564952	2580.859041
402.946898	2581.400965
403.328783	2579.540779
403.710606	2582.023547
404.092367	2581.554720
404.474067	2582.666294
404.855705	2581.365677
405.237282	2580.309555
405.618797	2580.884247
406.000250	2579.865933
406.381642	2581.456418
406.762972	2583.563620
407.144240	2582.356263
407.525447	2583.684608
407.906593	2583.830801
408.287677	2584.831470
408.668700	2582.835173
409.049661	2584.216449
409.430560	2584.539083
409.811399	2587.180648
410.192176	2583.543455
410.572891	2583.830801
410.953545	2585.073445
411.334138	2584.453383
411.714669	2585.398600
412.095139	2585.587643
412.475547	2584.123188
412.855894	2584.347519
413.236180	2583.901377
413.616405	2585.950606
413.996568	2585.272571
414.376670	2587.057139
414.756711	2584.828949
415.136691	2588.614856
415.516609	2585.935483
415.896466	2583.792992
416.276262	2587.800710
416.655997	2583.752663
417.035670	2581.970615
417.415283	2583.654361
417.794834	2584.468507
418.174324	2586.132088
418.553753	2588.120823
418.933121	2588.882037
419.312428	2585.088569
419.691674	2586.074114
420.070859	2589.126533
420.449983	2586.610997
420.829045	2587.016810
421.208047	2588.009917
421.586988	2589.431523
421.965867	2587.672160
422.344686	2592.158787
422.723444	2590.901019
423.102141	2589.209712
423.480777	2587.437747
423.859352	2590.117120
424.237866	2590.228025
424.616319	2591.367326
424.994712	2591.621904
425.373044	2590.101996
425.751314	2588.483786
426.129524	2591.541246
426.507673	2589.754157
426.885762	2591.833633
427.263789	2591.402614
427.641756	2589.055957
428.019662	2592.040320
428.397508	2593.378746
428.775292	2593.512337
429.153016	2593.356061
429.530679	2592.940166
429.908282	2589.819692
430.285824	2590.820361
430.663305	2590.492686
431.040726	2592.299939
431.418086	2592.216760
431.795385	2592.632656
432.172624	2593.499734
432.549802	2592.322625
432.926920	2593.030907
433.303977	2593.323294
433.680974	2592.741040
434.057910	2594.298757
434.434786	2594.349168
434.811601	2593.744230
435.188355	2593.449322
435.565050	2596.146340
435.941683	2595.606936
436.318257	2589.575196
436.694770	2590.240628
437.071222	2592.423448
437.447614	2590.714497
437.823946	2587.110072
438.200218	2593.076277
438.576429	2595.674992
438.952580	2592.098293
439.328670	2593.204827
439.704700	2595.170877
440.080670	2595.506113
440.456580	2596.042996
440.832429	2596.184148
441.208218	2595.468305
441.583947	2594.928901
441.959616	2595.286823
442.335224	2595.773294
442.710773	2597.295723
443.086261	2598.245980
443.461689	2596.726072
443.837057	2598.550970
444.212365	2598.419900
444.587612	2596.957966
444.962800	2598.954263
445.337927	2597.371340
445.712995	2596.456371
446.088002	2596.516865
446.462949	2596.494179
446.837837	2597.368820
447.212664	2599.191197
447.587431	2596.085846
447.962139	2597.585589
448.336786	2599.728080
448.711374	2601.724377
449.085901	2600.403594
449.460369	2598.873604
449.834776	2599.324787
450.209124	2599.339911
450.583412	2601.313522
450.957640	2599.690271
451.331808	2600.484253
451.705917	2601.416866
452.079965	2599.838985
452.453954	2601.636156
452.827883	2601.754623
453.201752	2600.811928
453.575562	2602.777978
453.949311	2601.217741
454.323001	2602.432659
454.696632	2602.500714
455.070202	2603.680344
455.443713	2604.408791
455.817164	2602.062134
456.190556	2600.852257
456.563888	2599.720518
456.937160	2599.523913
457.310373	2603.559357
457.683526	2604.025663
458.056619	2605.787547
458.429653	2607.829214
458.802628	2607.209152
459.175542	2604.670931
459.548398	2607.088164
459.921194	2608.295521
460.293930	2605.608586
460.666607	2607.125973
461.039224	2608.020778
461.411782	2610.460696
461.784280	2608.043463
462.156719	2608.361056
462.529099	2611.305089
462.901419	2609.402054
463.273680	2609.757455
463.645882	2608.655963
464.018024	2611.857096
464.390106	2610.052363
464.762130	2612.043618
465.134094	2612.938423
465.505999	2618.788682
465.877845	2617.286418
466.249631	2616.759618
466.621358	2616.434463
466.993026	2620.883282
467.364634	2620.908487
467.736184	2615.844648
468.107674	2617.041922
468.479105	2615.960595
468.850477	2615.499329
469.221790	2617.500667
469.593043	2617.636779
469.964238	2616.792385
470.335373	2618.614762
470.706449	2616.547889
471.077467	2618.765997
471.448425	2620.916049
471.819324	2624.386884
472.190164	2625.770680
472.560945	2621.533591
472.931667	2621.727675
473.302330	2619.814557
473.672934	2622.619959
474.043479	2621.536111
474.413965	2622.584671
474.784393	2620.608539
475.154761	2622.274640
475.525070	2623.597943
475.895321	2622.554424
476.265513	2624.394445
476.635645	2629.619601
477.005719	2632.684623
477.375734	2633.660086
477.745691	2631.777215
478.115588	2637.130921
478.485427	2638.580252
478.855207	2640.541261
479.224928	2648.675163
479.594591	2653.534835
479.964194	2652.982829
480.333739	2655.480721
480.703226	2656.201606
481.072653	2660.219405
481.442022	2665.608399
481.811333	2666.959428
482.180584	2668.801970
482.549777	2672.222392
482.918912	2675.819256
483.287988	2678.574246
483.657005	2679.428722
484.025964	2683.441480
484.394864	2686.312417
484.763706	2687.663447
485.132489	2690.133612
485.501213	2694.229550
485.869879	2702.209696
486.238487	2700.515868
486.607036	2708.712785
486.975527	2712.798640
487.343959	2719.868858
487.712333	2727.271792
488.080648	2734.745303
488.448905	2742.049935
488.817104	2746.576891
489.185244	2761.113058
489.553326	2774.454472
489.921350	2794.069602
490.289315	2821.853921
490.657222	2841.980728
491.025070	2857.888089
491.392861	2866.866384
491.760593	2871.554657
492.128267	2874.904503
492.495883	2877.893908
492.863440	2886.249620
493.230939	2889.304559
493.598380	2898.776888
493.965763	2908.844072
494.333088	2916.708272
494.700354	2929.187648
495.067563	2945.412602
495.434713	2958.441464
495.801805	2979.405102
496.168839	2996.998729
496.535815	3013.632016
496.902733	3030.905530
497.269593	3048.398334
497.636395	3069.074626
498.003139	3092.097576
498.369825	3111.662294
498.736453	3136.842857
499.103023	3156.364726
499.469535	3179.117973
499.835989	3203.539843
500.202385	3225.972978
500.568723	3252.237389
500.935003	3283.525311
501.301226	3305.875266
501.667390	3350.045856
502.033497	3385.709499
502.399546	3405.435534
502.765537	3425.093514
503.131470	3464.376705
503.497345	3506.321626
503.863163	3510.379754
504.228923	3556.034964
504.594625	3603.961214
504.960269	3622.210191
505.325856	3679.094571
505.691385	3700.116182
506.056856	3742.166967
506.422270	3792.205460
506.787625	3823.629493
507.152924	3870.902913
507.518164	3919.900408
507.883347	3936.316925
508.248472	3992.079648
508.613540	4050.771282
508.978550	4106.576855
509.343503	4147.034635
509.708398	4199.034137
510.073236	4270.684057
510.438016	4320.336902
510.802738	4354.931820
511.167403	4426.324641
511.532010	4490.985001
511.896561	4558.362542
512.261053	4652.490967
512.625488	4685.296276
512.989866	4737.885592
513.354186	4784.538951
513.718449	4845.138661
514.082655	4933.598308
514.446803	4980.874249
514.810894	5068.108896
515.174927	5125.709120
515.538904	5177.454043
515.902822	5286.060662
516.266684	5313.267769
516.630488	5398.821191
516.994235	5462.145645
517.357925	5553.319953
517.721558	5638.039064
518.085133	5722.115428
518.448651	5803.081400
518.812112	5849.376837
519.175516	5922.579432
519.538863	6015.961765
519.902152	6090.853147
520.265385	6192.508014
520.628560	6272.420385
520.991678	6322.274876
521.354739	6412.156128
521.717743	6512.684298
522.080690	6570.584470
522.443580	6693.545774
522.806413	6777.402848
523.169189	6844.815678
523.531908	6938.961747
523.894569	6997.088771
524.257174	7072.207004
524.619722	7195.949687
524.982213	7259.183401
525.344647	7331.171078
525.707025	7407.224445
526.069345	7531.113321
526.431608	7590.619101
526.793815	7704.397944
527.155964	7731.171512
527.518057	7822.587796
527.880093	7866.846606
528.242072	8002.050352
528.603995	8036.410857
528.965860	8113.124615
529.327669	8204.200621
529.689421	8248.847600
530.051117	8335.434459
530.412755	8422.162469
530.774337	8498.223399
531.135862	8543.417343
531.497331	8642.864185
531.858743	8697.822844
532.220098	8811.846182
532.581396	8846.826749
532.942638	8867.475315
533.303824	8979.101585
533.664953	9038.057879
534.026025	9071.359741
534.387040	9203.629536
534.747999	9252.374973
535.108902	9343.173715
535.469748	9339.407973
535.830537	9419.973174
536.191270	9511.767544
536.551947	9528.065594
536.912567	9630.784145
537.273131	9712.382782
537.633638	9692.966778
537.994089	9791.231469
538.354483	9798.573910
538.714821	9940.399212
539.075103	10056.617972
539.435328	10073.379809
539.795497	10108.677968
540.155609	10163.266102
540.515665	10291.744949
540.875665	10246.858516
541.235609	10370.248318
541.595496	10397.707483
541.955328	10568.043030
542.315102	10522.985197
542.674821	10528.033912
543.034483	10583.408467
543.394090	10636.360747
543.753640	10674.693681
544.113134	10903.872096
544.472571	10776.300657
544.831953	11030.730212
545.191278	10940.133116
545.550548	10931.752198
545.909761	11067.104658
546.268918	11144.904785
546.628019	11242.340207
546.987064	11199.316479
547.346053	11112.530495
547.704986	11311.411576
548.063863	11262.288052
548.422684	11334.749598
548.781449	11348.839623
549.140158	11469.061060
549.498811	11464.700462
549.857408	11391.034081
550.215949	11582.897875
550.574434	11600.947727
550.932864	11584.949625
551.291237	11786.283227
551.649555	11732.894888
552.007817	11808.663430
552.366022	11775.381732
552.724173	11834.269971
553.082267	11930.666915
553.440305	12043.712269
553.798288	11924.307499
554.156215	12018.135975
554.514086	12084.843043
554.871902	12063.014847
555.229661	12108.508740
555.587365	12094.401071
555.945014	12122.898714
556.302606	12123.173457
556.660143	12215.565204
557.017625	12261.467430
557.375050	12253.260432
557.732421	12368.203780
558.089735	12391.350238
558.446994	12389.658931
558.804197	12511.017148
559.161345	12525.860826
559.518437	12372.604708
559.875474	12477.180924
560.232455	12532.240406
560.589381	12601.778082
560.946251	12548.982078
561.303065	12737.846386
561.659825	12707.097868
562.016528	12640.809216
562.373177	12598.534100
562.729770	12735.482085
563.086307	12632.405612
563.442789	12754.714087
563.799216	12799.524903
564.155587	12763.329419
564.511904	12794.856795
564.868164	12821.733707
565.224370	12894.500242
565.580520	12851.325280
565.936615	12919.199375
566.292654	12865.377496
566.648638	12955.702370
567.004567	12957.713791
567.360441	12967.985142
567.716260	12945.738530
568.072023	13045.838201
568.427732	13041.039022
568.783385	12947.134929
569.138982	13061.929564
569.494525	13058.604923
569.850013	13016.886854
570.205445	13016.642358
570.560823	13039.647664
570.916145	13001.160975
571.271412	13023.377340
571.626625	12980.734220
571.981782	12986.072802
572.336884	12938.746449
572.691931	13033.855378
573.046923	12919.877410
573.401860	12905.462231
573.756743	12916.025969
574.111570	12942.663426
574.466342	12917.114858
574.821059	12975.733395
575.175722	12860.301054
575.530330	12877.584650
575.884882	12812.137870
576.239380	12817.065598
576.593823	12800.644040
576.948211	12797.579018
577.302544	12687.306298
577.656823	12713.333776
578.011047	12771.175975
578.365216	12713.157335
578.719330	12653.817913
579.073389	12634.961477
579.427394	12640.867189
579.781344	12636.771252
580.135239	12570.928741
580.489080	12587.274682
580.842866	12478.786531
581.196597	12569.822208
581.550273	12551.311091
581.903895	12527.756300
582.257463	12633.920479
582.610975	12479.482210
582.964434	12554.494580
583.317837	12473.642034
583.671186	12432.428080
584.024481	12475.935759
584.377721	12374.275850
584.730906	12446.951645
585.084037	12459.549488
585.437113	12383.097869
585.790135	12407.124009
586.143103	12307.089872
586.496016	12329.896052
586.848874	12340.621107
587.201679	12340.623628
587.554428	12219.835061
587.907124	12272.588215
588.259765	12202.995087
588.612352	12279.262703
588.964884	12139.458904
589.317362	12191.198787
589.669786	12182.613702
590.022155	12144.643731
590.374470	12243.397414
590.726731	12130.951957
591.078937	12017.520954
591.431090	12036.158100
591.783188	11968.140332
592.135232	11893.932027
592.487222	11958.297479
592.839157	11975.873462
593.191038	11898.872357
593.542866	11855.369720
593.894639	11712.490817
594.246358	11777.337700
594.598022	11774.280240
594.949633	11683.766323
595.301190	11667.748056
595.652692	11622.906993
596.004141	11713.196579
596.355535	11495.426294
596.706876	11469.751698
597.058162	11438.483941
597.409395	11541.444467
597.760573	11564.963971
598.111698	11456.952208
598.462768	11464.622324
598.813785	11471.291770
599.164748	11347.901968
599.515657	11414.581310
599.866511	11298.360029
600.217312	11429.641757
600.568060	11201.287570
600.918753	11369.687315
601.269392	11354.470592
601.619978	11271.977150
601.970510	11312.931484
602.320988	11345.124293
602.671412	11415.455950
603.021783	11334.787407
603.372100	11264.334761
603.722363	11287.506425
604.072572	11290.037084
604.422728	11295.370625
604.772830	11241.480690
605.122878	11254.081054
605.472872	11217.883049
605.822813	11275.752974
606.172701	11238.450957
606.522534	11277.708942
606.872314	11338.452325
607.222041	11267.036819
607.571714	11343.221257
607.921333	11208.075484
608.270899	11267.908939
608.620411	11331.016623
608.969870	11273.852459
609.319276	11258.421487
609.668627	11274.033941
610.017926	11354.074861
610.367171	11386.184491
610.716362	11369.715041
611.065500	11352.834737
611.414585	11364.928465
611.763616	11423.426015
612.112594	11389.713298
612.461518	11413.172308
612.810389	11466.565689
613.159207	11404.446070
613.507971	11404.539332
613.856682	11502.599856
614.205340	11457.612599
614.553945	11598.124681
614.902496	11464.609721
615.250994	11532.438446
615.599439	11527.770337
615.947830	11558.236551
616.296169	11526.598269
616.644454	11537.613190
616.992686	11554.617002
617.340864	11637.344858
617.688990	11533.623117
618.037063	11660.945019
618.385082	11637.619600
618.733048	11680.781960
619.080961	11663.644557
619.428821	11642.728810
619.776628	11658.305975
620.124382	11602.770104
620.472083	11620.013371
620.819731	11639.210084
621.167326	11566.854403
621.514868	11543.828933
621.862357	11459.684514
622.209793	11442.456370
622.557176	11356.792043
622.904506	11306.834208
623.251783	11233.455173
623.599007	11168.174751
623.946179	11120.792946
624.293297	11091.065262
624.640363	10957.376383
624.987376	10947.583941
625.334336	10883.475588
625.681243	10796.946703
626.028097	10767.609708
626.374899	10732.387166
626.721647	10706.818434
627.068343	10664.780252
627.414987	10604.064595
627.761577	10530.327637
628.108115	10582.884187
628.454600	10455.569847
628.801032	10471.295726
629.147412	10452.401481
629.493739	10426.643706
629.840014	10347.222847
630.186236	10389.616431
630.532405	10289.516759
630.878521	10327.499333
631.224585	10285.761100
631.570597	10213.123114
631.916556	10214.222086
632.262462	10196.996463
632.608316	10179.601962
632.954117	10154.986007
633.299866	10137.573862
633.645562	10119.884453
633.991206	10011.635757
634.336797	9920.146376
634.682336	9898.739116
635.027823	9856.116160
635.373257	9811.184356
635.718639	9744.598276
636.063968	9717.260098
636.409245	9597.978837
636.754470	9591.427857
637.099642	9537.202686
637.444762	9439.923540
637.789829	9443.878325
638.134845	9376.110094
638.479808	9348.908028
638.824719	9320.486003
639.169577	9229.253721
639.514383	9226.322290
639.859137	9159.196806
640.203839	9193.590078
640.548489	9114.544786
640.893086	9118.451680
641.237632	9057.698214
641.582125	9058.126712
641.926566	9044.608858
642.270955	9028.454481
642.615292	9026.599336
642.959576	9001.461622
643.303809	8991.732196
643.647990	9011.977469
643.992118	8989.869489
644.336195	8958.851270
644.680219	8964.646076
645.024192	8987.353953
645.368112	9072.544412
645.711981	9046.902583
646.055797	9187.747381
646.399562	9141.068817
646.743274	9300.860791
647.086935	9369.866625
647.430544	9349.618831
647.774101	9372.505669
648.117606	9391.861179
648.461059	9458.401889
648.804460	9388.365139
649.147810	9272.368189
649.491108	9244.432635
649.834354	9174.925206
650.177548	9029.981950
650.520690	8945.093961
650.863781	8937.585162
651.206820	8913.150689
651.549807	8821.527718
651.892742	8733.756189
652.235626	8690.172893
652.578458	8651.356008
652.921238	8546.111840
653.263967	8579.166685
653.606644	8516.346347
653.949269	8503.226744
654.291843	8422.714476
654.634365	8486.800144
654.976836	8409.917507
655.319255	8400.094818
655.661622	8395.633397
656.003938	8349.889967
656.346203	8315.494175
656.688416	8351.374587
657.030577	8302.702247
657.372687	8259.872604
657.714746	8292.105741
658.056753	8316.492323
658.398708	8214.366108
658.740612	8208.246147
659.082465	8249.840708
659.424266	8213.990542
659.766016	8224.982778
660.107715	8195.497069
660.449362	8216.422899
660.790958	8214.842497
661.132503	8211.119605
661.473996	8202.562246
661.815438	8224.334990
662.156829	8250.150738
662.498168	8203.789767
662.839456	8198.322636
663.180693	8212.596663
663.521879	8232.231957
663.863013	8213.506591
664.204097	8211.427115
664.545129	8285.390924
664.886110	8280.758104
665.227040	8283.014020
665.567918	8293.068602
665.908746	8304.721229
666.249522	8326.650248
666.590248	8323.471801
666.930922	8334.043100
667.271545	8321.619177
667.612118	8347.792847
667.952639	8307.471178
668.293109	8316.167169
668.633528	8289.814537
668.973896	8269.113039
669.314213	8277.776262
669.654480	8232.846978
669.994695	8227.508396
670.334859	8212.654636
670.674973	8192.895834
671.015035	8218.623362
671.355047	8204.130045
671.695008	8192.858025
672.034918	8167.233840
672.374777	8174.399840
672.714585	8153.191706
673.054342	8181.706993
673.394049	8144.016806
673.733705	8182.679935
674.073310	8135.414077
674.412864	8139.862895
674.752368	8080.969615
675.091820	8135.819890
675.431223	8061.909013
675.770574	8016.314297
676.109875	7984.118968
676.449125	7937.654653
676.788324	7924.272910
677.127473	7844.042946
677.466571	7827.520565
677.805619	7770.590814
678.144616	7769.330526
678.483562	7747.489727
678.822458	7705.963222
679.161303	7682.877258
679.500098	7668.391502
679.838842	7645.895353
680.177535	7659.340111
680.516179	7691.379164
680.854771	7708.156124
681.193314	7823.984195
681.531805	7982.198288
681.870247	8100.463757
682.208638	8261.251359
682.546978	8333.352462
682.885268	8361.955969
683.223508	8293.552553
683.561697	8244.250068
683.899836	8202.552164
684.237925	8117.311293
684.575963	8094.331194
684.913951	8011.230293
685.251889	8027.540946
685.589776	8023.961727
685.927614	8007.774582
686.265401	8036.753655
686.603137	8034.810290
686.940824	8101.151875
687.278460	8154.144484
687.616046	8169.855240
687.953582	8277.766179
688.291068	8253.470338
688.628504	8312.852610
688.965889	8316.366294
689.303224	8276.359697
689.640510	8236.688337
689.977745	8130.289744
690.314930	8007.804829
690.652065	7935.681041
690.989150	7820.674678
691.326185	7677.251330
691.663170	7563.608599
692.000105	7435.727129
692.336990	7324.196641
692.673825	7247.714776
693.010610	7153.447719
693.347345	7060.219141
693.684030	6946.021883
694.020665	6906.113588
694.357251	6787.429703
694.693786	6770.977897
695.030272	6740.877168
695.366707	6638.909749
695.703093	6591.081802
696.039429	6590.103818
696.375716	6540.030037
696.711952	6531.926382
697.048139	6500.691393
697.384276	6467.565971
697.720363	6487.463405
698.056400	6466.106557
698.392388	6430.700013
698.728326	6430.334529
699.064214	6409.050778
699.400053	6401.347895
699.735842	6339.344223
700.071581	6293.099198
700.407270	6255.240133
700.742910	6218.976592
701.078501	6182.425707
701.414042	6134.277646
701.749533	6078.958544
702.084974	6023.518455
702.420366	6060.200411
702.755709	5990.299772
703.091002	5939.701711
703.426246	5947.510458
703.761440	5931.046049
704.096584	5884.082660
704.431679	5875.759715
704.766725	5853.487898
705.101721	5842.193192
705.436668	5860.827818
705.771565	5806.547193
706.106413	5858.831521
706.441212	5858.103074
706.775961	5872.019179
707.110661	5885.544595
707.445311	5942.325631
707.779913	5910.163070
708.114465	5950.013391
708.448967	5991.547457
708.783421	6106.389983
709.117825	6148.287013
709.452180	6179.839595
709.786485	6239.509212
710.120742	6369.447473
710.454949	6373.578699
710.789107	6453.992664
711.123216	6579.245173
711.457275	6604.496312
711.791286	6707.774431
712.125247	6732.894501
712.459159	6706.249482
712.793023	6835.572722
713.126837	6661.005126
713.460602	6718.277675
713.794318	6676.773856
714.127985	6625.636391
714.461602	6476.188865
714.795171	6486.482901
715.128691	6315.524771
715.462162	6227.934723
715.795584	6157.461913
716.128957	6113.568586
716.462281	6048.462084
716.795556	6007.301063
717.128782	5925.773003
717.461960	5830.205328
717.795088	5812.155477
718.128167	5747.487556
718.461198	5667.134084
718.794180	5640.191637
719.127113	5580.930353
719.459997	5549.634870
719.792833	5484.440148
720.125619	5481.362523
720.458357	5417.145785
720.791046	5390.157968
721.123686	5365.277353
721.456278	5319.274304
721.788821	5310.273324
722.121315	5265.971664
722.453761	5279.761740
722.786158	5263.168782
723.118506	5262.793216
723.450805	5238.719186
723.783056	5263.945120
724.115259	5249.993727
724.447412	5235.215584
724.779518	5279.716370
725.111574	5283.298109
725.443582	5319.838913
725.775542	5307.099917
726.107453	5393.848093
726.439315	5366.109144
726.771129	5440.735865
727.102895	5502.888250
727.434612	5548.359458
727.766281	5573.552624
728.097901	5627.029184
728.429473	5642.374457
728.760996	5653.464995
729.092471	5673.836298
729.423897	5662.344988
729.755276	5637.925638
730.086606	5651.551877
730.417887	5737.813581
730.749120	5829.023178
731.080305	5867.666143
731.411442	5945.007525
731.742530	5970.732533
732.073570	5993.576522
732.404562	6054.458537
732.735506	6047.295057
733.066401	6030.959198
733.397249	5959.841120
733.728048	5862.793868
734.058798	5717.409511
734.389501	5594.193629
734.720156	5511.233881
735.050762	5403.106172
735.381320	5327.594728
735.711831	5270.690184
736.042293	5194.147824
736.372707	5193.754614
736.703073	5147.010515
737.033391	5175.881203
737.363661	5158.801774
737.693883	5171.903733
738.024056	5198.102609
738.354182	5225.045056
738.684260	5269.782776
739.014290	5307.243590
739.344272	5341.689794
739.674207	5398.780862
740.004093	5436.922232
740.333931	5439.765443
740.663722	5456.479388
740.993464	5464.711592
741.323159	5446.613850
741.652806	5406.110699
741.982405	5375.165577
742.311956	5322.765303
742.641460	5309.466739
742.970915	5259.108133
743.300323	5192.925344
743.629683	5167.190254
743.958996	5111.503148
744.288260	5064.643103
744.617477	5002.581458
744.946647	4988.307430
745.275768	4934.493113
745.604842	4900.790479
745.933869	4867.677660
746.262847	4859.384962
746.591778	4848.508672
746.920662	4822.851720
747.249498	4822.282070
747.578286	4838.363350
747.907027	4862.467627
748.235720	4901.339965
748.564365	4911.265997
748.892963	4895.109099
749.221514	4914.414197
749.550017	4892.533069
749.878473	4890.957708
750.206881	4849.700905
750.535242	4837.728165
750.863555	4824.041432
751.191821	4802.626611
751.520039	4806.992250
751.848210	4789.333088
752.176334	4797.111588
752.504411	4778.723980
752.832440	4751.257253
753.160421	4760.220425
753.488356	4736.647989
753.816243	4717.491605
754.144082	4690.849107
754.471875	4676.955687
754.799620	4665.923121
755.127318	4660.181247
755.454969	4653.421060
755.782572	4649.509124
756.110129	4653.559692
756.437638	4632.848111
756.765100	4628.716885
757.092515	4633.528667
757.419882	4634.383142
757.747203	4632.681753
758.074477	4642.398577
758.401703	4637.775839
758.728882	4665.960930
759.056014	4677.832847
759.383099	4699.736661
759.710138	4727.939396
760.037129	4743.932457
760.364073	4757.674642
760.690970	4759.713789
761.017820	4758.113222
761.344623	4794.742246
761.671379	4853.708623
761.998088	4945.450061
762.324751	5172.508671
762.651366	5631.510770
762.977935	6322.262273
763.304456	6874.684514
763.630931	7173.551841
763.957359	7108.513394
764.283740	6817.159908
764.610074	6496.517317
764.936362	6098.835814
765.262602	5783.289830
765.588796	5442.243170
765.914943	5187.072565
766.241044	4965.087876
766.567097	4794.172596
766.893104	4644.513341
767.219064	4549.913568
767.544978	4448.944298
767.870845	4368.789952
768.196665	4325.632634
768.522438	4270.174900
768.848165	4228.683684
769.173846	4187.310934
769.499479	4161.379239
769.825066	4127.190133
770.150607	4085.585491
770.476101	4071.800455
770.801548	4054.133732
771.126949	4016.889687
771.452303	4000.684898
771.777611	3962.893888
772.102872	3960.990853
772.428087	3934.907923
772.753256	3907.229467
773.078378	3894.548445
773.403453	3858.148794
773.728482	3833.172397
774.053465	3822.152435
774.378401	3804.266421
774.703291	3777.719705
775.028135	3752.823966
775.352932	3744.387595
775.677683	3726.057960
776.002388	3706.581462
776.327046	3710.175805
776.651658	3689.668391
776.976224	3670.978313
777.300743	3669.052592
777.625216	3653.503153
777.949643	3642.652070
778.274024	3642.309271
778.598359	3623.777990
778.922647	3629.741675
779.246889	3620.191209
779.571086	3615.455045
779.895236	3618.509984
780.219339	3615.702061
780.543397	3615.513018
780.867409	3630.046664
781.191374	3629.222436
781.515294	3627.914256
781.839167	3639.768530
782.162995	3639.050165
782.486776	3630.790235
782.810511	3622.381590
783.134201	3608.024384
783.457844	3609.186370
783.781441	3599.492231
784.104993	3592.590891
784.428498	3586.596959
784.751958	3582.601845
785.075372	3580.877770
785.398739	3567.841347
785.722061	3575.113211
786.045337	3573.608427
786.368568	3594.985439
786.691752	3595.401335
787.014891	3640.101246
787.337983	3684.879295
787.661030	3772.655866
787.984031	3871.144888
788.306987	3942.691464
788.629897	3994.595184
788.952760	4001.660361
789.275579	3986.244513
789.598351	3934.245011
789.921078	3886.674163
790.243759	3822.749811
790.566395	3777.087040
790.888984	3730.899988
791.211529	3691.210984
791.534027	3649.830673
791.856480	3611.177626
792.178888	3590.090479
792.501249	3571.226481
792.823566	3538.973179
793.145836	3534.978065
793.468062	3521.233359
793.790241	3510.541071
794.112375	3514.904190
794.434464	3534.983106
794.756507	3537.087787
795.078505	3552.428019
795.400457	3592.767332
795.722364	3644.177019
796.044226	3689.247455
796.366042	3731.872931
796.687812	3726.383114
797.009538	3754.159872
797.331218	3746.388933
797.652852	3735.237901
797.974442	3712.973645
798.295986	3705.374106
798.617484	3675.144827
798.938938	3654.125736
799.260346	3637.958755
799.581709	3603.147068
799.903026	3586.105447
800.224299	3571.100453
800.545526	3542.277655
800.866708	3522.460880
801.187845	3508.078468
801.508936	3486.802278
801.829983	3479.797595
802.150984	3450.153089
802.471940	3444.058334
802.792851	3435.692540
803.113717	3431.188269
803.434538	3418.411464
803.755314	3407.880494
804.076045	3405.604413
804.396731	3392.023544
804.717372	3394.055129
805.037967	3394.707959
805.358518	3394.198802
805.679024	3408.331677
805.999485	3404.147519
806.319901	3411.061462
806.640272	3411.212697
806.960598	3422.363729
807.280879	3424.090324
807.601115	3434.565842
807.921306	3424.667536
808.241453	3427.543514
808.561554	3434.197838
808.881611	3429.118875
809.201623	3433.653393
809.521590	3421.804161
809.841513	3422.020930
810.161390	3430.974020
810.481223	3411.084147
810.801011	3406.141296
811.120755	3401.725245
811.440453	3391.469018
811.760107	3386.352246
812.079716	3381.416957
812.399281	3368.093187
812.718801	3366.371633
813.038276	3362.326107
813.357707	3355.119778
813.677093	3361.191848
813.996434	3344.329188
814.315731	3353.357894
814.634983	3349.718181
814.954191	3353.854448
815.273354	3371.347252
815.592473	3378.475443
815.911547	3398.907240
816.230577	3415.432142
816.549562	3441.225206
816.868502	3458.342444
817.187399	3479.280876
817.506250	3504.446316
817.825058	3514.989890
818.143821	3559.518402
818.462539	3600.654217
818.781213	3660.323834
819.099843	3742.388778
819.418429	3896.554824
819.736970	4043.254922
820.055466	4232.477152
820.373919	4464.871824
820.692327	4798.364315
821.010691	5313.804652
821.329011	6382.168825
821.647286	8105.792257
821.965517	10258.054918
822.283704	11868.416226
822.601847	12931.540120
822.919945	12530.256712
823.237999	11848.733041
823.556010	10965.323762
823.873976	10023.946254
824.191897	9068.851767
824.509775	8297.552708
824.827609	7508.213880
825.145398	6959.002854
825.463144	6585.428148
825.780845	6458.910310
826.098502	6513.339648
826.416116	6892.951135
826.733685	7391.813638
827.051210	7671.181781
827.368692	7577.411278
827.686129	7143.461193
828.003522	6595.029025
828.320872	6039.009921
828.638177	5577.812399
828.955439	5214.713211
829.272656	4877.255852
829.589830	4598.583388
829.906960	4333.373326
830.224046	4128.369763
830.541088	3961.237869
830.858086	3846.264273
831.175041	3751.346908
831.491952	3706.868808
831.808819	3691.026982
832.125642	3724.530490
832.442421	3824.967919
832.759157	4043.305333
833.075849	4415.017333
833.392497	4879.809197
833.709101	5258.379686
834.025662	5369.826995
834.342179	5237.070729
834.658653	4970.224812
834.975083	4705.637331
835.291469	4458.494764
835.607811	4242.728338
835.924110	4082.838062
836.240366	3923.025923
836.556578	3762.066922
836.872746	3626.117085
837.188871	3516.555168
837.504952	3420.284253
837.820990	3346.416226
838.136984	3292.841363
838.452935	3265.299019
838.768842	3248.973242
839.084706	3281.123201
839.400526	3418.159407
839.716303	3641.863129
840.032037	3855.761807
840.347727	3915.428904
840.663373	3829.784742
840.978977	3675.263294
841.294537	3549.229407
841.610054	3441.593210
841.925527	3366.969010
842.240957	3301.849905
842.556344	3238.323805
842.871687	3178.845751
843.186987	3118.006586
843.502244	3068.830130
843.817458	3029.942669
844.132629	2996.882783
844.447756	2974.868064
844.762840	2949.828653
845.077881	2935.047989
845.392879	2920.607604
845.707833	2907.195614
846.022745	2896.271434
846.337613	2894.592730
846.652438	2884.701986
846.967221	2883.703838
847.281960	2874.929709
847.596656	2872.063813
847.911309	2866.198431
848.225919	2861.752133
848.540485	2857.484796
848.855009	2854.389528
849.169490	2848.478775
849.483928	2845.953157
849.798323	2844.614731
850.112675	2841.181705
850.426984	2840.538958
850.741251	2838.983762
851.055474	2836.848833
851.369654	2838.532578
851.683792	2835.084429
851.997887	2836.632063
852.311938	2835.318843
852.625947	2835.855726
852.939914	2834.126610
853.253837	2838.837568
853.567718	2834.373627
853.881555	2831.595951
854.195350	2834.734069
854.509103	2834.953359
854.822812	2833.004953
855.136479	2832.019408
855.450103	2834.716425
855.763685	2829.087977
856.077224	2833.173832
856.390720	2833.715756
856.704173	2837.731035
857.017584	2839.911334
857.330953	2840.549040
857.644278	2841.506859
857.957561	2847.321830
858.270802	2845.978363
858.584000	2845.854854
858.897155	2841.658094
859.210268	2842.361335
859.523339	2839.833196
859.836367	2839.439986
860.149352	2835.936384
860.462295	2835.840602
860.775195	2831.848008
861.088054	2831.807679
861.400869	2828.692246
861.713642	2828.714931
862.026373	2830.630570
862.339062	2832.281548
862.651708	2837.237002
862.964312	2845.474247
863.276873	2843.082220
863.589392	2850.391893
863.901869	2856.002697
864.214303	2863.498893
864.526696	2869.863350
864.839045	2876.724360
865.151353	2881.689897
865.463619	2884.429764
865.775842	2888.417316
866.088023	2893.549211
866.400162	2893.856721
866.712258	2894.842267
867.024313	2893.231618
867.336325	2893.763460
867.648296	2898.345869
867.960224	2897.403173
868.272110	2899.122207
868.583954	2898.202196
868.895755	2902.860222
869.207515	2902.635891
869.519233	2909.660739
869.830909	2912.514032
870.142542	2916.123498
870.454134	2916.330185
870.765684	2922.666916
871.077191	2929.192689
871.388657	2933.717125
871.700081	2938.153340
872.011463	2945.200873
872.322803	2949.909311
872.634101	2954.637913
872.945357	2963.142340
873.256571	2974.341263
873.567744	2980.110864
873.878874	2980.733446
874.189963	2988.554796
874.501010	2992.312977
874.812015	2993.943790
875.122979	3005.818228
875.433900	3004.197497
875.744780	3005.518279
876.055618	3012.119670
876.366415	3013.884074
876.677169	3019.751977
876.987882	3023.706762
877.298554	3035.077085
877.609183	3046.243240
877.919771	3064.318297
878.230317	3088.785538
878.540822	3125.520426
878.851285	3176.690658
879.161707	3240.312540
879.472087	3346.605269
879.782425	3509.076616
880.092722	3783.368318
880.402977	4202.310887
880.713191	4741.948762
881.023363	5323.672711
881.333494	5764.314927
881.643583	6045.112238
881.953631	6121.016891
882.263637	6067.384055
882.573602	5922.740748
882.883526	5761.580101
883.193408	5561.726077
883.503248	5340.530329
883.813048	5129.472341
884.122806	4911.586110
884.432522	4673.058875
884.742197	4449.564360
885.051831	4244.097012
885.361424	4047.270201
885.670975	3882.893297
885.980485	3738.252511
886.289954	3615.606279
886.599382	3514.130373
886.908768	3429.302877
887.218113	3352.115250
887.527417	3292.067546
887.836680	3236.440934
888.145901	3188.507122
888.455082	3151.557985
888.764221	3118.992132
889.073319	3090.393666
889.382376	3065.876014
889.691392	3052.249775
890.000366	3043.591593
890.309300	3039.929195
890.618193	3036.138248
890.927044	3030.164480
891.235855	3031.137423
891.544625	3033.834440
891.853353	3037.249822
892.162041	3053.623490
892.470687	3078.123497
892.779293	3110.386882
893.087858	3161.373112
893.396381	3236.776171
893.704864	3339.968590
894.013306	3498.258300
894.321707	3679.916279
894.630068	3830.629135
894.938387	3908.736772
895.246665	3915.093667
895.554903	3856.366746
895.863100	3769.762243
896.171256	3696.317673
896.479371	3624.798823
896.787446	3548.115312
897.095480	3481.309941
897.403473	3426.235335
897.711425	3368.118393
898.019336	3317.175013
898.327207	3265.609050
898.635038	3220.548696
898.942827	3167.193124
899.250576	3126.989922
899.558284	3084.016606
899.865952	3059.879562
900.173579	3030.497196
900.481165	3012.520442
900.788711	2990.896412
901.096216	2976.844196
901.403681	2965.761219
901.711105	2955.913325
902.018489	2948.921245
902.325832	2956.694704
902.633135	2966.955973
902.940397	3008.041377
903.247619	3094.303081
903.554800	3269.422683
903.861941	3541.145916
904.169041	3799.394146
904.476101	3967.688026
904.783121	3988.913804
905.090100	3922.032816
905.397039	3815.790498
905.703938	3713.744942
906.010796	3611.641412
906.317614	3527.978422
906.624391	3446.820887
906.931129	3375.032335
907.237826	3306.107159
907.544483	3241.466964
907.851099	3171.384843
908.157675	3100.307095
908.464211	3027.038965
908.770707	2969.658031
909.077163	2924.557348
909.383578	2890.181720
909.689954	2859.929756
909.996289	2841.859740
910.302584	2825.377687
910.608839	2817.770586
910.915054	2810.922179
911.221229	2806.294400
911.527363	2804.840027
911.833458	2804.477064
912.139513	2810.642395
912.445527	2813.667087
912.751502	2821.616987
913.057436	2837.032835
913.363331	2853.398941
913.669186	2888.296329
913.975000	2923.617173
914.280775	2983.780824
914.586510	3062.117834
914.892205	3172.312416
915.197859	3316.824653
915.503475	3495.924246
915.809050	3668.740041
916.114585	3799.920946
916.420081	3871.921226
916.725536	3904.350969
917.030952	3866.882593
917.336328	3827.375070
917.641665	3782.513842
917.946961	3720.777351
918.252218	3663.204854
918.557435	3587.806836
918.862612	3523.915252
919.167750	3466.141109
919.472848	3393.563617
919.777906	3325.689522
920.082925	3257.696959
920.387904	3185.706762
920.692843	3134.178607
920.997743	3082.244641
921.302603	3029.418389
921.607423	2999.476456
921.912204	2962.176959
922.216946	2940.318516
922.521647	2913.439083
922.826310	2891.275651
923.130932	2873.722353
923.435516	2855.463294
923.740059	2842.273115
924.044564	2826.108655
924.349028	2813.525935
924.653454	2797.076650
924.957840	2783.825977
925.262186	2777.239709
925.566493	2764.921650
925.870761	2750.816502
926.174989	2749.835997
926.479178	2741.649163
926.783328	2735.352762
927.087438	2729.139540
927.391509	2721.429095
927.695541	2715.558672
927.999533	2708.987527
928.303486	2703.890921
928.607400	2701.390509
928.911275	2699.071578
929.215110	2693.987574
929.518906	2690.783921
929.822663	2691.076308
930.126381	2691.272913
930.430060	2690.325176
930.733699	2688.512881
931.037299	2691.154446
931.340861	2690.305011
931.644383	2691.207378
931.947866	2691.356092
932.251309	2690.173941
932.554714	2690.781400
932.858080	2691.109075
933.161407	2688.530525
933.464694	2685.445339
933.767943	2686.882068
934.071153	2684.530370
934.374323	2682.365194
934.677455	2684.618590
934.980548	2683.804443
935.283602	2680.948630
935.586617	2679.983249
935.889593	2680.263033
936.192530	2680.613393
936.495428	2682.287056
936.798287	2682.017354
937.101108	2687.610515
937.403890	2694.579910
937.706632	2706.683720
938.009336	2714.696634
938.312002	2727.559138
938.614628	2738.299317
938.917216	2748.810122
939.219765	2756.863366
939.522275	2764.447782
939.824747	2761.992740
940.127179	2761.516351
940.429573	2764.515837
940.731929	2765.196393
941.034246	2762.879983
941.336524	2764.382247
941.638763	2764.775457
941.940964	2763.449633
942.243126	2756.959147
942.545250	2751.035792
942.847335	2748.061511
943.149381	2740.749317
943.451389	2737.966600
943.753359	2733.177504
944.055290	2728.673233
944.357182	2722.424723
944.659036	2718.779969
944.960851	2715.951882
945.262628	2711.427446
945.564367	2711.445090
945.866067	2710.260419
946.167729	2709.660522
946.469352	2708.763196
946.770937	2707.578525
947.072484	2702.882690
947.373992	2704.778164
947.675462	2702.923019
947.976893	2701.521579
948.278286	2697.937318
948.579641	2700.243646
948.880958	2697.428162
949.182236	2695.900692
949.483476	2695.023531
949.784678	2694.655527
950.085841	2693.107893
950.386967	2695.467153
950.688054	2698.935467
950.989103	2702.421425
951.290114	2702.915458
951.591087	2706.340922
951.892021	2714.275698
952.192917	2714.666387
952.493776	2719.480689
952.794596	2723.495968
953.095378	2725.469580
953.396122	2725.903119
953.696828	2724.347923
953.997496	2724.010166
954.298126	2720.975391
954.598718	2715.704865
954.899272	2712.473485
955.199788	2708.911910
955.500266	2706.378730
955.800706	2697.581917
956.101108	2688.328879
956.401472	2685.891481
956.701798	2680.467200
957.002087	2669.729542
957.302337	2669.043945
957.602550	2666.389777
957.902724	2660.234529
958.202861	2653.986018
958.502960	2649.335554
958.803022	2645.310193
959.103045	2641.814152
959.403031	2636.125210
959.702979	2634.769140
960.002889	2630.534571
960.302762	2630.025414
960.602596	2626.559621
960.902393	2624.659106
961.202153	2625.637090
961.501875	2621.483179
961.801559	2620.205247
962.101205	2619.998559
962.400814	2618.420678
962.700385	2615.713578
962.999918	2616.142077
963.299414	2615.214504
963.598873	2611.547065
963.898293	2611.015223
964.197677	2611.698299
964.497022	2611.098402
964.796331	2612.325923
965.095601	2607.950202
965.394835	2608.971035
965.694030	2609.429780
965.993189	2611.501694
966.292309	2606.054728
966.591393	2608.174533
966.890439	2608.655963
967.189447	2605.401898
967.488419	2609.132352
967.787353	2609.076899
968.086249	2607.859461
968.385108	2607.161261
968.683930	2606.470623
968.982714	2607.766199
969.281462	2612.119236
969.580172	2612.189812
969.878844	2611.060593
970.177480	2611.950357
970.476078	2612.411623
970.774639	2617.062087
971.073162	2615.234669
971.371649	2613.056890
971.670098	2613.704679
971.968510	2615.138887
972.266885	2616.058897
972.565223	2621.604167
972.863524	2620.802623
973.161788	2620.074177
973.460014	2624.714559
973.758204	2625.773201
974.056356	2622.660288
974.354471	2623.746657
974.652550	2624.563324
974.950591	2625.654734
975.248595	2626.063067
975.546563	2626.478962
975.844493	2623.545011
976.142386	2623.519805
976.440243	2621.634414
976.738062	2624.326390
977.035845	2621.410082
977.333590	2619.002931
977.631299	2618.408075
977.928971	2616.777262
978.226606	2616.066459
978.524204	2617.644340
978.821765	2616.628548
979.119290	2614.392796
979.416777	2613.034205
979.714228	2614.990173
980.011642	2616.736933
980.309020	2618.647530
980.606360	2619.756584
980.903664	2621.732716
981.200931	2628.407204
981.498162	2634.627988
981.795356	2646.401602
982.092513	2662.777791
982.389633	2679.698424
982.686717	2694.463963
982.983764	2707.543237
983.280775	2722.802810
983.577749	2728.824468
983.874686	2731.524006
984.171587	2725.247769
984.468451	2720.181410
984.765279	2716.690411
985.062070	2707.591128
985.358824	2699.016125
985.655543	2688.981708
985.952224	2682.914680
986.248869	2667.914727
986.545478	2654.137253
986.842050	2644.682569
987.138586	2634.469191
987.435086	2624.827985
987.731549	2615.285080
988.027975	2616.777262
988.324366	2614.410440
988.620719	2605.797629
988.917037	2603.521548
989.213318	2604.991044
989.509563	2600.408635
989.805772	2599.402925
990.101944	2597.817482
990.398080	2597.162132
990.694180	2597.192379
990.990244	2597.073912
991.286271	2598.435024
991.582262	2599.004674
991.878217	2599.181114
992.174136	2602.362082
992.470019	2598.845878
992.765865	2600.118769
993.061676	2599.375199
993.357450	2603.342587
993.653188	2603.975252
993.948890	2607.556992
994.244556	2608.577825
994.540186	2613.215687
994.835780	2619.260030
995.131337	2625.871503
995.426859	2630.274951
995.722345	2641.224337
996.017795	2646.928403
996.313208	2657.721513
996.608586	2665.489932
996.903928	2667.430776
997.199234	2670.861281
997.494504	2673.089471
997.789738	2668.779284
998.084936	2665.058913
998.380099	2657.948365
998.675225	2657.015752
998.970316	2650.036274
999.265371	2644.145686
999.560390	2637.529172
999.855373	2629.682616
1000.150320	2620.774897
1000.445232	2620.195164
1000.740108	2614.269288
1001.034948	2608.827362
1001.329752	2603.380396
1001.624521	2603.738317
1001.919254	2595.685074
1002.213951	2597.494848
1002.508613	2594.691967
1002.803239	2593.469487
1003.097829	2592.405804
1003.392384	2592.650300
1003.686903	2589.567634
1003.981386	2591.705083
1004.275834	2590.318766
1004.570246	2592.630135
1004.864623	2587.546131
1005.158964	2586.220308
1005.453270	2587.120154
1005.747540	2587.432705
1006.041775	2586.316090
1006.335974	2586.331213
1006.630138	2585.693507
1006.924266	2585.449011
1007.218359	2589.703745
1007.512416	2588.259455
1007.806438	2585.040678
1008.100425	2587.553693
1008.394376	2586.258117
1008.688292	2585.600246
1008.982172	2586.628641
1009.276017	2584.637386
1009.569827	2585.580081
1009.863602	2589.968406
1010.157341	2584.337437
1010.451045	2585.330544
1010.744714	2584.148394
1011.038347	2585.136460
1011.331945	2584.060173
1011.625508	2585.880030
1011.919036	2582.905749
1012.212528	2586.583271
1012.505986	2583.571182
1012.799408	2585.338106
1013.092795	2584.473548
1013.386147	2585.315421
1013.679464	2582.754515
1013.972745	2582.608321
1014.265992	2580.062538
1014.559204	2582.716706
1014.852380	2582.653692
1015.145521	2582.840214
1015.438628	2582.812488
1015.731699	2585.605287
1016.024736	2581.640420
1016.317737	2582.812488
1016.610703	2583.205698
1016.903635	2579.722261
1017.196531	2579.626479
1017.489393	2581.869792
1017.782219	2582.754515
1018.075011	2581.728640
1018.367768	2585.459094
1018.660490	2584.823908
1018.953177	2584.823908
1019.245829	2584.823908
