Dividing Wavelength (nm)	Counts (n)	Blue Motor Position (mm): 20.000000	Red Motor Position (mm): 0.000000	
326.493990	2155.998156
326.888308	2155.998156
327.282561	2155.998156
327.676750	2131.374640
328.070874	2131.293982
328.464933	2136.486370
328.858929	2147.564306
329.252859	2159.486635
329.646726	2171.570281
330.040528	2188.760615
330.434265	2205.338450
330.827938	2224.313353
331.221547	2243.714233
331.615091	2261.620412
332.008571	2283.975408
332.401986	2306.663121
332.795338	2326.000988
333.188625	2345.159893
333.581847	2363.633201
333.975006	2381.914945
334.368100	2403.632236
334.761129	2422.077818
335.154095	2437.864191
335.546996	2457.890175
335.939833	2486.355050
336.332606	2498.383243
336.725315	2511.961591
337.117960	2519.372087
337.510540	2529.124199
337.903056	2538.162988
338.295508	2543.662887
338.687896	2551.060780
339.080220	2557.999929
339.472480	2565.491083
339.864676	2565.584345
340.256807	2569.765982
340.648875	2571.946281
341.040879	2574.562640
341.432818	2578.787127
341.824694	2576.004410
342.216506	2575.621282
342.608253	2576.218659
342.999937	2575.792681
343.391557	2575.704461
343.783113	2576.485840
344.174605	2572.344532
344.566033	2571.953842
344.957397	2568.437638
345.348697	2565.846485
345.739934	2562.829354
346.131106	2563.426731
346.522215	2563.635939
346.913260	2561.891699
347.304241	2557.490772
347.695159	2556.777449
348.086012	2557.019424
348.476802	2553.344423
348.867528	2552.956254
349.258191	2550.241593
349.648789	2551.655637
350.039324	2549.107333
350.429796	2551.277550
350.820203	2548.575492
351.210548	2548.250337
351.600828	2544.598021
351.991045	2546.269164
352.381198	2546.992569
352.771288	2543.680531
353.161314	2542.092568
353.551276	2542.392516
353.941175	2544.310675
354.331010	2544.623227
354.720782	2544.769420
355.110490	2545.029040
355.500135	2542.788247
355.889717	2545.064328
356.279235	2545.326468
356.668689	2547.534493
357.058080	2547.957950
357.447408	2544.255223
357.836672	2544.242620
358.225873	2543.957795
358.615010	2544.005686
359.004084	2547.610111
359.393095	2546.821170
359.782043	2550.576830
360.170927	2550.158414
360.559748	2550.765873
360.948505	2550.579350
361.337199	2550.218908
361.725830	2550.796120
362.114398	2551.774104
362.502903	2555.582695
362.891344	2551.574978
363.279722	2552.812581
363.668037	2555.368446
364.056289	2553.722510
364.444478	2555.756615
364.832603	2558.446071
365.220665	2554.345092
365.608665	2557.795762
365.996601	2554.491286
366.384474	2556.752243
366.772284	2556.734599
367.160031	2556.432130
367.547715	2557.296688
367.935336	2556.152346
368.322893	2558.640155
368.710388	2558.080587
369.097820	2560.822975
369.485189	2559.471946
369.872495	2561.385063
370.259738	2558.849363
370.646918	2559.247614
371.034035	2559.529919
371.421090	2558.579661
371.808081	2562.584858
372.195010	2558.942624
372.581875	2560.709549
372.968678	2561.027142
373.355418	2562.657955
373.742096	2561.518654
374.128710	2561.841288
374.515262	2563.363716
374.901751	2565.415466
375.288177	2563.388922
375.674540	2560.170145
376.060841	2563.925805
376.447079	2565.889334
376.833254	2562.363047
377.219367	2560.762481
377.605417	2561.347255
377.991404	2560.875907
378.377329	2561.342214
378.763191	2560.071843
379.148991	2567.512586
379.534727	2565.488563
379.920402	2565.032338
380.306013	2564.455126
380.691563	2564.654252
381.077049	2565.380178
381.462474	2568.054510
381.847835	2567.923440
382.233134	2565.889334
382.618371	2568.445199
383.003545	2567.389078
383.388657	2567.605847
383.773706	2568.024263
384.158693	2569.115673
384.543618	2567.522668
384.928480	2567.777247
385.313280	2571.038873
385.698017	2568.959397
386.082692	2567.505024
386.467305	2570.131465
386.851856	2571.230437
387.236344	2568.765313
387.620770	2570.083574
388.005133	2569.423183
388.389435	2570.842268
388.773674	2570.360838
389.157851	2569.675241
389.541965	2571.739593
389.926018	2571.240519
390.310008	2572.236147
390.693936	2571.739593
391.077802	2571.994172
391.461606	2571.759758
391.845348	2574.126580
392.229027	2571.721949
392.612645	2575.739749
392.996200	2573.854357
393.379694	2573.166240
393.763125	2574.620613
394.146494	2573.393092
394.529801	2575.238154
394.913047	2574.371076
395.296230	2574.877712
395.679351	2575.313772
396.062410	2577.236972
396.445408	2575.059193
396.828343	2572.026939
397.211217	2572.309244
397.594028	2572.228585
397.976778	2572.858730
398.359466	2573.224213
398.742092	2571.301013
399.124656	2574.970973
399.507158	2574.882753
399.889598	2578.255285
400.271977	2574.978535
400.654294	2578.822415
401.036549	2572.891497
401.418742	2577.456262
401.800874	2577.065572
402.182944	2576.478278
402.564952	2576.969791
402.946898	2580.259143
403.328783	2577.519276
403.710606	2578.351067
404.092367	2579.800398
404.474067	2577.226889
404.855705	2577.431056
405.237282	2578.414081
405.618797	2578.401478
406.000250	2578.562795
406.381642	2579.991962
406.762972	2579.147569
407.144240	2577.935172
407.525447	2583.540935
407.906593	2578.676221
408.287677	2581.501788
408.668700	2581.683269
409.049661	2583.790472
409.430560	2582.552868
409.811399	2582.041191
410.192176	2581.552199
410.572891	2581.501788
410.953545	2582.237796
411.334138	2580.876685
411.714669	2581.789134
412.095139	2579.674370
412.475547	2583.147725
412.855894	2579.553382
413.236180	2582.328537
413.616405	2581.332909
413.996568	2582.542786
414.376670	2582.545307
414.756711	2583.344330
415.136691	2582.401634
415.516609	2582.469689
415.896466	2585.259968
416.276262	2582.787282
416.655997	2580.775862
417.035670	2581.224524
417.415283	2580.584298
417.794834	2580.705286
418.174324	2581.151428
418.553753	2582.920873
418.933121	2586.356419
419.312428	2584.055132
419.691674	2586.152252
420.070859	2586.363981
420.449983	2584.743250
420.829045	2586.689135
421.208047	2584.970102
421.586988	2586.190061
421.965867	2588.425813
422.344686	2585.033116
422.723444	2586.933631
423.102141	2584.816347
423.480777	2585.103692
423.859352	2585.799372
424.237866	2586.621080
424.616319	2586.719382
424.994712	2586.908425
425.373044	2588.105699
425.751314	2586.207705
426.129524	2585.723754
426.507673	2588.438416
426.885762	2586.336254
427.263789	2587.014290
427.641756	2588.556883
428.019662	2589.645772
428.397508	2585.196954
428.775292	2586.820205
429.153016	2589.885227
429.530679	2590.217943
429.908282	2586.651327
430.285824	2588.156111
430.663305	2591.311873
431.040726	2589.219794
431.418086	2587.871286
431.795385	2590.245669
432.172624	2588.864393
432.549802	2586.293405
432.926920	2587.541090
433.303977	2589.388673
433.680974	2591.085021
434.057910	2591.039651
434.434786	2586.167376
434.811601	2588.597212
435.188355	2589.950762
435.565050	2589.963365
435.941683	2591.447984
436.318257	2586.855493
436.694770	2585.106213
437.071222	2587.218456
437.447614	2588.710638
437.823946	2585.890112
438.200218	2591.130392
438.576429	2590.306163
438.952580	2592.665423
439.328670	2592.587285
439.704700	2590.918663
440.080670	2593.575351
440.456580	2593.096442
440.832429	2594.480238
441.208218	2590.691811
441.583947	2592.156267
441.959616	2590.273396
442.335224	2592.126020
442.710773	2590.527974
443.086261	2593.509816
443.461689	2594.621391
443.837057	2593.068715
444.212365	2591.977306
444.587612	2594.122317
444.962800	2592.541915
445.337927	2592.937645
445.712995	2593.053592
446.088002	2593.645927
446.462949	2595.659868
446.837837	2595.596854
447.212664	2596.637852
447.587431	2593.169538
447.962139	2596.494179
448.336786	2594.341607
448.711374	2593.466967
449.085901	2599.014756
449.460369	2594.777667
449.834776	2594.926381
450.209124	2594.669282
450.583412	2597.109200
450.957640	2595.564087
451.331808	2596.910075
451.705917	2593.940835
452.079965	2595.312029
452.453954	2597.978799
452.827883	2598.664396
453.201752	2595.712801
453.575562	2598.329159
453.949311	2596.673140
454.323001	2598.694643
454.696632	2597.676330
455.070202	2600.562391
455.443713	2600.007864
455.817164	2595.039807
456.190556	2594.001329
456.563888	2596.705908
456.937160	2596.194231
457.310373	2599.470981
457.683526	2598.722369
458.056619	2597.804879
458.429653	2599.496187
458.802628	2603.425766
459.175542	2598.067019
459.548398	2600.895107
459.921194	2600.441403
460.293930	2600.075919
460.666607	2599.924685
461.039224	2602.047010
461.411782	2602.472988
461.784280	2604.212186
462.156719	2603.685385
462.529099	2601.631115
462.901419	2603.960128
463.273680	2603.340066
463.645882	2604.736466
464.018024	2604.088678
464.390106	2604.141610
464.762130	2605.167485
465.134094	2606.896600
465.505999	2608.323247
465.877845	2610.566560
466.249631	2610.881632
466.621358	2611.710902
466.993026	2612.028495
467.364634	2613.167796
467.736184	2609.036570
468.107674	2609.785182
468.479105	2608.078751
468.850477	2610.342229
469.221790	2609.495315
469.593043	2607.645212
469.964238	2609.984307
470.335373	2607.148658
470.706449	2609.785182
471.077467	2610.622013
471.448425	2612.136880
471.819324	2614.740636
472.190164	2617.122581
472.560945	2615.461521
472.931667	2612.610748
473.302330	2613.283742
473.672934	2611.415995
474.043479	2614.599483
474.413965	2614.647374
474.784393	2608.444235
475.154761	2609.896087
475.525070	2613.563526
475.895321	2611.088320
476.265513	2612.719133
476.635645	2618.019906
477.005719	2616.857920
477.375734	2617.697272
477.745691	2618.299690
478.115588	2621.551235
478.485427	2621.357150
478.855207	2625.082563
479.224928	2625.087604
479.594591	2627.013325
479.964194	2629.077677
480.333739	2628.061885
480.703226	2632.488018
481.072653	2630.748820
481.442022	2632.397277
481.811333	2633.939870
482.180584	2633.586989
482.549777	2634.504479
482.918912	2633.899541
483.287988	2635.671507
483.657005	2634.305354
484.025964	2638.497073
484.394864	2637.264511
484.763706	2641.010088
485.132489	2638.895324
485.501213	2641.320119
485.869879	2640.957156
486.238487	2642.199801
486.607036	2646.661222
486.975527	2645.151396
487.343959	2650.000986
487.712333	2647.518218
488.080648	2652.067859
488.448905	2657.434168
488.817104	2660.715959
489.185244	2663.420538
489.553326	2667.405570
489.921350	2670.178205
490.289315	2684.283353
490.657222	2688.679239
491.025070	2694.804241
491.392861	2697.362627
491.760593	2698.693491
492.128267	2697.218954
492.495883	2700.273893
492.863440	2699.931095
493.230939	2702.295396
493.598380	2702.716332
493.965763	2705.332691
494.333088	2706.608103
494.700354	2711.518187
495.067563	2716.783672
495.434713	2717.935576
495.801805	2731.297154
496.168839	2738.863926
496.535815	2740.877867
496.902733	2751.315576
497.269593	2756.281112
497.636395	2761.317225
498.003139	2771.581014
498.369825	2776.009668
498.736453	2788.413427
499.103023	2795.627318
499.469535	2803.620067
499.835989	2812.421922
500.202385	2824.926504
500.568723	2832.631908
500.935003	2844.997858
501.301226	2856.932790
501.667390	2874.876777
502.033497	2891.522667
502.399546	2899.593554
502.765537	2907.651839
503.131470	2925.978954
503.497345	2942.632405
503.863163	2948.205401
504.228923	2965.383133
504.594625	2987.775938
504.960269	3001.593741
505.325856	3024.651978
505.691385	3036.682692
506.056856	3056.083573
506.422270	3078.564598
506.787625	3096.659820
507.152924	3114.213118
507.518164	3140.134731
507.883347	3154.766680
508.248472	3178.281142
508.613540	3206.325081
508.978550	3233.547312
509.343503	3256.857607
509.708398	3286.444139
510.073236	3319.110816
510.438016	3345.024867
510.802738	3362.890716
511.167403	3402.466295
511.532010	3436.420986
511.896561	3474.269969
512.261053	3521.117412
512.625488	3539.036193
512.989866	3571.695309
513.354186	3599.580451
513.718449	3631.503558
514.082655	3684.775951
514.446803	3714.274263
514.810894	3762.437447
515.174927	3798.096048
515.538904	3832.766584
515.902822	3891.223804
516.266684	3913.346908
516.630488	3970.443016
516.994235	4007.881145
517.357925	4062.106317
517.721558	4117.039770
518.085133	4170.168490
518.448651	4220.355698
518.812112	4253.561778
519.175516	4302.498779
519.538863	4366.289540
519.902152	4410.843257
520.265385	4482.294051
520.628560	4535.110220
520.991678	4572.079522
521.354739	4635.560252
521.717743	4704.548442
522.080690	4752.625926
522.443580	4834.705993
522.806413	4892.994335
523.169189	4945.205565
523.531908	5013.452706
523.894569	5063.647475
524.257174	5119.200990
524.619722	5203.728537
524.982213	5261.976549
525.344647	5316.597451
525.707025	5377.943252
526.069345	5465.777796
526.431608	5519.113204
526.793815	5602.992963
527.155964	5637.431605
527.518057	5709.371391
527.880093	5763.276449
528.242072	5857.919072
528.603995	5898.898611
528.965860	5969.215146
529.327669	6045.044182
529.689421	6096.040494
530.051117	6166.357029
530.412755	6244.169759
530.774337	6312.479914
531.135862	6363.148551
531.497331	6449.422858
531.858743	6501.046794
532.220098	6603.951868
532.581396	6647.983826
532.942638	6681.051275
533.303824	6775.315810
533.664953	6838.983063
534.026025	6886.379991
534.387040	7002.659246
534.747999	7056.539098
535.108902	7149.140053
535.469748	7163.212434
535.830537	7246.225115
536.191270	7332.653177
536.551947	7370.701285
536.912567	7463.178732
537.273131	7545.284005
537.633638	7560.810759
537.994089	7657.328690
538.354483	7682.415992
538.714821	7817.037485
539.075103	7923.751150
539.435328	7966.149775
539.795497	8020.029627
540.155609	8091.074608
540.515665	8209.100623
540.875665	8199.875311
541.235609	8318.014752
541.595496	8367.675158
541.955328	8526.136268
542.315102	8512.570523
542.674821	8547.977067
543.034483	8619.435422
543.394090	8687.801030
543.753640	8736.014626
544.113134	8940.133465
544.472571	8868.786015
544.831953	9099.481818
545.191278	9056.276609
545.550548	9076.398374
545.909761	9211.362666
546.268918	9300.447416
546.628019	9402.563549
546.987064	9402.334176
547.346053	9364.994350
547.704986	9544.522441
548.063863	9533.938539
548.422684	9620.066652
548.781449	9658.117281
549.140158	9778.943657
549.498811	9809.354417
549.857408	9770.958469
550.215949	9964.054826
550.574434	10007.002936
550.932864	10020.883753
551.291237	10208.613802
551.649555	10185.653867
552.007817	10288.107757
552.366022	10285.030133
552.724173	10361.945537
553.082267	10472.951745
553.440305	10597.097720
553.798288	10520.310865
554.156215	10623.513366
554.514086	10711.950328
554.871902	10714.193642
555.229661	10777.755030
555.587365	10789.818511
555.945014	10846.778508
556.302606	10874.434278
556.660143	10972.850204
557.017625	11047.436596
557.375050	11059.326157
557.732421	11179.141782
558.089735	11228.787065
558.446994	11247.096535
558.804197	11380.137627
559.161345	11420.272773
559.518437	11303.630555
559.875474	11424.351066
560.232455	11491.756334
560.589381	11575.651217
560.946251	11556.310830
561.303065	11738.805640
561.659825	11733.358674
562.016528	11700.686956
562.373177	11687.128772
562.729770	11830.176554
563.086307	11763.353539
563.442789	11879.279913
563.799216	11949.498145
564.155587	11928.821852
564.511904	11983.450316
564.868164	12028.631657
565.224370	12101.781320
565.580520	12095.484919
565.936615	12182.502796
566.292654	12139.786579
566.648638	12230.247564
567.004567	12264.182091
567.360441	12293.128397
567.716260	12290.446503
568.072023	12390.314281
568.427732	12401.253585
568.783385	12337.082217
569.138982	12461.941516
569.494525	12487.129641
569.850013	12459.284828
570.205445	12475.298053
570.560823	12508.718382
570.916145	12492.548881
571.271412	12518.336904
571.626625	12491.396977
571.981782	12517.384126
572.336884	12474.662867
572.691931	12587.572111
573.046923	12496.896876
573.401860	12497.579953
573.756743	12511.685101
574.111570	12554.272769
574.466342	12546.300184
574.821059	12604.863268
575.175722	12508.776355
575.530330	12530.959953
575.884882	12488.705001
576.239380	12504.750994
576.593823	12498.729336
576.948211	12507.367353
577.302544	12410.110892
577.656823	12443.019545
578.011047	12506.858196
578.365216	12467.612814
578.719330	12423.714446
579.073389	12401.679563
579.427394	12421.806369
579.781344	12422.645721
580.135239	12357.700536
580.489080	12385.878066
580.842866	12279.771860
581.196597	12391.256977
581.550273	12373.907846
581.903895	12350.370699
582.257463	12461.008902
582.610975	12318.621512
582.964434	12389.941236
583.317837	12317.998929
583.671186	12288.372068
584.024481	12337.858555
584.377721	12233.491547
584.730906	12318.286275
585.084037	12336.174809
585.437113	12270.324737
585.790135	12293.700568
586.143103	12205.049357
586.496016	12224.770351
586.848874	12240.103020
587.201679	12246.563259
587.554428	12132.650826
587.907124	12179.226046
588.259765	12123.460802
588.612352	12195.612317
588.964884	12060.756410
589.317362	12113.693567
589.669786	12102.295518
590.022155	12064.108777
590.374470	12172.702793
590.726731	12063.140876
591.078937	11953.425204
591.431090	11976.952269
591.783188	11916.861715
592.135232	11834.459014
592.487222	11903.006103
592.839157	11923.533682
593.191038	11859.236285
593.542866	11806.941876
593.894639	11664.534321
594.246358	11731.014537
594.598022	11735.065104
594.949633	11640.145218
595.301190	11622.271807
595.652692	11585.423493
596.004141	11676.524705
596.355535	11456.906838
596.706876	11443.265476
597.058162	11412.983264
597.409395	11505.516164
597.760573	11536.156297
598.111698	11427.698392
598.462768	11428.668815
598.813785	11445.329828
599.164748	11314.544653
599.515657	11390.628268
599.866511	11273.456729
600.217312	11407.211143
600.568060	11180.671772
600.918753	11344.577327
601.269392	11339.989877
601.619978	11242.599826
601.970510	11284.885025
602.320988	11329.020327
602.671412	11387.089378
603.021783	11316.891310
603.372100	11245.029662
603.722363	11265.216963
604.072572	11265.753846
604.422728	11275.324476
604.772830	11219.355066
605.122878	11227.851931
605.472872	11203.518281
605.822813	11263.923907
606.172701	11224.381096
606.522534	11270.825247
606.872314	11314.017853
607.222041	11242.090670
607.571714	11333.789258
607.921333	11195.016375
608.270899	11254.328071
608.620411	11315.409211
608.969870	11261.632702
609.319276	11246.564694
609.668627	11266.610842
610.017926	11337.176913
610.367171	11368.618590
610.716362	11356.177022
611.065500	11333.900163
611.414585	11351.324912
611.763616	11416.887638
612.112594	11380.125024
612.461518	11401.978426
612.810389	11453.070520
613.159207	11390.814790
613.507971	11387.437217
613.856682	11492.008392
614.205340	11448.730086
614.553945	11580.155488
614.902496	11464.783641
615.250994	11527.440142
615.599439	11516.253822
615.947830	11545.439582
616.296169	11508.722338
616.644454	11525.537106
616.992686	11540.204343
617.340864	11634.821760
617.688990	11518.580314
618.037063	11661.804536
618.385082	11618.669903
618.733048	11669.031030
619.080961	11659.717498
619.428821	11637.407872
619.776628	11643.268213
620.124382	11593.398599
620.472083	11615.743513
620.819731	11637.163376
621.167326	11557.442569
621.514868	11538.823067
621.862357	11442.075763
622.209793	11437.319435
622.557176	11364.058866
622.904506	11306.493931
623.251783	11227.728422
623.599007	11163.829277
623.946179	11110.859353
624.293297	11094.770510
624.640363	10948.350197
624.987376	10941.849629
625.334336	10876.722962
625.681243	10793.722885
626.028097	10761.930848
626.374899	10726.978008
626.721647	10704.996057
627.068343	10661.627010
627.414987	10598.262227
627.761577	10524.429487
628.108115	10571.786087
628.454600	10450.185894
628.801032	10461.289036
629.147412	10446.347056
629.493739	10416.581563
629.840014	10338.441157
630.186236	10378.099915
630.532405	10278.968145
630.878521	10317.326285
631.224585	10274.209296
631.570597	10204.220436
631.916556	10211.696468
632.262462	10201.389828
632.608316	10174.943935
632.954117	10156.092541
633.299866	10132.951124
633.645562	10114.389595
633.991206	10007.116362
634.336797	9911.762937
634.682336	9897.821626
635.027823	9846.699285
635.373257	9813.067227
635.718639	9740.187266
636.063968	9713.902690
636.409245	9591.228732
636.754470	9586.288401
637.099642	9533.754537
637.444762	9432.694525
637.789829	9440.825907
638.134845	9365.884113
638.479808	9340.459054
638.824719	9312.571391
639.169577	9226.357578
639.514383	9224.386487
639.859137	9154.296804
640.203839	9186.451804
640.548489	9112.752655
640.893086	9120.450497
641.237632	9054.955827
641.582125	9055.575888
641.926566	9045.052480
642.270955	9029.175366
642.615292	9023.320066
642.959576	9000.667641
643.303809	8993.249583
643.647990	9010.555864
643.992118	8985.405547
644.336195	8959.720869
644.680219	8957.810271
645.024192	8991.240683
645.368112	9066.414369
645.711981	9041.808497
646.055797	9186.567751
646.399562	9138.555801
646.743274	9298.521695
647.086935	9367.794711
647.430544	9340.943005
647.774101	9369.352427
648.117606	9396.083146
648.461059	9463.722827
648.804460	9394.021314
649.147810	9278.147872
649.491108	9243.270649
649.834354	9175.610803
650.177548	9033.170480
650.520690	8941.164381
650.863781	8933.577445
651.206820	8909.175740
651.549807	8824.890168
651.892742	8731.943894
652.235626	8685.419085
652.578458	8648.984146
652.921238	8542.721664
653.263967	8581.649454
653.606644	8511.441304
653.949269	8494.245928
654.291843	8418.774814
654.634365	8479.056932
654.976836	8404.142865
655.319255	8406.686127
655.661622	8392.107110
656.003938	8352.080349
656.346203	8318.455853
656.688416	8344.049791
657.030577	8298.200496
657.372687	8262.821679
657.714746	8298.709653
658.056753	8314.531314
658.398708	8224.886996
658.740612	8208.513328
659.082465	8250.251562
659.424266	8213.161272
659.766016	8221.401038
660.107715	8198.297430
660.449362	8218.756953
660.790958	8210.413843
661.132503	8202.809263
661.473996	8205.778502
661.815438	8217.080769
662.156829	8245.860717
662.498168	8195.466822
662.839456	8191.789300
663.180693	8211.359060
663.521879	8227.069816
663.863013	8205.334881
664.204097	8207.769758
664.545129	8285.393445
664.886110	8280.740460
665.227040	8281.249617
665.567918	8291.531050
665.908746	8308.265160
666.249522	8321.024320
666.590248	8322.047675
666.930922	8333.012184
667.271545	8326.067995
667.612118	8339.858071
667.952639	8309.001168
668.293109	8311.196591
668.633528	8292.007439
668.973896	8269.944829
669.314213	8276.397506
669.654480	8232.042914
669.994695	8230.860763
670.334859	8209.599697
670.674973	8197.642080
671.015035	8215.921304
671.355047	8204.054428
671.695008	8189.056995
672.034918	8165.088829
672.374777	8174.099892
672.714585	8150.033423
673.054342	8180.701282
673.394049	8146.912949
673.733705	8184.651027
674.073310	8130.516596
674.412864	8141.024881
674.752368	8081.017506
675.091820	8131.789487
675.431223	8061.036893
675.770574	8014.370932
676.109875	7981.608473
676.449125	7939.996269
676.788324	7923.015142
677.127473	7842.517997
677.466571	7824.717683
677.805619	7769.837162
678.144616	7763.492870
678.483562	7742.176351
678.822458	7700.977521
679.161303	7684.311466
679.500098	7662.127869
679.838842	7643.205898
680.177535	7653.580592
680.516179	7695.381840
680.854771	7703.634209
681.193314	7826.708939
681.531805	7982.067218
681.870247	8103.906865
682.208638	8250.707786
682.546978	8327.948345
682.885268	8361.575362
683.223508	8292.226729
683.561697	8234.699602
683.899836	8206.577525
684.237925	8119.852035
684.575963	8089.670647
684.913951	8012.987135
685.251889	8028.271914
685.589776	8022.744288
685.927614	8007.078903
686.265401	8033.872636
686.603137	8033.955815
686.940824	8103.029705
687.278460	8162.348962
687.616046	8168.161412
687.953582	8277.067979
688.291068	8259.154239
688.628504	8311.239441
688.965889	8319.184299
689.303224	8277.942620
689.640510	8238.109943
689.977745	8125.142726
690.314930	8005.427925
690.652065	7932.568128
690.989150	7814.083369
691.326185	7675.486926
691.663170	7562.554998
692.000105	7440.939682
692.336990	7324.352917
692.673825	7244.024651
693.010610	7152.575600
693.347345	7054.827627
693.684030	6943.337468
694.020665	6901.178298
694.357251	6784.417614
694.693786	6775.903105
695.030272	6739.397589
695.366707	6647.106665
695.703093	6591.449806
696.039429	6585.491162
696.375716	6539.548607
696.711952	6526.938160
697.048139	6499.264746
697.384276	6464.505991
697.720363	6489.230330
698.056400	6464.258974
698.392388	6426.432676
698.728326	6432.635816
699.064214	6402.212452
699.400053	6394.433952
699.735842	6334.298028
700.071581	6294.742614
700.407270	6248.288382
700.742910	6219.760492
701.078501	6180.683988
701.414042	6126.690710
701.749533	6078.696404
702.084974	6024.816552
702.420366	6062.174023
702.755709	5988.220296
703.091002	5943.573317
703.426246	5946.514830
703.761440	5930.599907
704.096584	5885.068206
704.431679	5872.457759
704.766725	5856.883115
705.101721	5842.772925
705.436668	5857.719946
705.771565	5802.481503
706.106413	5859.592735
706.441212	5854.448237
706.775961	5869.191092
707.110661	5881.922526
707.445311	5941.718172
707.779913	5909.520323
708.114465	5946.083811
708.448967	5991.363455
708.783421	6103.042657
709.117825	6151.278938
709.452180	6177.182907
709.786485	6239.753708
710.120742	6367.010075
710.454949	6373.364450
710.789107	6457.077850
711.123216	6572.767290
711.457275	6604.392969
711.791286	6709.677467
712.125247	6736.720737
712.459159	6704.558175
712.793023	6830.261867
713.126837	6662.981259
713.460602	6717.329938
713.794318	6678.470204
714.127985	6626.642101
714.461602	6474.270706
714.795171	6484.000132
715.128691	6316.454864
715.462162	6224.784002
715.795584	6156.418394
716.128957	6108.650941
716.462281	6048.522578
716.795556	6008.992370
717.128782	5923.718732
717.461960	5824.448331
717.795088	5813.100693
718.128167	5744.273820
718.461198	5662.690307
718.794180	5641.290609
719.127113	5578.588737
719.459997	5545.974992
719.792833	5483.991485
720.125619	5480.218182
720.458357	5419.323564
720.791046	5391.839193
721.123686	5360.236199
721.456278	5318.303882
721.788821	5307.835926
722.121315	5265.054174
722.453761	5273.561121
722.786158	5259.738277
723.118506	5263.219194
723.450805	5240.619701
723.783056	5260.617958
724.115259	5244.203961
724.447412	5231.807764
724.779518	5275.315442
725.111574	5283.993789
725.443582	5320.201876
725.775542	5308.418179
726.107453	5394.823556
726.439315	5365.282394
726.771129	5432.213794
727.102895	5500.105533
727.434612	5542.962903
727.766281	5573.643365
728.097901	5624.183453
728.429473	5644.779087
728.760996	5646.939222
729.092471	5672.419734
729.423897	5661.936654
729.755276	5636.516636
730.086606	5652.524820
730.417887	5740.175362
730.749120	5826.603424
731.080305	5868.253437
731.411442	5938.852276
731.742530	5968.408561
732.073570	5986.418083
732.404562	6055.610440
732.735506	6047.259769
733.066401	6023.173136
733.397249	5954.772240
733.728048	5862.743456
734.058798	5718.180808
734.389501	5597.674546
734.720156	5512.531978
735.050762	5400.547786
735.381320	5329.119677
735.711831	5272.094145
736.042293	5192.577505
736.372707	5191.876784
736.703073	5143.794259
737.033391	5171.364329
737.363661	5156.417308
737.693883	5170.666130
738.024056	5196.285273
738.354182	5219.910641
738.684260	5266.619452
739.014290	5306.250483
739.344272	5340.774825
739.674207	5396.777003
740.004093	5429.239513
740.333931	5437.529691
740.663722	5458.843689
740.993464	5466.415502
741.323159	5447.448161
741.652806	5403.862345
741.982405	5373.010483
742.311956	5323.282021
742.641460	5307.253673
742.970915	5260.635602
743.300323	5197.497671
743.629683	5162.723792
743.958996	5111.969455
744.288260	5068.320624
744.617477	5003.753526
744.946647	4988.541844
745.275768	4933.996559
745.604842	4900.919028
745.933869	4868.958113
746.262847	4863.027196
746.591778	4849.179146
746.920662	4823.456658
747.249498	4814.180935
747.578286	4833.170962
747.907027	4857.444118
748.235720	4898.219491
748.564365	4907.727107
748.892963	4898.068256
749.221514	4913.171553
749.550017	4893.364859
749.878473	4885.019229
750.206881	4845.115976
750.535242	4834.080890
750.863555	4821.535979
751.191821	4799.352381
751.520039	4801.172238
751.848210	4787.147748
752.176334	4794.293583
752.504411	4773.259369
752.832440	4745.500255
753.160421	4760.711937
753.488356	4737.489862
753.816243	4721.456472
754.144082	4686.922048
754.471875	4674.765305
754.799620	4665.756763
755.127318	4658.787368
755.454969	4653.642871
755.782572	4644.785563
756.110129	4650.184639
756.437638	4632.245693
756.765100	4629.205877
757.092515	4632.550683
757.419882	4634.579747
757.747203	4630.083038
758.074477	4646.209689
758.401703	4636.167711
758.728882	4663.526053
759.056014	4676.721273
759.383099	4699.275395
759.710138	4724.937389
760.037129	4748.184670
760.364073	4763.413996
760.690970	4755.408643
761.017820	4758.201442
761.344623	4787.218324
761.671379	4854.406822
761.998088	4943.108445
762.324751	5174.663765
762.651366	5629.103619
762.977935	6323.648590
763.304456	6873.877930
763.630931	7174.406316
763.957359	7108.100020
764.283740	6815.423230
764.610074	6498.506053
764.936362	6098.137614
765.262602	5786.737979
765.588796	5435.336789
765.914943	5186.702040
766.241044	4964.606446
766.567097	4793.232421
766.893104	4641.309688
767.219064	4547.297210
767.544978	4449.594607
767.870845	4370.793811
768.196665	4320.520904
768.522438	4271.319242
768.848165	4230.576637
769.173846	4190.749001
769.499479	4156.756501
769.825066	4126.222232
770.150607	4084.136159
770.476101	4070.456988
770.801548	4048.195252
771.126949	4018.528062
771.452303	4001.292357
771.777611	3960.726192
772.102872	3958.170327
772.428087	3934.759209
772.753256	3904.177049
773.078378	3890.802868
773.403453	3857.979915
773.728482	3833.527798
774.053465	3818.517763
774.378401	3800.104948
774.703291	3775.579735
775.028135	3751.326744
775.352932	3742.678644
775.677683	3722.357753
776.002388	3703.587017
776.327046	3709.041545
776.651658	3685.746373
776.976224	3666.121161
777.300743	3665.198630
777.625216	3651.630365
777.949643	3642.011843
778.274024	3646.748007
778.598359	3624.811426
778.922647	3625.335706
779.246889	3615.041670
779.571086	3616.352370
779.895236	3611.288531
780.219339	3615.245837
780.543397	3614.615692
780.867409	3627.450470
781.191374	3629.187148
781.515294	3620.231538
781.839167	3639.960093
782.162995	3637.346255
782.486776	3628.080614
782.810511	3621.426291
783.134201	3607.328705
783.457844	3606.504476
783.781441	3600.293774
784.104993	3590.128288
784.428498	3585.354315
784.751958	3584.963626
785.075372	3577.885846
785.398739	3565.754309
785.722061	3572.176739
786.045337	3573.986513
786.368568	3596.674226
786.691752	3591.817074
787.014891	3637.699136
787.337983	3682.540199
787.661030	3771.919857
787.984031	3867.250597
788.306987	3944.312195
788.629897	3995.734485
788.952760	4001.549456
789.275579	3982.720746
789.598351	3935.346503
789.921078	3882.724419
790.243759	3820.456086
790.566395	3775.456227
790.888984	3725.634503
791.211529	3691.102599
791.534027	3647.594921
791.856480	3608.568828
792.178888	3588.134511
792.501249	3569.504927
792.823566	3537.264228
793.145836	3532.404556
793.468062	3526.425747
793.790241	3508.486801
794.112375	3512.481916
794.434464	3534.574772
794.756507	3537.239022
795.078505	3548.228737
795.400457	3591.297835
795.722364	3638.273828
796.044226	3686.799974
796.366042	3731.038620
796.687812	3726.279771
797.009538	3753.542331
797.331218	3742.945825
797.652852	3735.973910
797.974442	3716.174778
798.295986	3702.971996
798.617484	3672.775484
798.938938	3653.248575
799.260346	3636.272489
799.581709	3598.423506
799.903026	3591.260027
800.224299	3568.330338
800.545526	3540.974517
800.866708	3517.543234
801.187845	3506.273735
801.508936	3489.887464
801.829983	3480.621823
802.150984	3451.194088
802.471940	3437.199845
802.792851	3435.390070
803.113717	3426.608380
803.434538	3418.053542
803.755314	3410.171698
804.076045	3403.885379
804.396731	3394.440778
804.717372	3392.767115
805.037967	3389.059346
805.358518	3393.424985
805.679024	3405.745565
805.999485	3403.472005
806.319901	3409.120618
806.640272	3411.379055
806.960598	3424.503699
807.280879	3423.127464
807.601115	3433.877724
807.921306	3424.783483
808.241453	3425.343051
808.561554	3434.306222
808.881611	3428.589554
809.201623	3431.493258
809.521590	3423.399686
809.841513	3420.823656
810.161390	3428.604677
810.481223	3407.189856
810.801011	3405.251532
811.120755	3403.098959
811.440453	3391.622773
811.760107	3386.705127
812.079716	3378.747666
812.399281	3365.229812
812.718801	3362.784852
813.038276	3361.048175
813.357707	3352.450487
813.677093	3362.048844
813.996434	3345.818849
814.315731	3349.904704
814.634983	3351.621217
814.954191	3352.263964
815.273354	3370.386912
815.592473	3378.278838
815.911547	3400.217940
816.230577	3411.958787
816.549562	3439.359979
816.868502	3456.948565
817.187399	3477.161071
817.506250	3501.477077
817.825058	3516.441742
818.143821	3556.108061
818.462539	3601.944752
818.781213	3660.623783
819.099843	3744.344746
819.418429	3893.613311
819.736970	4043.267525
820.055466	4235.189293
820.373919	4465.106237
820.692327	4801.532680
821.010691	5315.967307
821.329011	6383.169494
821.647286	8111.556816
821.965517	10268.323749
822.283704	11874.135415
822.601847	12947.049230
822.919945	12535.648226
823.237999	11866.682069
823.556010	10981.198355
823.873976	10027.901039
824.191897	9066.646262
824.509775	8305.825242
824.827609	7512.950044
825.145398	6961.599048
825.463144	6585.937304
825.780845	6456.362007
826.098502	6517.289392
826.416116	6898.710654
826.733685	7394.067033
827.051210	7669.750093
827.368692	7579.342040
827.686129	7139.826522
828.003522	6600.629747
828.320872	6038.359612
828.638177	5579.087811
828.955439	5216.749838
829.272656	4881.238364
829.589830	4600.257051
829.906960	4336.582020
830.224046	4129.383035
830.541088	3962.399855
830.858086	3844.908203
831.175041	3752.052670
831.491952	3707.730845
831.808819	3689.585212
832.125642	3723.323134
832.442421	3825.214936
832.759157	4041.001526
833.075849	4417.369031
833.392497	4878.773240
833.709101	5261.573257
834.025662	5366.522518
834.342179	5241.136419
834.658653	4972.130368
834.975083	4705.344944
835.291469	4461.902584
835.607811	4239.426383
835.924110	4081.179522
836.240366	3924.185388
836.556578	3763.750667
836.872746	3625.963330
837.188871	3515.335209
837.504952	3419.949016
837.820990	3343.636029
838.136984	3292.584264
838.452935	3265.730038
838.768842	3245.741863
839.084706	3280.026750
839.400526	3413.733273
839.716303	3639.892038
840.032037	3851.416333
840.347727	3915.849841
840.663373	3825.567816
840.978977	3677.864529
841.294537	3549.652863
841.610054	3441.681430
841.925527	3368.317518
842.240957	3301.141623
842.556344	3236.902199
842.871687	3178.245854
843.186987	3115.380145
843.502244	3064.862742
843.817458	3026.925539
844.132629	2993.661485
844.447756	2975.162971
844.762840	2948.336471
845.077881	2934.664862
845.392879	2921.273037
845.707833	2907.828279
846.022745	2897.786301
846.337613	2894.030641
846.652438	2884.439846
846.967221	2880.666542
847.281960	2875.748897
847.596656	2870.261601
847.911309	2861.318594
848.225919	2858.467821
848.540485	2855.387676
848.855009	2854.366843
849.169490	2847.760411
849.483928	2843.989627
849.798323	2844.118177
850.112675	2840.992662
850.426984	2837.539471
850.741251	2837.433607
851.055474	2834.126610
851.369654	2835.606189
851.683792	2832.858760
851.997887	2833.622495
852.311938	2836.359841
852.625947	2837.506704
852.939914	2830.519664
853.253837	2833.788853
853.567718	2832.092504
853.881555	2830.164263
854.195350	2833.977896
854.509103	2833.317505
854.822812	2832.810869
855.136479	2829.720642
855.450103	2833.630056
855.763685	2830.184428
856.077224	2831.006136
856.390720	2831.369099
856.704173	2833.803976
857.017584	2835.374296
857.330953	2836.730366
857.644278	2840.664987
857.957561	2844.818897
858.270802	2841.796726
858.584000	2843.707323
858.897155	2841.945440
859.210268	2840.385202
859.523339	2838.613237
859.836367	2838.363700
860.149352	2836.566528
860.462295	2837.226920
860.775195	2828.598985
861.088054	2827.389108
861.400869	2826.534632
861.713642	2825.163438
862.026373	2832.868842
862.339062	2830.139057
862.651708	2833.960252
862.964312	2839.908813
863.276873	2838.162054
863.589392	2848.196470
863.901869	2855.044878
864.214303	2862.888913
864.526696	2867.186497
864.839045	2878.229144
865.151353	2880.364073
865.463619	2886.138715
865.775842	2885.435474
866.088023	2890.426216
866.400162	2887.111658
866.712258	2892.606515
867.024313	2897.168759
867.336325	2893.798748
867.648296	2894.640621
867.960224	2896.377298
868.272110	2895.457288
868.583954	2896.074829
868.895755	2901.980541
869.207515	2900.473236
869.519233	2908.443300
869.830909	2910.144689
870.142542	2914.858168
870.454134	2914.946388
870.765684	2920.579878
871.077191	2927.125816
871.388657	2932.282917
871.700081	2938.236519
872.011463	2945.342026
872.322803	2947.751697
872.634101	2954.653037
872.945357	2963.669140
873.256571	2970.998978
873.567744	2978.386789
873.878874	2979.289156
874.189963	2989.144611
874.501010	2991.755929
874.812015	2989.686535
875.122979	3002.380161
875.433900	3002.962414
875.744780	3006.057683
876.055618	3010.899711
876.366415	3015.005731
876.677169	3019.174765
876.987882	3025.612318
877.298554	3031.956610
877.609183	3048.189126
877.919771	3064.489697
878.230317	3086.542224
878.540822	3127.559573
878.851285	3175.637057
879.161707	3243.284300
879.472087	3348.014271
879.782425	3509.800022
880.092722	3782.763379
880.402977	4200.208726
880.713191	4738.495572
881.023363	5331.763763
881.333494	5766.409527
881.643583	6051.191869
881.953631	6128.019054
882.263637	6066.897584
882.573602	5931.020844
882.883526	5765.280308
883.193408	5561.784051
883.503248	5346.919992
883.813048	5136.096417
884.122806	4915.046862
884.432522	4672.673226
884.742197	4452.810863
885.051831	4244.989296
885.361424	4052.591139
885.670975	3886.815315
885.980485	3740.402563
886.289954	3620.566775
886.599382	3514.132893
886.908768	3432.753547
887.218113	3351.512832
887.527417	3292.775828
887.836680	3235.251222
888.145901	3185.157276
888.455082	3150.151503
888.764221	3118.558592
889.073319	3089.113213
889.382376	3070.924730
889.691392	3051.075186
890.000366	3043.889022
890.309300	3035.417363
890.618193	3032.690098
890.927044	3028.067360
891.235855	3029.403266
891.544625	3032.528781
891.853353	3038.855429
892.162041	3053.512584
892.470687	3074.781212
892.779293	3111.543827
893.087858	3154.025630
893.396381	3236.884555
893.704864	3342.630319
894.013306	3495.503309
894.321707	3680.793440
894.630068	3833.227850
894.938387	3908.343562
895.246665	3914.128287
895.554903	3855.625696
895.863100	3768.847274
896.171256	3697.061243
896.479371	3624.738329
896.787446	3551.019016
897.095480	3476.699806
897.403473	3425.932866
897.711425	3368.194010
898.019336	3319.761125
898.327207	3262.407917
898.635038	3217.632389
898.942827	3162.348575
899.250576	3126.127885
899.558284	3086.718665
899.865952	3059.393090
900.173579	3029.728420
900.481165	3009.392406
900.788711	2991.037565
901.096216	2975.062148
901.403681	2961.236784
901.711105	2952.714713
902.018489	2948.107098
902.325832	2957.241669
902.633135	2965.637711
902.940397	3006.468537
903.247619	3092.533636
903.554800	3266.461005
903.861941	3541.357645
904.169041	3803.175011
904.476101	3968.005618
904.783121	3989.969926
905.090100	3922.844442
905.397039	3819.034481
905.703938	3714.652349
906.010796	3613.753655
906.317614	3531.303063
906.624391	3442.029270
906.931129	3374.031666
907.237826	3305.751758
907.544483	3243.697675
907.851099	3170.779905
908.157675	3096.858946
908.464211	3027.797658
908.770707	2971.392188
909.077163	2923.382759
909.383578	2888.255999
909.689954	2858.374560
909.996289	2839.392095
910.302584	2827.247956
910.608839	2816.908549
910.915054	2808.794812
911.221229	2803.544450
911.527363	2802.332053
911.833458	2804.784574
912.139513	2807.595017
912.445527	2809.964360
912.751502	2821.889209
913.057436	2834.013184
913.363331	2854.102182
913.669186	2884.437325
913.975000	2920.365629
914.280775	2978.341419
914.586510	3059.125909
914.892205	3169.118845
915.197859	3316.698624
915.503475	3495.531036
915.809050	3668.835823
916.114585	3799.686533
916.420081	3869.130947
916.725536	3904.615629
917.030952	3869.176318
917.336328	3831.783559
917.641665	3780.792288
917.946961	3719.322978
918.252218	3661.442971
918.557435	3588.885643
918.862612	3522.750746
919.167750	3463.963330
919.472848	3395.302815
919.777906	3324.502330
920.082925	3255.993049
920.387904	3184.156607
920.692843	3128.850108
920.997743	3080.770103
921.302603	3029.625077
921.607423	2994.992350
921.912204	2965.282310
922.216946	2939.005295
922.521647	2912.307344
922.826310	2892.477966
923.130932	2875.085985
923.435516	2853.615711
923.740059	2839.124914
924.044564	2823.295691
924.349028	2809.487971
924.653454	2796.322997
924.957840	2781.809515
925.262186	2773.380706
925.566493	2763.164808
925.870761	2750.637541
926.174989	2747.058321
926.479178	2738.551374
926.783328	2729.671382
927.087438	2727.181052
927.391509	2720.130998
927.695541	2712.728064
927.999533	2706.650953
928.303486	2700.919161
928.607400	2699.643749
928.911275	2693.916998
929.215110	2691.240145
929.518906	2689.863910
929.822663	2689.054805
930.126381	2687.451718
930.430060	2689.916842
930.733699	2687.849969
931.037299	2689.715196
931.340861	2687.134126
931.644383	2688.953982
931.947866	2689.589167
932.251309	2690.536904
932.554714	2686.292253
932.858080	2690.451205
933.161407	2688.822912
933.464694	2684.585822
933.767943	2681.873682
934.071153	2682.080369
934.374323	2680.920903
934.677455	2678.987621
934.980548	2681.440142
935.283602	2679.602642
935.586617	2676.479647
935.889593	2680.184895
936.192530	2680.416788
936.495428	2679.542148
936.798287	2683.252437
937.101108	2687.179496
937.403890	2694.673171
937.706632	2701.624922
938.009336	2712.665049
938.312002	2725.822461
938.614628	2735.486353
938.917216	2748.941192
939.219765	2754.289857
939.522275	2760.641710
939.824747	2765.602206
940.127179	2759.091556
940.429573	2760.740013
940.731929	2764.475508
941.034246	2763.777308
941.336524	2760.679519
941.638763	2763.353851
941.940964	2764.440220
942.243126	2757.180958
942.545250	2754.294898
942.847335	2746.488671
943.149381	2740.424163
943.451389	2735.846795
943.753359	2730.069633
944.055290	2722.679301
944.357182	2718.716954
944.659036	2714.532797
944.960851	2714.651264
945.262628	2707.961653
945.564367	2709.000130
945.866067	2709.156406
946.167729	2709.257229
946.469352	2704.019470
946.770937	2704.460571
947.072484	2704.263966
947.373992	2700.160467
947.675462	2700.553677
947.976893	2699.840354
948.278286	2699.449664
948.579641	2695.794828
948.880958	2697.844057
949.182236	2697.602082
949.483476	2693.937163
949.784678	2694.002698
950.085841	2693.123016
950.386967	2695.222657
950.688054	2698.872452
950.989103	2698.297761
951.290114	2699.013605
951.591087	2705.655325
951.892021	2711.724874
952.192917	2716.166131
952.493776	2716.461038
952.794596	2719.400031
953.095378	2724.068139
953.396122	2724.277347
953.696828	2724.640310
953.997496	2722.437326
954.298126	2719.364743
954.598718	2714.689072
954.899272	2712.115563
955.199788	2706.978628
955.500266	2703.570808
955.800706	2695.119313
956.101108	2689.059846
956.401472	2682.760925
956.701798	2679.804288
957.002087	2669.744665
957.302337	2665.958759
957.602550	2663.294509
957.902724	2653.285298
958.202861	2651.730102
958.502960	2647.369504
958.803022	2641.320119
959.103045	2640.896662
959.403031	2633.682771
959.702979	2632.049437
960.002889	2629.604478
960.302762	2625.964765
960.602596	2626.186576
960.902393	2622.178858
961.202153	2620.144753
961.501875	2622.602315
961.801559	2616.923455
962.101205	2618.821450
962.400814	2616.638630
962.700385	2614.576798
962.999918	2611.660491
963.299414	2612.346088
963.598873	2608.855089
963.898293	2611.332816
964.197677	2608.766868
964.497022	2609.704523
964.796331	2608.547578
965.095601	2609.018926
965.394835	2607.630088
965.694030	2608.761827
965.993189	2607.945160
966.292309	2605.636312
966.591393	2605.832917
966.890439	2603.287134
967.189447	2607.642691
967.488419	2605.293513
967.787353	2607.554471
968.086249	2602.732607
968.385108	2609.021447
968.683930	2605.578339
968.982714	2608.126642
969.281462	2606.687392
969.580172	2610.211159
969.878844	2609.606221
970.177480	2608.918103
970.476078	2612.774586
970.774639	2616.827673
971.073162	2613.992024
971.371649	2612.504884
971.670098	2612.033536
971.968510	2615.796757
972.266885	2613.492950
972.565223	2619.655761
972.863524	2619.940586
973.161788	2622.176338
973.460014	2622.090638
973.758204	2621.858745
974.056356	2624.414610
974.354471	2623.076184
974.652550	2621.309259
974.950591	2621.014352
975.248595	2619.171810
975.546563	2621.631893
975.844493	2622.937552
976.142386	2619.691049
976.440243	2618.463528
976.738062	2618.403034
977.035845	2617.873713
977.333590	2618.347581
977.631299	2615.776593
977.928971	2615.166613
978.226606	2613.424895
978.524204	2614.201232
978.821765	2613.485388
979.119290	2613.671911
979.416777	2615.098558
979.714228	2612.348608
980.011642	2611.998248
980.309020	2617.727519
980.606360	2617.901439
980.903664	2620.641306
981.200931	2624.908643
981.498162	2632.477936
981.795356	2642.041004
982.092513	2659.077584
982.389633	2675.993176
982.686717	2694.910105
982.983764	2709.622713
983.280775	2724.932697
983.577749	2726.051833
983.874686	2729.754561
984.171587	2724.214333
984.468451	2719.006821
984.765279	2714.915924
985.062070	2707.581046
985.358824	2697.387832
985.655543	2690.005063
985.952224	2679.640450
986.248869	2668.350786
986.545478	2652.907212
986.842050	2641.037815
987.138586	2633.002216
987.435086	2623.434106
987.731549	2615.030502
988.027975	2614.118053
988.324366	2610.939606
988.620719	2608.091354
988.917037	2601.774788
989.213318	2602.301589
989.509563	2599.876794
989.805772	2598.603902
990.101944	2594.649117
990.398080	2596.347986
990.694180	2593.701380
990.990244	2597.220106
991.286271	2594.926381
991.582262	2595.430496
991.878217	2596.741196
992.174136	2596.559714
992.470019	2596.020311
992.765865	2597.227667
993.061676	2597.857812
993.357450	2600.728749
993.653188	2602.762854
993.948890	2602.755292
994.244556	2609.034050
994.540186	2611.857096
994.835780	2614.874226
995.131337	2623.978550
995.426859	2629.957359
995.722345	2636.213431
996.017795	2647.636685
996.313208	2656.042809
996.608586	2663.221412
996.903928	2665.016063
997.199234	2668.829696
997.494504	2668.252484
997.789738	2665.263080
998.084936	2661.946000
998.380099	2660.050527
998.675225	2653.552479
998.970316	2647.785399
999.265371	2639.878349
999.560390	2632.437606
999.855373	2628.165228
1000.150320	2620.492592
1000.445232	2614.808691
1000.740108	2612.172168
1001.034948	2606.957094
1001.329752	2606.286621
1001.624521	2601.484922
1001.919254	2595.440578
1002.213951	2593.744230
1002.508613	2593.285485
1002.803239	2590.777511
1003.097829	2588.035123
1003.392384	2593.645927
1003.686903	2588.398086
1003.981386	2590.008735
1004.275834	2590.800196
1004.570246	2588.181317
1004.864623	2586.817685
1005.158964	2588.204002
1005.453270	2584.886923
1005.747540	2585.670822
1006.041775	2587.707448
1006.335974	2586.500092
1006.630138	2583.593867
1006.924266	2587.099989
1007.218359	2586.164855
1007.512416	2583.278795
1007.806438	2582.898187
1008.100425	2584.493713
1008.394376	2582.822570
1008.688292	2582.653692
1008.982172	2582.182344
1009.276017	2582.079000
1009.569827	2581.506829
1009.863602	2583.402303
1010.157341	2584.060173
1010.451045	2584.405492
1010.744714	2583.835842
1011.038347	2583.838363
1011.331945	2581.922724
1011.625508	2583.374577
1011.919036	2580.710327
1012.212528	2584.097982
1012.505986	2580.831314
1012.799408	2583.203177
1013.092795	2580.707806
1013.386147	2581.975656
1013.679464	2581.083372
1013.972745	2583.034299
1014.265992	2579.641602
1014.559204	2581.194277
1014.852380	2579.061869
1015.145521	2581.204360
1015.438628	2580.246541
1015.731699	2581.214442
1016.024736	2582.126891
1016.317737	2579.760069
1016.610703	2582.426840
1016.903635	2579.749987
1017.196531	2577.330233
1017.489393	2577.884760
1017.782219	2578.507343
1018.075011	2578.346026
1018.367768	2582.182344
1018.660490	2585.106213
1018.953177	2585.106213
1019.245829	2585.106213
