Dividing Wavelength (nm)	Counts (n)	Blue Motor Position (mm): 11.000000	Red Motor Position (mm): 0.000000	
326.493990	2159.768939
326.888308	2159.768939
327.282561	2159.768939
327.676750	2133.774230
328.070874	2135.687348
328.464933	2141.033491
328.858929	2150.357105
329.252859	2164.182470
329.646726	2176.180416
330.040528	2189.078208
330.434265	2210.735005
330.827938	2227.285113
331.221547	2245.642475
331.615091	2266.258273
332.008571	2287.302570
332.401986	2309.118163
332.795338	2329.113900
333.188625	2346.437825
333.581847	2366.776360
333.975006	2386.835112
334.368100	2406.800601
334.761129	2425.011770
335.154095	2439.495005
335.546996	2460.083077
335.939833	2483.378249
336.332606	2498.438696
336.725315	2507.011178
337.117960	2514.454442
337.510540	2522.490041
337.903056	2532.279962
338.295508	2541.366642
338.687896	2548.545245
339.080220	2554.345092
339.472480	2562.385732
339.864676	2563.862791
340.256807	2569.506362
340.648875	2568.228430
341.040879	2571.001064
341.432818	2573.597259
341.824694	2572.992320
342.216506	2572.614234
342.608253	2574.688668
342.999937	2571.633729
343.391557	2572.591548
343.783113	2571.059038
344.174605	2566.317832
344.566033	2567.898234
344.957397	2564.886145
345.348697	2563.900599
345.739934	2561.957234
346.131106	2562.423541
346.522215	2558.448591
346.913260	2558.740978
347.304241	2555.933056
347.695159	2553.929197
348.086012	2552.207643
348.476802	2550.786037
348.867528	2548.578012
349.258191	2547.879812
349.648789	2547.910059
350.039324	2544.847558
350.429796	2546.130532
350.820203	2541.951415
351.210548	2542.664739
351.600828	2541.197763
351.991045	2544.792106
352.381198	2541.417053
352.771288	2541.979142
353.161314	2540.015612
353.551276	2542.866385
353.941175	2541.071734
354.331010	2539.544264
354.720782	2539.871939
355.110490	2541.928730
355.500135	2540.499563
355.889717	2541.580891
356.279235	2541.293545
356.668689	2542.389996
357.058080	2541.966539
357.447408	2539.690458
357.836672	2540.834800
358.225873	2539.952598
358.615010	2539.884542
359.004084	2545.283618
359.393095	2546.891746
359.782043	2545.026519
360.170927	2545.134904
360.559748	2547.116077
360.948505	2545.855789
361.337199	2547.295038
361.725830	2545.190357
362.114398	2546.929555
362.502903	2547.002652
362.891344	2551.325441
363.279722	2551.393497
363.668037	2551.504402
364.056289	2550.594474
364.444478	2551.126315
364.832603	2554.771070
365.220665	2548.741850
365.608665	2554.052705
365.996601	2550.470965
366.384474	2553.573796
366.772284	2553.775442
367.160031	2552.888199
367.547715	2552.313507
367.935336	2552.530277
368.322893	2554.438353
368.710388	2551.547252
369.097820	2557.354661
369.485189	2554.531615
369.872495	2554.193857
370.259738	2556.802655
370.646918	2556.248128
371.034035	2557.528581
371.421090	2555.401214
371.808081	2555.504558
372.195010	2556.999260
372.581875	2555.809547
372.968678	2556.328786
373.355418	2555.633107
373.742096	2557.934394
374.128710	2557.853735
374.515262	2559.716442
374.901751	2559.592933
375.288177	2559.696277
375.674540	2558.372974
376.060841	2562.312636
376.447079	2559.948335
376.833254	2561.715259
377.219367	2555.693601
377.605417	2558.320042
377.991404	2556.553117
378.377329	2556.565720
378.763191	2556.396842
379.148991	2558.917419
379.534727	2558.428427
379.920402	2561.465722
380.306013	2563.958572
380.691563	2563.104097
381.077049	2562.841957
381.462474	2562.037893
381.847835	2560.664178
382.233134	2562.431103
382.618371	2563.832544
383.003545	2565.841443
383.388657	2564.182904
383.773706	2561.921946
384.158693	2564.387071
384.543618	2562.647873
384.928480	2564.329097
385.313280	2564.172822
385.698017	2564.082081
386.082692	2566.118707
386.467305	2564.192986
386.851856	2562.136195
387.236344	2563.303223
387.620770	2567.363872
388.005133	2564.099725
388.389435	2566.010322
388.773674	2562.892368
389.157851	2563.313305
389.541965	2567.948646
389.926018	2570.902762
390.310008	2567.661300
390.693936	2567.210117
391.077802	2566.990827
391.461606	2568.407391
391.845348	2567.099211
392.229027	2568.351938
392.612645	2568.349418
392.996200	2567.618450
393.379694	2568.914027
393.763125	2569.715570
394.146494	2570.169274
394.529801	2568.210786
394.913047	2568.598955
395.296230	2567.938563
395.679351	2570.381002
396.062410	2570.791857
396.445408	2569.468554
396.828343	2570.791857
397.211217	2568.740107
397.594028	2566.758933
397.976778	2569.120714
398.359466	2569.738255
398.742092	2568.213306
399.124656	2571.127093
399.507158	2569.395457
399.889598	2571.245560
400.271977	2570.433935
400.654294	2575.354101
401.036549	2572.437793
401.418742	2573.176322
401.800874	2575.059193
402.182944	2572.601631
402.564952	2572.369738
402.946898	2570.930488
403.328783	2573.929975
403.710606	2574.091292
404.092367	2573.219172
404.474067	2572.697413
404.855705	2572.639439
405.237282	2571.863102
405.618797	2572.677248
406.000250	2575.205387
406.381642	2573.884604
406.762972	2573.181363
407.144240	2571.888307
407.525447	2576.589183
407.906593	2573.473750
408.287677	2573.249419
408.668700	2573.814028
409.049661	2575.631364
409.430560	2572.654563
409.811399	2575.656570
410.192176	2576.954667
410.572891	2573.067938
410.953545	2576.846282
411.334138	2577.733525
411.714669	2575.805284
412.095139	2575.825449
412.475547	2576.362332
412.855894	2576.979873
413.236180	2575.903587
413.616405	2574.350911
413.996568	2577.889801
414.376670	2580.027250
414.756711	2576.372414
415.136691	2578.363670
415.516609	2580.586818
415.896466	2578.099009
416.276262	2579.351736
416.655997	2575.102043
417.035670	2575.301169
417.415283	2576.211097
417.794834	2574.723957
418.174324	2574.817218
418.553753	2578.724112
418.933121	2579.840728
419.312428	2582.215111
419.691674	2579.903742
420.070859	2580.974987
420.449983	2579.591191
420.829045	2579.749987
421.208047	2579.019020
421.586988	2581.622776
421.965867	2580.632189
422.344686	2581.068249
422.723444	2578.812332
423.102141	2580.707806
423.480777	2580.223855
423.859352	2580.974987
424.237866	2580.453228
424.616319	2580.420460
424.994712	2581.342992
425.373044	2579.780234
425.751314	2582.618403
426.129524	2580.213773
426.507673	2582.835173
426.885762	2580.750656
427.263789	2580.289390
427.641756	2580.780903
428.019662	2582.729309
428.397508	2583.631675
428.775292	2582.278126
429.153016	2580.705286
429.530679	2583.273753
429.908282	2584.276943
430.285824	2584.760894
430.663305	2579.651684
431.040726	2583.740060
431.418086	2585.461614
431.795385	2585.943044
432.172624	2582.320975
432.549802	2586.729464
432.926920	2583.666963
433.303977	2586.066553
433.680974	2584.360122
434.057910	2583.006572
434.434786	2584.725606
434.811601	2583.540935
435.188355	2583.175451
435.565050	2583.576223
435.941683	2583.462797
436.318257	2580.574216
436.694770	2582.053794
437.071222	2579.744946
437.447614	2581.451376
437.823946	2580.758218
438.200218	2585.706110
438.576429	2584.919690
438.952580	2583.619072
439.328670	2585.454052
439.704700	2583.142683
440.080670	2583.006572
440.456580	2584.884402
440.832429	2585.338106
441.208218	2583.437591
441.583947	2584.897005
441.959616	2586.288363
442.335224	2589.292891
442.710773	2584.211408
443.086261	2586.260637
443.461689	2588.388004
443.837057	2586.172417
444.212365	2587.404979
444.587612	2583.203177
444.962800	2582.270564
445.337927	2589.300453
445.712995	2587.427664
446.088002	2587.064701
446.462949	2586.447160
446.837837	2590.296081
447.212664	2586.674012
447.587431	2587.336923
447.962139	2584.783579
448.336786	2586.981522
448.711374	2586.999166
449.085901	2586.048909
449.460369	2587.193251
449.834776	2587.253744
450.209124	2586.961357
450.583412	2585.786769
450.957640	2586.197623
451.331808	2587.157962
451.705917	2583.901377
452.079965	2590.442274
452.453954	2587.750298
452.827883	2589.245000
453.201752	2589.403797
453.575562	2589.807089
453.949311	2587.634352
454.323001	2586.898343
454.696632	2589.756677
455.070202	2588.380442
455.443713	2586.850452
455.817164	2586.744588
456.190556	2588.776173
456.563888	2587.185689
456.937160	2583.596387
457.310373	2587.160483
457.683526	2589.262644
458.056619	2589.713827
458.429653	2589.650813
458.802628	2589.686101
459.175542	2585.958168
459.548398	2591.763057
459.921194	2590.739702
460.293930	2591.148036
460.666607	2589.950762
461.039224	2589.202150
461.411782	2589.771801
461.784280	2591.349682
462.156719	2591.715166
462.529099	2589.575196
462.901419	2589.081163
463.273680	2592.897316
463.645882	2588.892119
464.018024	2591.316914
464.390106	2588.771132
464.762130	2592.103334
465.134094	2588.871955
465.505999	2590.066708
465.877845	2592.488983
466.249631	2591.720207
466.621358	2590.825402
466.993026	2592.257090
467.364634	2595.130547
467.736184	2591.465628
468.107674	2592.630135
468.479105	2590.379260
468.850477	2592.209199
469.221790	2591.334558
469.593043	2589.741554
469.964238	2591.770618
470.335373	2592.224322
470.706449	2590.104517
471.077467	2591.490834
471.448425	2593.040989
471.819324	2591.079980
472.190164	2593.822368
472.560945	2593.096442
472.931667	2593.189703
473.302330	2594.460074
473.672934	2592.635176
474.043479	2590.238107
474.413965	2591.359764
474.784393	2590.888416
475.154761	2590.331369
475.525070	2590.318766
475.895321	2591.243818
476.265513	2588.788776
476.635645	2593.575351
477.005719	2593.676174
477.375734	2592.821699
477.745691	2591.997470
478.115588	2593.961000
478.485427	2596.721031
478.855207	2596.007708
479.224928	2595.400249
479.594591	2594.444950
479.964194	2594.386977
480.333739	2596.186669
480.703226	2595.730445
481.072653	2596.075764
481.442022	2595.047368
481.811333	2595.077615
482.180584	2594.341607
482.549777	2596.466453
482.918912	2595.304467
483.287988	2595.591813
483.657005	2595.949735
484.025964	2596.549632
484.394864	2592.473859
484.763706	2595.019642
485.132489	2597.325970
485.501213	2593.845053
485.869879	2595.266658
486.238487	2593.913109
486.607036	2595.818665
486.975527	2595.480907
487.343959	2595.143150
487.712333	2596.630291
488.080648	2596.317739
488.448905	2596.108531
488.817104	2593.789600
489.185244	2595.301947
489.553326	2592.741040
489.921350	2596.564756
490.289315	2594.691967
490.657222	2597.048706
491.025070	2596.471494
491.392861	2599.370158
491.760593	2597.623398
492.128267	2596.733634
492.495883	2596.030393
492.863440	2595.662389
493.230939	2596.869745
493.598380	2596.940322
493.965763	2594.092070
494.333088	2595.034765
494.700354	2594.689446
495.067563	2593.237594
495.434713	2594.646597
495.801805	2597.288161
496.168839	2597.005857
496.535815	2599.045003
496.902733	2596.842019
497.269593	2596.721031
497.636395	2597.630960
498.003139	2595.914447
498.369825	2598.417380
498.736453	2597.623398
499.103023	2597.451999
499.469535	2598.024170
499.835989	2596.955445
500.202385	2597.565425
500.568723	2597.880497
500.935003	2598.372009
501.301226	2599.949890
501.667390	2598.440065
502.033497	2601.852926
502.399546	2597.600713
502.765537	2600.375868
503.131470	2600.764037
503.497345	2598.326639
503.863163	2601.424428
504.228923	2598.616505
504.594625	2599.342431
504.960269	2598.379571
505.325856	2600.522061
505.691385	2602.543564
506.056856	2598.533326
506.422270	2599.675147
506.787625	2600.446444
507.152924	2598.861001
507.518164	2598.175404
507.883347	2602.830910
508.248472	2600.925354
508.613540	2598.707246
508.978550	2604.028184
509.343503	2600.222113
509.708398	2602.087340
510.073236	2601.152206
510.438016	2601.946187
510.802738	2600.479212
511.167403	2604.693616
511.532010	2602.455344
511.896561	2599.849067
512.261053	2605.913575
512.625488	2599.100456
512.989866	2601.200097
513.354186	2601.190014
513.718449	2599.329828
514.082655	2600.542226
514.446803	2605.106991
514.810894	2606.553802
515.174927	2607.047835
515.538904	2604.751589
515.902822	2607.330140
516.266684	2604.237392
516.630488	2605.669079
516.994235	2606.284100
517.357925	2606.198401
517.721558	2608.108998
518.085133	2606.158071
518.448651	2606.705037
518.812112	2608.635798
519.175516	2607.907352
519.538863	2609.845675
519.902152	2607.728391
520.265385	2609.886005
520.628560	2612.136880
520.991678	2609.089502
521.354739	2610.773248
521.717743	2613.321551
522.080690	2613.780296
522.443580	2610.405243
522.806413	2612.880450
523.169189	2611.783999
523.531908	2613.790378
523.894569	2614.004627
524.257174	2613.588732
524.619722	2612.910697
524.982213	2616.653754
525.344647	2613.853393
525.707025	2613.949175
526.069345	2617.130143
526.431608	2615.509412
526.793815	2614.722992
527.155964	2618.511419
527.518057	2616.464710
527.880093	2613.606376
528.242072	2617.399844
528.603995	2618.029989
528.965860	2616.162241
529.327669	2616.575616
529.689421	2619.106275
530.051117	2617.031840
530.412755	2617.644340
530.774337	2616.875564
531.135862	2618.037550
531.497331	2615.867334
531.858743	2613.737446
532.220098	2616.066459
532.581396	2612.610748
532.942638	2615.141407
533.303824	2620.197685
533.664953	2618.521501
534.026025	2620.263220
534.387040	2619.774228
534.747999	2620.197685
535.108902	2620.608539
535.469748	2618.806326
535.830537	2620.384207
536.191270	2622.788838
536.551947	2620.545524
536.912567	2621.168107
537.273131	2619.300359
537.633638	2621.689866
537.994089	2618.987808
538.354483	2618.894547
538.714821	2621.140381
539.075103	2619.002931
539.435328	2622.017541
539.795497	2621.130298
540.155609	2622.090638
540.515665	2620.684156
540.875665	2623.600464
541.235609	2621.528549
541.595496	2624.764970
541.955328	2621.026955
542.315102	2620.658950
542.674821	2621.987294
543.034483	2622.002418
543.394090	2621.359671
543.753640	2624.767491
544.113134	2624.094497
544.472571	2618.516460
544.831953	2621.029475
545.191278	2621.364712
545.550548	2621.601646
545.909761	2623.171966
546.268918	2620.842952
546.628019	2621.531070
546.987064	2622.897223
547.346053	2621.014352
547.704986	2622.907305
548.063863	2621.841101
548.422684	2623.640793
548.781449	2623.270268
549.140158	2623.751698
549.498811	2625.107769
549.857408	2622.567027
550.215949	2620.525360
550.574434	2618.576954
550.932864	2619.406224
551.291237	2619.897736
551.649555	2626.131123
552.007817	2622.826647
552.366022	2623.779425
552.724173	2624.724641
553.082267	2624.432254
553.440305	2623.542490
553.798288	2622.453601
554.156215	2623.050978
554.514086	2624.233128
554.871902	2623.802110
555.229661	2624.142388
555.587365	2627.671195
555.945014	2627.154477
556.302606	2627.288068
556.660143	2627.671195
557.017625	2625.362347
557.375050	2624.691873
557.732421	2626.529374
558.089735	2625.659775
558.446994	2625.294291
558.804197	2625.508540
559.161345	2628.994498
559.518437	2627.330917
559.875474	2627.335959
560.232455	2627.852677
560.589381	2628.508027
560.946251	2630.844602
561.303065	2628.235805
561.659825	2630.849643
562.016528	2630.690847
562.373177	2626.315125
562.729770	2629.765795
563.086307	2630.799231
563.442789	2631.285703
563.799216	2633.095477
564.155587	2632.858543
564.511904	2633.266876
564.868164	2630.768984
565.224370	2631.326032
565.580520	2634.070940
565.936615	2633.433234
566.292654	2633.370220
566.648638	2636.641929
567.004567	2634.096146
567.360441	2635.842906
567.716260	2636.636887
568.072023	2634.514562
568.427732	2633.758389
568.783385	2635.550519
569.138982	2632.172946
569.494525	2632.563635
569.850013	2634.978348
570.205445	2638.489512
570.560823	2638.408853
570.916145	2637.272073
571.271412	2638.413894
571.626625	2641.909934
571.981782	2641.022691
572.336884	2641.655356
572.691931	2639.545633
573.046923	2642.083854
573.401860	2641.607465
573.756743	2643.331540
574.111570	2645.791623
574.466342	2643.550830
574.821059	2644.884215
575.175722	2648.256747
575.530330	2646.298259
575.884882	2648.869247
576.239380	2646.865389
576.593823	2650.101809
576.948211	2647.777837
577.302544	2647.825728
577.656823	2650.121974
578.011047	2651.268837
578.365216	2652.178765
578.719330	2651.011738
579.073389	2653.416368
579.427394	2652.879485
579.781344	2653.078611
580.135239	2656.945176
580.489080	2654.238076
580.842866	2656.967861
581.196597	2657.396359
581.550273	2657.872748
581.903895	2659.377532
582.257463	2663.445744
582.610975	2663.614622
582.964434	2665.696619
583.317837	2664.627894
583.671186	2666.999757
584.024481	2667.264418
584.377721	2668.219716
584.730906	2673.825479
585.084037	2672.247598
585.437113	2674.135510
585.790135	2678.851510
586.143103	2675.100891
586.496016	2678.508711
586.848874	2677.145079
587.201679	2680.285718
587.554428	2679.600121
587.907124	2682.997859
588.259765	2681.165399
588.612352	2688.580937
588.964884	2688.621266
589.317362	2691.542615
589.669786	2695.202492
590.022155	2695.832637
590.374470	2699.875642
590.726731	2700.014274
591.078937	2700.926722
591.431090	2701.642566
591.783188	2706.051055
592.135232	2705.297403
592.487222	2705.693133
592.839157	2711.558516
593.191038	2712.274360
593.542866	2716.400544
593.894639	2714.605893
594.246358	2721.746688
594.598022	2721.101420
594.949633	2722.512943
595.301190	2727.291957
595.652692	2726.492934
596.004141	2732.781774
596.355535	2732.161712
596.706876	2735.100704
597.058162	2735.967783
597.409395	2741.124883
597.760573	2743.408526
598.111698	2744.424318
598.462768	2750.032602
598.813785	2751.454207
599.164748	2751.842376
599.515657	2756.913777
599.866511	2759.290681
600.217312	2761.803696
600.568060	2764.294026
600.918753	2772.826179
601.269392	2776.022271
601.619978	2779.130142
601.970510	2780.781120
602.320988	2785.608025
602.671412	2793.210085
603.021783	2795.450878
603.372100	2795.891979
603.722363	2803.874646
604.072572	2806.959832
604.422728	2814.463589
604.772830	2812.318578
605.122878	2815.565082
605.472872	2823.847697
605.822813	2826.945486
606.172701	2832.468070
606.522534	2840.468382
606.872314	2848.531707
607.222041	2852.194105
607.571714	2858.427492
607.921333	2861.731968
608.270899	2869.087012
608.620411	2876.028681
608.969870	2883.794578
609.319276	2890.743809
609.668627	2897.529202
610.017926	2905.814338
610.367171	2913.292890
610.716362	2918.455032
611.065500	2927.433327
611.414585	2934.301899
611.763616	2943.751542
612.112594	2950.219342
612.461518	2960.770477
612.810389	2971.765233
613.159207	2975.266315
613.507971	2983.992552
613.856682	2996.300529
614.205340	3001.719770
614.553945	3018.758870
614.902496	3022.131402
615.250994	3035.619009
615.599439	3044.032694
615.947830	3056.920404
616.296169	3066.612023
616.644454	3077.949577
616.992686	3089.743357
617.340864	3107.362190
617.688990	3114.813015
618.037063	3136.147178
618.385082	3142.025163
618.733048	3162.333452
619.080961	3172.128414
619.428821	3181.850279
619.776628	3193.429809
620.124382	3204.482539
620.472083	3213.755742
620.819731	3229.002711
621.167326	3230.278123
621.514868	3238.936305
621.862357	3242.659197
622.209793	3252.544900
622.557176	3254.014396
622.904506	3258.478338
623.251783	3263.655603
623.599007	3266.007301
623.946179	3273.397633
624.293297	3282.774179
624.640363	3286.746608
624.987376	3294.961168
625.334336	3301.434010
625.681243	3301.507107
626.028097	3316.393634
626.374899	3322.813543
626.721647	3331.146571
627.068343	3341.932119
627.414987	3347.984024
627.761577	3356.516177
628.108115	3379.831514
628.454600	3378.377141
628.801032	3390.579254
629.147412	3407.235226
629.493739	3415.180085
629.840014	3425.348092
630.186236	3442.568673
630.532405	3445.048921
630.878521	3467.703867
631.224585	3479.046463
631.570597	3485.577277
631.916556	3507.032428
632.262462	3516.345960
632.608316	3530.191489
632.954117	3538.660628
633.299866	3551.865930
633.645562	3563.069894
633.991206	3565.819844
634.336797	3567.193558
634.682336	3576.865012
635.027823	3578.432811
635.373257	3588.195005
635.718639	3591.136518
636.063968	3598.108434
636.409245	3596.147425
636.754470	3606.839713
637.099642	3614.681227
637.444762	3610.388685
637.789829	3626.021303
638.134845	3628.557003
638.479808	3638.377171
638.824719	3649.014006
639.169577	3650.181033
639.514383	3665.556552
639.859137	3665.281809
640.203839	3687.432639
640.548489	3690.865665
640.893086	3702.672047
641.237632	3701.956203
641.582125	3716.331054
641.926566	3729.886716
642.270955	3748.337339
642.615292	3762.082045
642.959576	3772.426493
643.303809	3782.433183
643.647990	3804.936894
643.992118	3813.892504
644.336195	3826.029082
644.680219	3842.138089
645.024192	3869.418293
645.368112	3900.602871
645.711981	3915.441507
646.055797	3961.908343
646.399562	3977.293944
646.743274	4025.752036
647.086935	4063.364084
647.430544	4079.286569
647.774101	4103.340434
648.117606	4128.410093
648.461059	4157.242972
648.804460	4164.386287
649.147810	4147.798370
649.491108	4153.414216
649.834354	4153.777179
650.177548	4134.162049
650.520690	4126.454125
650.863781	4139.883759
651.206820	4152.458917
651.549807	4140.755878
651.892742	4135.959220
652.235626	4142.868122
652.578458	4147.016991
652.921238	4140.395436
653.263967	4161.462418
653.606644	4159.783713
653.949269	4172.865508
654.291843	4169.215712
654.634365	4199.863407
654.976836	4196.800906
655.319255	4211.400088
655.661622	4224.214701
656.003938	4229.311307
656.346203	4236.724324
656.688416	4259.361625
657.030577	4263.331534
657.372687	4270.283285
657.714746	4289.759783
658.056753	4313.755675
658.398708	4299.887461
658.740612	4315.068896
659.082465	4339.238708
659.424266	4344.922609
659.766016	4365.712328
660.107715	4375.701374
660.449362	4396.919590
660.790958	4414.011623
661.132503	4426.846400
661.473996	4437.339562
661.815438	4464.092965
662.156829	4494.100434
662.498168	4490.039784
662.839456	4504.810365
663.180693	4529.378428
663.521879	4549.056572
663.863013	4562.261875
664.204097	4574.469029
664.545129	4615.012509
664.886110	4631.575220
665.227040	4647.898476
665.567918	4670.833205
665.908746	4692.550496
666.249522	4715.512952
666.590248	4735.327207
666.930922	4753.553499
667.271545	4763.214870
667.612118	4791.314262
667.952639	4792.420795
668.293109	4813.757478
668.633528	4820.449610
668.973896	4830.453780
669.314213	4850.746945
669.654480	4844.201007
669.994695	4861.895457
670.334859	4869.497517
670.674973	4876.066140
671.015035	4902.627980
671.355047	4915.374537
671.695008	4930.074542
672.034918	4936.219708
672.374777	4951.670845
672.714585	4958.181495
673.054342	4985.504549
673.394049	4990.018902
673.733705	5020.749776
674.073310	5020.744735
674.412864	5040.715266
674.752368	5025.236403
675.091820	5064.438936
675.431223	5051.775557
675.770574	5041.365575
676.109875	5045.829516
676.449125	5038.035893
676.788324	5052.262029
677.127473	5024.021485
677.466571	5033.723185
677.805619	5024.999469
678.144616	5033.985325
678.483562	5041.940266
678.822458	5039.341551
679.161303	5048.022418
679.500098	5045.602664
679.838842	5050.918561
680.177535	5075.995781
680.516179	5107.361840
680.854771	5126.954285
681.193314	5204.474628
681.531805	5292.205828
681.870247	5369.799268
682.208638	5458.299245
682.546978	5509.182131
682.885268	5540.253283
683.223508	5520.978431
683.561697	5511.687584
683.899836	5512.161453
684.237925	5481.375126
684.575963	5486.413760
684.913951	5455.645077
685.251889	5478.897399
685.589776	5489.385520
685.927614	5494.524976
686.265401	5520.920458
686.603137	5533.208270
686.940824	5588.192135
687.278460	5627.190501
687.616046	5646.798069
687.953582	5713.482452
688.291068	5718.185849
688.628504	5759.256129
688.965889	5777.429489
689.303224	5763.992293
689.640510	5759.853506
689.977745	5714.692329
690.314930	5663.668291
690.652065	5640.831864
690.989150	5588.068627
691.326185	5521.971538
691.663170	5475.907995
692.000105	5422.933030
692.336990	5370.124423
692.673825	5341.372202
693.010610	5298.971057
693.347345	5258.707361
693.684030	5202.415317
694.020665	5186.041649
694.357251	5130.969564
694.693786	5139.685719
695.030272	5123.685096
695.366707	5075.607612
695.703093	5056.955343
696.039429	5064.907763
696.375716	5045.408580
696.711952	5050.003592
697.048139	5037.264596
697.384276	5028.868554
697.720363	5042.555287
698.056400	5037.080594
698.392388	5027.623389
698.728326	5038.356006
699.064214	5023.708933
699.400053	5037.012538
699.735842	5011.151419
700.071581	4990.689376
700.407270	4968.808247
700.742910	4964.283812
701.078501	4948.207572
701.414042	4928.244603
701.749533	4900.223349
702.084974	4876.451788
702.420366	4908.150564
702.755709	4876.313157
703.091002	4848.531358
703.426246	4856.408161
703.761440	4857.335733
704.096584	4833.044933
704.431679	4832.437474
704.766725	4830.715920
705.101721	4826.640147
705.436668	4846.618240
705.771565	4816.303261
706.106413	4863.478379
706.441212	4867.725551
706.775961	4890.834200
707.110661	4899.303339
707.445311	4950.024908
707.779913	4934.535963
708.114465	4966.227177
708.448967	5000.965768
708.783421	5083.880146
709.117825	5121.950939
709.452180	5151.746679
709.786485	5197.595973
710.120742	5289.707937
710.454949	5293.209018
710.789107	5352.661866
711.123216	5437.875010
711.457275	5457.830417
711.791286	5533.714906
712.125247	5552.021856
712.459159	5538.642634
712.793023	5637.769363
713.126837	5522.931878
713.460602	5570.719496
713.794318	5551.268204
714.127985	5526.836252
714.461602	5432.183547
714.795171	5449.787256
715.128691	5344.550649
715.462162	5287.668790
715.795584	5249.504735
716.128957	5230.429008
716.462281	5191.140776
716.795556	5168.891643
717.128782	5117.464312
717.461960	5052.347728
717.795088	5053.950815
718.128167	5006.611860
718.461198	4948.046255
718.794180	4936.007980
719.127113	4899.578082
719.459997	4881.828179
719.792833	4836.364533
720.125619	4841.549360
720.458357	4803.027382
720.791046	4786.999034
721.123686	4763.411475
721.456278	4735.274275
721.788821	4735.735540
722.121315	4708.777970
722.453761	4718.784661
722.786158	4712.218558
723.118506	4717.080751
723.450805	4704.087177
723.783056	4725.915373
724.115259	4713.730904
724.447412	4705.087846
724.779518	4744.587807
725.111574	4750.806070
725.443582	4785.675731
725.775542	4780.415287
726.107453	4853.935475
726.439315	4829.596784
726.771129	4892.764962
727.102895	4937.054019
727.434612	4977.857118
727.766281	4995.377649
728.097901	5044.780956
728.429473	5062.225869
728.760996	5071.945214
729.092471	5100.457980
729.423897	5092.908852
729.755276	5079.718673
730.086606	5094.393472
730.417887	5168.321993
730.749120	5247.788222
731.080305	5281.011946
731.411442	5345.889076
731.742530	5373.292788
732.073570	5400.013424
732.404562	5455.090550
732.735506	5451.937308
733.066401	5439.420123
733.397249	5394.702568
733.728048	5327.836704
734.058798	5217.037183
734.389501	5119.695023
734.720156	5051.780598
735.050762	4971.177590
735.381320	4916.387809
735.711831	4867.007187
736.042293	4811.229340
736.372707	4810.019463
736.703073	4771.444554
737.033391	4801.457063
737.363661	4790.689158
737.693883	4800.496723
738.024056	4820.434487
738.354182	4843.596068
738.684260	4887.265063
739.014290	4915.820679
739.344272	4941.021407
739.674207	4989.229962
740.004093	5016.237943
740.333931	5023.343450
740.663722	5039.540677
740.993464	5049.670876
741.323159	5039.432292
741.652806	5010.622098
741.982405	4987.851206
742.311956	4946.362510
742.641460	4941.623825
742.970915	4907.406993
743.300323	4856.201473
743.629683	4837.808823
743.958996	4795.803409
744.288260	4757.122636
744.617477	4709.897106
744.946647	4703.467115
745.275768	4659.903984
745.604842	4631.751660
745.933869	4606.697125
746.262847	4604.481538
746.591778	4596.398048
746.920662	4571.729162
747.249498	4575.288216
747.578286	4586.814815
747.907027	4611.748362
748.235720	4649.390657
748.564365	4657.378366
748.892963	4652.301924
749.221514	4670.155170
749.550017	4647.969052
749.878473	4642.156602
750.206881	4614.120224
750.535242	4605.063792
750.863555	4589.963015
751.191821	4577.188731
751.520039	4589.521914
751.848210	4569.364861
752.176334	4575.923402
752.504411	4557.056883
752.832440	4536.703225
753.160421	4546.379720
753.488356	4530.338768
753.816243	4515.492570
754.144082	4488.277901
754.471875	4477.124348
754.799620	4471.185869
755.127318	4465.244869
755.454969	4457.642809
755.782572	4459.840752
756.110129	4459.150114
756.437638	4444.684523
756.765100	4445.750727
757.092515	4448.472950
757.419882	4449.183753
757.747203	4451.913538
758.074477	4460.450732
758.401703	4452.195842
758.728882	4478.001509
759.056014	4491.239579
759.383099	4507.094008
759.710138	4534.028893
760.037129	4558.322213
760.364073	4567.459304
760.690970	4563.877565
761.017820	4573.579265
761.344623	4598.462401
761.671379	4658.862985
761.998088	4746.276593
762.324751	4958.579746
762.651366	5376.256986
762.977935	6000.356874
763.304456	6497.432287
763.630931	6785.289733
763.957359	6736.226703
764.283740	6471.399768
764.610074	6185.498290
764.936362	5824.057641
765.262602	5536.371594
765.588796	5219.230085
765.914943	4992.854551
766.241044	4788.891987
766.567097	4632.417092
766.893104	4493.866020
767.219064	4407.218668
767.544978	4314.287517
767.870845	4242.771188
768.196665	4201.748799
768.522438	4153.542765
768.848165	4120.160244
769.173846	4084.123556
769.499479	4055.646078
769.825066	4026.437632
770.150607	3984.248216
770.476101	3977.566167
770.801548	3954.260912
771.126949	3924.828136
771.452303	3909.480343
771.777611	3880.912124
772.102872	3873.504148
772.428087	3857.374977
772.753256	3831.090400
773.078378	3813.101043
773.403453	3784.305972
773.728482	3755.924276
774.053465	3745.234509
774.378401	3726.206674
774.703291	3706.909137
775.028135	3686.777289
775.352932	3679.460054
775.677683	3660.212929
776.002388	3643.251967
776.327046	3644.940753
776.651658	3623.684728
776.976224	3609.342646
777.300743	3606.517079
777.625216	3593.624328
777.949643	3588.356322
778.274024	3587.789192
778.598359	3570.563570
778.922647	3574.717480
779.246889	3562.049061
779.571086	3562.643917
779.895236	3565.819844
780.219339	3563.500913
780.543397	3561.562589
780.867409	3575.768561
781.191374	3579.660332
781.515294	3568.531985
781.839167	3586.231476
782.162995	3584.749377
782.486776	3577.106987
782.810511	3570.951738
783.134201	3558.459759
783.457844	3558.139646
783.781441	3550.842576
784.104993	3542.456616
784.428498	3541.672717
784.751958	3538.527037
785.075372	3533.611912
785.398739	3520.933410
785.722061	3530.846839
786.045337	3526.818957
786.368568	3553.887433
786.691752	3548.533727
787.014891	3595.970985
787.337983	3636.315339
787.661030	3718.085375
787.984031	3807.142399
788.306987	3882.144686
788.629897	3928.598919
788.952760	3935.248201
789.275579	3923.814864
789.598351	3878.240312
789.921078	3828.176613
790.243759	3772.683592
790.566395	3727.860173
790.888984	3679.402081
791.211529	3645.770023
791.534027	3605.264352
791.856480	3568.627767
792.178888	3553.189233
792.501249	3530.572096
792.823566	3501.104031
793.145836	3495.871314
793.468062	3487.742453
793.790241	3474.083447
794.112375	3477.430773
794.434464	3500.113445
794.756507	3498.366685
795.078505	3517.099612
795.400457	3553.617731
795.722364	3599.832509
796.044226	3644.103922
796.366042	3688.324923
796.687812	3686.316024
797.009538	3706.188252
797.331218	3699.513764
797.652852	3693.635779
797.974442	3674.134075
798.295986	3663.731654
798.617484	3637.656286
798.938938	3611.951443
799.260346	3599.666151
799.581709	3564.980492
799.903026	3553.743760
800.224299	3534.655431
800.545526	3502.623939
800.866708	3488.821260
801.187845	3476.218375
801.508936	3455.171558
801.829983	3445.764765
802.150984	3418.255188
802.471940	3410.539703
802.792851	3406.799166
803.113717	3398.365316
803.434538	3387.058008
803.755314	3376.340515
804.076045	3376.970659
804.396731	3364.942466
804.717372	3362.550438
805.037967	3363.898947
805.358518	3365.045810
805.679024	3376.411091
805.999485	3373.157026
806.319901	3376.098539
806.640272	3379.914693
806.960598	3393.218298
807.280879	3394.350037
807.601115	3402.110893
807.921306	3393.409862
808.241453	3394.707959
808.561554	3404.397057
808.881611	3401.392529
809.201623	3400.994278
809.521590	3392.966240
809.841513	3392.820047
810.161390	3402.146181
810.481223	3377.694065
810.801011	3380.617934
811.120755	3376.196842
811.440453	3366.240563
811.760107	3362.976416
812.079716	3352.478213
812.399281	3342.368179
812.718801	3342.499249
813.038276	3335.895338
813.357707	3331.101200
813.677093	3338.902386
813.996434	3322.899243
814.315731	3329.533401
814.634983	3329.072136
814.954191	3330.387877
815.273354	3347.447142
815.592473	3356.463245
815.911547	3373.300699
816.230577	3389.253430
816.549562	3414.865013
816.868502	3433.487035
817.187399	3453.006383
817.506250	3478.252481
817.825058	3489.090962
818.143821	3531.618136
818.462539	3577.444745
818.781213	3627.974750
819.099843	3709.901062
819.418429	3857.246427
819.736970	4003.956607
820.055466	4188.818239
820.373919	4414.014143
820.692327	4746.531171
821.010691	5248.874590
821.329011	6281.771725
821.647286	7925.606295
821.965517	9969.040527
822.283704	11484.970941
822.601847	12477.427940
822.919945	12136.822381
823.237999	11519.999399
823.556010	10676.619402
823.873976	9775.447617
824.191897	8853.317234
824.509775	8118.037220
824.827609	7348.610949
825.145398	6828.570560
825.463144	6467.520601
825.780845	6345.391087
826.098502	6413.262662
826.416116	6777.304546
826.733685	7255.805827
827.051210	7522.649224
827.368692	7446.447143
827.686129	7020.661206
828.003522	6488.375854
828.320872	5942.744047
828.638177	5500.133260
828.955439	5139.710924
829.272656	4814.259073
829.589830	4546.800656
829.906960	4288.202067
830.224046	4090.430039
830.541088	3923.038526
830.858086	3816.478616
831.175041	3716.860375
831.491952	3675.812780
831.808819	3655.875016
832.125642	3697.099052
832.442421	3798.426244
832.759157	4005.947863
833.075849	4371.776836
833.392497	4821.067152
833.709101	5196.786868
834.025662	5295.369152
834.342179	5180.496380
834.658653	4915.513169
834.975083	4653.514321
835.291469	4419.813991
835.607811	4196.735371
835.924110	4041.069582
836.240366	3890.240779
836.556578	3734.113724
836.872746	3602.320318
837.188871	3492.879389
837.504952	3398.337590
837.820990	3326.256651
838.136984	3275.051131
838.452935	3245.648601
838.768842	3231.089749
839.084706	3264.409255
839.400526	3397.946900
839.716303	3615.505456
840.032037	3821.537414
840.347727	3884.907238
840.663373	3795.759474
840.978977	3653.069614
841.294537	3524.275695
841.610054	3420.581681
841.925527	3344.835824
842.240957	3281.975156
842.556344	3223.822926
842.871687	3161.095848
843.186987	3101.867332
843.502244	3053.074004
843.817458	3015.328364
844.132629	2983.659836
844.447756	2962.630663
844.762840	2937.092177
845.077881	2921.409148
845.392879	2908.450862
845.707833	2898.950807
846.022745	2889.019734
846.337613	2883.640823
846.652438	2876.167313
846.967221	2871.647918
847.281960	2864.439068
847.596656	2860.943028
847.911309	2855.402800
848.225919	2850.850638
848.540485	2846.558095
848.855009	2841.287569
849.169490	2837.219358
849.483928	2836.876559
849.798323	2832.160560
850.112675	2829.334993
850.426984	2831.444716
850.741251	2828.977071
851.055474	2828.099911
851.369654	2828.818275
851.683792	2825.423058
851.997887	2826.053202
852.311938	2824.974395
852.625947	2826.610250
852.939914	2824.694611
853.253837	2827.343737
853.567718	2827.434478
853.881555	2824.568582
854.195350	2825.087821
854.509103	2825.012204
854.822812	2824.293839
855.136479	2826.073367
855.450103	2825.256700
855.763685	2821.432985
856.077224	2820.923828
856.390720	2822.756287
856.704173	2826.955569
857.017584	2826.010352
857.330953	2830.872545
857.644278	2832.067299
857.957561	2835.311281
858.270802	2834.287927
858.584000	2836.662310
858.897155	2835.119717
859.210268	2833.388081
859.523339	2829.032524
859.836367	2824.434992
860.149352	2826.252328
860.462295	2828.215857
860.775195	2820.586071
861.088054	2820.533139
861.400869	2820.124805
861.713642	2818.839311
862.026373	2819.766883
862.339062	2823.220074
862.651708	2826.118737
862.964312	2830.565035
863.276873	2833.188955
863.589392	2840.929647
863.901869	2845.721264
864.214303	2853.136801
864.526696	2855.884230
864.839045	2866.813452
865.151353	2874.050028
865.463619	2876.464741
865.775842	2877.334340
866.088023	2881.551265
866.400162	2883.300545
866.712258	2883.361039
867.024313	2884.994373
867.336325	2885.874054
867.648296	2887.338509
867.960224	2884.545710
868.272110	2889.155845
868.583954	2889.365053
868.895755	2891.338665
869.207515	2890.108623
869.519233	2897.080539
869.830909	2900.074985
870.142542	2903.576066
870.454134	2905.564801
870.765684	2910.568146
871.077191	2917.300607
871.388657	2917.625762
871.700081	2924.983326
872.011463	2935.859615
872.322803	2940.794905
872.634101	2945.057200
872.945357	2952.906277
873.256571	2962.434058
873.567744	2965.814151
873.878874	2970.646097
874.189963	2978.427118
874.501010	2979.589104
874.812015	2981.741677
875.122979	2990.039416
875.433900	2991.012359
875.744780	2995.219202
876.055618	3000.973679
876.366415	3003.436283
876.677169	3006.034997
876.987882	3015.308200
877.298554	3025.554345
877.609183	3034.731766
877.919771	3051.906977
878.230317	3076.356573
878.540822	3113.706482
878.851285	3160.256496
879.161707	3230.089080
879.472087	3333.180676
879.782425	3489.902588
880.092722	3761.898043
880.402977	4165.891071
880.713191	4698.728430
881.023363	5263.778762
881.333494	5680.374674
881.643583	5957.348270
881.953631	6029.363673
882.263637	5980.124203
882.573602	5843.516495
882.883526	5685.428431
883.193408	5487.984079
883.503248	5282.425990
883.813048	5074.543929
884.122806	4863.904356
884.432522	4626.849138
884.742197	4410.828134
885.051831	4208.745920
885.361424	4018.969163
885.670975	3856.795244
885.980485	3709.404508
886.289954	3595.615584
886.599382	3490.540293
886.908768	3413.433325
887.218113	3333.314267
887.527417	3275.885442
887.836680	3215.479816
888.145901	3170.588341
888.455082	3134.952425
888.764221	3102.956221
889.073319	3075.338260
889.382376	3053.515105
889.691392	3039.924154
890.000366	3031.959131
890.309300	3021.707945
890.618193	3021.100486
890.927044	3016.379445
891.235855	3017.044877
891.544625	3020.505629
891.853353	3026.698687
892.162041	3043.820966
892.470687	3065.162691
892.779293	3098.207454
893.087858	3143.756800
893.396381	3217.561813
893.704864	3321.893533
894.013306	3474.020432
894.321707	3656.845438
894.630068	3808.816062
894.938387	3882.598390
895.246665	3892.574833
895.554903	3835.057788
895.863100	3746.028491
896.171256	3674.857481
896.479371	3605.345011
896.787446	3530.188968
897.095480	3461.349492
897.403473	3407.290679
897.711425	3350.479396
898.019336	3303.372333
898.327207	3248.312851
898.635038	3206.350287
898.942827	3155.810199
899.250576	3112.037860
899.558284	3070.844071
899.865952	3046.434804
900.173579	3020.356915
900.481165	2997.444871
900.788711	2979.213538
901.096216	2968.138123
901.403681	2947.822273
901.711105	2946.496450
902.018489	2935.589913
902.325832	2949.899229
902.633135	2952.689507
902.940397	2993.492607
903.247619	3082.405958
903.554800	3252.131525
903.861941	3518.710261
904.169041	3775.912451
904.476101	3941.211886
904.783121	3966.548725
905.090100	3900.542377
905.397039	3793.546407
905.703938	3687.878781
906.010796	3587.917742
906.317614	3506.989578
906.624391	3427.397321
906.931129	3356.090200
907.237826	3287.391876
907.544483	3226.376270
907.851099	3156.006804
908.157675	3084.306473
908.464211	3015.275432
908.770707	2958.232256
909.077163	2913.126532
909.383578	2875.557333
909.689954	2845.998527
909.996289	2832.513441
910.302584	2816.016265
910.608839	2808.099133
910.915054	2799.831640
911.221229	2794.588840
911.527363	2798.352062
911.833458	2795.776032
912.139513	2801.918678
912.445527	2801.394398
912.751502	2811.136428
913.057436	2828.604026
913.363331	2846.331243
913.669186	2874.355018
913.975000	2912.138466
914.280775	2971.992085
914.586510	3050.467727
914.892205	3158.769356
915.197859	3300.057775
915.503475	3479.485043
915.809050	3649.228255
916.114585	3777.384468
916.420081	3847.189325
916.725536	3877.776526
917.030952	3841.959128
917.336328	3805.461174
917.641665	3758.195316
917.946961	3699.357489
918.252218	3640.633087
918.557435	3572.063313
918.862612	3505.734331
919.167750	3447.763583
919.472848	3375.118035
919.777906	3310.467758
920.082925	3241.885380
920.387904	3172.083043
920.692843	3116.060701
920.997743	3066.473391
921.302603	3020.125022
921.607423	2985.716627
921.912204	2950.746143
922.216946	2927.362750
922.521647	2902.101528
922.826310	2883.222407
923.130932	2863.821527
923.435516	2844.715554
923.740059	2829.032524
924.044564	2815.562561
924.349028	2805.749955
924.653454	2785.678601
924.957840	2778.928496
925.262186	2766.602875
925.566493	2756.071904
925.870761	2742.664956
926.174989	2740.651015
926.479178	2731.365209
926.783328	2724.620146
927.087438	2718.651419
927.391509	2714.721840
927.695541	2704.785726
927.999533	2702.771785
928.303486	2699.885724
928.607400	2693.264169
928.911275	2689.011955
929.215110	2685.868796
929.518906	2682.894515
929.822663	2682.733198
930.126381	2679.501819
930.430060	2684.089269
930.733699	2679.262364
931.037299	2682.985256
931.340861	2683.653209
931.644383	2683.915349
931.947866	2684.371573
932.251309	2683.925431
932.554714	2686.362829
932.858080	2685.473065
933.161407	2681.727488
933.464694	2680.994000
933.767943	2676.323371
934.071153	2679.557271
934.374323	2677.581139
934.677455	2674.553926
934.980548	2673.197856
935.283602	2673.175171
935.586617	2672.136693
935.889593	2674.657270
936.192530	2671.796415
936.495428	2677.439987
936.798287	2675.920079
937.101108	2684.732016
937.403890	2688.540607
937.706632	2698.086032
938.009336	2710.585573
938.312002	2718.669063
938.614628	2733.122052
938.917216	2738.742938
939.219765	2745.399782
939.522275	2755.285484
939.824747	2757.097779
940.127179	2752.328848
940.429573	2756.215577
940.731929	2758.678181
941.034246	2756.230701
941.336524	2756.301277
941.638763	2758.607605
941.940964	2756.946545
942.243126	2750.990421
942.545250	2746.750811
942.847335	2741.830645
943.149381	2734.407546
943.451389	2727.997719
943.753359	2722.636452
944.055290	2717.312993
944.357182	2714.056408
944.659036	2709.058104
944.960851	2708.569112
945.262628	2705.345294
945.564367	2704.621888
945.866067	2701.602237
946.167729	2698.905220
946.469352	2701.655169
946.770937	2700.462936
947.072484	2698.315405
947.373992	2696.228367
947.675462	2697.158460
947.976893	2694.285002
948.278286	2691.759384
948.579641	2690.988088
948.880958	2689.664785
949.182236	2690.252079
949.483476	2688.787624
949.784678	2688.253262
950.085841	2686.879547
950.386967	2689.221163
950.688054	2689.672347
950.989103	2692.976823
951.290114	2696.828264
951.591087	2699.726928
951.892021	2703.853112
952.192917	2709.484081
952.493776	2711.319061
952.794596	2714.618496
953.095378	2717.466748
953.396122	2718.008672
953.696828	2717.580174
953.997496	2716.856769
954.298126	2714.805019
954.598718	2712.188660
954.899272	2705.675489
955.199788	2702.406301
955.500266	2698.930426
955.800706	2688.749815
956.101108	2684.492561
956.401472	2678.239010
956.701798	2673.696930
957.002087	2664.905158
957.302337	2662.487924
957.602550	2659.574137
957.902724	2653.865031
958.202861	2646.673825
958.502960	2644.637199
958.803022	2638.310551
959.103045	2635.265694
959.403031	2632.276289
959.702979	2631.459622
960.002889	2624.873355
960.302762	2623.040896
960.602596	2620.306070
960.902393	2620.525360
961.202153	2615.464041
961.501875	2613.792899
961.801559	2616.436984
962.101205	2611.126128
962.400814	2612.222579
962.700385	2609.333998
962.999918	2607.756117
963.299414	2606.826024
963.598873	2606.490788
963.898293	2606.339553
964.197677	2604.570108
964.497022	2606.528596
964.796331	2605.101950
965.095601	2605.308637
965.394835	2606.016919
965.694030	2603.433328
965.993189	2601.038780
966.292309	2602.465426
966.591393	2601.646239
966.890439	2604.229830
967.189447	2604.832248
967.488419	2600.859819
967.787353	2602.788060
968.086249	2604.829727
968.385108	2601.134562
968.683930	2603.138420
968.982714	2603.995416
969.281462	2601.431990
969.580172	2605.477516
969.878844	2608.703854
970.177480	2607.420880
970.476078	2608.439193
970.774639	2609.863319
971.073162	2612.217538
971.371649	2607.604883
971.670098	2611.587394
971.968510	2611.612600
972.266885	2609.447424
972.565223	2616.424381
972.863524	2614.561675
973.161788	2617.097375
973.460014	2617.447735
973.758204	2621.432767
974.056356	2618.219032
974.354471	2620.548045
974.652550	2619.617952
974.950591	2621.281533
975.248595	2618.438322
975.546563	2621.452932
975.844493	2620.951337
976.142386	2617.684670
976.440243	2616.857920
976.738062	2616.016048
977.035845	2615.388424
977.333590	2615.385903
977.631299	2615.761469
977.928971	2615.494288
978.226606	2612.824997
978.524204	2608.766868
978.821765	2610.594287
979.119290	2611.380707
979.416777	2611.201746
979.714228	2612.036057
980.011642	2610.133021
980.309020	2615.325410
980.606360	2613.734926
980.903664	2615.330451
981.200931	2622.045268
981.498162	2628.243366
981.795356	2641.057979
982.092513	2655.518529
982.389633	2672.867660
982.686717	2689.800896
982.983764	2707.586087
983.280775	2718.180072
983.577749	2723.218705
983.874686	2727.173490
984.171587	2722.523026
984.468451	2716.531614
984.765279	2708.818649
985.062070	2702.403781
985.358824	2694.027903
985.655543	2687.754187
985.952224	2677.034174
986.248869	2662.939108
986.545478	2649.970739
986.842050	2638.136631
987.138586	2628.573562
987.435086	2618.062756
987.731549	2612.371293
988.027975	2610.017075
988.324366	2607.236878
988.620719	2601.154726
988.917037	2602.072216
989.213318	2597.147009
989.509563	2597.905702
989.805772	2599.428131
990.101944	2595.896803
990.398080	2595.304467
990.694180	2591.740371
990.990244	2595.732965
991.286271	2592.413365
991.582262	2594.172728
991.878217	2597.207503
992.174136	2596.655496
992.470019	2594.134919
992.765865	2596.163984
993.061676	2594.434868
993.357450	2598.326639
993.653188	2602.596496
993.948890	2601.530292
994.244556	2605.354007
994.540186	2610.813577
994.835780	2612.303238
995.131337	2623.613067
995.426859	2629.591875
995.722345	2633.425672
996.017795	2645.791623
996.313208	2652.904691
996.608586	2658.467604
996.903928	2665.439520
997.199234	2664.275013
997.494504	2666.677123
997.789738	2664.474139
998.084936	2659.901812
998.380099	2655.158087
998.675225	2651.447797
998.970316	2644.420429
999.265371	2638.499594
999.560390	2632.069602
999.855373	2624.094497
1000.150320	2617.871192
1000.445232	2616.502519
1000.740108	2610.858947
1001.034948	2609.371807
1001.329752	2603.463575
1001.624521	2597.469643
1001.919254	2593.008222
1002.213951	2592.730958
1002.508613	2591.437902
1002.803239	2590.641400
1003.097829	2585.630493
1003.392384	2589.749116
1003.686903	2588.932449
1003.981386	2588.635021
1004.275834	2588.418251
1004.570246	2588.256934
1004.864623	2589.121492
1005.158964	2586.903384
1005.453270	2584.670153
1005.747540	2585.025554
1006.041775	2585.633013
1006.335974	2585.199474
1006.630138	2583.389700
1006.924266	2586.888261
1007.218359	2582.948599
1007.512416	2585.194433
1007.806438	2581.279977
1008.100425	2581.584967
1008.394376	2584.201326
1008.688292	2581.922724
1008.982172	2584.496233
1009.276017	2583.740060
1009.569827	2582.701582
1009.863602	2582.063877
1010.157341	2584.256778
1010.451045	2583.566140
1010.744714	2583.349371
1011.038347	2582.537745
1011.331945	2582.560430
1011.625508	2581.774010
1011.919036	2583.220821
1012.212528	2583.654361
1012.505986	2581.519432
1012.799408	2581.680749
1013.092795	2581.375759
1013.386147	2581.731160
1013.679464	2580.337281
1013.972745	2581.912642
1014.265992	2580.659915
1014.559204	2582.338619
1014.852380	2580.682600
1015.145521	2582.318455
1015.438628	2581.158989
1015.731699	2581.708475
1016.024736	2583.790472
1016.317737	2580.901891
1016.610703	2583.432550
1016.903635	2580.755697
1017.196531	2576.775706
1017.489393	2580.924576
1017.782219	2579.152610
1018.075011	2580.206211
1018.367768	2582.101685
1018.660490	2583.777869
1018.953177	2583.777869
1019.245829	2583.777869
