Dividing Wavelength (nm)	Counts (n)	Blue Motor Position (mm): 15.000000	Red Motor Position (mm): 0.000000	
326.493990	2156.492189
326.888308	2156.492189
327.282561	2156.492189
327.676750	2135.183232
328.070874	2135.962090
328.464933	2139.390075
328.858929	2150.536066
329.252859	2158.186017
329.646726	2173.201094
330.040528	2187.313804
330.434265	2208.035467
330.827938	2227.363251
331.221547	2244.140211
331.615091	2265.418921
332.008571	2286.569082
332.401986	2306.504325
332.795338	2327.757830
333.188625	2347.292301
333.581847	2368.268542
333.975006	2384.828732
334.368100	2405.348749
334.761129	2421.465318
335.154095	2436.089705
335.546996	2458.996708
335.939833	2482.758187
336.332606	2500.119921
336.725315	2510.282887
337.117960	2517.209432
337.510540	2527.369878
337.903056	2539.055273
338.295508	2542.581560
338.687896	2548.003321
339.080220	2558.176369
339.472480	2562.967986
339.864676	2563.449416
340.256807	2568.568708
340.648875	2572.674727
341.040879	2573.388051
341.432818	2573.337639
341.824694	2575.059193
342.216506	2576.221179
342.608253	2576.831159
342.999937	2573.224213
343.391557	2575.608679
343.783113	2573.027608
344.174605	2573.347722
344.566033	2567.159705
344.957397	2566.867318
345.348697	2565.511248
345.739934	2564.712225
346.131106	2561.891699
346.522215	2562.355486
346.913260	2556.681667
347.304241	2558.501523
347.695159	2556.706873
348.086012	2555.214691
348.476802	2550.707900
348.867528	2551.743857
349.258191	2548.401572
349.648789	2549.349309
350.039324	2547.355532
350.429796	2548.610780
350.820203	2545.187836
351.210548	2546.367466
351.600828	2544.416540
351.991045	2542.563916
352.381198	2543.899821
352.771288	2540.905376
353.161314	2544.678680
353.551276	2543.272198
353.941175	2543.849410
354.331010	2540.668442
354.720782	2542.258926
355.110490	2541.205325
355.500135	2544.028371
355.889717	2544.867723
356.279235	2545.523073
356.668689	2544.436704
357.058080	2546.039791
357.447408	2542.987373
357.836672	2543.466282
358.225873	2542.659697
358.615010	2544.560212
359.004084	2546.480892
359.393095	2546.546427
359.782043	2547.703372
360.170927	2549.296377
360.559748	2549.404761
360.948505	2549.803012
361.337199	2550.100441
361.725830	2551.229659
362.114398	2551.537169
362.502903	2549.613969
362.891344	2552.540359
363.279722	2551.771583
363.668037	2551.123795
364.056289	2549.717313
364.444478	2552.868034
364.832603	2554.360216
365.220665	2554.035061
365.608665	2552.605894
365.996601	2555.814588
366.384474	2557.062274
366.772284	2555.106306
367.160031	2557.674774
367.547715	2555.174362
367.935336	2554.261913
368.322893	2556.134702
368.710388	2553.634289
369.097820	2559.403890
369.485189	2554.168652
369.872495	2555.504558
370.259738	2556.167469
370.646918	2556.112017
371.034035	2554.662685
371.421090	2556.676626
371.808081	2556.638817
372.195010	2557.551266
372.581875	2558.753581
372.968678	2558.357851
373.355418	2558.163766
373.742096	2561.831206
374.128710	2558.067984
374.515262	2560.747357
374.901751	2561.241391
375.288177	2562.272307
375.674540	2559.933211
376.060841	2560.707028
376.447079	2559.905485
376.833254	2561.306926
377.219367	2555.625545
377.605417	2556.243087
377.991404	2556.560679
378.377329	2559.696277
378.763191	2554.372818
379.148991	2562.622667
379.534727	2564.117369
379.920402	2562.983109
380.306013	2563.696432
380.691563	2562.816751
381.077049	2564.409756
381.462474	2564.984447
381.847835	2564.210630
382.233134	2565.581824
382.618371	2561.448078
383.003545	2562.965465
383.388657	2568.215827
383.773706	2567.197514
384.158693	2564.916392
384.543618	2568.412432
384.928480	2566.247256
385.313280	2562.506720
385.698017	2566.547205
386.082692	2567.850343
386.467305	2565.894376
386.851856	2567.129458
387.236344	2567.116855
387.620770	2568.702298
388.005133	2565.675085
388.389435	2568.014181
388.773674	2566.501835
389.157851	2566.053172
389.541965	2567.888152
389.926018	2569.070303
390.310008	2570.910324
390.693936	2568.949315
391.077802	2568.646846
391.461606	2573.246898
391.845348	2568.465364
392.229027	2571.389233
392.612645	2570.529717
392.996200	2568.946794
393.379694	2572.402505
393.763125	2572.737742
394.146494	2571.669017
394.529801	2570.519634
394.913047	2569.546692
395.296230	2571.903431
395.679351	2568.626681
396.062410	2572.112639
396.445408	2571.580797
396.828343	2573.478792
397.211217	2570.093657
397.594028	2568.982082
397.976778	2571.719429
398.359466	2570.698595
398.742092	2567.749520
399.124656	2574.716395
399.507158	2572.888977
399.889598	2570.769171
400.271977	2575.076837
400.654294	2574.723957
401.036549	2574.537434
401.418742	2573.370407
401.800874	2574.078689
402.182944	2574.078689
402.564952	2575.152455
402.946898	2574.711354
403.328783	2577.093299
403.710606	2574.585325
404.092367	2574.237485
404.474067	2575.767475
404.855705	2577.289904
405.237282	2576.808474
405.618797	2575.860737
406.000250	2574.550037
406.381642	2573.982907
406.762972	2578.419122
407.144240	2577.932651
407.525447	2577.811663
407.906593	2577.851993
408.287677	2576.342167
408.668700	2576.737897
409.049661	2577.597414
409.430560	2578.663618
409.811399	2579.727302
410.192176	2578.540110
410.572891	2580.455748
410.953545	2579.646643
411.334138	2581.738722
411.714669	2577.652867
412.095139	2579.550861
412.475547	2579.124884
412.855894	2579.089596
413.236180	2576.445511
413.616405	2579.860892
413.996568	2579.717219
414.376670	2579.450038
414.756711	2581.592529
415.136691	2580.765779
415.516609	2580.642271
415.896466	2580.720409
416.276262	2581.905080
416.655997	2576.344687
417.035670	2575.873340
417.415283	2578.119174
417.794834	2573.899728
418.174324	2575.843093
418.553753	2581.312745
418.933121	2582.948599
419.312428	2582.401634
419.691674	2580.412899
420.070859	2583.258630
420.449983	2580.072621
420.829045	2581.637899
421.208047	2584.302149
421.586988	2582.194947
421.965867	2580.233938
422.344686	2578.164544
422.723444	2584.024885
423.102141	2582.257961
423.480777	2584.639906
423.859352	2582.782241
424.237866	2583.702252
424.616319	2581.756366
424.994712	2586.023703
425.373044	2584.471028
425.751314	2586.520257
426.129524	2582.699062
426.507673	2584.791141
426.885762	2581.305183
427.263789	2582.825091
427.641756	2583.959350
428.019662	2583.049422
428.397508	2584.965061
428.775292	2586.358940
429.153016	2582.215111
429.530679	2584.367684
429.908282	2585.481779
430.285824	2587.142839
430.663305	2584.279464
431.040726	2584.231573
431.418086	2583.800554
431.795385	2586.230390
432.172624	2585.569999
432.549802	2586.275761
432.926920	2585.179310
433.303977	2586.999166
433.680974	2584.481110
434.057910	2585.123857
434.434786	2586.492530
434.811601	2587.450349
435.188355	2585.509505
435.565050	2586.323652
435.941683	2586.731985
436.318257	2583.742581
436.694770	2584.224011
437.071222	2580.692683
437.447614	2582.510019
437.823946	2582.061356
438.200218	2587.911615
438.576429	2586.295925
438.952580	2587.011769
439.328670	2585.764083
439.704700	2589.469332
440.080670	2587.679722
440.456580	2587.299115
440.832429	2588.940010
441.208218	2587.722572
441.583947	2589.401276
441.959616	2589.459249
442.335224	2587.094948
442.710773	2588.357757
443.086261	2587.936821
443.461689	2587.929259
443.837057	2588.569486
444.212365	2588.942531
444.587612	2589.149218
444.962800	2589.129054
445.337927	2589.232397
445.712995	2586.976481
446.088002	2588.415730
446.462949	2591.616863
446.837837	2590.835484
447.212664	2588.657706
447.587431	2587.503282
447.962139	2592.259610
448.336786	2593.953438
448.711374	2589.673498
449.085901	2591.566452
449.460369	2590.142326
449.834776	2588.587130
450.209124	2589.912953
450.583412	2592.320104
450.957640	2590.744743
451.331808	2589.287850
451.705917	2591.689960
452.079965	2590.517892
452.453954	2588.846749
452.827883	2591.082501
453.201752	2591.662233
453.575562	2591.952100
453.949311	2591.798345
454.323001	2592.032758
454.696632	2590.175093
455.070202	2593.051071
455.443713	2591.924373
455.817164	2589.045875
456.190556	2589.330700
456.563888	2589.209712
456.937160	2588.776173
457.310373	2595.475866
457.683526	2592.776328
458.056619	2593.303129
458.429653	2590.971595
458.802628	2592.131061
459.175542	2591.505958
459.548398	2593.043510
459.921194	2594.162646
460.293930	2593.119127
460.666607	2593.892944
461.039224	2597.169694
461.411782	2593.275403
461.784280	2594.646597
462.156719	2594.112234
462.529099	2594.215578
462.901419	2594.119796
463.273680	2592.052923
463.645882	2596.247163
464.018024	2594.570979
464.390106	2593.976123
464.762130	2596.998295
465.134094	2594.260948
465.505999	2597.257914
465.877845	2596.075764
466.249631	2594.707090
466.621358	2596.957966
466.993026	2597.323449
467.364634	2602.034407
467.736184	2594.757502
468.107674	2594.913778
468.479105	2595.811103
468.850477	2596.398397
469.221790	2598.707246
469.593043	2597.797318
469.964238	2596.675661
470.335373	2593.051071
470.706449	2594.956628
471.077467	2596.272369
471.448425	2597.134406
471.819324	2598.482915
472.190164	2596.670620
472.560945	2597.930908
472.931667	2598.513162
473.302330	2599.236567
473.672934	2599.173553
474.043479	2595.301947
474.413965	2599.196238
474.784393	2594.074426
475.154761	2594.896134
475.525070	2596.509303
475.895321	2593.242635
476.265513	2592.730958
476.635645	2598.737493
477.005719	2597.109200
477.375734	2597.754468
477.745691	2597.731783
478.115588	2596.884869
478.485427	2603.216558
478.855207	2600.209510
479.224928	2599.909561
479.594591	2600.479212
479.964194	2602.987186
480.333739	2601.739500
480.703226	2601.976434
481.072653	2601.164808
481.442022	2602.969542
481.811333	2601.681527
482.180584	2599.808738
482.549777	2601.195055
482.918912	2601.868049
483.287988	2603.975252
483.657005	2601.568101
484.025964	2604.970880
484.394864	2602.261259
484.763706	2603.776126
485.132489	2603.307299
485.501213	2604.549943
485.869879	2604.686054
486.238487	2601.626074
486.607036	2601.046341
486.975527	2606.248812
487.343959	2604.446600
487.712333	2604.779316
488.080648	2606.795777
488.448905	2605.343925
488.817104	2603.796291
489.185244	2607.816611
489.553326	2602.117587
489.921350	2607.811570
490.289315	2606.684872
490.657222	2610.188474
491.025070	2611.428598
491.392861	2610.992538
491.760593	2609.684358
492.128267	2610.932044
492.495883	2609.432301
492.863440	2610.717795
493.230939	2607.173864
493.598380	2609.911210
493.965763	2603.854264
494.333088	2607.025150
494.700354	2606.957094
495.067563	2607.214193
495.434713	2607.221755
495.801805	2611.284925
496.168839	2613.921448
496.535815	2611.660491
496.902733	2612.945985
497.269593	2614.687704
497.636395	2611.645367
498.003139	2613.865996
498.369825	2615.343054
498.736453	2615.199381
499.103023	2613.064452
499.469535	2613.417333
499.835989	2614.508743
500.202385	2615.625358
500.568723	2615.806840
500.935003	2615.995883
501.301226	2616.593260
501.667390	2615.753908
502.033497	2618.110647
502.399546	2617.944289
502.765537	2620.754732
503.131470	2619.955709
503.497345	2619.761625
503.863163	2618.715586
504.228923	2619.466717
504.594625	2618.826491
504.960269	2617.898919
505.325856	2618.098044
505.691385	2620.326234
506.056856	2621.659619
506.422270	2619.993518
506.787625	2622.030144
507.152924	2623.487038
507.518164	2620.472428
507.883347	2622.922428
508.248472	2621.273971
508.613540	2619.267592
508.978550	2625.261524
509.343503	2624.888478
509.708398	2625.798407
510.073236	2624.638941
510.438016	2626.234467
510.802738	2625.760598
511.167403	2627.293109
511.532010	2626.776391
511.896561	2627.290588
512.261053	2628.709673
512.625488	2627.018366
512.989866	2627.126751
513.354186	2625.581637
513.718449	2623.655916
514.082655	2626.829323
514.446803	2629.637245
514.810894	2633.745786
515.174927	2634.837196
515.538904	2633.897020
515.902822	2633.866773
516.266684	2633.755868
516.630488	2637.793832
516.994235	2632.908954
517.357925	2636.160498
517.721558	2638.925571
518.085133	2636.818369
518.448651	2636.775519
518.812112	2638.875160
519.175516	2640.044708
519.538863	2638.759213
519.902152	2640.316930
520.265385	2640.637043
520.628560	2643.268525
520.991678	2643.250881
521.354739	2643.578556
521.717743	2643.172743
522.080690	2645.773979
522.443580	2644.808598
522.806413	2644.259112
523.169189	2648.266829
523.531908	2646.656181
523.894569	2649.176758
524.257174	2647.984525
524.619722	2648.733136
524.982213	2651.238590
525.344647	2649.600215
525.707025	2653.192037
526.069345	2651.528456
526.431608	2653.406286
526.793815	2655.644558
527.155964	2655.775628
527.518057	2655.299239
527.880093	2656.627583
528.242072	2655.430309
528.603995	2660.789056
528.965860	2660.479025
529.327669	2663.425579
529.689421	2662.117400
530.051117	2663.622184
530.412755	2663.050013
530.774337	2666.929181
531.135862	2666.813234
531.497331	2664.484221
531.858743	2667.448420
532.220098	2666.316681
532.581396	2667.511434
532.942638	2669.210303
533.303824	2673.190294
533.664953	2675.242044
534.026025	2678.155831
534.387040	2679.287570
534.747999	2677.223217
535.108902	2681.629186
535.469748	2682.108095
535.830537	2683.859896
536.191270	2685.173117
536.551947	2689.783252
536.912567	2689.793334
537.273131	2693.916998
537.633638	2692.850794
537.994089	2697.453367
538.354483	2696.656865
538.714821	2701.385467
539.075103	2706.892928
539.435328	2706.224975
539.795497	2708.344780
540.155609	2712.959957
540.515665	2714.588249
540.875665	2717.098744
541.235609	2719.810885
541.595496	2725.199878
541.955328	2729.641135
542.315102	2728.758933
542.674821	2734.568863
543.034483	2737.371744
543.394090	2740.051117
543.753640	2742.853999
544.113134	2752.091913
544.472571	2752.391862
544.831953	2758.852101
545.191278	2763.331166
545.550548	2765.841661
545.909761	2773.509256
546.268918	2778.747014
546.628019	2785.045936
546.987064	2788.617594
547.346053	2790.092131
547.704986	2802.561425
548.063863	2804.628298
548.422684	2811.053249
548.781449	2820.018941
549.140158	2827.326093
549.498811	2830.582679
549.857408	2832.952021
550.215949	2844.168588
550.574434	2850.946420
550.932864	2854.661750
551.291237	2866.682382
551.649555	2876.868033
552.007817	2882.461193
552.366022	2888.949158
552.724173	2902.189749
553.082267	2911.888929
553.440305	2924.448963
553.798288	2928.716300
554.156215	2941.815738
554.514086	2953.554065
554.871902	2959.888275
555.229661	2973.713639
555.587365	2982.460041
555.945014	2990.765342
556.302606	3004.835203
556.660143	3015.416585
557.017625	3031.848226
557.375050	3041.796943
557.732421	3060.421486
558.089735	3070.783577
558.446994	3083.464600
558.804197	3102.610902
559.161345	3114.611369
559.518437	3120.595218
559.875474	3140.318733
560.232455	3154.905312
560.589381	3169.932991
560.946251	3182.850948
561.303065	3209.062427
561.659825	3222.653378
562.016528	3234.114441
562.373177	3247.533993
562.729770	3268.863115
563.086307	3280.856020
563.442789	3305.207313
563.799216	3326.717917
564.155587	3340.245853
564.511904	3359.992053
564.868164	3379.375289
565.224370	3406.978127
565.580520	3424.024789
565.936615	3447.844241
566.292654	3466.214206
566.648638	3490.721775
567.004567	3512.544930
567.360441	3535.106614
567.716260	3556.881878
568.072023	3590.934872
568.427732	3607.328705
568.783385	3622.689100
569.138982	3658.829132
569.494525	3680.652287
569.850013	3701.391594
570.205445	3728.782704
570.560823	3759.468207
570.916145	3779.257257
571.271412	3810.827482
571.626625	3833.895802
571.981782	3861.538970
572.336884	3878.968759
572.691931	3916.585849
573.046923	3937.799024
573.401860	3964.191985
573.756743	3990.169051
574.111570	4025.651212
574.466342	4051.356056
574.821059	4085.963577
575.175722	4100.968572
575.530330	4133.519302
575.884882	4155.992766
576.239380	4184.986962
576.593823	4217.252867
576.948211	4248.835696
577.302544	4262.386318
577.656823	4299.025424
578.011047	4343.480839
578.365216	4368.172411
578.719330	4393.526894
579.073389	4422.775668
579.427394	4460.589363
579.781344	4493.745032
580.135239	4518.038353
580.489080	4551.773754
580.842866	4568.069284
581.196597	4621.218169
581.550273	4659.162934
581.903895	4687.784085
582.257463	4741.797528
582.610975	4754.062655
582.964434	4807.851767
583.317837	4828.394469
583.671186	4858.485116
584.024481	4905.887086
584.377721	4921.542389
584.730906	4970.839832
585.084037	5016.938664
585.437113	5036.778125
585.790135	5080.139609
586.143103	5098.917907
586.496016	5142.949866
586.848874	5175.664434
587.201679	5217.218665
587.554428	5228.624275
587.907124	5278.768633
588.259765	5302.673784
588.612352	5368.181058
588.964884	5367.137539
589.317362	5422.771713
589.669786	5457.747238
590.022155	5488.601620
590.374470	5559.097116
590.726731	5562.315892
591.078937	5570.590947
591.431090	5616.581393
591.783188	5635.762983
592.135232	5651.307381
592.487222	5711.382812
592.839157	5753.882259
593.191038	5773.220125
593.542866	5798.619979
593.894639	5786.075068
594.246358	5846.463050
594.598022	5888.889400
594.949633	5900.423560
595.301190	5931.850113
595.652692	5953.695954
596.004141	6025.865112
596.355535	5983.317774
596.706876	6015.818093
597.058162	6042.516043
597.409395	6119.733917
597.760573	6170.984808
598.111698	6163.120608
598.462768	6205.741043
598.813785	6253.899186
599.164748	6240.802268
599.515657	6312.474873
599.866511	6305.830632
600.217312	6392.528396
600.568060	6334.184602
600.918753	6443.590243
601.269392	6484.224464
601.619978	6480.080635
601.970510	6538.230345
602.320988	6593.761175
602.671412	6666.033677
603.021783	6663.371948
603.372100	6673.577764
603.722363	6722.013170
604.072572	6761.077071
604.422728	6809.948537
604.772830	6825.545867
605.122878	6861.522062
605.472872	6887.557101
605.822813	6952.255269
606.172701	6974.562375
606.522534	7037.710389
606.872314	7105.171109
607.222041	7107.237982
607.571714	7183.419899
607.921333	7155.018039
608.270899	7220.900878
608.620411	7293.808566
608.969870	7305.133518
609.319276	7328.673186
609.668627	7379.011628
610.017926	7462.674617
610.367171	7519.390118
610.716362	7549.672329
611.065500	7577.151659
611.414585	7623.169832
611.763616	7698.877880
612.112594	7718.104841
612.461518	7763.434896
612.810389	7831.462747
613.159207	7837.229827
613.507971	7871.499591
613.856682	7966.376627
614.205340	7977.935992
614.553945	8094.053930
614.902496	8057.117396
615.250994	8131.708829
615.599439	8161.854929
615.947830	8222.404228
616.296169	8231.289261
616.644454	8281.173999
616.992686	8330.877256
617.340864	8415.387159
617.688990	8375.115901
618.037063	8497.197524
618.385082	8508.078854
618.733048	8564.388543
619.080961	8592.185465
619.428821	8617.638251
619.776628	8656.505547
620.124382	8653.826174
620.472083	8699.627577
620.819731	8753.996421
621.167326	8731.769974
621.514868	8751.677491
621.862357	8720.094662
622.209793	8748.007531
622.557176	8736.743072
622.904506	8725.700425
623.251783	8705.555974
623.599007	8692.796814
623.946179	8684.967902
624.293297	8702.710243
624.640363	8638.866550
624.987376	8663.994181
625.334336	8646.279567
625.681243	8618.686811
626.028097	8611.853527
626.374899	8617.532387
626.721647	8629.232905
627.068343	8625.938511
627.414987	8608.188608
627.761577	8580.676511
628.108115	8647.988518
628.454600	8577.457734
628.801032	8611.921582
629.147412	8622.147563
629.493739	8625.414231
629.840014	8588.684384
630.186236	8641.215727
630.532405	8589.455680
630.878521	8645.281418
631.224585	8629.908419
631.570597	8594.401052
631.916556	8615.132798
632.262462	8627.531515
632.608316	8625.275599
632.954117	8634.342114
633.299866	8635.597362
633.645562	8640.356211
633.991206	8583.388652
634.336797	8526.244652
634.682336	8541.973052
635.027823	8519.497068
635.373257	8507.743618
635.718639	8474.976118
636.063968	8471.538051
636.409245	8393.823623
636.754470	8402.161692
637.099642	8382.410451
637.444762	8315.320255
637.789829	8336.024274
638.134845	8292.420813
638.479808	8290.147253
638.824719	8286.194988
639.169577	8227.768015
639.514383	8243.040191
639.859137	8196.943880
640.203839	8247.708299
640.548489	8195.512192
640.893086	8213.057928
641.237632	8169.187287
641.582125	8192.845422
641.926566	8194.945063
642.270955	8194.612347
642.615292	8207.986528
642.959576	8192.812655
643.303809	8206.272535
643.647990	8235.695230
643.992118	8225.378508
644.336195	8213.662867
644.680219	8221.935400
645.024192	8264.510465
645.368112	8345.158844
645.711981	8330.869694
646.055797	8460.626473
646.399562	8437.134696
646.743274	8584.868230
647.086935	8653.097727
647.430544	8642.934761
647.774101	8669.693206
648.117606	8702.170839
648.461059	8777.619268
648.804460	8729.357782
649.147810	8631.443451
649.491108	8615.573898
649.834354	8571.562105
650.177548	8453.417623
650.520690	8375.221765
650.863781	8383.443887
651.206820	8370.994758
651.549807	8299.760733
651.892742	8226.603509
652.235626	8197.337090
652.578458	8167.891711
652.921238	8085.317611
653.263967	8128.260680
653.606644	8073.962412
653.949269	8058.894403
654.291843	7994.135740
654.634365	8063.456647
654.976836	8006.244592
655.319255	7996.608426
655.661622	7993.573652
656.003938	7965.189435
656.346203	7938.841844
656.688416	7978.200653
657.030577	7940.248326
657.372687	7918.082373
657.714746	7960.725493
658.056753	7978.714851
658.398708	7899.707367
658.740612	7897.648056
659.082465	7939.807225
659.424266	7902.966473
659.766016	7922.374915
660.107715	7905.338336
660.449362	7923.794000
660.790958	7923.405831
661.132503	7919.756036
661.473996	7923.693177
661.815438	7938.879653
662.156829	7969.907955
662.498168	7929.452695
662.839456	7930.523941
663.180693	7962.626008
663.521879	7981.179975
663.863013	7966.076678
664.204097	7966.840413
664.545129	8046.248668
664.886110	8042.072072
665.227040	8052.368629
665.567918	8069.730363
665.908746	8084.342147
666.249522	8105.875436
666.590248	8109.038760
666.930922	8121.351778
667.271545	8117.346582
667.612118	8135.492215
667.952639	8100.118438
668.293109	8114.868854
668.633528	8092.639887
668.973896	8085.037827
669.314213	8091.301460
669.654480	8056.315852
669.994695	8057.566059
670.334859	8032.138479
670.674973	8018.461828
671.015035	8046.170530
671.355047	8048.330665
671.695008	8025.557252
672.034918	8006.287442
672.374777	8008.034202
672.714585	7992.391501
673.054342	8023.258486
673.394049	7990.390163
673.733705	8030.386678
674.073310	7988.542580
674.412864	8005.138059
674.752368	7947.366436
675.091820	8000.495156
675.431223	7926.675020
675.770574	7886.030717
676.109875	7857.709514
676.449125	7816.750139
676.788324	7807.113974
677.127473	7726.417704
677.466571	7715.044861
677.805619	7661.979155
678.144616	7669.435021
678.483562	7645.905436
678.822458	7603.910103
679.161303	7587.266734
679.500098	7566.890390
679.838842	7551.282978
680.177535	7566.948363
680.516179	7596.950791
680.854771	7621.352496
681.193314	7734.128148
681.531805	7896.032366
681.870247	8015.331272
682.208638	8158.363930
682.546978	8237.492401
682.885268	8271.941126
683.223508	8207.623565
683.561697	8150.623238
683.899836	8114.616797
684.237925	8030.086729
684.575963	8006.930189
684.913951	7931.680885
685.251889	7948.795603
685.589776	7939.103984
685.927614	7926.276768
686.265401	7948.220911
686.603137	7963.669527
686.940824	8030.532871
687.278460	8080.977177
687.616046	8084.909277
687.953582	8205.062658
688.291068	8181.517949
688.628504	8239.342505
688.965889	8245.759893
689.303224	8199.046041
689.640510	8163.334507
689.977745	8056.583034
690.314930	7942.942823
690.652065	7872.994293
690.989150	7755.195130
691.326185	7608.694158
691.663170	7496.843558
692.000105	7379.886268
692.336990	7270.667149
692.673825	7200.796757
693.010610	7106.007941
693.347345	7011.236769
693.684030	6905.145687
694.020665	6854.482090
694.357251	6746.737509
694.693786	6733.280149
695.030272	6692.968562
695.366707	6602.071517
695.703093	6546.467590
696.039429	6550.361882
696.375716	6502.912021
696.711952	6486.291337
697.048139	6460.432738
697.384276	6429.217914
697.720363	6450.305060
698.056400	6424.880001
698.392388	6389.412963
698.728326	6391.527727
699.064214	6369.402103
699.400053	6367.597370
699.735842	6307.025386
700.071581	6260.034270
700.407270	6222.959104
700.742910	6190.115987
701.078501	6152.514020
701.414042	6107.713286
701.749533	6051.960645
702.084974	5998.577346
702.420366	6034.240989
702.755709	5961.305575
703.091002	5914.148102
703.426246	5917.409728
703.761440	5902.898767
704.096584	5861.767993
704.431679	5853.833217
704.766725	5833.378735
705.101721	5821.224513
705.436668	5838.697152
705.771565	5786.513648
706.106413	5839.342420
706.441212	5839.274364
706.775961	5854.677610
707.110661	5860.661459
707.445311	5916.363689
707.779913	5885.428648
708.114465	5927.933137
708.448967	5972.166741
708.783421	6085.438948
709.117825	6128.639116
709.452180	6163.198746
709.786485	6216.798814
710.120742	6354.656728
710.454949	6359.208890
710.789107	6437.833246
711.123216	6553.610905
711.457275	6585.957469
711.791286	6692.351021
712.125247	6712.167797
712.459159	6677.167066
712.793023	6808.801675
713.126837	6643.209853
713.460602	6694.133069
713.794318	6658.696278
714.127985	6605.713751
714.461602	6453.927129
714.795171	6460.551205
715.128691	6296.012985
715.462162	6210.527619
715.795584	6134.214632
716.128957	6092.705771
716.462281	6029.086409
716.795556	5991.681048
717.128782	5906.470424
717.461960	5807.643644
717.795088	5795.315503
718.128167	5729.588939
718.461198	5647.009798
718.794180	5624.967352
719.127113	5569.088683
719.459997	5536.515267
719.792833	5471.779290
720.125619	5461.898628
720.458357	5408.921143
720.791046	5380.194127
721.123686	5353.947360
721.456278	5308.944980
721.788821	5298.086334
722.121315	5256.030508
722.453761	5266.178351
722.786158	5254.140076
723.118506	5253.555302
723.450805	5229.645109
723.783056	5258.780458
724.115259	5232.672322
724.447412	5220.629005
724.779518	5265.601139
725.111574	5267.736067
725.443582	5307.571265
725.775542	5304.682684
726.107453	5387.433224
726.439315	5354.980797
726.771129	5429.365542
727.102895	5488.755376
727.434612	5536.386718
727.766281	5559.633999
728.097901	5615.560559
728.429473	5632.082941
728.760996	5640.829343
729.092471	5668.850597
729.423897	5649.905941
729.755276	5621.569615
730.086606	5636.476307
730.417887	5719.572166
730.749120	5813.897196
731.080305	5854.269276
731.411442	5929.982366
731.742530	5955.203259
732.073570	5976.146732
732.404562	6037.984046
732.735506	6032.842069
733.066401	6011.689387
733.397249	5944.226146
733.728048	5848.582855
734.058798	5704.478952
734.389501	5583.990333
734.720156	5501.335575
735.050762	5390.465478
735.381320	5313.789528
735.711831	5259.072845
736.042293	5182.505279
736.372707	5176.619732
736.703073	5134.634483
737.033391	5161.639944
737.363661	5151.227440
737.693883	5160.450231
738.024056	5184.995609
738.354182	5212.245567
738.684260	5262.281539
739.014290	5296.631961
739.344272	5332.545141
739.674207	5387.294593
740.004093	5416.371968
740.333931	5424.480664
740.663722	5440.088076
740.993464	5457.653977
741.323159	5437.597746
741.652806	5392.129059
741.982405	5363.497826
742.311956	5309.035720
742.641460	5296.931910
742.970915	5243.243622
743.300323	5186.931413
743.629683	5147.396163
743.958996	5100.082414
744.288260	5050.157347
744.617477	4993.192308
744.946647	4978.537674
745.275768	4924.930044
745.604842	4892.601125
745.933869	4858.704406
746.262847	4851.601420
746.591778	4841.249411
746.920662	4816.008354
747.249498	4814.284279
747.578286	4827.938244
747.907027	4848.911965
748.235720	4895.086413
748.564365	4906.081170
748.892963	4887.522162
749.221514	4909.909926
749.550017	4882.264239
749.878473	4877.840626
750.206881	4842.146736
750.535242	4827.658460
750.863555	4816.716636
751.191821	4792.264519
751.520039	4801.434378
751.848210	4783.152633
752.176334	4789.360814
752.504411	4773.715593
752.832440	4743.372888
753.160421	4750.188528
753.488356	4730.059201
753.816243	4714.882807
754.144082	4682.271583
754.471875	4670.092156
754.799620	4661.960774
755.127318	4653.831914
755.454969	4646.292868
755.782572	4641.854132
756.110129	4642.196931
756.437638	4627.050784
756.765100	4621.389568
757.092515	4623.955516
757.419882	4626.150938
757.747203	4624.623468
758.074477	4635.028410
758.401703	4627.375938
758.728882	4661.665867
759.056014	4672.237167
759.383099	4690.460938
759.710138	4719.258529
760.037129	4740.983382
760.364073	4755.025516
760.690970	4751.519393
761.017820	4751.249691
761.344623	4783.447541
761.671379	4848.276779
761.998088	4933.741981
762.324751	5163.394265
762.651366	5627.379545
762.977935	6313.755326
763.304456	6864.236723
763.630931	7167.920872
763.957359	7100.402178
764.283740	6807.682539
764.610074	6490.856102
764.936362	6092.322643
765.262602	5773.812461
765.588796	5431.359318
765.914943	5179.861194
766.241044	4962.436229
766.567097	4788.032470
766.893104	4639.653669
767.219064	4542.654307
767.544978	4448.619144
767.870845	4364.134446
768.196665	4316.288855
768.522438	4264.533849
768.848165	4224.489444
769.173846	4186.509391
769.499479	4156.451511
769.825066	4119.855254
770.150607	4083.881581
770.476101	4063.505237
770.801548	4042.022360
771.126949	4013.227289
771.452303	3995.434536
771.777611	3955.286787
772.102872	3956.312662
772.428087	3931.958848
772.753256	3900.706214
773.078378	3885.179461
773.403453	3848.474819
773.728482	3827.969926
774.053465	3815.994665
774.378401	3793.992549
774.703291	3771.118314
775.028135	3745.179057
775.352932	3737.861822
775.677683	3718.483626
776.002388	3699.929660
776.327046	3700.292623
776.651658	3684.286959
776.976224	3662.650327
777.300743	3661.692508
777.625216	3647.564674
777.949643	3636.882469
778.274024	3638.092346
778.598359	3621.091055
778.922647	3623.185654
779.246889	3613.060497
779.571086	3612.407667
779.895236	3611.613685
780.219339	3612.957153
780.543397	3613.012606
780.867409	3624.708082
781.191374	3625.638175
781.515294	3620.987711
781.839167	3637.537819
782.162995	3632.441213
782.486776	3623.049543
782.810511	3616.085189
783.134201	3604.112448
783.457844	3605.234105
783.781441	3595.701283
784.104993	3585.359356
784.428498	3580.081268
784.751958	3581.031526
785.075372	3574.145309
785.398739	3560.776169
785.722061	3568.025349
786.045337	3566.807910
786.368568	3593.488217
786.691752	3588.068976
787.014891	3635.596975
787.337983	3682.146989
787.661030	3769.094290
787.984031	3866.411245
788.306987	3944.886887
788.629897	3988.097137
788.952760	3990.784072
789.275579	3981.571363
789.598351	3930.633024
789.921078	3879.578739
790.243759	3816.453410
790.566395	3771.922378
790.888984	3723.630644
791.211529	3686.318544
791.534027	3643.622492
791.856480	3604.485494
792.178888	3586.465889
792.501249	3564.914957
792.823566	3532.618805
793.145836	3527.892723
793.468062	3519.657998
793.790241	3502.200482
794.112375	3506.886235
794.434464	3527.234852
794.756507	3529.727703
795.078505	3546.976011
795.400457	3589.442691
795.722364	3638.493118
796.044226	3683.462731
796.366042	3727.207343
796.687812	3720.553020
797.009538	3748.443204
797.331218	3736.029362
797.652852	3728.815471
797.974442	3708.570197
798.295986	3699.750699
798.617484	3670.985875
798.938938	3647.811691
799.260346	3632.269813
799.581709	3596.827981
799.903026	3587.204418
800.224299	3568.456367
800.545526	3532.656613
800.866708	3518.014582
801.187845	3504.504290
801.508936	3482.439159
801.829983	3478.827173
802.150984	3446.825928
802.471940	3438.898713
802.792851	3429.882610
803.113717	3423.999583
803.434538	3412.074734
803.755314	3404.024011
804.076045	3402.642735
804.396731	3390.216291
804.717372	3390.312073
805.037967	3388.726630
805.358518	3389.109758
805.679024	3402.362951
805.999485	3398.259452
806.319901	3407.033580
806.640272	3407.535175
806.960598	3421.368101
807.280879	3419.936413
807.601115	3430.971499
807.921306	3419.419695
808.241453	3422.525046
808.561554	3428.077877
808.881611	3425.113678
809.201623	3424.412958
809.521590	3416.430291
809.841513	3417.604880
810.161390	3421.663008
810.481223	3401.574010
810.801011	3401.495873
811.120755	3398.259452
811.440453	3384.484499
811.760107	3382.573902
812.079716	3375.034856
812.399281	3362.552959
812.718801	3362.003473
813.038276	3358.063812
813.357707	3351.573326
813.677093	3360.559183
813.996434	3342.012778
814.315731	3345.680217
814.634983	3349.261957
814.954191	3347.817666
815.273354	3362.996581
815.592473	3375.344887
815.911547	3392.925911
816.230577	3407.570463
816.549562	3437.983744
816.868502	3454.614511
817.187399	3473.796101
817.506250	3501.555215
817.825058	3511.418232
818.143821	3552.407854
818.462539	3598.315122
818.781213	3654.702948
819.099843	3737.329980
819.418429	3888.068042
819.736970	4037.749982
820.055466	4227.171338
820.373919	4463.447698
820.692327	4800.088390
821.010691	5310.169980
821.329011	6388.402212
821.647286	8113.283412
821.965517	10262.561710
822.283704	11864.395906
822.601847	12928.089450
822.919945	12523.824200
823.237999	11852.125738
823.556010	10959.919645
823.873976	10020.230924
824.191897	9061.131240
824.509775	8293.421483
824.827609	7498.277766
825.145398	6953.117307
825.463144	6572.237969
825.780845	6444.288443
826.098502	6512.896026
826.416116	6888.058696
826.733685	7381.882565
827.051210	7664.275400
827.368692	7574.779796
827.686129	7136.670759
828.003522	6596.856444
828.320872	6029.502305
828.638177	5575.231329
828.955439	5210.302202
829.272656	4869.280747
829.589830	4592.838993
829.906960	4329.053057
830.224046	4124.026809
830.541088	3957.767035
830.858086	3841.601206
831.175041	3744.674941
831.491952	3699.107952
831.808819	3683.848379
832.125642	3719.227197
832.442421	3819.266374
832.759157	4037.722255
833.075849	4409.449378
833.392497	4865.048698
833.709101	5251.490949
834.025662	5356.755283
834.342179	5235.485286
834.658653	4962.491682
834.975083	4698.572154
835.291469	4455.898570
835.607811	4230.211153
835.924110	4075.712391
836.240366	3915.741456
836.556578	3755.510901
836.872746	3624.272023
837.188871	3511.788757
837.504952	3417.819129
837.820990	3344.692151
838.136984	3292.780869
838.452935	3261.548401
838.768842	3249.386617
839.084706	3278.892490
839.400526	3413.725712
839.716303	3640.408756
840.032037	3848.298379
840.347727	3914.113163
840.663373	3824.632682
840.978977	3676.732790
841.294537	3542.728839
841.610054	3439.191100
841.925527	3361.814430
842.240957	3295.067032
842.556344	3235.793146
842.871687	3174.298630
843.186987	3113.751852
843.502244	3060.111455
843.817458	3023.931093
844.132629	2992.953203
844.447756	2969.799183
844.762840	2946.849331
845.077881	2929.817792
845.392879	2918.717172
845.707833	2905.975655
846.022745	2893.929818
846.337613	2891.010990
846.652438	2881.906666
846.967221	2876.641181
847.281960	2868.938298
847.596656	2868.189687
847.911309	2861.580734
848.225919	2857.963706
848.540485	2851.629496
848.855009	2848.864423
849.169490	2845.529700
849.483928	2844.604648
849.798323	2841.738752
850.112675	2838.582990
850.426984	2837.889831
850.741251	2834.973524
851.055474	2831.835406
851.369654	2831.197700
851.683792	2832.954542
851.997887	2831.842967
852.311938	2833.446054
852.625947	2832.825992
852.939914	2831.318687
853.253837	2833.410766
853.567718	2831.734582
853.881555	2828.765343
854.195350	2833.257011
854.509103	2827.270641
854.822812	2827.938594
855.136479	2830.048317
855.450103	2827.048830
855.763685	2827.656289
856.077224	2826.441371
856.390720	2830.176866
856.704173	2833.055365
857.017584	2834.373627
857.330953	2835.039059
857.644278	2838.845130
857.957561	2843.934175
858.270802	2842.104236
858.584000	2838.278000
858.897155	2837.541992
859.210268	2839.767661
859.523339	2835.686847
859.836367	2834.711384
860.149352	2832.629387
860.462295	2832.117710
860.775195	2827.368943
861.088054	2827.414314
861.400869	2826.305260
861.713642	2826.519509
862.026373	2826.486741
862.339062	2829.801300
862.651708	2830.769202
862.964312	2836.785819
863.276873	2840.012157
863.589392	2845.806963
863.901869	2853.416585
864.214303	2858.135105
864.526696	2865.137268
864.839045	2872.255377
865.151353	2880.492623
865.463619	2879.479351
865.775842	2884.079403
866.088023	2890.373284
866.400162	2889.024775
866.712258	2890.161556
867.024313	2892.503172
867.336325	2892.603995
867.648296	2892.566186
867.960224	2892.339334
868.272110	2893.808830
868.583954	2896.301681
868.895755	2899.878380
869.207515	2899.472567
869.519233	2905.519431
869.830909	2905.917682
870.142542	2909.922879
870.454134	2914.558220
870.765684	2917.517377
871.077191	2924.015424
871.388657	2928.297884
871.700081	2934.415325
872.011463	2941.477981
872.322803	2946.085596
872.634101	2952.253448
872.945357	2955.663788
873.256571	2970.250367
873.567744	2974.968887
873.878874	2979.712613
874.189963	2984.665546
874.501010	2990.851042
874.812015	2988.700990
875.122979	2995.327587
875.433900	3000.469563
875.744780	3001.868484
876.055618	3009.410050
876.366415	3007.015502
876.677169	3014.741070
876.987882	3021.692821
877.298554	3032.208668
877.609183	3042.467416
877.919771	3063.909964
878.230317	3082.945361
878.540822	3123.675363
878.851285	3172.806449
879.161707	3237.290368
879.472087	3343.613344
879.782425	3503.551512
880.092722	3778.765744
880.402977	4194.245041
880.713191	4735.208740
881.023363	5326.258823
881.333494	5756.869143
881.643583	6041.278440
881.953631	6112.560355
882.263637	6062.234517
882.573602	5923.159164
882.883526	5761.310399
883.193408	5558.635850
883.503248	5340.409341
883.813048	5127.748266
884.122806	4911.336573
884.432522	4667.594264
884.742197	4447.126962
885.051831	4241.977206
885.361424	4047.320612
885.670975	3880.980179
885.980485	3734.627922
886.289954	3610.386164
886.599382	3513.956453
886.908768	3427.046961
887.218113	3347.656349
887.527417	3289.163841
887.836680	3228.884244
888.145901	3182.694672
888.455082	3147.572953
888.764221	3114.064404
889.073319	3084.492995
889.382376	3065.823082
889.691392	3046.649053
890.000366	3042.994217
890.309300	3031.611291
890.618193	3029.007535
890.927044	3025.302287
891.235855	3027.558204
891.544625	3025.393028
891.853353	3034.159595
892.162041	3046.611245
892.470687	3077.251378
892.779293	3107.601644
893.087858	3157.377997
893.396381	3231.629152
893.704864	3336.628825
894.013306	3489.532063
894.321707	3674.499559
894.630068	3823.568999
894.938387	3903.199065
895.246665	3910.967483
895.554903	3851.847351
895.863100	3764.824433
896.171256	3691.775593
896.479371	3623.349492
896.787446	3546.950805
897.095480	3473.251656
897.403473	3421.484048
897.711425	3361.327959
898.019336	3313.454641
898.327207	3258.238883
898.635038	3213.770865
898.942827	3163.518123
899.250576	3122.042030
899.558284	3081.599373
899.865952	3056.297822
900.173579	3025.849253
900.481165	3005.810666
900.788711	2982.812922
901.096216	2971.598875
901.403681	2959.293419
901.711105	2950.557099
902.018489	2947.434104
902.325832	2954.758901
902.633135	2963.356589
902.940397	3000.588031
903.247619	3089.075404
903.554800	3262.090325
903.861941	3537.085267
904.169041	3794.594967
904.476101	3966.352120
904.783121	3984.243175
905.090100	3916.505191
905.397039	3813.564829
905.703938	3708.280331
906.010796	3605.009774
906.317614	3521.011548
906.624391	3437.890483
906.931129	3369.368599
907.237826	3297.736323
907.544483	3238.104515
907.851099	3166.472239
908.157675	3092.558841
908.464211	3024.407483
908.770707	2967.160139
909.077163	2919.501071
909.383578	2882.224259
909.689954	2853.645958
909.996289	2836.218689
910.302584	2823.005825
910.608839	2816.187664
910.915054	2805.795325
911.221229	2798.730148
911.527363	2801.291054
911.833458	2800.607978
912.139513	2802.861374
912.445527	2809.576191
912.751502	2816.469969
913.057436	2831.490087
913.363331	2851.934486
913.669186	2881.803322
913.975000	2921.215063
914.280775	2979.654639
914.586510	3059.577092
914.892205	3166.996519
915.197859	3310.755103
915.503475	3493.670850
915.809050	3666.254752
916.114585	3795.023465
916.420081	3870.257645
916.725536	3900.625556
917.030952	3864.674567
917.336328	3825.335923
917.641665	3779.534520
917.946961	3716.038667
918.252218	3660.250738
918.557435	3586.160900
918.862612	3517.891074
919.167750	3462.876962
919.472848	3386.997514
919.777906	3320.860096
920.082925	3253.643871
920.387904	3181.855320
920.692843	3125.714510
920.997743	3074.632498
921.302603	3026.887730
921.607423	2992.343223
921.912204	2960.233594
922.216946	2932.968513
922.521647	2907.856006
922.826310	2889.816237
923.130932	2868.948380
923.435516	2847.120184
923.740059	2835.026456
924.044564	2822.370639
924.349028	2810.319761
924.653454	2794.122534
924.957840	2779.972015
925.262186	2772.937085
925.566493	2758.166504
925.870761	2747.088568
926.174989	2744.583115
926.479178	2736.784450
926.783328	2730.601475
927.087438	2722.946482
927.391509	2715.757797
927.695541	2709.579863
927.999533	2703.623740
928.303486	2701.077957
928.607400	2695.802390
928.911275	2693.042358
929.215110	2690.178982
929.518906	2687.476924
929.822663	2688.001204
930.126381	2684.570699
930.430060	2686.821574
930.733699	2686.025072
931.037299	2687.418951
931.340861	2687.867613
931.644383	2689.473221
931.947866	2686.357788
932.251309	2688.147397
932.554714	2685.861234
932.858080	2686.761080
933.161407	2684.154804
933.464694	2686.166224
933.767943	2682.987777
934.071153	2682.609690
934.374323	2678.062569
934.677455	2680.527693
934.980548	2678.102898
935.283602	2677.286232
935.586617	2673.510407
935.889593	2675.214317
936.192530	2676.789678
936.495428	2678.864113
936.798287	2681.442663
937.101108	2683.577592
937.403890	2692.414734
937.706632	2700.223482
938.009336	2711.225800
938.312002	2722.520505
938.614628	2733.951321
938.917216	2746.100502
939.219765	2751.217273
939.522275	2759.023500
939.824747	2764.049530
940.127179	2758.174066
940.429573	2761.229005
940.731929	2759.056267
941.034246	2757.110382
941.336524	2758.932759
941.638763	2760.561052
941.940964	2760.051895
942.243126	2755.403952
942.545250	2747.338105
942.847335	2743.322826
943.149381	2738.163205
943.451389	2732.559963
943.753359	2720.844321
944.055290	2721.492110
944.357182	2714.759649
944.659036	2713.443907
944.960851	2710.971222
945.262628	2705.851930
945.564367	2707.654142
945.866067	2706.114070
946.167729	2703.956456
946.469352	2702.978472
946.770937	2702.068544
947.072484	2700.362113
947.373992	2701.627443
947.675462	2699.190045
947.976893	2694.842050
948.278286	2695.109231
948.579641	2695.270548
948.880958	2693.206195
949.182236	2694.320290
949.483476	2690.834332
949.784678	2692.626463
950.085841	2691.630835
950.386967	2693.296936
950.688054	2692.959179
950.989103	2696.366999
951.290114	2698.746423
951.591087	2703.288503
951.892021	2706.706405
952.192917	2711.130018
952.493776	2717.562530
952.794596	2718.356512
953.095378	2719.276522
953.396122	2721.605536
953.696828	2720.635113
953.997496	2719.339537
954.298126	2716.123281
954.598718	2714.242930
954.899272	2710.149513
955.199788	2703.492670
955.500266	2704.011909
955.800706	2695.245342
956.101108	2686.032633
956.401472	2679.842097
956.701798	2674.228772
957.002087	2665.351300
957.302337	2664.148985
957.602550	2656.035247
957.902724	2654.041471
958.202861	2650.744557
958.502960	2642.497229
958.803022	2642.671149
959.103045	2637.045221
959.403031	2633.428193
959.702979	2631.260497
960.002889	2628.588685
960.302762	2624.152470
960.602596	2623.565176
960.902393	2618.266923
961.202153	2617.568723
961.501875	2619.227263
961.801559	2616.361367
962.101205	2614.496140
962.400814	2613.044287
962.700385	2613.371962
962.999918	2612.399020
963.299414	2609.830552
963.598873	2608.224944
963.898293	2609.825511
964.197677	2608.504728
964.497022	2605.744697
964.796331	2606.175715
965.095601	2606.818462
965.394835	2607.982969
965.694030	2603.733276
965.993189	2605.918617
966.292309	2605.916096
966.591393	2605.674121
966.890439	2605.646394
967.189447	2602.684716
967.488419	2605.800149
967.787353	2603.292175
968.086249	2605.553133
968.385108	2605.953905
968.683930	2605.578339
968.982714	2603.229161
969.281462	2605.727053
969.580172	2605.404419
969.878844	2606.757969
970.177480	2609.155037
970.476078	2613.084617
970.774639	2612.023454
971.073162	2615.451438
971.371649	2609.286107
971.670098	2611.506736
971.968510	2613.354318
972.266885	2613.114864
972.565223	2619.446553
972.863524	2618.980246
973.161788	2618.929835
973.460014	2621.894033
973.758204	2620.669033
974.056356	2622.030144
974.354471	2622.851852
974.652550	2620.114506
974.950591	2622.158694
975.248595	2619.234824
975.546563	2622.075515
975.844493	2622.720782
976.142386	2621.558796
976.440243	2618.571913
976.738062	2618.007303
977.035845	2618.070318
977.333590	2616.931017
977.631299	2614.559154
977.928971	2617.868672
978.226606	2613.815584
978.524204	2611.650408
978.821765	2611.970522
979.119290	2610.228803
979.416777	2610.929523
979.714228	2608.703854
980.011642	2614.102930
980.309020	2615.925307
980.606360	2615.799278
980.903664	2620.235493
981.200931	2626.572224
981.498162	2633.909623
981.795356	2640.750469
982.092513	2656.103303
982.389633	2672.706343
982.686717	2692.349199
982.983764	2706.535006
983.280775	2722.409600
983.577749	2727.223902
983.874686	2725.441854
984.171587	2719.621842
984.468451	2719.011862
984.765279	2712.942313
985.062070	2702.728935
985.358824	2696.810620
985.655543	2686.665298
985.952224	2679.322858
986.248869	2666.987154
986.545478	2652.829074
986.842050	2643.097126
987.138586	2629.866618
987.435086	2620.560648
987.731549	2614.483537
988.027975	2613.553444
988.324366	2610.463217
988.620719	2605.192690
988.917037	2600.635487
989.213318	2599.307143
989.509563	2596.617688
989.805772	2594.785228
990.101944	2593.542584
990.398080	2595.223809
990.694180	2594.470156
990.990244	2595.745568
991.286271	2592.385639
991.582262	2593.880341
991.878217	2596.421083
992.174136	2594.911257
992.470019	2598.240939
992.765865	2597.131885
993.061676	2595.579210
993.357450	2595.977461
993.653188	2600.431321
993.948890	2601.769747
994.244556	2605.545571
994.540186	2608.262753
994.835780	2615.360698
995.131337	2620.976543
995.426859	2628.555918
995.722345	2637.793832
996.017795	2647.855975
996.313208	2651.825884
996.608586	2662.245949
996.903928	2665.200065
997.199234	2665.603357
997.494504	2665.419355
997.789738	2662.974396
998.084936	2663.367606
998.380099	2656.027686
998.675225	2652.236738
998.970316	2647.477889
999.265371	2639.089409
999.560390	2634.711167
999.855373	2625.367388
1000.150320	2621.256327
1000.445232	2614.014710
1000.740108	2612.235182
1001.034948	2606.233689
1001.329752	2601.986517
1001.624521	2601.870570
1001.919254	2593.565269
1002.213951	2595.281782
1002.508613	2588.067891
1002.803239	2593.159456
1003.097829	2587.404979
1003.392384	2589.154259
1003.686903	2589.862542
1003.981386	2587.268868
1004.275834	2586.815164
1004.570246	2588.892119
1004.864623	2585.990935
1005.158964	2585.673343
1005.453270	2584.660071
1005.747540	2582.749473
1006.041775	2587.142839
1006.335974	2585.345668
1006.630138	2583.916501
1006.924266	2586.432036
1007.218359	2585.491861
1007.512416	2584.281984
1007.806438	2583.646799
1008.100425	2584.080338
1008.394376	2585.612849
1008.688292	2584.579412
1008.982172	2582.895667
1009.276017	2582.857858
1009.569827	2582.978846
1009.863602	2583.911459
1010.157341	2585.602767
1010.451045	2584.886923
1010.744714	2579.780234
1011.038347	2580.236458
1011.331945	2582.207549
1011.625508	2583.034299
1011.919036	2581.199319
1012.212528	2582.774679
1012.505986	2581.592529
1012.799408	2581.685790
1013.092795	2579.722261
1013.386147	2578.222517
1013.679464	2581.186716
1013.972745	2580.372569
1014.265992	2581.411047
1014.559204	2581.413568
1014.852380	2579.250913
1015.145521	2581.095975
1015.438628	2579.926427
1015.731699	2581.980697
1016.024736	2581.552199
1016.317737	2583.367015
1016.610703	2583.518249
1016.903635	2578.542631
1017.196531	2580.841397
1017.489393	2578.093968
1017.782219	2580.266705
1018.075011	2579.717219
1018.367768	2582.643609
1018.660490	2583.719896
1018.953177	2583.719896
1019.245829	2583.719896
