Dividing Wavelength (nm)	Counts (n)	Blue Motor Position (mm): 25.000000	Red Motor Position (mm): 0.000000	
326.493990	2156.703918
326.888308	2156.703918
327.282561	2156.703918
327.676750	2131.097377
328.070874	2134.583335
328.464933	2137.882770
328.858929	2146.293935
329.252859	2160.356234
329.646726	2173.720333
330.040528	2186.255162
330.434265	2207.327185
330.827938	2226.266800
331.221547	2246.577609
331.615091	2266.245670
332.008571	2286.075049
332.401986	2305.143213
332.795338	2327.069712
333.188625	2344.930520
333.581847	2367.802235
333.975006	2381.461242
334.368100	2403.783471
334.761129	2420.668816
335.154095	2440.654470
335.546996	2460.060392
335.939833	2490.735813
336.332606	2502.592607
336.725315	2515.792868
337.117960	2520.566841
337.510540	2532.547143
337.903056	2539.065355
338.295508	2548.741850
338.687896	2554.876934
339.080220	2561.584189
339.472480	2567.810014
339.864676	2571.427042
340.256807	2574.892835
340.648875	2574.875191
341.040879	2576.410223
341.432818	2576.818556
341.824694	2580.077662
342.216506	2581.123701
342.608253	2582.656212
342.999937	2577.998186
343.391557	2578.222517
343.783113	2577.118505
344.174605	2574.928123
344.566033	2574.144224
344.957397	2573.652711
345.348697	2569.861764
345.739934	2571.757237
346.131106	2566.572411
346.522215	2565.793552
346.913260	2563.456978
347.304241	2562.300033
347.695159	2558.950186
348.086012	2560.339024
348.476802	2559.605536
348.867528	2556.641338
349.258191	2555.323076
349.648789	2555.454146
350.039324	2554.392983
350.429796	2554.574465
350.820203	2551.075904
351.210548	2551.015410
351.600828	2550.478527
351.991045	2551.980791
352.381198	2548.840152
352.771288	2546.886705
353.161314	2549.840821
353.551276	2549.939124
353.941175	2548.605738
354.331010	2549.077086
354.720782	2547.186654
355.110490	2549.916438
355.500135	2549.918959
355.889717	2546.768238
356.279235	2550.700338
356.668689	2551.154042
357.058080	2549.460214
357.447408	2546.150697
357.836672	2550.818805
358.225873	2548.336037
358.615010	2546.160779
359.004084	2550.644885
359.393095	2552.368960
359.782043	2553.127653
360.170927	2552.363919
360.559748	2554.687891
360.948505	2555.630586
361.337199	2555.680998
361.725830	2554.768549
362.114398	2557.100083
362.502903	2554.251831
362.891344	2557.072356
363.279722	2556.686708
363.668037	2559.963458
364.056289	2555.350802
364.444478	2558.783828
364.832603	2556.956410
365.220665	2559.298026
365.608665	2561.143088
365.996601	2560.485217
366.384474	2559.285423
366.772284	2561.127965
367.160031	2558.935063
367.547715	2562.789025
367.935336	2559.887841
368.322893	2562.337842
368.710388	2561.022100
369.097820	2566.189283
369.485189	2560.036555
369.872495	2561.576627
370.259738	2563.230126
370.646918	2561.977399
371.034035	2561.906823
371.421090	2567.096691
371.808081	2562.277348
372.195010	2564.208110
372.581875	2564.316494
372.968678	2568.639284
373.355418	2565.617112
373.742096	2565.538974
374.128710	2564.737431
374.515262	2566.249777
374.901751	2565.380178
375.288177	2564.026628
375.674540	2566.766495
376.060841	2567.585683
376.447079	2566.521999
376.833254	2567.555436
377.219367	2565.763306
377.605417	2566.280024
377.991404	2565.370096
378.377329	2567.560477
378.763191	2563.688871
379.148991	2569.153482
379.534727	2567.638615
379.920402	2568.619119
380.306013	2569.760941
380.691563	2572.543657
381.077049	2570.668348
381.462474	2569.395457
381.847835	2570.920406
382.233134	2571.106929
382.618371	2569.854202
383.003545	2570.320509
383.388657	2572.412587
383.773706	2569.153482
384.158693	2572.720098
384.543618	2571.797567
384.928480	2570.509552
385.313280	2573.834193
385.698017	2575.154975
386.082692	2573.982907
386.467305	2572.347052
386.851856	2575.149934
387.236344	2571.694223
387.620770	2571.101888
388.005133	2573.803946
388.389435	2577.002558
388.773674	2575.366704
389.157851	2573.463668
389.541965	2574.776889
389.926018	2575.986766
390.310008	2577.173957
390.693936	2577.083217
391.077802	2573.836713
391.461606	2575.989286
391.845348	2577.108422
392.229027	2577.673032
392.612645	2580.027250
392.996200	2577.647826
393.379694	2581.267374
393.763125	2578.368711
394.146494	2578.993814
394.529801	2577.476427
394.913047	2579.921386
395.296230	2578.131777
395.679351	2578.348546
396.062410	2579.739905
396.445408	2580.007086
396.828343	2580.682600
397.211217	2574.194635
397.594028	2578.260326
397.976778	2575.538103
398.359466	2577.773855
398.742092	2578.726633
399.124656	2580.594380
399.507158	2584.718044
399.889598	2583.167889
400.271977	2578.514904
400.654294	2581.952971
401.036549	2583.798033
401.418742	2580.561613
401.800874	2579.230748
402.182944	2584.160997
402.564952	2582.199988
402.946898	2583.641758
403.328783	2583.278795
403.710606	2583.218301
404.092367	2582.290728
404.474067	2583.152766
404.855705	2581.151428
405.237282	2582.865420
405.618797	2582.688980
406.000250	2583.145204
406.381642	2583.382138
406.762972	2584.019844
407.144240	2583.437591
407.525447	2584.312231
407.906593	2585.020513
408.287677	2585.895153
408.668700	2587.263827
409.049661	2585.343147
409.430560	2586.888261
409.811399	2585.295256
410.192176	2582.588157
410.572891	2582.653692
410.953545	2586.505133
411.334138	2587.115113
411.714669	2586.968919
412.095139	2587.145360
412.475547	2588.390525
412.855894	2587.775504
413.236180	2588.239290
413.616405	2589.005545
413.996568	2588.773652
414.376670	2590.283478
414.756711	2587.379773
415.136691	2590.406986
415.516609	2589.605443
415.896466	2588.352716
416.276262	2592.269692
416.655997	2585.201995
417.035670	2585.776686
417.415283	2587.956985
417.794834	2582.739391
418.174324	2585.832139
418.553753	2590.016297
418.933121	2590.477562
419.312428	2590.023858
419.691674	2590.064188
420.070859	2590.830443
420.449983	2592.720876
420.829045	2592.332707
421.208047	2592.191555
421.586988	2589.877665
421.965867	2591.233735
422.344686	2592.136102
422.723444	2593.469487
423.102141	2590.495206
423.480777	2593.441761
423.859352	2592.546956
424.237866	2591.601740
424.616319	2595.133068
424.994712	2593.635845
425.373044	2594.016452
425.751314	2595.107862
426.129524	2593.046030
426.507673	2595.785897
426.885762	2594.225660
427.263789	2594.802872
427.641756	2596.267327
428.019662	2597.184817
428.397508	2595.261617
428.775292	2595.690115
429.153016	2596.481577
429.530679	2596.456371
429.908282	2592.821699
430.285824	2598.987030
430.663305	2596.305136
431.040726	2594.114755
431.418086	2597.179776
431.795385	2597.469643
432.172624	2596.799169
432.549802	2596.050558
432.926920	2595.979982
433.303977	2597.923347
433.680974	2599.113059
434.057910	2597.031062
434.434786	2598.548450
434.811601	2600.080960
435.188355	2598.966865
435.565050	2600.728749
435.941683	2599.972576
436.318257	2596.915116
436.694770	2596.496700
437.071222	2595.667430
437.447614	2598.818151
437.823946	2598.099787
438.200218	2599.355034
438.576429	2600.237236
438.952580	2600.937957
439.328670	2601.575662
439.704700	2604.418873
440.080670	2602.132710
440.456580	2600.401074
440.832429	2604.280242
441.208218	2603.813935
441.583947	2605.767382
441.959616	2601.333687
442.335224	2603.314861
442.710773	2604.890221
443.086261	2605.061620
443.461689	2605.661518
443.837057	2604.247474
444.212365	2602.427617
444.587612	2607.945160
444.962800	2608.350973
445.337927	2609.417177
445.712995	2609.454986
446.088002	2606.231168
446.462949	2609.218052
446.837837	2608.174533
447.212664	2610.032198
447.587431	2611.073196
447.962139	2611.572271
448.336786	2615.174175
448.711374	2613.797940
449.085901	2615.574947
449.460369	2611.869699
449.834776	2613.286263
450.209124	2616.487396
450.583412	2615.985801
450.957640	2618.491254
451.331808	2617.172992
451.705917	2618.624845
452.079965	2617.394803
452.453954	2622.526698
452.827883	2623.970988
453.201752	2624.177676
453.575562	2624.422172
453.949311	2627.850156
454.323001	2629.170939
454.696632	2631.136989
455.070202	2637.269552
455.443713	2636.599079
455.817164	2635.202679
456.190556	2639.139820
456.563888	2641.655356
456.937160	2644.480923
457.310373	2649.927890
457.683526	2656.493993
458.056619	2659.690084
458.429653	2661.048675
458.802628	2667.292144
459.175542	2670.337001
459.548398	2680.694052
459.921194	2690.909950
460.293930	2700.145344
460.666607	2714.560523
461.039224	2727.725496
461.411782	2739.289903
461.784280	2744.142014
462.156719	2751.716347
462.529099	2757.735485
462.901419	2760.787904
463.273680	2762.116248
463.645882	2770.177053
464.018024	2781.751542
464.390106	2798.964562
464.762130	2823.197388
465.134094	2869.129862
465.505999	2934.904317
465.877845	3001.364368
466.249631	3042.996737
466.621358	3049.086451
466.993026	3049.106616
467.364634	3053.159703
467.736184	3049.872871
468.107674	3057.384190
468.479105	3070.622260
468.850477	3085.937286
469.221790	3090.812082
469.593043	3092.279057
469.964238	3101.912702
470.335373	3119.672687
470.706449	3160.667350
471.077467	3216.104919
471.448425	3337.248887
471.819324	3436.292437
472.190164	3472.591265
472.560945	3431.757919
472.931667	3392.779718
473.302330	3393.674522
473.672934	3405.712798
474.043479	3454.533852
474.413965	3468.039103
474.784393	3491.190602
475.154761	3552.760735
475.525070	3584.225097
475.895321	3610.580249
476.265513	3667.429341
476.635645	3740.016915
477.005719	3777.311371
477.375734	3839.241946
477.745691	3904.187131
478.115588	3998.214733
478.485427	4102.722893
478.855207	4277.842495
479.224928	4454.887818
479.594591	4610.966983
479.964194	4667.019572
480.333739	4742.210902
480.703226	4800.577382
481.072653	4895.598091
481.442022	5000.368391
481.811333	5108.349906
482.180584	5122.240806
482.549777	5164.866282
482.918912	5207.385894
483.287988	5268.635913
483.657005	5300.962312
484.025964	5338.914639
484.394864	5424.581487
484.763706	5474.798941
485.132489	5504.138457
485.501213	5565.756480
485.869879	5656.678731
486.238487	5696.549217
486.607036	5800.603673
486.975527	5840.988357
487.343959	5933.226348
487.712333	6025.913003
488.080648	6109.883503
488.448905	6230.324230
488.817104	6304.686290
489.185244	6461.042718
489.553326	6645.869062
489.921350	6965.952084
490.289315	7376.218828
490.657222	7619.250335
491.025070	7800.421842
491.392861	7842.079417
491.760593	7828.312026
492.128267	7766.653673
492.495883	7708.924900
492.863440	7637.527038
493.230939	7579.047133
493.598380	7539.012809
493.965763	7599.912468
494.333088	7586.412258
494.700354	7606.546627
495.067563	7658.934298
495.434713	7729.747386
495.801805	7826.698857
496.168839	7862.460802
496.535815	7907.102740
496.902733	8002.677976
497.269593	8036.378089
497.636395	8096.715659
498.003139	8232.247081
498.369825	8245.729647
498.736453	8367.745734
499.103023	8389.248776
499.469535	8449.304042
499.835989	8542.441880
500.202385	8582.082993
500.568723	8647.920462
500.935003	8752.277388
501.301226	8777.747818
501.667390	8956.648285
502.033497	9087.448584
502.399546	9080.267460
502.765537	9057.413389
503.131470	9192.428092
503.497345	9313.919900
503.863163	9181.488788
504.228923	9329.214760
504.594625	9476.892842
504.960269	9441.700547
505.325856	9616.517680
505.691385	9550.919665
506.056856	9658.250872
506.422270	9784.216704
506.787625	9771.704560
507.152924	9849.361014
507.518164	9940.074057
507.883347	9862.553714
508.248472	9963.991812
508.613540	10094.340927
508.978550	10185.537920
509.343503	10204.628770
509.708398	10280.528382
510.073236	10434.961610
510.438016	10472.876128
510.802738	10425.068345
511.167403	10567.228884
511.532010	10653.707357
511.896561	10767.448391
512.261053	10976.527726
512.625488	10922.746176
512.989866	10940.213774
513.354186	10946.016143
513.718449	10975.708539
514.082655	11134.938424
514.446803	11112.452357
514.810894	11242.022614
515.174927	11258.035839
515.538904	11256.962073
515.902822	11430.108064
516.266684	11331.061994
516.630488	11438.546956
516.994235	11448.528440
517.357925	11568.276009
517.721558	11643.878193
518.085133	11720.201262
518.448651	11762.582243
518.812112	11743.282185
519.175516	11757.974628
519.538863	11859.848785
519.902152	11879.030376
520.265385	11988.859474
520.628560	12031.603417
520.991678	11983.281437
521.354739	12041.358050
521.717743	12123.717901
522.080690	12110.656272
522.443580	12243.210891
522.806413	12275.169286
523.169189	12272.696600
523.531908	12334.927124
523.894569	12309.202116
524.257174	12329.119715
524.619722	12444.236983
524.982213	12421.856781
525.344647	12418.839650
525.707025	12436.314810
526.069345	12542.481510
526.431608	12527.806711
526.793815	12598.576949
527.155964	12500.644974
527.518057	12536.147300
527.880093	12500.090447
528.242072	12617.075463
528.603995	12544.616439
528.965860	12566.704254
529.327669	12601.790685
529.689421	12545.271789
530.051117	12572.829256
530.412755	12616.203344
530.774337	12616.107562
531.135862	12577.152046
531.497331	12626.867905
531.858743	12600.706837
532.220098	12686.408973
532.581396	12616.372223
532.942638	12544.220708
533.303824	12607.898043
533.664953	12581.578179
534.026025	12539.078731
534.387040	12657.134993
534.747999	12628.425621
535.108902	12673.980008
535.469748	12550.312943
535.830537	12585.202768
536.191270	12624.662400
536.551947	12552.720093
536.912567	12615.139660
537.273131	12646.334320
537.633638	12525.830579
537.994089	12585.069178
538.354483	12503.180675
538.714821	12628.536527
539.075103	12709.825133
539.435328	12640.877271
539.795497	12621.209210
540.155609	12620.342131
540.515665	12717.308725
540.875665	12575.450656
541.235609	12673.022189
541.595496	12643.758291
541.955328	12819.654231
542.315102	12671.177127
542.674821	12608.939041
543.034483	12627.218265
543.394090	12620.861370
543.753640	12595.862288
544.113134	12839.980163
544.472571	12606.264709
544.831953	12885.458933
545.191278	12700.652753
545.550548	12636.741005
545.909761	12750.550094
546.268918	12790.743213
546.628019	12865.450593
546.987064	12750.366092
547.346053	12601.243720
547.704986	12797.334522
548.063863	12684.332017
548.422684	12732.631312
548.781449	12692.375178
549.140158	12784.472018
549.498811	12745.367788
549.857408	12612.901388
550.215949	12819.331597
550.574434	12786.846402
550.932864	12735.315727
551.291237	12921.167946
551.649555	12809.440853
552.007817	12872.041902
552.366022	12782.866411
552.724173	12830.701919
553.082267	12909.719485
553.440305	13000.639216
553.798288	12831.241323
554.156215	12900.221952
554.514086	12952.153398
554.871902	12890.192576
555.229661	12914.818612
555.587365	12866.562167
555.945014	12884.206206
556.302606	12868.175337
556.660143	12934.030450
557.017625	12962.840644
557.375050	12915.257193
557.732421	13022.958924
558.089735	13024.778781
558.446994	12994.456240
558.804197	13114.712965
559.161345	13107.897325
559.518437	12914.841298
559.875474	13013.441226
560.232455	13040.444166
560.589381	13094.813011
560.946251	13021.643183
561.303065	13203.805277
561.659825	13163.617199
562.016528	13076.001945
562.373177	13015.669416
562.729770	13139.510401
563.086307	13031.793546
563.442789	13130.534627
563.799216	13162.863546
564.155587	13114.544087
564.511904	13134.658291
564.868164	13152.448522
565.224370	13203.207901
565.580520	13153.124037
565.936615	13211.994632
566.292654	13151.016835
566.648638	13220.194068
567.004567	13213.998490
567.360441	13219.715159
567.716260	13190.516796
568.072023	13273.395886
568.427732	13269.126028
568.783385	13161.101663
569.138982	13274.010906
569.494525	13269.322633
569.850013	13210.086555
570.205445	13203.190257
570.560823	13207.001369
570.916145	13163.680213
571.271412	13180.295856
571.626625	13134.345739
571.981782	13137.226758
572.336884	13080.412955
572.691931	13169.187674
573.046923	13060.404615
573.401860	13025.161908
573.756743	13032.733722
574.111570	13059.265314
574.466342	13034.087271
574.821059	13084.947472
575.175722	12956.231691
575.530330	12978.611894
575.884882	12921.901434
576.239380	12913.139908
576.593823	12901.023495
576.948211	12895.972259
577.302544	12765.194646
577.656823	12790.919654
578.011047	12850.231349
578.365216	12793.084829
578.719330	12727.721229
579.073389	12701.996221
579.427394	12706.422354
579.781344	12702.959081
580.135239	12618.736524
580.489080	12649.548056
580.842866	12540.969164
581.196597	12627.268677
581.550273	12613.360133
581.903895	12575.889237
582.257463	12686.852594
582.610975	12527.819314
582.964434	12597.946805
583.317837	12507.831139
583.671186	12480.288795
584.024481	12523.541895
584.377721	12411.053588
584.730906	12483.704177
585.084037	12494.547699
585.437113	12415.928384
585.790135	12437.859924
586.143103	12350.148888
586.496016	12362.454344
586.848874	12372.997918
587.201679	12384.048127
587.554428	12249.761871
587.907124	12300.939665
588.259765	12244.947569
588.612352	12304.113071
588.964884	12167.855724
589.317362	12214.657796
589.669786	12209.397352
590.022155	12168.430415
590.374470	12265.805343
590.726731	12157.430617
591.078937	12045.650593
591.431090	12064.093654
591.783188	11994.127480
592.135232	11913.837022
592.487222	11990.528096
592.839157	11992.942809
593.191038	11925.600555
593.542866	11866.301462
593.894639	11735.841442
594.246358	11786.956221
594.598022	11790.999227
594.949633	11698.489013
595.301190	11688.699092
595.652692	11634.327727
596.004141	11725.996068
596.355535	11509.954900
596.706876	11490.773309
597.058162	11455.752414
597.409395	11549.643904
597.760573	11582.867628
598.111698	11471.059877
598.462768	11472.146246
598.813785	11480.892648
599.164748	11357.195335
599.515657	11432.621079
599.866511	11306.685494
600.217312	11440.117275
600.568060	11205.113806
600.918753	11376.651669
601.269392	11365.803106
601.619978	11274.588468
601.970510	11318.970786
602.320988	11360.237672
602.671412	11428.545306
603.021783	11348.141423
603.372100	11285.492484
603.722363	11295.428598
604.072572	11298.344905
604.422728	11305.268930
604.772830	11249.518810
605.122878	11249.178532
605.472872	11226.500901
605.822813	11288.870057
606.172701	11248.503017
606.522534	11294.838783
606.872314	11338.396873
607.222041	11264.712847
607.571714	11348.196876
607.921333	11214.591175
608.270899	11265.587488
608.620411	11337.181955
608.969870	11275.148036
609.319276	11255.311096
609.668627	11265.143866
610.017926	11352.174346
610.367171	11384.740200
610.716362	11368.721934
611.065500	11344.254693
611.414585	11366.657581
611.763616	11431.754001
612.112594	11399.964485
612.461518	11423.486508
612.810389	11465.438991
613.159207	11415.143399
613.507971	11404.667881
613.856682	11510.138902
614.205340	11463.513270
614.553945	11597.297931
614.902496	11471.067439
615.250994	11546.518389
615.599439	11527.102385
615.947830	11565.130329
616.296169	11521.839420
616.644454	11539.833819
616.992686	11553.807897
617.340864	11640.593881
617.688990	11534.248220
618.037063	11670.480362
618.385082	11636.744960
618.733048	11679.214161
619.080961	11663.611790
619.428821	11649.680561
619.776628	11654.628453
620.124382	11599.185843
620.472083	11622.586880
620.819731	11642.227215
621.167326	11564.316182
621.514868	11548.623070
621.862357	11462.066459
622.209793	11450.625560
622.557176	11365.132632
622.904506	11302.249279
623.251783	11233.815616
623.599007	11157.903400
623.946179	11116.845723
624.293297	11096.297980
624.640363	10955.450662
624.987376	10944.345000
625.334336	10887.238809
625.681243	10799.336210
626.028097	10768.925449
626.374899	10735.568134
626.721647	10705.245594
627.068343	10665.725468
627.414987	10604.646848
627.761577	10532.366784
628.108115	10582.180946
628.454600	10456.063880
628.801032	10469.019645
629.147412	10449.868302
629.493739	10423.795454
629.840014	10342.811838
630.186236	10399.832329
630.532405	10298.116968
630.878521	10333.336989
631.224585	10287.278487
631.570597	10205.604233
631.916556	10213.720491
632.262462	10196.913284
632.608316	10173.166929
632.954117	10153.082972
633.299866	10134.125713
633.645562	10110.969173
633.991206	10010.811528
634.336797	9913.799563
634.682336	9899.034024
635.027823	9847.972176
635.373257	9810.723091
635.718639	9750.551878
636.063968	9714.671466
636.409245	9591.153114
636.754470	9585.499460
637.099642	9527.921922
637.444762	9434.300133
637.789829	9435.883055
638.134845	9364.142395
638.479808	9342.646915
638.824719	9315.351587
639.169577	9225.883709
639.514383	9225.891271
639.859137	9156.986260
640.203839	9194.477321
640.548489	9111.651163
640.893086	9118.181978
641.237632	9050.645640
641.582125	9052.031957
641.926566	9038.236840
642.270955	9029.785345
642.615292	9019.440898
642.959576	9007.579063
643.303809	8991.553235
643.647990	9015.218931
643.992118	8988.793203
644.336195	8964.623391
644.680219	8967.703536
645.024192	8994.983740
645.368112	9069.454185
645.711981	9045.717912
646.055797	9185.430970
646.399562	9139.407756
646.743274	9300.369278
647.086935	9375.631184
647.430544	9349.034057
647.774101	9370.486687
648.117606	9391.278926
648.461059	9455.941806
648.804460	9391.450325
649.147810	9275.201318
649.491108	9239.368796
649.834354	9176.024177
650.177548	9030.279378
650.520690	8934.031149
650.863781	8931.089635
651.206820	8906.017457
651.549807	8821.845311
651.892742	8726.176814
652.235626	8682.452366
652.578458	8652.999425
652.921238	8543.117394
653.263967	8580.989063
653.606644	8516.174947
653.949269	8497.860436
654.291843	8422.651461
654.634365	8483.417530
654.976836	8409.914986
655.319255	8401.798728
655.661622	8387.784321
656.003938	8349.567333
656.346203	8309.573339
656.688416	8344.924431
657.030577	8304.917834
657.372687	8267.086495
657.714746	8297.661093
658.056753	8314.067528
658.398708	8215.321407
658.740612	8210.066004
659.082465	8252.625945
659.424266	8209.362763
659.766016	8223.805668
660.107715	8197.125362
660.449362	8217.111016
660.790958	8205.410498
661.132503	8205.952422
661.473996	8208.523411
661.815438	8222.721820
662.156829	8248.890450
662.498168	8201.707771
662.839456	8199.716515
663.180693	8218.620842
663.521879	8243.017506
663.863013	8222.416831
664.204097	8213.909883
664.545129	8285.761449
664.886110	8277.846838
665.227040	8277.259543
665.567918	8293.383674
665.908746	8298.568501
666.249522	8322.324938
666.590248	8326.977923
666.930922	8339.545520
667.271545	8325.876431
667.612118	8345.506684
667.952639	8308.255078
668.293109	8313.523083
668.633528	8290.580792
668.973896	8274.673431
669.314213	8279.414637
669.654480	8235.992658
669.994695	8231.654745
670.334859	8211.588432
670.674973	8192.764764
671.015035	8216.392652
671.355047	8206.751445
671.695008	8188.111779
672.034918	8163.185793
672.374777	8169.978748
672.714585	8144.142835
673.054342	8177.386724
673.394049	8146.587794
673.733705	8186.332251
674.073310	8129.687326
674.412864	8140.901373
674.752368	8078.174296
675.091820	8130.163715
675.431223	8059.519506
675.770574	8012.084769
676.109875	7983.239286
676.449125	7944.135056
676.788324	7933.727594
677.127473	7847.602001
677.466571	7834.968869
677.805619	7773.209694
678.144616	7769.733818
678.483562	7750.287567
678.822458	7704.927265
679.161303	7693.400667
679.500098	7664.109042
679.838842	7645.970971
680.177535	7656.408680
680.516179	7686.902619
680.854771	7706.573202
681.193314	7823.754823
681.531805	7987.073084
681.870247	8106.412319
682.208638	8260.585927
682.546978	8335.469747
682.885268	8361.945887
683.223508	8288.186244
683.561697	8236.579952
683.899836	8208.175571
684.237925	8121.276161
684.575963	8096.566945
684.913951	8013.745829
685.251889	8029.774177
685.589776	8024.687653
685.927614	8005.962287
686.265401	8035.216103
686.603137	8036.496556
686.940824	8105.605734
687.278460	8151.213053
687.616046	8164.199065
687.953582	8271.900797
688.291068	8253.278774
688.628504	8320.535328
688.965889	8326.125968
689.303224	8276.238710
689.640510	8230.283551
689.977745	8126.448385
690.314930	8006.867174
690.652065	7937.589118
690.989150	7822.355902
691.326185	7673.483068
691.663170	7565.231851
692.000105	7437.637726
692.336990	7327.828792
692.673825	7252.123265
693.010610	7158.793863
693.347345	7068.847075
693.684030	6951.289888
694.020665	6905.727940
694.357251	6789.113448
694.693786	6775.144411
695.030272	6737.416416
695.366707	6647.273023
695.703093	6595.949036
696.039429	6593.743531
696.375716	6541.807044
696.711952	6532.954777
697.048139	6505.351940
697.384276	6468.826259
697.720363	6496.290466
698.056400	6466.086392
698.392388	6434.685045
698.728326	6433.391989
699.064214	6405.060704
699.400053	6396.616772
699.735842	6339.838256
700.071581	6290.243384
700.407270	6247.257466
700.742910	6221.345935
701.078501	6179.222053
701.414042	6135.870651
701.749533	6082.212609
702.084974	6030.200504
702.420366	6062.746194
702.755709	5993.420246
703.091002	5944.153049
703.426246	5943.061640
703.761440	5931.829949
704.096584	5889.524586
704.431679	5878.277772
704.766725	5856.973855
705.101721	5847.355334
705.436668	5862.685483
705.771565	5805.440660
706.106413	5858.829000
706.441212	5857.772878
706.775961	5878.668461
707.110661	5886.676334
707.445311	5946.812258
707.779913	5910.873872
708.114465	5947.588596
708.448967	5996.059290
708.783421	6108.257731
709.117825	6152.125851
709.452180	6189.831162
709.786485	6245.160346
710.120742	6376.220263
710.454949	6376.747064
710.789107	6456.793025
711.123216	6580.049237
711.457275	6610.018896
711.791286	6721.425876
712.125247	6737.880202
712.459159	6706.010027
712.793023	6836.691858
713.126837	6667.104923
713.460602	6724.652214
713.794318	6683.917171
714.127985	6626.853830
714.461602	6485.671275
714.795171	6482.472663
715.128691	6319.920657
715.462162	6231.929837
715.795584	6163.561709
716.128957	6120.598475
716.462281	6055.789401
716.795556	6010.482031
717.128782	5928.124701
717.461960	5831.732798
717.795088	5821.337939
718.128167	5750.660962
718.461198	5663.711140
718.794180	5644.345548
719.127113	5585.227937
719.459997	5556.342125
719.792833	5486.416280
720.125619	5484.523327
720.458357	5418.053193
720.791046	5395.829266
721.123686	5361.667887
721.456278	5324.010468
721.788821	5315.690043
722.121315	5273.414927
722.453761	5277.495741
722.786158	5263.650212
723.118506	5267.337816
723.450805	5243.556173
723.783056	5272.278147
724.115259	5250.371813
724.447412	5235.785234
724.779518	5286.690806
725.111574	5286.683244
725.443582	5323.483667
725.775542	5316.975538
726.107453	5403.146501
726.439315	5369.668198
726.771129	5443.768119
727.102895	5504.813971
727.434612	5548.457761
727.766281	5579.428089
728.097901	5632.040091
728.429473	5644.990816
728.760996	5656.784595
729.092471	5677.654972
729.423897	5663.577550
729.755276	5639.095186
730.086606	5649.968955
730.417887	5739.709055
730.749120	5832.662891
731.080305	5869.871648
731.411442	5944.334531
731.742530	5968.582481
732.073570	5994.688096
732.404562	6059.809722
732.735506	6050.959976
733.066401	6029.479619
733.397249	5962.855730
733.728048	5871.746957
734.058798	5724.641046
734.389501	5597.785451
734.720156	5511.115413
735.050762	5407.678498
735.381320	5331.063042
735.711831	5276.132109
736.042293	5201.916242
736.372707	5195.012382
736.703073	5150.607378
737.033391	5180.909754
737.363661	5164.737733
737.693883	5175.621584
738.024056	5204.509916
738.354182	5229.650150
738.684260	5278.582110
739.014290	5313.406401
739.344272	5346.735989
739.674207	5400.671294
740.004093	5435.341830
740.333931	5444.983037
740.663722	5464.900636
740.993464	5473.095031
741.323159	5451.695333
741.652806	5412.928860
741.982405	5385.280652
742.311956	5332.961037
742.641460	5312.685516
742.970915	5262.536117
743.300323	5200.638310
743.629683	5165.947610
743.958996	5117.360969
744.288260	5070.977312
744.617477	5002.052136
744.946647	4993.101568
745.275768	4938.130306
745.604842	4904.480604
745.933869	4872.643197
746.262847	4860.068038
746.591778	4849.731152
746.920662	4830.421012
747.249498	4825.306762
747.578286	4842.275286
747.907027	4863.241445
748.235720	4908.495883
748.564365	4917.128859
748.892963	4900.538421
749.221514	4919.074744
749.550017	4899.220160
749.878473	4895.398965
750.206881	4855.495712
750.535242	4846.174618
750.863555	4829.843800
751.191821	4807.108197
751.520039	4812.318229
751.848210	4790.484992
752.176334	4795.715189
752.504411	4777.191469
752.832440	4746.463116
753.160421	4761.097585
753.488356	4735.140684
753.816243	4722.046287
754.144082	4693.049570
754.471875	4676.449051
754.799620	4665.487062
755.127318	4659.510774
755.454969	4656.533972
755.782572	4648.258918
756.110129	4649.952746
756.437638	4637.576713
756.765100	4634.481445
757.092515	4637.712824
757.419882	4634.806599
757.747203	4631.955827
758.074477	4646.260101
758.401703	4639.487311
758.728882	4666.575951
759.056014	4678.006767
759.383099	4700.996949
759.710138	4729.030806
760.037129	4752.948560
760.364073	4763.744191
760.690970	4763.741671
761.017820	4768.016569
761.344623	4798.208039
761.671379	4861.187174
761.998088	4947.849650
762.324751	5178.520247
762.651366	5638.946472
762.977935	6325.637326
763.304456	6883.151132
763.630931	7183.218253
763.957359	7121.224664
764.283740	6827.506876
764.610074	6506.372773
764.936362	6108.900478
765.262602	5792.469771
765.588796	5446.873469
765.914943	5194.881312
766.241044	4968.165500
766.567097	4805.714317
766.893104	4652.783354
767.219064	4547.700502
767.544978	4458.315803
767.870845	4370.945045
768.196665	4324.947037
768.522438	4274.427114
768.848165	4233.863469
769.173846	4190.746480
769.499479	4168.230167
769.825066	4129.239362
770.150607	4094.430195
770.476101	4077.663317
770.801548	4056.354360
771.126949	4025.525184
771.452303	4002.449302
771.777611	3967.100731
772.102872	3967.141060
772.428087	3937.582255
772.753256	3912.358842
773.078378	3891.566602
773.403453	3863.247921
773.728482	3833.449660
774.053465	3820.027588
774.378401	3801.415648
774.703291	3779.930251
775.028135	3753.524687
775.352932	3746.640991
775.677683	3727.114082
776.002388	3709.540619
776.327046	3707.768654
776.651658	3690.996735
776.976224	3670.806914
777.300743	3668.614012
777.625216	3656.149759
777.949643	3643.241885
778.274024	3643.430928
778.598359	3627.115233
778.922647	3631.233856
779.246889	3617.796661
779.571086	3619.490488
779.895236	3615.722226
780.219339	3618.013430
780.543397	3618.774644
780.867409	3632.836943
781.191374	3632.766367
781.515294	3624.934934
781.839167	3643.930002
782.162995	3640.655773
782.486776	3628.947693
782.810511	3622.764718
783.134201	3610.555043
783.457844	3611.951443
783.781441	3604.180504
784.104993	3596.381839
784.428498	3588.671394
784.751958	3587.922783
785.075372	3582.536310
785.398739	3569.552818
785.722061	3576.862491
786.045337	3577.812749
786.368568	3600.502982
786.691752	3595.781942
787.014891	3642.631905
787.337983	3687.064635
787.661030	3775.637708
787.984031	3872.654714
788.306987	3947.730097
788.629897	3998.098786
788.952760	4004.901823
789.275579	3986.892301
789.598351	3940.664920
789.921078	3888.592322
790.243759	3826.634020
790.566395	3779.592493
790.888984	3729.952251
791.211529	3696.761294
791.534027	3649.245899
791.856480	3611.956484
792.178888	3590.513936
792.501249	3574.503231
792.823566	3542.191956
793.145836	3536.636604
793.468062	3524.192516
793.790241	3510.220958
794.112375	3517.636495
794.434464	3537.967469
794.756507	3539.971327
795.078505	3558.802558
795.400457	3596.971654
795.722364	3643.781288
796.044226	3693.187116
796.366042	3734.645566
796.687812	3733.392839
797.009538	3758.281015
797.331218	3743.737287
797.652852	3738.970876
797.974442	3717.583780
798.295986	3707.393088
798.617484	3683.331661
798.938938	3655.459121
799.260346	3639.153509
799.581709	3606.580093
799.903026	3593.783124
800.224299	3577.210331
800.545526	3541.642470
800.866708	3524.729399
801.187845	3513.830424
801.508936	3491.757732
801.829983	3481.675424
802.150984	3455.927731
802.471940	3445.026236
802.792851	3438.926440
803.113717	3428.783638
803.434538	3424.077721
803.755314	3409.594486
804.076045	3408.528282
804.396731	3396.888258
804.717372	3396.026221
805.037967	3394.556724
805.358518	3392.366343
805.679024	3409.791091
805.999485	3408.855957
806.319901	3410.196904
806.640272	3412.740166
806.960598	3424.806168
807.280879	3424.241559
807.601115	3438.951646
807.921306	3425.156528
808.241453	3428.314811
808.561554	3435.543826
808.881611	3432.957714
809.201623	3434.417128
809.521590	3428.967640
809.841513	3422.570416
810.161390	3432.342693
810.481223	3411.593304
810.801011	3409.491143
811.120755	3408.470309
811.440453	3396.303484
811.760107	3390.183523
812.079716	3383.186402
812.399281	3373.283055
812.718801	3372.045452
813.038276	3363.389791
813.357707	3355.286136
813.677093	3365.222250
813.996434	3350.224817
814.315731	3353.798995
814.634983	3357.824357
814.954191	3355.298739
815.273354	3375.929661
815.592473	3384.081207
815.911547	3403.461922
816.230577	3417.370466
816.549562	3442.893828
816.868502	3461.848566
817.187399	3479.608551
817.506250	3507.047552
817.825058	3518.334695
818.143821	3561.008062
818.462539	3604.782922
818.781213	3662.594874
819.099843	3744.309458
819.418429	3899.723189
819.736970	4046.801373
820.055466	4233.888675
820.373919	4469.023214
820.692327	4807.387981
821.010691	5317.018387
821.329011	6388.931533
821.647286	8123.327911
821.965517	10282.338156
822.283704	11902.345712
822.601847	12965.184781
822.919945	12561.521948
823.237999	11894.448745
823.556010	10999.699390
823.873976	10054.001613
824.191897	9090.102751
824.509775	8327.350968
824.827609	7522.208123
825.145398	6981.332645
825.463144	6601.307783
825.780845	6469.794161
826.098502	6538.351333
826.416116	6915.538025
826.733685	7415.759118
827.051210	7699.931481
827.368692	7599.002540
827.686129	7159.176991
828.003522	6613.517457
828.320872	6048.472167
828.638177	5592.545172
828.955439	5229.652671
829.272656	4890.998038
829.589830	4605.789718
829.906960	4344.983103
830.224046	4137.166577
830.541088	3967.700628
830.858086	3853.513453
831.175041	3754.048967
831.491952	3710.291751
831.808819	3694.157538
832.125642	3728.563413
832.442421	3830.377077
832.759157	4044.933626
833.075849	4426.753139
833.392497	4881.571080
833.709101	5273.830822
834.025662	5379.886617
834.342179	5252.388275
834.658653	4985.512111
834.975083	4715.132345
835.291469	4472.690653
835.607811	4250.058176
835.924110	4089.996500
836.240366	3932.432716
836.556578	3769.931122
836.872746	3633.812406
837.188871	3520.215046
837.504952	3425.958072
837.820990	3350.615507
838.136984	3297.645583
838.452935	3268.152312
838.768842	3255.093203
839.084706	3283.235444
839.400526	3421.395827
839.716303	3646.168274
840.032037	3854.698124
840.347727	3918.773710
840.663373	3829.875482
840.978977	3682.948533
841.294537	3549.783933
841.610054	3448.829787
841.925527	3369.741644
842.240957	3304.549443
842.556344	3242.591142
842.871687	3182.785413
843.186987	3120.542286
843.502244	3067.942887
843.817458	3029.491486
844.132629	2997.124758
844.447756	2975.389823
844.762840	2954.821915
845.077881	2937.210644
845.392879	2922.561051
845.707833	2915.286666
846.022745	2901.161353
846.337613	2897.814027
846.652438	2887.116699
846.967221	2884.288611
847.281960	2876.021119
847.596656	2872.991386
847.911309	2866.901672
848.225919	2861.668954
848.540485	2859.680219
848.855009	2853.484641
849.169490	2852.141173
849.483928	2846.739577
849.798323	2843.563650
850.112675	2842.137003
850.426984	2840.390244
850.741251	2838.025942
851.055474	2835.820438
851.369654	2837.017712
851.683792	2837.978052
851.997887	2837.166426
852.311938	2837.163905
852.625947	2835.036538
852.939914	2837.499142
853.253837	2838.446879
853.567718	2833.819100
853.881555	2834.000581
854.195350	2833.803976
854.509103	2834.792042
854.822812	2836.248936
855.136479	2834.358503
855.450103	2836.765654
855.763685	2832.712566
856.077224	2832.452947
856.390720	2833.199038
856.704173	2837.947805
857.017584	2837.294975
857.330953	2838.993844
857.644278	2841.892507
857.957561	2845.338136
858.270802	2845.771675
858.584000	2846.288394
858.897155	2844.617251
859.210268	2841.300172
859.523339	2839.603824
859.836367	2839.429904
860.149352	2836.906806
860.462295	2838.963597
860.775195	2831.076712
861.088054	2832.468070
861.400869	2829.115703
861.713642	2829.372802
862.026373	2830.355827
862.339062	2835.097032
862.651708	2834.053513
862.964312	2843.235975
863.276873	2844.292097
863.589392	2851.858869
863.901869	2857.817512
864.214303	2865.656507
864.526696	2870.299409
864.839045	2878.647560
865.151353	2882.619989
865.463619	2888.087121
865.775842	2889.569220
866.088023	2891.590723
866.400162	2893.183727
866.712258	2893.980230
867.024313	2897.017525
867.336325	2896.142885
867.648296	2899.006260
867.960224	2902.104049
868.272110	2903.349214
868.583954	2901.264697
868.895755	2906.230233
869.207515	2900.934501
869.519233	2911.435225
869.830909	2914.527973
870.142542	2916.902356
870.454134	2917.592994
870.765684	2923.352513
871.077191	2928.945673
871.388657	2934.294337
871.700081	2938.992692
872.011463	2944.961418
872.322803	2952.031637
872.634101	2958.479273
872.945357	2964.417752
873.256571	2975.294041
873.567744	2980.723364
873.878874	2982.273519
874.189963	2993.119561
874.501010	2994.652072
874.812015	2994.586537
875.122979	3005.326715
875.433900	3004.477281
875.744780	3010.065400
876.055618	3015.028416
876.366415	3016.210566
876.677169	3020.956813
876.987882	3022.517050
877.298554	3037.363248
877.609183	3049.467058
877.919771	3067.990778
878.230317	3092.137905
878.540822	3129.545787
878.851285	3177.610668
879.161707	3244.206831
879.472087	3356.226311
879.782425	3514.755476
880.092722	3786.312351
880.402977	4207.450344
880.713191	4750.390175
881.023363	5342.992933
881.333494	5777.328666
881.643583	6063.275515
881.953631	6136.402492
882.263637	6078.341003
882.573602	5941.884530
882.883526	5772.668119
883.193408	5571.914249
883.503248	5354.660683
883.813048	5136.232528
884.122806	4923.493315
884.432522	4683.063044
884.742197	4456.503508
885.051831	4253.768465
885.361424	4056.878640
885.670975	3896.443919
885.980485	3744.324581
886.289954	3623.934265
886.599382	3519.983152
886.908768	3436.473918
887.218113	3356.077597
887.527417	3294.245324
887.836680	3237.562591
888.145901	3188.411341
888.455082	3154.318017
888.764221	3122.220991
889.073319	3089.622369
889.382376	3072.517734
889.691392	3055.508881
890.000366	3043.730225
890.309300	3039.241078
890.618193	3037.043135
890.927044	3031.717156
891.235855	3032.208668
891.544625	3036.327291
891.853353	3039.596479
892.162041	3055.667678
892.470687	3081.952254
892.779293	3116.108592
893.087858	3162.855211
893.396381	3238.253229
893.704864	3345.372707
894.013306	3499.155625
894.321707	3684.382741
894.630068	3837.545598
894.938387	3914.468564
895.246665	3919.466868
895.554903	3865.163559
895.863100	3778.070065
896.171256	3705.608519
896.479371	3629.522384
896.787446	3556.002197
897.095480	3486.532576
897.403473	3429.023093
897.711425	3368.564535
898.019336	3324.030982
898.327207	3268.517796
898.635038	3222.008110
898.942827	3171.175636
899.250576	3129.918832
899.558284	3087.608428
899.865952	3064.898030
900.173579	3035.601365
900.481165	3010.897190
900.788711	2991.405569
901.096216	2977.933085
901.403681	2962.091259
901.711105	2957.198819
902.018489	2949.518622
902.325832	2963.359109
902.633135	2969.547126
902.940397	3007.035666
903.247619	3097.897423
903.554800	3271.431583
903.861941	3547.744787
904.169041	3805.897234
904.476101	3973.510558
904.783121	3995.658868
905.090100	3931.600926
905.397039	3828.620235
905.703938	3723.676015
906.010796	3621.295221
906.317614	3533.987478
906.624391	3451.269705
906.931129	3380.070969
907.237826	3310.424908
907.544483	3246.540886
907.851099	3176.574711
908.157675	3101.159050
908.464211	3029.252031
908.770707	2975.241109
909.077163	2924.396031
909.383578	2885.533776
909.689954	2861.154756
909.996289	2841.032991
910.302584	2829.181238
910.608839	2817.344609
910.915054	2810.947385
911.221229	2802.949594
911.527363	2806.357414
911.833458	2806.090233
912.139513	2811.655667
912.445527	2814.539207
912.751502	2824.561021
913.057436	2839.366889
913.363331	2858.321628
913.669186	2888.475290
913.975000	2925.605908
914.280775	2983.231338
914.586510	3064.860222
914.892205	3173.721418
915.197859	3323.350426
915.503475	3501.625791
915.809050	3674.144158
916.114585	3802.305412
916.420081	3877.882390
916.725536	3914.473606
917.030952	3873.564642
917.336328	3832.988395
917.641665	3788.916107
917.946961	3725.707600
918.252218	3667.205009
918.557435	3595.096345
918.862612	3531.192158
919.167750	3469.342242
919.472848	3393.286353
919.777906	3330.342507
920.082925	3260.724172
920.387904	3190.911753
920.692843	3138.491315
920.997743	3085.498705
921.302603	3033.902496
921.607423	2999.612567
921.912204	2965.678040
922.216946	2938.760799
922.521647	2915.175761
922.826310	2895.144736
923.130932	2874.672610
923.435516	2857.046216
923.740059	2844.362673
924.044564	2826.769046
924.349028	2815.290339
924.653454	2798.445323
924.957840	2785.610545
925.262186	2777.073351
925.566493	2767.691764
925.870761	2751.474372
926.174989	2750.813981
926.479178	2744.293248
926.783328	2734.014336
927.087438	2728.965620
927.391509	2721.320710
927.695541	2714.676470
927.999533	2708.846375
928.303486	2705.597352
928.607400	2701.249356
928.911275	2700.818338
929.215110	2696.787935
929.518906	2692.331555
929.822663	2690.912470
930.126381	2690.191585
930.430060	2688.959023
930.733699	2688.056657
931.037299	2690.060515
931.340861	2689.281657
931.644383	2692.881041
931.947866	2692.293747
932.251309	2691.121678
932.554714	2689.654702
932.858080	2692.525640
933.161407	2689.004394
933.464694	2686.312417
933.767943	2686.733354
934.071153	2685.105061
934.374323	2684.217818
934.677455	2685.341995
934.980548	2682.634896
935.283602	2681.805626
935.586617	2680.676407
935.889593	2680.031140
936.192530	2680.961233
936.495428	2682.261850
936.798287	2687.895340
937.101108	2691.441792
937.403890	2697.135775
937.706632	2707.986858
938.009336	2715.634289
938.312002	2729.462174
938.614628	2738.077506
938.917216	2748.109402
939.219765	2755.686256
939.522275	2763.661362
939.824747	2764.498193
940.127179	2764.190683
940.429573	2766.212185
940.731929	2763.860487
941.034246	2763.109355
941.336524	2764.246135
941.638763	2765.541712
941.940964	2764.283944
942.243126	2756.707090
942.545250	2755.174579
942.847335	2747.754001
943.149381	2743.388361
943.451389	2740.124214
943.753359	2730.586351
944.055290	2727.806155
944.357182	2721.625700
944.659036	2718.648899
944.960851	2716.408106
945.262628	2714.026161
945.564367	2713.239741
945.866067	2711.697148
946.167729	2710.678835
946.469352	2709.403423
946.770937	2711.797971
947.072484	2705.879656
947.373992	2706.567774
947.675462	2702.358410
947.976893	2701.483770
948.278286	2698.925384
948.579641	2698.978317
948.880958	2694.937832
949.182236	2696.949252
949.483476	2697.808769
949.784678	2695.782225
950.085841	2692.674354
950.386967	2697.453367
950.688054	2698.680888
950.989103	2701.350179
951.290114	2702.471836
951.591087	2707.502908
951.892021	2709.859647
952.192917	2717.625545
952.493776	2721.983622
952.794596	2723.019579
953.095378	2726.397152
953.396122	2723.725341
953.696828	2724.042933
953.997496	2724.806668
954.298126	2722.200392
954.598718	2719.813405
954.899272	2715.780482
955.199788	2711.855944
955.500266	2706.421580
955.800706	2697.223995
956.101108	2689.712676
956.401472	2687.693694
956.701798	2681.334278
957.002087	2671.662824
957.302337	2667.899603
957.602550	2663.367606
957.902724	2659.599343
958.202861	2655.311842
958.502960	2651.268837
958.803022	2643.671818
959.103045	2642.454379
959.403031	2636.127731
959.702979	2634.194448
960.002889	2630.461474
960.302762	2627.872842
960.602596	2627.517440
960.902393	2625.072481
961.202153	2621.314300
961.501875	2621.251286
961.801559	2615.401027
962.101205	2615.353136
962.400814	2616.323558
962.700385	2615.832046
962.999918	2615.108640
963.299414	2613.903804
963.598873	2616.588219
963.898293	2611.995727
964.197677	2613.374483
964.497022	2612.522528
964.796331	2612.945985
965.095601	2610.158227
965.394835	2608.305603
965.694030	2606.465582
965.993189	2609.691920
966.292309	2608.499687
966.591393	2607.350304
966.890439	2606.510952
967.189447	2607.640171
967.488419	2605.117073
967.787353	2608.010695
968.086249	2607.597321
968.385108	2608.325767
968.683930	2609.515480
968.982714	2608.219903
969.281462	2608.996241
969.580172	2610.095212
969.878844	2610.314503
970.177480	2613.238372
970.476078	2610.185953
970.774639	2617.341871
971.073162	2615.343054
971.371649	2613.351798
971.670098	2615.280039
971.968510	2616.043774
972.266885	2613.906325
972.565223	2620.545524
972.863524	2620.248096
973.161788	2622.582151
973.460014	2622.105762
973.758204	2623.378653
974.056356	2625.160701
974.354471	2624.296143
974.652550	2624.528036
974.950591	2623.469394
975.248595	2623.056019
975.546563	2624.134826
975.844493	2621.778087
976.142386	2625.362347
976.440243	2623.061060
976.738062	2620.888323
977.035845	2620.401852
977.333590	2618.087962
977.631299	2619.224742
977.928971	2617.442694
978.226606	2617.583847
978.524204	2616.384052
978.821765	2616.373970
979.119290	2613.472786
979.416777	2611.811725
979.714228	2614.574278
980.011642	2613.548403
980.309020	2619.953189
980.606360	2617.974536
980.903664	2621.972171
981.200931	2627.696401
981.498162	2633.652524
981.795356	2645.133752
982.092513	2661.779642
982.389633	2677.016530
982.686717	2695.522606
982.983764	2713.970708
983.280775	2723.742985
983.577749	2729.920919
983.874686	2730.362020
984.171587	2728.544684
984.468451	2722.132336
984.765279	2714.792416
985.062070	2707.213041
985.358824	2701.382947
985.655543	2692.407172
985.952224	2681.883764
986.248869	2671.231806
986.545478	2658.800320
986.842050	2644.644760
987.138586	2637.428349
987.435086	2623.552573
987.731549	2614.458331
988.027975	2614.549072
988.324366	2609.424739
988.620719	2607.950202
988.917037	2605.722012
989.213318	2600.940477
989.509563	2599.002153
989.805772	2599.143306
990.101944	2597.144488
990.398080	2599.438213
990.694180	2595.133068
990.990244	2598.331680
991.286271	2595.617019
991.582262	2596.463932
991.878217	2598.583738
992.174136	2597.265476
992.470019	2599.559201
992.765865	2600.610282
993.061676	2603.450972
993.357450	2603.322422
993.653188	2602.200766
993.948890	2604.814604
994.244556	2610.606890
994.540186	2614.531428
994.835780	2620.323714
995.131337	2624.817902
995.426859	2628.482821
995.722345	2640.495891
996.017795	2649.131387
996.313208	2657.519867
996.608586	2665.389108
996.903928	2669.636281
997.199234	2667.478667
997.494504	2671.168791
997.789738	2668.570077
998.084936	2665.439520
998.380099	2659.516164
998.675225	2655.190854
998.970316	2649.610297
999.265371	2642.819863
999.560390	2635.943729
999.855373	2630.622791
1000.150320	2623.902933
1000.445232	2616.996552
1000.740108	2610.833742
1001.034948	2606.800818
1001.329752	2604.706219
1001.624521	2603.685385
1001.919254	2596.957966
1002.213951	2594.649117
1002.508613	2592.110896
1002.803239	2592.146184
1003.097829	2592.463777
1003.392384	2593.212388
1003.686903	2593.046030
1003.981386	2593.051071
1004.275834	2589.925556
1004.570246	2591.815989
1004.864623	2586.946234
1005.158964	2587.024372
1005.453270	2590.769949
1005.747540	2585.330544
1006.041775	2588.380442
1006.335974	2589.224836
1006.630138	2585.025554
1006.924266	2585.504464
1007.218359	2585.438929
1007.512416	2586.336254
1007.806438	2586.434557
1008.100425	2586.172417
1008.394376	2586.769794
1008.688292	2585.945565
1008.982172	2585.244845
1009.276017	2586.558065
1009.569827	2585.005390
1009.863602	2584.002200
1010.157341	2586.724423
1010.451045	2583.573702
1010.744714	2585.829618
1011.038347	2585.023034
1011.331945	2585.118816
1011.625508	2585.837180
1011.919036	2582.494895
1012.212528	2585.771645
1012.505986	2580.788465
1012.799408	2582.651171
1013.092795	2582.429360
1013.386147	2582.504977
1013.679464	2581.388362
1013.972745	2578.298135
1014.265992	2581.446335
1014.559204	2584.092941
1014.852380	2583.621593
1015.145521	2582.225193
1015.438628	2581.655543
1015.731699	2584.529001
1016.024736	2583.442632
1016.317737	2584.294587
1016.610703	2582.815008
1016.903635	2580.470872
1017.196531	2578.698906
1017.489393	2582.338619
1017.782219	2581.164031
1018.075011	2582.242837
1018.367768	2585.282653
1018.660490	2585.423806
1018.953177	2585.423806
1019.245829	2585.423806
