Dividing Wavelength (nm)	Counts (n)	Blue Motor Position (mm): 28.500000	Red Motor Position (mm): 0.000000	
326.493990	2154.284164
326.888308	2154.284164
327.282561	2154.284164
327.676750	2130.807511
328.070874	2132.952522
328.464933	2138.497791
328.858929	2145.963740
329.252859	2157.258445
329.646726	2172.165137
330.040528	2187.732220
330.434265	2206.810467
330.827938	2226.675133
331.221547	2245.995355
331.615091	2261.988416
332.008571	2283.194030
332.401986	2304.049283
332.795338	2322.598209
333.188625	2343.808863
333.581847	2366.514220
333.975006	2383.013917
334.368100	2403.143244
334.761129	2418.785945
335.154095	2433.927050
335.546996	2462.187759
335.939833	2491.164311
336.332606	2503.452123
336.725315	2518.149608
337.117960	2521.980884
337.510540	2530.112266
337.903056	2541.449821
338.295508	2547.690769
338.687896	2553.977088
339.080220	2562.904971
339.472480	2570.570046
339.864676	2574.504666
340.256807	2575.780078
340.648875	2577.489029
341.040879	2578.035995
341.432818	2579.160172
341.824694	2581.080852
342.216506	2584.584453
342.608253	2578.739236
342.999937	2581.186716
343.391557	2577.804102
343.783113	2576.808474
344.174605	2577.877198
344.566033	2575.492732
344.957397	2572.170612
345.348697	2572.278997
345.739934	2568.074675
346.131106	2568.183059
346.522215	2567.963769
346.913260	2561.112841
347.304241	2566.859757
347.695159	2561.490928
348.086012	2560.812893
348.476802	2558.345248
348.867528	2560.139898
349.258191	2555.943138
349.648789	2554.672767
350.039324	2551.179247
350.429796	2555.418858
350.820203	2553.304094
351.210548	2552.202602
351.600828	2546.266643
351.991045	2551.695966
352.381198	2550.551624
352.771288	2550.695297
353.161314	2549.303938
353.551276	2551.448949
353.941175	2550.014741
354.331010	2547.907539
354.720782	2552.477345
355.110490	2548.676315
355.500135	2547.148845
355.889717	2548.850234
356.279235	2549.745039
356.668689	2551.940462
357.058080	2548.545245
357.447408	2548.630944
357.836672	2547.017775
358.225873	2547.988197
358.615010	2549.172868
359.004084	2554.271995
359.393095	2554.103117
359.782043	2552.865513
360.170927	2554.561862
360.559748	2554.372818
360.948505	2554.582026
361.337199	2557.047151
361.725830	2557.339538
362.114398	2556.197716
362.502903	2559.650907
362.891344	2556.963972
363.279722	2559.449260
363.668037	2558.105793
364.056289	2558.080587
364.444478	2560.802810
364.832603	2559.202244
365.220665	2559.355999
365.608665	2562.113510
365.996601	2559.393808
366.384474	2561.437996
366.772284	2560.434806
367.160031	2561.135526
367.547715	2562.776422
367.935336	2560.276010
368.322893	2562.098387
368.710388	2565.667524
369.097820	2567.472257
369.485189	2564.064437
369.872495	2564.016546
370.259738	2563.086453
370.646918	2562.778942
371.034035	2566.539643
371.421090	2566.675754
371.808081	2564.616443
372.195010	2562.642831
372.581875	2565.551577
372.968678	2565.975034
373.355418	2564.649211
373.742096	2568.301527
374.128710	2568.014181
374.515262	2569.163564
374.901751	2564.238357
375.288177	2568.064592
375.674540	2566.605178
376.060841	2567.416804
376.447079	2569.559294
376.833254	2567.847823
377.219367	2567.043759
377.605417	2564.886145
377.991404	2564.878583
378.377329	2566.232133
378.763191	2565.448233
379.148991	2570.857392
379.534727	2571.595921
379.920402	2569.672720
380.306013	2571.726991
380.691563	2569.899572
381.077049	2570.055848
381.462474	2571.021229
381.847835	2569.793708
382.233134	2570.391085
382.618371	2569.282031
383.003545	2571.041394
383.388657	2571.623647
383.773706	2571.623647
384.158693	2572.382341
384.543618	2575.265881
384.928480	2575.729667
385.313280	2575.966601
385.698017	2573.992989
386.082692	2575.308730
386.467305	2575.737228
386.851856	2574.860068
387.236344	2576.415264
387.620770	2575.772517
388.005133	2574.517269
388.389435	2574.860068
388.773674	2573.526683
389.157851	2576.626992
389.541965	2576.175809
389.926018	2576.412743
390.310008	2576.967270
390.693936	2577.287383
391.077802	2577.335274
391.461606	2574.560119
391.845348	2577.262178
392.229027	2578.063721
392.612645	2578.837538
392.996200	2579.626479
393.379694	2578.744277
393.763125	2579.548341
394.146494	2578.814853
394.529801	2581.043043
394.913047	2581.481623
395.296230	2583.349371
395.679351	2580.579257
396.062410	2580.642271
396.445408	2582.845255
396.828343	2580.690162
397.211217	2579.742425
397.594028	2580.428022
397.976778	2578.933320
398.359466	2581.920204
398.742092	2578.366190
399.124656	2583.830801
399.507158	2583.692169
399.889598	2580.659915
400.271977	2580.092785
400.654294	2586.815164
401.036549	2581.668146
401.418742	2583.369535
401.800874	2582.769638
402.182944	2584.750812
402.564952	2584.937334
402.946898	2582.401634
403.328783	2582.535224
403.710606	2583.790472
404.092367	2586.469845
404.474067	2583.160328
404.855705	2585.985894
405.237282	2584.750812
405.618797	2586.578230
406.000250	2585.282653
406.381642	2586.028744
406.762972	2588.093097
407.144240	2587.528487
407.525447	2590.444795
407.906593	2587.364650
408.287677	2590.119640
408.668700	2589.381111
409.049661	2587.818354
409.430560	2586.747108
409.811399	2589.600402
410.192176	2589.013107
410.572891	2588.519074
410.953545	2588.667788
411.334138	2589.166862
411.714669	2589.935638
412.095139	2589.043354
412.475547	2590.432192
412.855894	2588.481265
413.236180	2592.693149
413.616405	2591.747933
413.996568	2588.456060
414.376670	2592.889754
414.756711	2587.515884
415.136691	2592.839343
415.516609	2592.935125
415.896466	2592.226843
416.276262	2591.190886
416.655997	2588.698035
417.035670	2588.632500
417.415283	2593.542584
417.794834	2588.682912
418.174324	2592.567121
418.553753	2594.530650
418.933121	2593.262800
419.312428	2592.494024
419.691674	2596.166504
420.070859	2591.480752
420.449983	2592.965372
420.829045	2595.191041
421.208047	2594.734817
421.586988	2594.979313
421.965867	2596.577358
422.344686	2595.427975
422.723444	2595.987543
423.102141	2594.467636
423.480777	2597.290682
423.859352	2598.825713
424.237866	2600.481732
424.616319	2599.501228
424.994712	2596.423603
425.373044	2599.264293
425.751314	2599.791094
426.129524	2598.765219
426.507673	2599.443254
426.885762	2596.804210
427.263789	2601.525251
427.641756	2601.898296
428.019662	2600.748913
428.397508	2603.264449
428.775292	2601.898296
429.153016	2599.523913
429.530679	2604.812083
429.908282	2604.802001
430.285824	2602.480550
430.663305	2605.502721
431.040726	2604.517176
431.418086	2605.220417
431.795385	2608.149327
432.172624	2606.538678
432.549802	2608.403905
432.926920	2608.260232
433.303977	2610.564040
433.680974	2611.547065
434.057910	2611.103443
434.434786	2611.965481
434.811601	2616.255502
435.188355	2615.922786
435.565050	2618.156017
435.941683	2620.240535
436.318257	2621.352109
436.694770	2622.151132
437.071222	2624.762450
437.447614	2625.367388
437.823946	2628.830661
438.200218	2634.330560
438.576429	2638.018164
438.952580	2642.431694
439.328670	2647.414874
439.704700	2650.333702
440.080670	2655.508447
440.456580	2663.085301
440.832429	2667.382885
441.208218	2669.870694
441.583947	2678.997703
441.959616	2684.386697
442.335224	2691.940866
442.710773	2699.583255
443.086261	2709.201777
443.461689	2714.963815
443.837057	2724.778942
444.212365	2737.727146
444.587612	2744.540265
444.962800	2754.897316
445.337927	2768.137906
445.712995	2769.622526
446.088002	2797.774850
446.462949	2808.739359
446.837837	2828.886331
447.212664	2838.618278
447.587431	2879.176881
447.962139	2933.008843
448.336786	2990.488079
448.711374	3004.641118
449.085901	2974.416880
449.460369	2981.766883
449.834776	2994.624346
450.209124	3057.439643
450.583412	3078.027715
450.957640	3118.001545
451.331808	3115.143211
451.705917	3111.727829
452.079965	3136.363948
452.453954	3164.743123
452.827883	3181.325999
453.201752	3206.257025
453.575562	3235.783063
453.949311	3294.567958
454.323001	3322.390086
454.696632	3347.174919
455.070202	3419.586053
455.443713	3457.369501
455.817164	3513.207842
456.190556	3565.862694
456.563888	3589.104933
456.937160	3646.004437
457.310373	3632.398363
457.683526	3679.306299
458.056619	3714.397771
458.429653	3738.681009
458.802628	3794.612611
459.175542	3839.771267
459.548398	3935.222995
459.921194	4049.306827
460.293930	4114.451137
460.666607	4265.693315
461.039224	4400.760950
461.411782	4508.129965
461.784280	4505.843802
462.156719	4548.817117
462.529099	4581.763578
462.901419	4556.978746
463.273680	4532.856824
463.645882	4572.601281
464.018024	4614.236171
464.390106	4700.374367
464.762130	4886.334970
465.134094	5159.179861
465.505999	5567.745215
465.877845	6023.387385
466.249631	6287.468229
466.621358	6308.671322
466.993026	6258.905052
467.364634	6193.985072
467.736184	6078.192289
468.107674	6036.469179
468.479105	6033.507501
468.850477	6045.102155
469.221790	5980.381302
469.593043	5881.625098
469.964238	5857.805646
470.335373	5883.084512
470.706449	6046.533843
471.077467	6227.838941
471.448425	6758.281752
471.819324	7239.422077
472.190164	7312.365053
472.560945	6994.520303
472.931667	6687.395567
473.302330	6581.044865
473.672934	6537.383431
474.043479	6638.786241
474.413965	6603.339368
474.784393	6600.294511
475.154761	6752.993581
475.525070	6805.129194
475.895321	6802.661549
476.265513	6914.083652
476.635645	7089.054541
477.005719	7116.561597
477.375734	7230.365645
477.745691	7352.752257
478.115588	7560.175573
478.485427	7806.814025
478.855207	8261.425279
479.224928	8673.176643
479.594591	9046.262357
479.964194	9095.340510
480.333739	9207.538951
480.703226	9248.697451
481.072653	9373.012305
481.442022	9513.030353
481.811333	9674.982462
482.180584	9553.523421
482.549777	9535.758395
482.918912	9505.682871
483.287988	9512.979942
483.657005	9453.789234
484.025964	9399.372498
484.394864	9478.367379
484.763706	9462.061767
485.132489	9398.356706
485.501213	9402.619002
485.869879	9473.800094
486.238487	9439.553015
486.607036	9524.002424
486.975527	9488.842897
487.343959	9552.618534
487.712333	9610.380075
488.080648	9664.317901
488.448905	9774.852760
488.817104	9795.655082
489.185244	9970.061361
489.553326	10184.761583
489.921350	10654.886987
490.289315	11276.247007
490.657222	11579.618605
491.025070	11755.176787
491.392861	11681.480159
491.760593	11528.554237
492.128267	11290.150510
492.495883	11062.640716
492.863440	10833.611015
493.230939	10617.554722
493.598380	10452.066245
493.965763	10429.171844
494.333088	10303.846239
494.700354	10239.846271
495.067563	10210.196724
495.434713	10220.387417
495.801805	10275.623339
496.168839	10231.780424
496.535815	10199.519560
496.902733	10255.292366
497.269593	10219.747190
497.636395	10220.216018
498.003139	10329.835908
498.369825	10266.418193
498.736453	10359.656853
499.103023	10304.645262
499.469535	10307.687598
499.835989	10360.027378
500.202385	10332.888327
500.568723	10354.567809
500.935003	10424.148335
501.301226	10387.725998
501.667390	10552.667511
502.033497	10646.485904
502.399546	10576.917981
502.765537	10491.425053
503.131470	10591.134035
503.497345	10688.559374
503.863163	10465.344644
504.228923	10601.917063
504.594625	10718.811339
504.960269	10627.508481
505.325856	10784.666452
505.691385	10660.218007
506.056856	10726.052956
506.422270	10823.508542
506.787625	10763.475962
507.152924	10814.666358
507.518164	10882.421987
507.883347	10743.739844
508.248472	10822.754890
508.613540	10936.669843
508.978550	11001.383135
509.343503	10996.722588
509.708398	11041.586337
510.073236	11166.158290
510.438016	11177.183293
510.802738	11099.519277
511.167403	11227.022661
511.532010	11289.175047
511.896561	11384.828420
512.261053	11576.293964
512.625488	11492.812456
512.989866	11479.463481
513.354186	11459.351797
513.718449	11473.222532
514.082655	11620.439348
514.446803	11573.773387
514.810894	11677.424551
515.174927	11677.348934
515.538904	11661.552478
515.902822	11819.499390
516.266684	11690.004751
516.630488	11798.855865
516.994235	11787.921602
517.357925	11904.399983
517.721558	11959.310751
518.085133	12025.485977
518.448651	12050.537991
518.812112	12022.219310
519.175516	12015.350738
519.538863	12111.001591
519.902152	12114.462343
520.265385	12230.434087
520.628560	12245.305491
520.991678	12202.473327
521.354739	12246.648958
521.717743	12328.363542
522.080690	12302.467134
522.443580	12434.850355
522.806413	12443.316973
523.169189	12441.083742
523.531908	12503.591529
523.894569	12467.580046
524.257174	12488.170639
524.619722	12591.045466
524.982213	12567.339440
525.344647	12552.694888
525.707025	12559.450034
526.069345	12670.985563
526.431608	12641.499854
526.793815	12727.002864
527.155964	12618.116462
527.518057	12650.644507
527.880093	12607.441818
528.242072	12724.716701
528.603995	12643.443219
528.965860	12655.350424
529.327669	12691.656814
529.689421	12639.765697
530.051117	12651.226760
530.412755	12692.682689
530.774337	12688.876618
531.135862	12643.571768
531.497331	12706.384545
531.858743	12670.350377
532.220098	12765.277825
532.581396	12692.133203
532.942638	12615.119496
533.303824	12673.352384
533.664953	12649.951348
534.026025	12610.214453
534.387040	12718.266545
534.747999	12686.028366
535.108902	12731.900345
535.469748	12613.914660
535.830537	12638.545738
536.191270	12677.700380
536.551947	12607.484668
536.912567	12660.941064
537.273131	12700.073020
537.633638	12579.990215
537.994089	12638.586067
538.354483	12547.061398
538.714821	12675.467148
539.075103	12763.624326
539.435328	12685.801514
539.795497	12673.642251
540.155609	12669.904235
540.515665	12764.080551
540.875665	12628.730611
541.235609	12726.917165
541.595496	12685.597347
541.955328	12859.943132
542.315102	12719.221843
542.674821	12651.226760
543.034483	12666.592197
543.394090	12661.971980
543.753640	12633.963329
544.113134	12891.180642
544.472571	12648.489414
544.831953	12930.229420
545.191278	12753.902461
545.550548	12676.283815
545.909761	12787.509313
546.268918	12833.121673
546.628019	12902.785378
546.987064	12785.704580
547.346053	12626.918316
547.704986	12833.376252
548.063863	12709.646172
548.422684	12768.441149
548.781449	12726.418090
549.140158	12827.581445
549.498811	12764.209100
549.857408	12631.745221
550.215949	12848.683715
550.574434	12816.422851
550.932864	12759.218358
551.291237	12955.132720
551.649555	12845.598529
552.007817	12902.520718
552.366022	12820.518789
552.724173	12857.893903
553.082267	12950.283130
553.440305	13039.405689
553.798288	12862.740973
554.156215	12937.821398
554.514086	12983.171617
554.871902	12920.860435
555.229661	12943.550669
555.587365	12907.282087
555.945014	12915.398345
556.302606	12901.953588
556.660143	12965.857775
557.017625	12994.166374
557.375050	12951.871093
557.732421	13055.645766
558.089735	13049.732492
558.446994	13018.429448
558.804197	13137.294814
559.161345	13128.319040
559.518437	12939.217797
559.875474	13043.393241
560.232455	13065.622209
560.589381	13115.499385
560.946251	13050.586968
561.303065	13233.220410
561.659825	13177.820650
562.016528	13099.372734
562.373177	13037.205225
562.729770	13162.382116
563.086307	13044.804764
563.442789	13162.200635
563.799216	13203.545658
564.155587	13144.266730
564.511904	13161.512517
564.868164	13170.805884
565.224370	13233.916089
565.580520	13182.526567
565.936615	13240.754414
566.292654	13179.017924
566.648638	13248.699273
567.004567	13245.883788
567.360441	13249.110127
567.716260	13222.805386
568.072023	13302.500987
568.427732	13292.587558
568.783385	13191.323380
569.138982	13303.615082
569.494525	13288.836940
569.850013	13236.892891
570.205445	13231.224113
570.560823	13241.923962
570.916145	13191.451930
571.271412	13209.022872
571.626625	13159.037311
571.981782	13160.022856
572.336884	13115.859828
572.691931	13197.546685
573.046923	13091.843771
573.401860	13063.502404
573.756743	13062.695819
574.111570	13093.701436
574.466342	13071.311151
574.821059	13112.099127
575.175722	12988.724448
575.530330	13005.816481
575.884882	12949.882358
576.239380	12945.161317
576.593823	12924.091815
576.948211	12919.494283
577.302544	12791.186835
577.656823	12810.496975
578.011047	12877.798899
578.365216	12816.760608
578.719330	12755.555960
579.073389	12718.997512
579.427394	12735.875295
579.781344	12724.338614
580.135239	12656.575424
580.489080	12680.992253
580.842866	12567.074779
581.196597	12650.770536
581.550273	12651.309939
581.903895	12612.672016
582.257463	12712.761605
582.610975	12561.779047
582.964434	12619.096966
583.317837	12545.249103
583.671186	12501.408709
584.024481	12555.812841
584.377721	12440.919904
584.730906	12510.162673
585.084037	12529.664376
585.437113	12443.107765
585.790135	12462.261629
586.143103	12375.100079
586.496016	12399.179150
586.848874	12407.277764
587.201679	12403.950602
587.554428	12281.150615
587.907124	12332.671207
588.259765	12267.829366
588.612352	12336.111795
588.964884	12192.375896
589.317362	12238.711662
589.669786	12242.038823
590.022155	12197.041484
590.374470	12295.046556
590.726731	12182.959021
591.078937	12066.531052
591.431090	12088.482756
591.783188	12019.827282
592.135232	11942.616970
592.487222	12004.623162
592.839157	12016.497600
593.191038	11948.754575
593.542866	11894.184084
593.894639	11752.847774
594.246358	11811.569655
594.598022	11817.714822
594.949633	11722.310985
595.301190	11705.478572
595.652692	11663.402582
596.004141	11759.509659
596.355535	11529.655729
596.706876	11508.692091
597.058162	11488.048566
597.409395	11570.350443
597.760573	11612.255035
598.111698	11499.446615
598.462768	11501.027016
598.813785	11507.230156
599.164748	11386.562577
599.515657	11455.805346
599.866511	11333.000317
600.217312	11461.370780
600.568060	11225.270860
600.918753	11395.843341
601.269392	11392.596838
601.619978	11294.974894
601.970510	11333.759011
602.320988	11374.254600
602.671412	11457.380706
603.021783	11378.121165
603.372100	11301.558641
603.722363	11317.198821
604.072572	11316.072123
604.422728	11324.395068
604.772830	11267.588826
605.122878	11278.102152
605.472872	11246.196689
605.822813	11310.100876
606.172701	11269.789289
606.522534	11306.277161
606.872314	11362.052487
607.222041	11297.571088
607.571714	11372.134795
607.921333	11233.951727
608.270899	11295.831890
608.620411	11358.062414
608.969870	11296.144442
609.319276	11280.060640
609.668627	11292.923144
610.017926	11376.243335
610.367171	11399.329299
610.716362	11400.271995
611.065500	11375.179652
611.414585	11383.658872
611.763616	11453.902310
612.112594	11412.547205
612.461518	11441.372522
612.810389	11492.721715
613.159207	11432.248034
613.507971	11430.680235
613.856682	11526.678928
614.205340	11484.222330
614.553945	11620.658638
614.902496	11496.810091
615.250994	11563.922972
615.599439	11557.132538
615.947830	11586.340983
616.296169	11546.901516
616.644454	11566.872047
616.992686	11585.204203
617.340864	11672.280054
617.688990	11562.808877
618.037063	11692.401819
618.385082	11658.800008
618.733048	11697.614372
619.080961	11687.368227
619.428821	11679.655262
619.776628	11682.216168
620.124382	11625.649381
620.472083	11642.910291
620.819731	11669.726709
621.167326	11588.619585
621.514868	11573.632235
621.862357	11474.780249
622.209793	11469.287912
622.557176	11389.070551
622.904506	11326.766931
623.251783	11255.921075
623.599007	11190.454131
623.946179	11139.087294
624.293297	11120.624068
624.640363	10981.611730
624.987376	10968.895419
625.334336	10904.247662
625.681243	10818.031329
626.028097	10788.210383
626.374899	10754.127142
626.721647	10731.560417
627.068343	10686.268170
627.414987	10622.253078
627.761577	10560.017513
628.108115	10608.251273
628.454600	10480.430297
628.801032	10493.491926
629.147412	10477.294699
629.493739	10447.645153
629.840014	10369.570282
630.186236	10420.624568
630.532405	10316.812087
630.878521	10351.449855
631.224585	10308.499224
631.570597	10224.647192
631.916556	10236.060364
632.262462	10219.238034
632.608316	10195.443787
632.954117	10172.730869
633.299866	10158.902984
633.645562	10136.172421
633.991206	10029.713334
634.336797	9934.133057
634.682336	9922.487992
635.027823	9868.172080
635.373257	9832.919291
635.718639	9760.056974
636.063968	9734.210978
636.409245	9611.315209
636.754470	9602.639383
637.099642	9553.604080
637.444762	9451.911404
637.789829	9454.570612
638.134845	9386.658708
638.479808	9371.033652
638.824719	9340.431328
639.169577	9250.484540
639.514383	9248.629396
639.859137	9182.630609
640.203839	9219.065549
640.548489	9132.587075
640.893086	9138.313826
641.237632	9070.596006
641.582125	9070.195235
641.926566	9064.140809
642.270955	9045.120535
642.615292	9040.006285
642.959576	9024.933235
643.303809	9007.558898
643.647990	9023.355354
643.992118	9006.011264
644.336195	8984.014189
644.680219	8978.211821
645.024192	9011.906893
645.368112	9090.526208
645.711981	9072.602386
646.055797	9201.111479
646.399562	9159.804265
646.743274	9327.563783
647.086935	9395.274040
647.430544	9369.571717
647.774101	9383.419767
648.117606	9415.539479
648.461059	9475.040218
648.804460	9412.643336
649.147810	9294.881982
649.491108	9255.702134
649.834354	9190.761991
650.177548	9050.179333
650.520690	8968.341242
650.863781	8954.460425
651.206820	8931.462681
651.549807	8830.188421
651.892742	8747.715144
652.235626	8705.538330
652.578458	8665.383019
652.921238	8566.374757
653.263967	8600.253832
653.606644	8526.985702
653.949269	8514.576902
654.291843	8433.376516
654.634365	8499.685333
654.976836	8428.728572
655.319255	8419.009228
655.661622	8407.031446
656.003938	8362.535702
656.346203	8327.431627
656.688416	8358.664096
657.030577	8321.213364
657.372687	8286.744474
657.714746	8321.160432
658.056753	8334.635436
658.398708	8237.142041
658.740612	8230.250784
659.082465	8273.002289
659.424266	8224.740803
659.766016	8235.395281
660.107715	8209.892084
660.449362	8231.674910
660.790958	8224.420689
661.132503	8220.193682
661.473996	8212.805871
661.815438	8239.700427
662.156829	8268.619006
662.498168	8221.403559
662.839456	8214.141777
663.180693	8234.676917
663.521879	8255.854804
663.863013	8233.358655
664.204097	8226.974034
664.545129	8300.048079
664.886110	8293.308057
665.227040	8293.300495
665.567918	8306.977145
665.908746	8323.623035
666.249522	8343.041560
666.590248	8333.854057
666.930922	8348.428033
667.271545	8347.492899
667.612118	8364.292544
667.952639	8327.560176
668.293109	8330.153850
668.633528	8305.747104
668.973896	8288.816388
669.314213	8292.143550
669.654480	8254.274402
669.994695	8240.529696
670.334859	8228.640135
670.674973	8204.755148
671.015035	8228.226760
671.355047	8221.789207
671.695008	8202.935292
672.034918	8180.101385
672.374777	8186.491048
672.714585	8167.354828
673.054342	8193.062192
673.394049	8154.542735
673.733705	8193.321811
674.073310	8141.677711
674.412864	8148.584091
674.752368	8092.685257
675.091820	8143.721898
675.431223	8078.265036
675.770574	8028.897017
676.109875	7998.408118
676.449125	7959.666851
676.788324	7944.722350
677.127473	7860.865277
677.466571	7847.642330
677.805619	7780.789068
678.144616	7791.224257
678.483562	7765.728621
678.822458	7720.234728
679.161303	7704.889456
679.500098	7681.470776
679.838842	7666.506111
680.177535	7672.495002
680.516179	7705.393572
680.854771	7730.027170
681.193314	7845.698965
681.531805	8005.120415
681.870247	8126.672716
682.208638	8274.761652
682.546978	8346.943413
682.885268	8368.824541
683.223508	8304.708626
683.561697	8251.252231
683.899836	8214.212353
684.237925	8140.200652
684.575963	8109.537834
684.913951	8023.001387
685.251889	8045.273205
685.589776	8041.051239
685.927614	8022.456943
686.265401	8042.122484
686.603137	8049.936272
686.940824	8119.025286
687.278460	8173.535282
687.616046	8180.582815
687.953582	8294.187738
688.291068	8278.524873
688.628504	8328.666710
688.965889	8327.562697
689.303224	8284.604504
689.640510	8249.450018
689.977745	8144.561251
690.314930	8025.950462
690.652065	7950.507074
690.989150	7839.775610
691.326185	7680.626383
691.663170	7572.246616
692.000105	7453.333359
692.336990	7334.404978
692.673825	7268.196984
693.010610	7178.973602
693.347345	7074.558703
693.684030	6966.395706
694.020665	6919.666730
694.357251	6801.761703
694.693786	6788.972296
695.030272	6752.403766
695.366707	6657.229302
695.703093	6610.749864
696.039429	6607.127795
696.375716	6557.661473
696.711952	6547.334669
697.048139	6519.744434
697.384276	6487.438199
697.720363	6509.069791
698.056400	6476.292208
698.392388	6442.561848
698.728326	6438.954902
699.064214	6412.309884
699.400053	6406.981384
699.735842	6348.592220
700.071581	6308.401621
700.407270	6262.983345
700.742910	6235.383028
701.078501	6191.194794
701.414042	6143.432382
701.749533	6091.155616
702.084974	6034.215783
702.420366	6074.209778
702.755709	5998.249671
703.091002	5953.585048
703.426246	5956.239216
703.761440	5943.893430
704.096584	5896.604886
704.431679	5884.518720
704.766725	5868.981884
705.101721	5848.527402
705.436668	5867.678746
705.771565	5814.703780
706.106413	5868.213108
706.441212	5867.313262
706.775961	5886.817486
707.110661	5891.974587
707.445311	5956.728208
707.779913	5919.360655
708.114465	5960.534279
708.448967	6005.773593
708.783421	6116.437003
709.117825	6161.545247
709.452180	6193.987593
709.786485	6261.120639
710.120742	6393.168622
710.454949	6391.580659
710.789107	6470.298276
711.123216	6584.666934
711.457275	6622.735207
711.791286	6727.182873
712.125247	6746.707262
712.459159	6714.650565
712.793023	6845.168559
713.126837	6679.367529
713.460602	6735.848617
713.794318	6689.245670
714.127985	6638.115767
714.461602	6494.788202
714.795171	6498.969839
715.128691	6329.332491
715.462162	6246.917188
715.795584	6172.318193
716.128957	6131.023581
716.462281	6061.710237
716.795556	6021.756572
717.128782	5937.493685
717.461960	5842.351989
717.795088	5828.682900
718.128167	5759.488022
718.461198	5672.946534
718.794180	5653.233102
719.127113	5597.810657
719.459997	5561.005192
719.792833	5496.188557
720.125619	5489.360314
720.458357	5431.954175
720.791046	5401.566099
721.123686	5377.998705
721.456278	5332.547662
721.788821	5322.820756
722.121315	5278.539260
722.453761	5289.917144
722.786158	5273.462818
723.118506	5268.580461
723.450805	5251.748048
723.783056	5279.207213
724.115259	5256.862299
724.447412	5247.120269
724.779518	5292.044511
725.111574	5293.798833
725.443582	5329.419626
725.775542	5323.647505
726.107453	5402.486110
726.439315	5375.868817
726.771129	5450.498059
727.102895	5512.060630
727.434612	5558.119132
727.766281	5584.481846
728.097901	5646.510723
728.429473	5655.582280
728.760996	5662.763403
729.092471	5690.129307
729.423897	5674.320249
729.755276	5644.713552
730.086606	5656.835007
730.417887	5748.742803
730.749120	5838.878634
731.080305	5878.723914
731.411442	5948.967351
731.742530	5978.647145
732.073570	6001.944837
732.404562	6069.035033
732.735506	6058.153703
733.066401	6040.441608
733.397249	5969.411751
733.728048	5871.411720
734.058798	5733.843673
734.389501	5601.825936
734.720156	5522.873905
735.050762	5413.483387
735.381320	5339.224670
735.711831	5279.880207
736.042293	5206.919587
736.372707	5198.541190
736.703073	5153.596783
737.033391	5181.809600
737.363661	5166.595398
737.693883	5179.553684
738.024056	5207.960586
738.354182	5234.222477
738.684260	5279.761740
739.014290	5321.368903
739.344272	5352.450137
739.674207	5407.476852
740.004093	5437.335606
740.333931	5452.045693
740.663722	5468.502540
740.993464	5480.185414
741.323159	5460.310665
741.652806	5421.009830
741.982405	5390.352052
742.311956	5336.278116
742.641460	5321.298327
742.970915	5275.290237
743.300323	5205.946645
743.629683	5173.610163
743.958996	5121.023367
744.288260	5073.502930
744.617477	5009.681923
744.946647	4995.470910
745.275768	4941.427220
745.604842	4910.991254
745.933869	4871.609760
746.262847	4864.897464
746.591778	4858.530486
746.920662	4832.865972
747.249498	4825.503367
747.578286	4843.956511
747.907027	4868.814440
748.235720	4908.314401
748.564365	4920.093057
748.892963	4907.875821
749.221514	4924.809057
749.550017	4897.642278
749.878473	4898.103544
750.206881	4861.419067
750.535242	4848.478426
750.863555	4831.378832
751.191821	4808.839833
751.520039	4817.193025
751.848210	4792.937513
752.176334	4804.333041
752.504411	4782.368734
752.832440	4754.009723
753.160421	4766.642855
753.488356	4746.165688
753.816243	4722.615937
754.144082	4693.281463
754.471875	4682.105225
754.799620	4671.052495
755.127318	4666.807844
755.454969	4657.234693
755.782572	4647.464937
756.110129	4653.113549
756.437638	4635.708966
756.765100	4631.527329
757.092515	4639.406652
757.419882	4639.199965
757.747203	4638.655520
758.074477	4650.787057
758.401703	4644.258763
758.728882	4674.379657
759.056014	4685.502963
759.383099	4703.426785
759.710138	4732.675560
760.037129	4753.369497
760.364073	4767.184779
760.690970	4765.662350
761.017820	4767.749388
761.344623	4804.716169
761.671379	4859.659705
761.998088	4950.375268
762.324751	5176.178631
762.651366	5641.194827
762.977935	6330.963305
763.304456	6886.269086
763.630931	7195.808535
763.957359	7128.894779
764.283740	6842.171593
764.610074	6516.016501
764.936362	6115.217043
765.262602	5795.449093
765.588796	5449.086536
765.914943	5202.609401
766.241044	4974.537519
766.567097	4804.254903
766.893104	4655.989528
767.219064	4553.349115
767.544978	4456.795895
767.870845	4378.254718
768.196665	4328.569106
768.522438	4281.804842
768.848165	4239.181887
769.173846	4200.617060
769.499479	4171.277544
769.825066	4134.053664
770.150607	4097.406996
770.476101	4080.400664
770.801548	4059.976429
771.126949	4025.343702
771.452303	4005.078264
771.777611	3966.911688
772.102872	3963.609732
772.428087	3937.672996
772.753256	3913.498142
773.078378	3893.819998
773.403453	3863.101727
773.728482	3838.639528
774.053465	3825.028413
774.378401	3802.764157
774.703291	3782.319758
775.028135	3757.602980
775.352932	3751.929162
775.677683	3731.051223
776.002388	3709.560784
776.327046	3709.535578
776.651658	3690.038916
776.976224	3674.623067
777.300743	3669.902027
777.625216	3657.039523
777.949643	3647.448728
778.274024	3649.608862
778.598359	3630.228146
778.922647	3631.052375
779.246889	3622.129532
779.571086	3618.757000
779.895236	3617.922689
780.219339	3620.123153
780.543397	3618.270529
780.867409	3632.950369
781.191374	3634.651758
781.515294	3624.962661
781.839167	3642.793222
782.162995	3640.081081
782.486776	3632.151346
782.810511	3626.475007
783.134201	3612.057307
783.457844	3613.622585
783.781441	3608.601596
784.104993	3595.398814
784.428498	3590.904625
784.751958	3588.459666
785.075372	3578.783171
785.398739	3570.828230
785.722061	3576.605392
786.045337	3577.074220
786.368568	3605.886935
786.691752	3599.199844
787.014891	3645.830517
787.337983	3690.623690
787.661030	3774.934467
787.984031	3872.135475
788.306987	3948.448462
788.629897	3995.278261
788.952760	4002.134230
789.275579	3988.132425
789.598351	3940.952266
789.921078	3892.274885
790.243759	3828.700893
790.566395	3779.471506
790.888984	3729.836305
791.211529	3696.443702
791.534027	3651.723626
791.856480	3608.571349
792.178888	3597.473249
792.501249	3571.826379
792.823566	3540.490566
793.145836	3536.530740
793.468062	3528.774925
793.790241	3511.652646
794.112375	3517.949047
794.434464	3541.219013
794.756507	3539.404198
795.078505	3556.924728
795.400457	3598.375615
795.722364	3645.696927
796.044226	3692.632589
796.366042	3738.822162
796.687812	3734.363261
797.009538	3757.925614
797.331218	3749.353132
797.652852	3742.721494
797.974442	3716.694017
798.295986	3711.259653
798.617484	3679.880991
798.938938	3656.192609
799.260346	3643.844302
799.581709	3605.448354
799.903026	3591.605346
800.224299	3576.491967
800.545526	3544.742780
800.866708	3524.888195
801.187845	3512.917975
801.508936	3494.227898
801.829983	3484.198522
802.150984	3455.582412
802.471940	3445.260650
802.792851	3436.448713
803.113717	3429.381015
803.434538	3422.293153
803.755314	3410.811925
804.076045	3410.491812
804.396731	3395.212074
804.717372	3396.694173
805.037967	3393.119995
805.358518	3394.483628
805.679024	3408.004002
805.999485	3407.106677
806.319901	3411.777306
806.640272	3412.533479
806.960598	3426.714245
807.280879	3426.217691
807.601115	3438.102211
807.921306	3427.382198
808.241453	3428.957558
808.561554	3436.335287
808.881611	3432.125923
809.201623	3433.108948
809.521590	3425.229625
809.841513	3422.242741
810.161390	3429.065943
810.481223	3409.246647
810.801011	3409.072727
811.120755	3408.177922
811.440453	3395.338103
811.760107	3392.436919
812.079716	3380.189436
812.399281	3375.095350
812.718801	3370.593599
813.038276	3363.616643
813.357707	3359.119933
813.677093	3366.948845
813.996434	3350.136597
814.315731	3355.157586
814.634983	3355.623893
814.954191	3361.287629
815.273354	3372.433621
815.592473	3386.155641
815.911547	3404.326480
816.230577	3418.504726
816.549562	3445.764765
816.868502	3460.926035
817.187399	3482.056032
817.506250	3510.047038
817.825058	3518.062473
818.143821	3561.129050
818.462539	3605.518930
818.781213	3663.678722
819.099843	3748.324737
819.418429	3899.093045
819.736970	4051.146848
820.055466	4235.826999
820.373919	4473.590499
820.692327	4807.002332
821.010691	5320.837062
821.329011	6391.094188
821.647286	8126.665154
821.965517	10293.789137
822.283704	11905.728327
822.601847	12990.566990
822.919945	12586.367275
823.237999	11898.307748
823.556010	11015.276555
823.873976	10063.330269
824.191897	9103.408877
824.509775	8337.894542
824.827609	7531.831686
825.145398	6984.798438
825.463144	6605.945644
825.780845	6476.882023
826.098502	6536.039964
826.416116	6915.850577
826.733685	7417.967144
827.051210	7705.330557
827.368692	7609.528469
827.686129	7170.446490
828.003522	6618.387212
828.320872	6054.415687
828.638177	5595.884936
828.955439	5227.726950
829.272656	4892.117174
829.589830	4605.744347
829.906960	4349.404195
830.224046	4140.471053
830.541088	3970.135506
830.858086	3851.164275
831.175041	3754.200201
831.491952	3711.297462
831.808819	3696.216850
832.125642	3729.042323
832.442421	3824.259637
832.759157	4047.449162
833.075849	4424.383797
833.392497	4885.331781
833.709101	5273.306542
834.025662	5386.543461
834.342179	5258.422536
834.658653	4987.415146
834.975083	4715.908682
835.291469	4472.352896
835.607811	4247.048607
835.924110	4093.096810
836.240366	3933.395577
836.556578	3770.352058
836.872746	3635.239053
837.188871	3520.610776
837.504952	3426.759615
837.820990	3355.172710
838.136984	3299.810758
838.452935	3267.242384
838.768842	3251.647574
839.084706	3284.299128
839.400526	3419.712082
839.716303	3642.359683
840.032037	3852.298535
840.347727	3924.770162
840.663373	3833.348837
840.978977	3684.473482
841.294537	3550.827452
841.610054	3448.408850
841.925527	3369.235008
842.240957	3306.858291
842.556344	3242.956625
842.871687	3183.133252
843.186987	3125.069242
843.502244	3070.264338
843.817458	3030.091383
844.132629	2996.033348
844.447756	2974.449648
844.762840	2953.218828
845.077881	2936.267949
845.392879	2922.210691
845.707833	2913.807088
846.022745	2899.424676
846.337613	2899.575910
846.652438	2886.743653
846.967221	2884.817933
847.281960	2875.428783
847.596656	2873.382075
847.911309	2865.638863
848.225919	2861.898327
848.540485	2859.128212
848.855009	2856.322810
849.169490	2851.425329
849.483928	2848.055318
849.798323	2847.735205
850.112675	2840.659945
850.426984	2843.314113
850.741251	2838.409070
851.055474	2838.061231
851.369654	2837.269769
851.683792	2836.727845
851.997887	2835.031497
852.311938	2836.866477
852.625947	2837.000068
852.939914	2833.594768
853.253837	2838.169615
853.567718	2834.744151
853.881555	2832.541167
854.195350	2835.160047
854.509103	2834.487052
854.822812	2834.663493
855.136479	2835.109635
855.450103	2835.565859
855.763685	2833.652742
856.077224	2832.500838
856.390720	2833.630056
856.704173	2836.987465
857.017584	2837.541992
857.330953	2837.698267
857.644278	2842.157168
857.957561	2845.537262
858.270802	2845.055832
858.584000	2846.429546
858.897155	2843.286387
859.210268	2842.076510
859.523339	2839.712208
859.836367	2836.440500
860.149352	2839.276149
860.462295	2840.188597
860.775195	2828.551094
861.088054	2828.541012
861.400869	2829.322390
861.713642	2827.840291
862.026373	2830.053358
862.339062	2833.350272
862.651708	2837.708350
862.964312	2840.869153
863.276873	2844.153465
863.589392	2850.916173
863.901869	2856.368181
864.214303	2862.750282
864.526696	2870.047352
864.839045	2878.629916
865.151353	2882.408261
865.463619	2887.111658
865.775842	2888.306411
866.088023	2894.499468
866.400162	2893.760939
866.712258	2896.828482
867.024313	2895.858059
867.336325	2897.647669
867.648296	2898.381157
867.960224	2897.204048
868.272110	2901.070613
868.583954	2902.630850
868.895755	2902.489697
869.207515	2901.259656
869.519233	2912.055287
869.830909	2911.772982
870.142542	2917.703900
870.454134	2917.376225
870.765684	2921.885537
871.077191	2926.919129
871.388657	2936.824996
871.700081	2938.327260
872.011463	2946.637602
872.322803	2955.588171
872.634101	2959.033799
872.945357	2962.875159
873.256571	2975.626757
873.567744	2981.754280
873.878874	2983.473313
874.189963	2994.037051
874.501010	2995.463698
874.812015	2994.420179
875.122979	3005.445182
875.433900	3006.256808
875.744780	3008.810153
876.055618	3012.696882
876.366415	3015.353570
876.677169	3021.105527
876.987882	3027.565765
877.298554	3036.052548
877.609183	3051.596946
877.919771	3067.355593
878.230317	3092.248810
878.540822	3129.656692
878.851285	3179.352387
879.161707	3246.689600
879.472087	3350.887729
879.782425	3512.615506
880.092722	3788.079276
880.402977	4210.230540
880.713191	4748.343466
881.023363	5340.880689
881.333494	5781.802690
881.643583	6069.466052
881.953631	6142.565303
882.263637	6092.461275
882.573602	5949.597496
882.883526	5781.253204
883.193408	5580.005301
883.503248	5361.892218
883.813048	5147.801976
884.122806	4927.168317
884.432522	4686.768292
884.742197	4464.763439
885.051831	4261.506636
885.361424	4061.952561
885.670975	3898.397366
885.980485	3746.106629
886.289954	3625.154225
886.599382	3521.243441
886.908768	3437.184721
887.218113	3356.871579
887.527417	3296.203813
887.836680	3234.495048
888.145901	3188.733974
888.455082	3152.276350
888.764221	3117.746967
889.073319	3090.194540
889.382376	3072.729463
889.691392	3056.978378
890.000366	3046.129814
890.309300	3039.510779
890.618193	3033.479039
890.927044	3032.135571
891.235855	3032.422917
891.544625	3036.455840
891.853353	3043.125287
892.162041	3056.436453
892.470687	3080.495360
892.779293	3113.772017
893.087858	3162.625839
893.396381	3240.993096
893.704864	3344.261132
894.013306	3505.636029
894.321707	3687.853576
894.630068	3839.599868
894.938387	3914.788678
895.246665	3926.027930
895.554903	3865.032489
895.863100	3780.885549
896.171256	3701.308415
896.479371	3632.935246
896.787446	3556.554203
897.095480	3487.941579
897.403473	3429.030655
897.711425	3374.346738
898.019336	3321.535611
898.327207	3266.987806
898.635038	3222.577761
898.942827	3172.637570
899.250576	3130.884213
899.558284	3090.872575
899.865952	3065.361816
900.173579	3032.977444
900.481165	3011.134124
900.788711	2993.774911
901.096216	2981.068683
901.403681	2966.149388
901.711105	2955.726803
902.018489	2950.980556
902.325832	2957.816361
902.633135	2967.666775
902.940397	3006.962570
903.247619	3096.339707
903.554800	3274.693209
903.861941	3546.446690
904.169041	3808.420332
904.476101	3977.525837
904.783121	4000.657172
905.090100	3933.940021
905.397039	3830.117458
905.703938	3727.154411
906.010796	3622.363946
906.317614	3535.688867
906.624391	3449.727112
906.931129	3380.489384
907.237826	3314.475475
907.544483	3246.031729
907.851099	3175.785771
908.157675	3102.560491
908.464211	3031.691950
908.770707	2975.165492
909.077163	2925.920980
909.383578	2888.563510
909.689954	2857.941021
909.996289	2843.414936
910.302584	2828.314160
910.608839	2820.243272
910.915054	2813.520894
911.221229	2803.234419
911.527363	2804.139306
911.833458	2806.425470
912.139513	2806.727939
912.445527	2812.555513
912.751502	2822.680670
913.057436	2839.082064
913.363331	2858.099817
913.669186	2888.722306
913.975000	2925.928542
914.280775	2983.407778
914.586510	3064.091446
914.892205	3175.755524
915.197859	3318.218532
915.503475	3502.782736
915.809050	3673.637522
916.114585	3802.910350
916.420081	3883.294069
916.725536	3911.479160
917.030952	3876.276783
917.336328	3836.403777
917.641665	3789.168165
917.946961	3729.228846
918.252218	3672.200793
918.557435	3597.561469
918.862612	3532.255842
919.167750	3471.668734
919.472848	3400.820358
919.777906	3328.447033
920.082925	3261.815582
920.387904	3191.829243
920.692843	3136.754637
920.997743	3084.288828
921.302603	3034.787218
921.607423	3000.769512
921.912204	2962.209726
922.216946	2940.056376
922.521647	2913.819691
922.826310	2893.677760
923.130932	2875.968187
923.435516	2854.931452
923.740059	2844.231603
924.044564	2828.649396
924.349028	2816.132211
924.653454	2800.282824
924.957840	2787.831174
925.262186	2775.455141
925.566493	2764.725045
925.870761	2753.906729
926.174989	2750.261975
926.479178	2742.312075
926.783328	2731.634911
927.087438	2729.951166
927.391509	2721.681153
927.695541	2714.971377
927.999533	2708.758155
928.303486	2703.626260
928.607400	2700.422607
928.911275	2696.127544
929.215110	2694.350537
929.518906	2692.533201
929.822663	2691.870290
930.126381	2689.044723
930.430060	2689.332069
930.733699	2689.422809
931.037299	2689.810978
931.340861	2689.385001
931.644383	2692.329035
931.947866	2690.509178
932.251309	2692.034127
932.554714	2690.052954
932.858080	2689.770649
933.161407	2688.981708
933.464694	2686.723272
933.767943	2684.021213
934.071153	2684.966429
934.374323	2684.285874
934.677455	2683.678415
934.980548	2679.133814
935.283602	2678.854030
935.586617	2679.224555
935.889593	2679.529545
936.192530	2680.184895
936.495428	2683.398631
936.798287	2686.065401
937.101108	2690.433561
937.403890	2696.732482
937.706632	2705.854450
938.009336	2717.502036
938.312002	2729.762122
938.614628	2741.991962
938.917216	2748.202663
939.219765	2755.845052
939.522275	2765.599685
939.824747	2766.789397
940.127179	2760.422420
940.429573	2763.336207
940.731929	2764.087339
941.034246	2762.615322
941.336524	2764.825868
941.638763	2763.031217
941.940964	2765.045158
942.243126	2757.241452
942.545250	2756.142481
942.847335	2748.406830
943.149381	2743.587487
943.451389	2736.355952
943.753359	2731.201372
944.055290	2726.593757
944.357182	2723.314487
944.659036	2719.014382
944.960851	2717.312993
945.262628	2713.101109
945.564367	2711.399720
945.866067	2711.737477
946.167729	2706.565253
946.469352	2708.470809
946.770937	2704.664738
947.072484	2702.880170
947.373992	2703.883359
947.675462	2702.123997
947.976893	2702.423945
948.278286	2701.153574
948.579641	2699.361444
948.880958	2696.944211
949.182236	2698.738862
949.483476	2693.339786
949.784678	2695.694005
950.085841	2691.598067
950.386967	2696.356917
950.688054	2698.121320
950.989103	2701.922350
951.290114	2702.030735
951.591087	2704.876467
951.892021	2710.759493
952.192917	2720.183930
952.493776	2722.399517
952.794596	2723.611915
953.095378	2724.557131
953.396122	2728.821947
953.696828	2725.464539
953.997496	2725.434292
954.298126	2722.696945
954.598718	2718.096892
954.899272	2715.193188
955.199788	2710.935933
955.500266	2706.802187
955.800706	2697.965045
956.101108	2690.052954
956.401472	2686.960206
956.701798	2680.368897
957.002087	2671.753565
957.302337	2668.290292
957.602550	2665.706701
957.902724	2657.678664
958.202861	2651.984680
958.502960	2649.151552
958.803022	2646.015954
959.103045	2640.440438
959.403031	2635.588327
959.702979	2635.164871
960.002889	2631.537760
960.302762	2627.567852
960.602596	2624.979219
960.902393	2623.103910
961.202153	2622.375463
961.501875	2621.417644
961.801559	2616.263064
962.101205	2618.937396
962.400814	2618.282046
962.700385	2617.374639
962.999918	2613.964298
963.299414	2613.724843
963.598873	2610.077568
963.898293	2609.288628
964.197677	2611.360542
964.497022	2608.328288
964.796331	2610.987497
965.095601	2610.793412
965.394835	2606.904162
965.694030	2608.076230
965.993189	2609.354163
966.292309	2607.438524
966.591393	2609.195367
966.890439	2606.926847
967.189447	2605.477516
967.488419	2607.637650
967.787353	2607.017588
968.086249	2604.812083
968.385108	2606.548761
968.683930	2607.632609
968.982714	2608.751745
969.281462	2609.086982
969.580172	2609.465068
969.878844	2607.768720
970.177480	2608.567743
970.476078	2612.172168
970.774639	2614.745677
971.073162	2615.441356
971.371649	2612.658639
971.670098	2616.144597
971.968510	2614.591922
972.266885	2616.280708
972.565223	2619.617952
972.863524	2623.446708
973.161788	2621.193313
973.460014	2624.865793
973.758204	2621.742798
974.056356	2626.516771
974.354471	2623.789507
974.652550	2624.681791
974.950591	2623.597943
975.248595	2624.611215
975.546563	2624.311266
975.844493	2626.252111
976.142386	2624.074332
976.440243	2623.718931
976.738062	2621.440329
977.035845	2620.215329
977.333590	2618.249279
977.631299	2618.171141
977.928971	2615.141407
978.226606	2613.371962
978.524204	2615.685852
978.821765	2612.439349
979.119290	2614.997735
979.416777	2614.445728
979.714228	2616.608383
980.011642	2615.708537
980.309020	2619.706172
980.606360	2616.489916
980.903664	2622.607356
981.200931	2625.478293
981.498162	2634.733852
981.795356	2644.770789
982.092513	2660.153870
982.389633	2676.320851
982.686717	2695.406659
982.983764	2712.652446
983.280775	2723.223746
983.577749	2730.326732
983.874686	2729.079046
984.171587	2726.646689
984.468451	2722.628890
984.765279	2714.699155
985.062070	2706.449307
985.358824	2701.171218
985.655543	2691.807275
985.952224	2684.439629
986.248869	2671.438493
986.545478	2654.550628
986.842050	2644.168371
987.138586	2633.980199
987.435086	2621.856224
987.731549	2614.483537
988.027975	2615.602673
988.324366	2613.981942
988.620719	2606.510952
988.917037	2604.670931
989.213318	2603.208996
989.509563	2600.519541
989.805772	2602.344438
990.101944	2596.516865
990.398080	2594.548294
990.694180	2593.527460
990.990244	2596.965527
991.286271	2593.666092
991.582262	2600.486773
991.878217	2595.264138
992.174136	2597.378902
992.470019	2594.848243
992.765865	2598.251022
993.061676	2600.612802
993.357450	2600.965683
993.653188	2601.242946
993.948890	2606.732763
994.244556	2607.010026
994.540186	2611.678135
994.835780	2616.852879
995.131337	2624.074332
995.426859	2631.595734
995.722345	2636.367186
996.017795	2648.564257
996.313208	2655.843684
996.608586	2662.855929
996.903928	2664.827020
997.199234	2668.585200
997.494504	2667.768533
997.789738	2666.180570
998.084936	2665.089160
998.380099	2657.703869
998.675225	2655.158087
998.970316	2647.692138
999.265371	2644.485964
999.560390	2635.517751
999.855373	2629.473408
1000.150320	2622.682974
1000.445232	2620.043930
1000.740108	2612.714092
1001.034948	2607.582197
1001.329752	2605.023812
1001.624521	2605.096908
1001.919254	2593.966041
1002.213951	2593.230032
1002.508613	2593.416555
1002.803239	2590.986719
1003.097829	2590.167531
1003.392384	2594.969230
1003.686903	2590.459918
1003.981386	2591.548808
1004.275834	2587.999835
1004.570246	2590.167531
1004.864623	2588.952613
1005.158964	2590.389342
1005.453270	2586.605956
1005.747540	2586.464804
1006.041775	2586.333734
1006.335974	2586.484968
1006.630138	2585.295256
1006.924266	2585.222159
1007.218359	2586.442119
1007.512416	2585.746439
1007.806438	2587.218456
1008.100425	2586.520257
1008.394376	2584.397931
1008.688292	2586.295925
1008.982172	2582.673856
1009.276017	2586.600915
1009.569827	2583.699731
1009.863602	2585.708631
1010.157341	2584.400451
1010.451045	2582.734350
1010.744714	2583.205698
1011.038347	2586.006059
1011.331945	2581.968095
1011.625508	2583.777869
1011.919036	2582.469689
1012.212528	2583.004052
1012.505986	2583.911459
1012.799408	2583.243507
1013.092795	2582.386510
1013.386147	2582.686459
1013.679464	2583.240986
1013.972745	2581.789134
1014.265992	2581.731160
1014.559204	2585.494382
1014.852380	2582.081521
1015.145521	2583.122519
1015.438628	2580.712847
1015.731699	2582.144535
1016.024736	2580.662436
1016.317737	2582.230235
1016.610703	2583.603949
1016.903635	2577.756211
1017.196531	2579.439956
1017.489393	2579.092116
1017.782219	2578.792168
1018.075011	2581.295101
1018.367768	2582.172261
1018.660490	2585.922880
1018.953177	2585.922880
1019.245829	2585.922880
