Dividing Wavelength (nm)	Counts (n)	Blue Motor Position (mm): 24.500000	Red Motor Position (mm): 0.000000	
326.493990	2155.471356
326.888308	2155.471356
327.282561	2155.471356
327.676750	2131.757768
328.070874	2131.893879
328.464933	2136.244395
328.858929	2146.387197
329.252859	2159.579896
329.646726	2171.902997
330.040528	2185.577127
330.434265	2208.811805
330.827938	2223.136243
331.221547	2245.216497
331.615091	2262.583272
332.008571	2282.216046
332.401986	2302.675569
332.795338	2323.432520
333.188625	2343.539162
333.581847	2358.728158
333.975006	2382.900491
334.368100	2402.293810
334.761129	2419.592529
335.154095	2432.276072
335.546996	2457.512088
335.939833	2489.835967
336.332606	2503.074037
336.725315	2513.516787
337.117960	2522.873169
337.510540	2528.395753
337.903056	2536.607792
338.295508	2544.655994
338.687896	2553.888868
339.080220	2559.938252
339.472480	2566.184242
339.864676	2571.202711
340.256807	2574.721436
340.648875	2578.784606
341.040879	2579.931468
341.432818	2578.083886
341.824694	2580.211252
342.216506	2580.889288
342.608253	2579.858372
342.999937	2578.156982
343.391557	2576.072465
343.783113	2577.060531
344.174605	2576.077506
344.566033	2572.359655
344.957397	2570.968297
345.348697	2567.326063
345.739934	2566.640466
346.131106	2566.547205
346.522215	2563.353634
346.913260	2563.719118
347.304241	2561.203582
347.695159	2559.272820
348.086012	2559.209806
348.476802	2557.647048
348.867528	2554.143446
349.258191	2555.600339
349.648789	2554.582026
350.039324	2551.146480
350.429796	2551.534649
350.820203	2549.205636
351.210548	2548.817467
351.600828	2550.050029
351.991045	2548.089020
352.381198	2546.619524
352.771288	2548.840152
353.161314	2549.561037
353.551276	2547.519370
353.941175	2545.238248
354.331010	2546.803526
354.720782	2546.730429
355.110490	2548.313352
355.500135	2549.813095
355.889717	2545.107178
356.279235	2549.429967
356.668689	2549.394679
357.058080	2548.280584
357.447408	2546.601880
357.836672	2547.416026
358.225873	2548.000800
358.615010	2548.290666
359.004084	2551.915256
359.393095	2551.078424
359.782043	2552.779814
360.170927	2551.431305
360.559748	2550.392828
360.948505	2550.435677
361.337199	2552.260575
361.725830	2553.178065
362.114398	2554.309804
362.502903	2556.442212
362.891344	2555.738971
363.279722	2554.763508
363.668037	2555.617983
364.056289	2558.446071
364.444478	2556.192675
364.832603	2557.828529
365.220665	2559.565207
365.608665	2559.476987
365.996601	2558.763663
366.384474	2560.147460
366.772284	2559.507234
367.160031	2558.849363
367.547715	2560.202913
367.935336	2559.139229
368.322893	2559.295505
368.710388	2561.339693
369.097820	2563.194838
369.485189	2558.264589
369.872495	2561.906823
370.259738	2560.525547
370.646918	2562.829354
371.034035	2561.992522
371.421090	2564.762637
371.808081	2562.342883
372.195010	2563.116700
372.581875	2564.394632
372.968678	2564.160219
373.355418	2563.827502
373.742096	2563.139385
374.128710	2565.198696
374.515262	2565.637277
374.901751	2565.828841
375.288177	2565.176011
375.674540	2565.528892
376.060841	2564.424879
376.447079	2565.312122
376.833254	2565.385219
377.219367	2562.562173
377.605417	2563.797256
377.991404	2565.254149
378.377329	2563.469581
378.763191	2562.587379
379.148991	2566.247256
379.534727	2567.353790
379.920402	2568.727504
380.306013	2567.810014
380.691563	2569.360169
381.077049	2566.310271
381.462474	2570.108780
381.847835	2569.249263
382.233134	2570.156671
382.618371	2570.232288
383.003545	2570.852350
383.388657	2570.340673
383.773706	2571.263204
384.158693	2568.858574
384.543618	2572.407546
384.928480	2572.526013
385.313280	2571.111970
385.698017	2574.303020
386.082692	2573.067937
386.467305	2570.983420
386.851856	2570.539799
387.236344	2572.833524
387.620770	2573.710685
388.005133	2572.261353
388.389435	2574.053483
388.773674	2571.255643
389.157851	2570.222206
389.541965	2574.640777
389.926018	2572.888977
390.310008	2572.173133
390.693936	2575.666652
391.077802	2573.965263
391.461606	2573.493915
391.845348	2573.163719
392.229027	2574.771847
392.612645	2575.724626
392.996200	2576.009451
393.379694	2577.242013
393.763125	2575.354101
394.146494	2577.037846
394.529801	2579.112281
394.913047	2579.364339
395.296230	2575.986766
395.679351	2575.270922
396.062410	2577.481468
396.445408	2579.818042
396.828343	2577.753690
397.211217	2576.619430
397.594028	2575.326374
397.976778	2574.943247
398.359466	2578.590522
398.742092	2574.426528
399.124656	2579.530697
399.507158	2580.574216
399.889598	2580.334761
400.271977	2580.483475
400.654294	2580.612024
401.036549	2578.668659
401.418742	2580.796026
401.800874	2580.425502
402.182944	2581.360636
402.564952	2580.758218
402.946898	2579.699575
403.328783	2582.832652
403.710606	2582.318455
404.092367	2581.922724
404.474067	2583.185533
404.855705	2583.944227
405.237282	2583.614031
405.618797	2583.298959
406.000250	2583.520770
406.381642	2583.830801
406.762972	2586.409351
407.144240	2584.203846
407.525447	2588.183837
407.906593	2580.669998
408.287677	2583.122519
408.668700	2583.384659
409.049661	2585.025554
409.430560	2584.687797
409.811399	2582.447004
410.192176	2583.445153
410.572891	2586.152252
410.953545	2585.222159
411.334138	2586.444639
411.714669	2584.962540
412.095139	2587.531008
412.475547	2585.330544
412.855894	2586.187540
413.236180	2584.743250
413.616405	2588.473704
413.996568	2586.366501
414.376670	2585.380956
414.756711	2586.560586
415.136691	2588.572006
415.516609	2587.354567
415.896466	2587.465473
416.276262	2588.095617
416.655997	2584.566809
417.035670	2584.977663
417.415283	2586.495051
417.794834	2583.427509
418.174324	2587.024372
418.553753	2590.026379
418.933121	2586.200143
419.312428	2588.801379
419.691674	2590.548138
420.070859	2591.072418
420.449983	2592.196596
420.829045	2587.750298
421.208047	2591.732810
421.586988	2589.837336
421.965867	2591.402614
422.344686	2591.377408
422.723444	2590.394383
423.102141	2590.530494
423.480777	2590.701894
423.859352	2590.923704
424.237866	2591.054774
424.616319	2592.294898
424.994712	2592.705752
425.373044	2590.984198
425.751314	2593.252717
426.129524	2590.825402
426.507673	2591.974785
426.885762	2593.020824
427.263789	2595.700198
427.641756	2591.357244
428.019662	2593.822368
428.397508	2593.464446
428.775292	2591.619384
429.153016	2597.464602
429.530679	2594.223140
429.908282	2595.029724
430.285824	2593.429158
430.663305	2593.474528
431.040726	2594.482759
431.418086	2597.676330
431.795385	2595.765733
432.172624	2595.019642
432.549802	2595.412852
432.926920	2595.488469
433.303977	2597.416711
433.680974	2594.903695
434.057910	2598.785384
434.434786	2593.734148
434.811601	2595.939652
435.188355	2596.658017
435.565050	2596.930239
435.941683	2596.373192
436.318257	2594.893613
436.694770	2596.297574
437.071222	2594.036617
437.447614	2594.543253
437.823946	2592.718355
438.200218	2596.559714
438.576429	2598.601382
438.952580	2598.782863
439.328670	2602.649428
439.704700	2598.263624
440.080670	2598.924016
440.456580	2600.703543
440.832429	2598.417380
441.208218	2599.092894
441.583947	2603.143461
441.959616	2602.223451
442.335224	2599.123141
442.710773	2599.387802
443.086261	2603.118256
443.461689	2603.680344
443.837057	2602.868718
444.212365	2601.089191
444.587612	2601.673965
444.962800	2604.807042
445.337927	2604.519696
445.712995	2601.273193
446.088002	2605.817793
446.462949	2603.450972
446.837837	2605.343925
447.212664	2605.580859
447.587431	2608.585387
447.962139	2607.708226
448.336786	2611.962960
448.711374	2612.421705
449.085901	2611.405912
449.460369	2606.294182
449.834776	2607.506580
450.209124	2609.689400
450.583412	2613.177878
450.957640	2611.640326
451.331808	2612.741818
451.705917	2610.717795
452.079965	2613.366921
452.453954	2614.244082
452.827883	2615.411109
453.201752	2613.135028
453.575562	2615.932869
453.949311	2616.941099
454.323001	2618.246758
454.696632	2617.800616
455.070202	2619.920421
455.443713	2621.021913
455.817164	2619.007972
456.190556	2621.334465
456.563888	2624.792697
456.937160	2623.214815
457.310373	2629.115486
457.683526	2629.322173
458.056619	2632.500621
458.429653	2633.203862
458.802628	2635.144706
459.175542	2640.425315
459.548398	2644.259112
459.921194	2650.260606
460.293930	2654.800165
460.666607	2663.574293
461.039224	2670.112670
461.411782	2677.734894
461.784280	2680.633558
462.156719	2683.091120
462.529099	2689.596729
462.901419	2688.384332
463.273680	2691.638397
463.645882	2696.722400
464.018024	2701.904706
464.390106	2709.179091
464.762130	2727.990157
465.134094	2752.805237
465.505999	2792.544652
465.877845	2831.966476
466.249631	2855.057481
466.621358	2861.479911
466.993026	2862.614170
467.364634	2865.785056
467.736184	2861.762215
468.107674	2871.766385
468.479105	2881.082438
468.850477	2892.016700
469.221790	2898.381157
469.593043	2900.470715
469.964238	2907.979514
470.335373	2918.276071
470.706449	2951.908128
471.077467	2988.267451
471.448425	3066.400294
471.819324	3134.163484
472.190164	3156.911691
472.560945	3132.520068
472.931667	3112.128601
473.302330	3115.695217
473.672934	3129.397073
474.043479	3161.143739
474.413965	3175.379958
474.784393	3190.755477
475.154761	3236.841706
475.525070	3262.019748
475.895321	3282.668315
476.265513	3324.492248
476.635645	3379.531565
477.005719	3405.871594
477.375734	3452.905559
477.745691	3507.246677
478.115588	3573.822676
478.485427	3653.175478
478.855207	3783.958133
479.224928	3913.248605
479.594591	4033.482645
479.964194	4077.156681
480.333739	4129.297336
480.703226	4181.158206
481.072653	4258.383642
481.442022	4342.646528
481.811333	4431.615332
482.180584	4446.741314
482.549777	4485.908559
482.918912	4529.126371
483.287988	4586.789609
483.657005	4615.314978
484.025964	4646.907889
484.394864	4722.694075
484.763706	4762.829222
485.132489	4801.232732
485.501213	4858.064180
485.869879	4931.778452
486.238487	4973.486438
486.607036	5062.578750
486.975527	5103.994349
487.343959	5185.875291
487.712333	5266.571561
488.080648	5344.142316
488.448905	5449.194921
488.817104	5520.587742
489.185244	5651.176311
489.553326	5808.510723
489.921350	6084.251756
490.289315	6434.427946
490.657222	6640.739688
491.025070	6794.814993
491.392861	6835.119018
491.760593	6842.983218
492.128267	6807.009545
492.495883	6772.482682
492.863440	6735.621765
493.230939	6698.468461
493.598380	6679.589340
493.965763	6745.603250
494.333088	6743.624597
494.700354	6778.814371
495.067563	6835.355953
495.434713	6908.871099
495.801805	7000.133628
496.168839	7047.409569
496.535815	7101.937209
496.902733	7198.034204
497.269593	7240.939465
497.636395	7307.250802
498.003139	7437.206708
498.369825	7467.932540
498.736453	7589.179852
499.103023	7622.257383
499.469535	7692.881428
499.835989	7793.767519
500.202385	7835.016760
500.568723	7913.144563
500.935003	8019.845625
501.301226	8060.719300
501.667390	8235.848985
502.033497	8369.525262
502.399546	8376.287969
502.765537	8368.985858
503.131470	8508.802260
503.497345	8633.230540
503.863163	8524.744909
504.228923	8681.585287
504.594625	8829.011311
504.960269	8808.277045
505.325856	8985.019899
505.691385	8949.240310
506.056856	9053.599756
506.422270	9179.598355
506.787625	9182.837297
507.152924	9275.501266
507.518164	9373.791163
507.883347	9319.150097
508.248472	9426.965254
508.613540	9557.659688
508.978550	9666.546091
509.343503	9697.823930
509.708398	9783.755438
510.073236	9939.935425
510.438016	9990.586419
510.802738	9961.622469
511.167403	10111.445562
511.532010	10202.680364
511.896561	10323.660494
512.261053	10525.881340
512.625488	10492.438325
512.989866	10525.518377
513.354186	10545.491428
513.718449	10585.840824
514.082655	10749.988355
514.446803	10742.280430
514.810894	10872.861438
515.174927	10904.000646
515.538904	10921.616958
515.902822	11093.769841
516.266684	11008.415545
516.630488	11128.258895
516.994235	11143.768005
517.357925	11275.193406
517.721558	11362.977539
518.085133	11442.494179
518.448651	11492.104174
518.812112	11481.757206
519.175516	11508.586227
519.538863	11624.308434
519.902152	11648.904223
520.265385	11766.942841
520.628560	11812.605612
520.991678	11769.349992
521.354739	11843.127278
521.717743	11936.741505
522.080690	11928.310175
522.443580	12070.813512
522.806413	12097.365269
523.169189	12109.663164
523.531908	12177.030624
523.894569	12157.856595
524.257174	12179.546159
524.619722	12298.323306
524.982213	12283.572890
525.344647	12287.288220
525.707025	12310.197744
526.069345	12420.190679
526.431608	12416.457705
526.793815	12492.473264
527.155964	12412.013928
527.518057	12440.655243
527.880093	12405.984708
528.242072	12526.604396
528.603995	12458.944550
528.965860	12486.290289
529.327669	12514.223322
529.689421	12475.557672
530.051117	12495.092143
530.412755	12538.370449
530.774337	12546.043085
531.135862	12513.391532
531.497331	12573.958475
531.858743	12539.237528
532.220098	12625.441258
532.581396	12566.232906
532.942638	12492.962256
533.303824	12558.348542
533.664953	12541.601829
534.026025	12500.249244
534.387040	12601.503339
534.747999	12584.643200
535.108902	12629.300262
535.469748	12519.473684
535.830537	12543.341027
536.191270	12588.436668
536.551947	12522.518541
536.912567	12582.508272
537.273131	12611.555400
537.633638	12495.162719
537.994089	12565.322978
538.354483	12476.462559
538.714821	12597.591404
539.075103	12680.316738
539.435328	12618.207203
539.795497	12595.227103
540.155609	12590.327101
540.515665	12693.320395
540.875665	12550.328066
541.235609	12650.100062
541.595496	12626.895631
541.955328	12789.591310
542.315102	12638.659164
542.674821	12587.897265
543.034483	12600.089296
543.394090	12598.599635
543.753640	12572.294894
544.113134	12819.210609
544.472571	12586.919281
544.831953	12863.943288
545.191278	12683.038962
545.550548	12617.471194
545.909761	12723.857184
546.268918	12769.509873
546.628019	12843.350174
546.987064	12726.241650
547.346053	12578.558528
547.704986	12777.384156
548.063863	12661.992144
548.422684	12712.076008
548.781449	12681.579547
549.140158	12778.009259
549.498811	12719.040362
549.857408	12586.682347
550.215949	12792.540385
550.574434	12771.813681
550.932864	12711.682798
551.291237	12904.459041
551.649555	12787.143830
552.007817	12850.070032
552.366022	12767.523659
552.724173	12811.167448
553.082267	12894.631312
553.440305	12981.936535
553.798288	12809.337509
554.156215	12892.125858
554.514086	12937.592025
554.871902	12874.209598
555.229661	12891.064696
555.587365	12855.217051
555.945014	12869.899411
556.302606	12849.283613
556.660143	12913.296184
557.017625	12940.717540
557.375050	12903.128177
557.732421	13014.870393
558.089735	13006.925534
558.446994	12987.083553
558.804197	13096.952980
559.161345	13095.753186
559.518437	12895.861353
559.875474	13000.634174
560.232455	13024.877083
560.589381	13081.433788
560.946251	13019.195703
561.303065	13187.731558
561.659825	13136.944454
562.016528	13065.990213
562.373177	12995.653514
562.729770	13128.407260
563.086307	13012.924508
563.442789	13119.928039
563.799216	13152.198985
564.155587	13100.315430
564.511904	13124.029018
564.868164	13134.040749
565.224370	13195.184904
565.580520	13134.045790
565.936615	13201.624978
566.292654	13131.177374
566.648638	13206.076317
567.004567	13212.468500
567.360441	13207.679404
567.716260	13170.334536
568.072023	13265.420780
568.427732	13249.394952
568.783385	13157.320798
569.138982	13261.682765
569.494525	13257.405346
569.850013	13197.420656
570.205445	13184.986650
570.560823	13206.605638
570.916145	13152.695539
571.271412	13167.856809
571.626625	13125.251497
571.981782	13123.038431
572.336884	13072.253847
572.691931	13160.658042
573.046923	13057.243812
573.401860	13030.439997
573.756743	13023.097556
574.111570	13048.124364
574.466342	13020.738296
574.821059	13078.487234
575.175722	12944.263992
575.530330	12967.662508
575.884882	12903.609607
576.239380	12904.506932
576.593823	12884.687636
576.948211	12876.193292
577.302544	12760.113163
577.656823	12778.904064
578.011047	12835.916993
578.365216	12766.848144
578.719330	12718.316956
579.073389	12681.798838
579.427394	12697.113863
579.781344	12692.551619
580.135239	12617.445988
580.489080	12637.524904
580.842866	12519.985361
581.196597	12617.657717
581.550273	12603.340840
581.903895	12566.104357
582.257463	12670.715861
582.610975	12515.337417
582.964434	12585.822830
583.317837	12502.411899
583.671186	12456.282820
584.024481	12512.695853
584.377721	12401.634192
584.730906	12472.502733
585.084037	12486.035710
585.437113	12404.232907
585.790135	12427.152513
586.143103	12332.663646
586.496016	12344.225532
586.848874	12364.816125
587.201679	12367.200591
587.554428	12241.151580
587.907124	12288.470371
588.259765	12224.603992
588.612352	12296.011937
588.964884	12161.622337
589.317362	12206.493647
589.669786	12195.723222
590.022155	12161.254333
590.374470	12261.941298
590.726731	12150.191521
591.078937	12036.919314
591.431090	12055.932026
591.783188	11987.813435
592.135232	11906.756722
592.487222	11968.049591
592.839157	11981.766571
593.191038	11916.271900
593.542866	11867.082841
593.894639	11719.533309
594.246358	11780.826178
594.598022	11777.761157
594.949633	11680.469408
595.301190	11681.480159
595.652692	11627.504525
596.004141	11714.892927
596.355535	11496.006027
596.706876	11478.729993
597.058162	11445.463419
597.409395	11539.841380
597.760573	11570.874723
598.111698	11461.713578
598.462768	11469.658437
598.813785	11476.670682
599.164748	11343.743016
599.515657	11419.541806
599.866511	11300.563013
600.217312	11422.790829
600.568060	11204.516429
600.918753	11361.245903
601.269392	11358.322033
601.619978	11266.280646
601.970510	11300.315997
602.320988	11349.676454
602.671412	11416.282700
603.021783	11346.573624
603.372100	11272.791297
603.722363	11284.922833
604.072572	11285.812597
604.422728	11295.461365
604.772830	11238.970195
605.122878	11245.022101
605.472872	11218.364479
605.822813	11276.998139
606.172701	11239.171842
606.522534	11281.593151
606.872314	11334.346306
607.222041	11266.371387
607.571714	11335.709938
607.921333	11207.203364
608.270899	11255.031312
608.620411	11323.911117
608.969870	11268.070256
609.319276	11246.864642
609.668627	11264.818712
610.017926	11345.691422
610.367171	11373.223684
610.716362	11366.899557
611.065500	11338.016266
611.414585	11348.844664
611.763616	11417.618605
612.112594	11384.911599
612.461518	11414.873697
612.810389	11461.277518
613.159207	11401.701162
613.507971	11399.094886
613.856682	11500.754794
614.205340	11459.215686
614.553945	11592.526479
614.902496	11470.275978
615.250994	11539.589323
615.599439	11522.167095
615.947830	11549.926209
616.296169	11506.103458
616.644454	11529.234793
616.992686	11548.244984
617.340864	11631.706327
617.688990	11528.304700
618.037063	11661.436532
618.385082	11633.342181
618.733048	11670.671926
619.080961	11655.278762
619.428821	11642.827112
619.776628	11646.358441
620.124382	11590.575553
620.472083	11616.217382
620.819731	11632.586008
621.167326	11557.288814
621.514868	11539.070084
621.862357	11455.104625
622.209793	11440.235742
622.557176	11351.710560
622.904506	11299.935389
623.251783	11224.436549
623.599007	11163.569657
623.946179	11112.147368
624.293297	11090.140210
624.640363	10945.769126
624.987376	10930.786817
625.334336	10872.939576
625.681243	10789.710126
626.028097	10761.837587
626.374899	10727.419109
626.721647	10704.691067
627.068343	10652.938581
627.414987	10591.161762
627.761577	10517.424804
628.108115	10579.226830
628.454600	10449.223034
628.801032	10462.894643
629.147412	10441.487383
629.493739	10417.108363
629.840014	10339.918216
630.186236	10384.565195
630.532405	10284.112643
630.878521	10325.152676
631.224585	10282.073496
631.570597	10199.121309
631.916556	10202.508965
632.262462	10196.920846
632.608316	10172.030148
632.954117	10145.606941
633.299866	10127.037850
633.645562	10111.909348
633.991206	9999.448767
634.336797	9910.308564
634.682336	9901.995702
635.027823	9842.550415
635.373257	9803.347882
635.718639	9739.438655
636.063968	9704.029590
636.409245	9585.592722
636.754470	9574.270290
637.099642	9520.937403
637.444762	9425.941900
637.789829	9426.622456
638.134845	9357.132670
638.479808	9332.980502
638.824719	9301.347262
639.169577	9220.489675
639.514383	9215.241834
639.859137	9143.425556
640.203839	9185.889715
640.548489	9104.195297
640.893086	9114.811967
641.237632	9048.150269
641.582125	9043.663642
641.926566	9037.543681
642.270955	9015.972584
642.615292	9013.020988
642.959576	8998.416766
643.303809	8983.951175
643.647990	9003.717539
643.992118	8979.799784
644.336195	8959.153739
644.680219	8958.011917
645.024192	8981.871699
645.368112	9062.066374
645.711981	9035.655769
646.055797	9176.198097
646.399562	9137.552612
646.743274	9297.064802
647.086935	9371.265545
647.430544	9337.308333
647.774101	9369.143219
648.117606	9385.589984
648.461059	9452.385272
648.804460	9379.585970
649.147810	9266.641438
649.491108	9233.168177
649.834354	9165.276437
650.177548	9024.655971
650.520690	8936.435779
650.863781	8932.092825
651.206820	8907.953260
651.549807	8810.616141
651.892742	8720.621462
652.235626	8679.609155
652.578458	8643.360738
652.921238	8535.653966
653.263967	8571.453720
653.606644	8506.256477
653.949269	8487.826019
654.291843	8410.696365
654.634365	8481.353177
654.976836	8407.046570
655.319255	8397.816217
655.661622	8389.374805
656.003938	8346.439298
656.346203	8306.115108
656.688416	8337.027463
657.030577	8294.843088
657.372687	8256.482428
657.714746	8287.223384
658.056753	8303.022360
658.398708	8202.486629
658.740612	8197.621915
659.082465	8242.813339
659.424266	8201.947225
659.766016	8219.031696
660.107715	8192.948766
660.449362	8216.367446
660.790958	8204.172895
661.132503	8200.117287
661.473996	8198.133592
661.815438	8216.546407
662.156829	8241.414419
662.498168	8191.638066
662.839456	8192.323663
663.180693	8210.560037
663.521879	8231.687513
663.863013	8214.169503
664.204097	8205.773461
664.545129	8282.041078
664.886110	8269.294520
665.227040	8269.173533
665.567918	8283.293804
665.908746	8297.250239
666.249522	8312.716499
666.590248	8308.202146
666.930922	8335.416815
667.271545	8322.768560
667.612118	8345.829318
667.952639	8304.335581
668.293109	8305.348853
668.633528	8284.637272
668.973896	8264.669262
669.314213	8269.823841
669.654480	8226.079229
669.994695	8222.104279
670.334859	8203.711629
670.674973	8184.547683
671.015035	8203.739356
671.355047	8197.931946
671.695008	8184.522477
672.034918	8156.448291
672.374777	8159.732603
672.714585	8141.264336
673.054342	8170.210641
673.394049	8141.702916
673.733705	8182.027106
674.073310	8125.251111
674.412864	8136.815518
674.752368	8066.960249
675.091820	8120.341027
675.431223	8053.709576
675.770574	8002.254519
676.109875	7971.175805
676.449125	7934.753469
676.788324	7922.319463
677.127473	7840.194025
677.466571	7827.316398
677.805619	7765.501769
678.144616	7767.669466
678.483562	7740.389262
678.822458	7696.069957
679.161303	7681.226280
679.500098	7660.537385
679.838842	7641.933006
680.177535	7647.909294
680.516179	7684.195520
680.854771	7702.159671
681.193314	7821.405645
681.531805	7973.963563
681.870247	8099.286648
682.208638	8251.408506
682.546978	8330.436155
682.885268	8355.407510
683.223508	8283.409751
683.561697	8236.219510
683.899836	8199.320784
684.237925	8114.878937
684.575963	8082.807116
684.913951	8006.723502
685.251889	8028.776029
685.589776	8018.416458
685.927614	7998.942481
686.265401	8026.696553
686.603137	8027.540946
686.940824	8100.110877
687.278460	8151.757498
687.616046	8160.806369
687.953582	8273.007330
688.291068	8248.023372
688.628504	8312.519894
688.965889	8314.725399
689.303224	8270.632947
689.640510	8226.807676
689.977745	8121.044268
690.314930	8005.392637
690.652065	7926.443127
690.989150	7812.676887
691.326185	7667.481574
691.663170	7558.937970
692.000105	7432.601613
692.336990	7322.291085
692.673825	7249.915239
693.010610	7154.768502
693.347345	7056.206382
693.684030	6943.924763
694.020665	6898.007413
694.357251	6780.767818
694.693786	6769.382372
695.030272	6731.908955
695.366707	6643.121633
695.703093	6589.660197
696.039429	6588.092398
696.375716	6538.863010
696.711952	6527.533017
697.048139	6495.408264
697.384276	6469.126208
697.720363	6485.585575
698.056400	6458.738911
698.392388	6426.614158
698.728326	6429.888387
699.064214	6406.525160
699.400053	6394.686010
699.735842	6332.952040
700.071581	6286.948990
700.407270	6242.642289
700.742910	6217.837292
701.078501	6172.638306
701.414042	6135.563140
701.749533	6081.763947
702.084974	6020.556777
702.420366	6060.482716
702.755709	5986.357589
703.091002	5940.077277
703.426246	5944.611794
703.761440	5930.612510
704.096584	5881.060488
704.431679	5872.230908
704.766725	5853.513103
705.101721	5840.010373
705.436668	5856.565522
705.771565	5801.430422
706.106413	5856.830183
706.441212	5854.859091
706.775961	5869.609508
707.110661	5882.618205
707.445311	5937.697852
707.779913	5905.497482
708.114465	5946.953410
708.448967	5993.354711
708.783421	6108.103975
709.117825	6149.297764
709.452180	6185.677251
709.786485	6242.473411
710.120742	6370.775817
710.454949	6375.166662
710.789107	6449.995029
711.123216	6574.793834
711.457275	6606.104440
711.791286	6717.206430
712.125247	6736.866930
712.459159	6704.810233
712.793023	6837.823598
713.126837	6664.594428
713.460602	6725.602472
713.794318	6681.941038
714.127985	6624.910465
714.461602	6484.131202
714.795171	6482.084494
715.128691	6315.295398
715.462162	6229.247943
715.795584	6159.969887
716.128957	6112.764522
716.462281	6047.784049
716.795556	6006.804509
717.128782	5927.234937
717.461960	5826.590821
717.795088	5815.976672
718.128167	5745.581999
718.461198	5661.414895
718.794180	5642.989477
719.127113	5581.021094
719.459997	5549.443306
719.792833	5482.451413
720.125619	5483.159695
720.458357	5423.537968
720.791046	5391.370366
721.123686	5363.071848
721.456278	5321.210107
721.788821	5309.257531
722.121315	5268.978712
722.453761	5274.264362
722.786158	5261.646354
723.118506	5260.444038
723.450805	5237.690791
723.783056	5264.545017
724.115259	5246.525413
724.447412	5234.855142
724.779518	5278.700577
725.111574	5280.749806
725.443582	5320.186753
725.775542	5311.669723
726.107453	5400.396552
726.439315	5365.035378
726.771129	5439.286533
727.102895	5502.895812
727.434612	5546.647986
727.766281	5576.904992
728.097901	5629.217045
728.429473	5642.359333
728.760996	5652.330736
729.092471	5676.583727
729.423897	5663.212066
729.755276	5636.133508
730.086606	5651.675386
730.417887	5734.620010
730.749120	5827.387323
731.080305	5868.240834
731.411442	5942.557524
731.742530	5968.678263
732.073570	5991.219782
732.404562	6052.358896
732.735506	6047.196755
733.066401	6029.119177
733.397249	5961.013188
733.728048	5861.674731
734.058798	5722.007043
734.389501	5595.763948
734.720156	5512.093397
735.050762	5401.828239
735.381320	5334.085214
735.711831	5272.275627
736.042293	5195.574471
736.372707	5189.948543
736.703073	5141.858456
737.033391	5174.578065
737.363661	5158.612731
737.693883	5176.034958
738.024056	5198.818453
738.354182	5226.524635
738.684260	5274.665133
739.014290	5308.403056
739.344272	5342.640052
739.674207	5398.390172
740.004093	5432.576757
740.333931	5440.740906
740.663722	5456.096260
740.993464	5470.587057
741.323159	5449.840188
741.652806	5408.616153
741.982405	5375.334455
742.311956	5326.624306
742.641460	5306.527746
742.970915	5260.005458
743.300323	5200.408937
743.629683	5160.114995
743.958996	5111.349393
744.288260	5066.833484
744.617477	5002.563813
744.946647	4984.750896
745.275768	4933.184934
745.604842	4903.134616
745.933869	4868.529615
746.262847	4859.289180
746.591778	4848.216286
746.920662	4824.777441
747.249498	4821.430115
747.578286	4842.648331
747.907027	4864.617680
748.235720	4907.114607
748.564365	4911.782715
748.892963	4900.120006
749.221514	4917.363272
749.550017	4897.874172
749.878473	4889.873860
750.206881	4853.862378
750.535242	4838.635573
750.863555	4828.313810
751.191821	4803.455881
751.520039	4809.321263
751.848210	4793.587822
752.176334	4798.356753
752.504411	4776.097539
752.832440	4741.827775
753.160421	4759.708747
753.488356	4737.467177
753.816243	4720.445721
754.144082	4686.927089
754.471875	4680.852498
754.799620	4662.979087
755.127318	4658.187471
755.454969	4655.339219
755.782572	4647.091891
756.110129	4646.817148
756.437638	4632.225528
756.765100	4629.916680
757.092515	4632.248214
757.419882	4633.246362
757.747203	4629.110095
758.074477	4645.768588
758.401703	4636.550838
758.728882	4669.560314
759.056014	4674.528371
759.383099	4697.027041
759.710138	4724.682811
760.037129	4751.501749
760.364073	4764.518008
760.690970	4758.662708
761.017820	4762.309983
761.344623	4790.873161
761.671379	4854.225341
761.998088	4944.099032
762.324751	5174.895658
762.651366	5635.248786
762.977935	6330.118911
763.304456	6878.510750
763.630931	7179.213057
763.957359	7113.012624
764.283740	6822.601833
764.610074	6504.512587
764.936362	6103.168686
765.262602	5789.467764
765.588796	5441.635711
765.914943	5188.370662
766.241044	4965.360098
766.567097	4796.529335
766.893104	4652.256553
767.219064	4545.774781
767.544978	4453.204073
767.870845	4371.560066
768.196665	4320.702385
768.522438	4271.919140
768.848165	4232.313314
769.173846	4189.909649
769.499479	4161.192716
769.825066	4126.771718
770.150607	4086.218155
770.476101	4072.836412
770.801548	4053.496026
771.126949	4019.415305
771.452303	4000.848736
771.777611	3965.434630
772.102872	3963.012355
772.428087	3936.964713
772.753256	3909.641660
773.078378	3890.944020
773.403453	3857.621993
773.728482	3830.833302
774.053465	3820.536745
774.378401	3800.268786
774.703291	3777.560908
775.028135	3755.513422
775.352932	3746.847678
775.677683	3725.841190
776.002388	3706.462995
776.327046	3708.877708
776.651658	3690.858103
776.976224	3670.070905
777.300743	3668.230884
777.625216	3651.191784
777.949643	3641.636277
778.274024	3644.907986
778.598359	3622.311014
778.922647	3628.478866
779.246889	3619.566106
779.571086	3614.867750
779.895236	3612.866412
780.219339	3611.321298
780.543397	3617.920169
780.867409	3629.035913
781.191374	3630.369298
781.515294	3621.237248
781.839167	3637.225267
782.162995	3638.909013
782.486776	3631.334679
782.810511	3622.999131
783.134201	3608.165536
783.457844	3609.188890
783.781441	3600.626491
784.104993	3593.475614
784.428498	3587.733740
784.751958	3584.898091
785.075372	3577.427101
785.398739	3568.947880
785.722061	3576.320567
786.045337	3573.094229
786.368568	3598.410903
786.691752	3599.562807
787.014891	3640.197028
787.337983	3685.877443
787.661030	3772.192079
787.984031	3871.769991
788.306987	3945.264973
788.629897	3993.536542
788.952760	3997.682891
789.275579	3984.477588
789.598351	3936.137964
789.921078	3885.726426
790.243759	3823.319462
790.566395	3773.959004
790.888984	3731.678847
791.211529	3690.159903
791.534027	3647.562153
791.856480	3608.760392
792.178888	3588.865479
792.501249	3573.374013
792.823566	3539.552912
793.145836	3537.385216
793.468062	3525.387269
793.790241	3508.670803
794.112375	3513.830424
794.434464	3537.985113
794.756507	3534.635266
795.078505	3555.135118
795.400457	3594.141046
795.722364	3645.129797
796.044226	3687.992207
796.366042	3734.695977
796.687812	3734.143971
797.009538	3755.692383
797.331218	3744.112853
797.652852	3738.706215
797.974442	3717.326682
798.295986	3707.937533
798.617484	3676.700023
798.938938	3652.230262
799.260346	3639.902120
799.581709	3600.601285
799.903026	3591.295315
800.224299	3572.655648
800.545526	3540.281358
800.866708	3524.648740
801.187845	3511.050228
801.508936	3490.197495
801.829983	3480.334478
802.150984	3449.467492
802.471940	3441.285700
802.792851	3432.887138
803.113717	3428.234153
803.434538	3420.213677
803.755314	3408.971904
804.076045	3402.786408
804.396731	3391.068246
804.717372	3393.503123
805.037967	3394.715521
805.358518	3393.130078
805.679024	3411.036256
805.999485	3404.860843
806.319901	3409.428128
806.640272	3408.901328
806.960598	3423.742484
807.280879	3425.133843
807.601115	3432.574586
807.921306	3427.422527
808.241453	3426.172321
808.561554	3435.702622
808.881611	3430.648865
809.201623	3436.121038
809.521590	3424.942279
809.841513	3422.061260
810.161390	3432.103238
810.481223	3409.453334
810.801011	3407.124321
811.120755	3408.112387
811.440453	3392.804923
811.760107	3388.046074
812.079716	3380.557440
812.399281	3368.680482
812.718801	3366.094370
813.038276	3363.001622
813.357707	3354.560210
813.677093	3364.609750
813.996434	3345.735670
814.315731	3356.836291
814.634983	3351.777493
814.954191	3353.683049
815.273354	3368.993033
815.592473	3378.558623
815.911547	3399.865059
816.230577	3416.468099
816.549562	3440.549691
816.868502	3458.632310
817.187399	3477.624857
817.506250	3502.762571
817.825058	3516.003162
818.143821	3558.484965
818.462539	3603.968776
818.781213	3658.196468
819.099843	3740.818458
819.418429	3894.293867
819.736970	4043.885066
820.055466	4229.626379
820.373919	4467.601608
820.692327	4802.850942
821.010691	5319.647349
821.329011	6385.637139
821.647286	8115.100747
821.965517	10277.725501
822.283704	11890.410781
822.601847	12955.263790
822.919945	12548.203220
823.237999	11875.010056
823.556010	10985.264046
823.873976	10038.038800
824.191897	9078.162778
824.509775	8320.328641
824.827609	7512.576999
825.145398	6970.715975
825.463144	6594.051042
825.780845	6463.911134
826.098502	6528.889087
826.416116	6902.766262
826.733685	7400.580204
827.051210	7687.444543
827.368692	7593.699246
827.686129	7152.938563
828.003522	6606.762311
828.320872	6043.373039
828.638177	5586.788174
828.955439	5220.954160
829.272656	4881.490422
829.589830	4601.882823
829.906960	4341.146785
830.224046	4135.419817
830.541088	3962.994711
830.858086	3848.822659
831.175041	3752.660129
831.491952	3704.728838
831.808819	3692.856921
832.125642	3729.317066
832.442421	3827.238959
832.759157	4043.756517
833.075849	4422.009413
833.392497	4881.676944
833.709101	5268.325883
834.025662	5376.811513
834.342179	5252.466413
834.658653	4978.794773
834.975083	4710.650759
835.291469	4467.339468
835.607811	4243.976024
835.924110	4085.940892
836.240366	3926.567334
836.556578	3766.120010
836.872746	3631.899288
837.188871	3516.930734
837.504952	3421.075714
837.820990	3349.493850
838.136984	3294.797331
838.452935	3262.838936
838.768842	3249.600866
839.084706	3280.810649
839.400526	3420.795930
839.716303	3641.225423
840.032037	3848.636136
840.347727	3917.188267
840.663373	3829.676357
840.978977	3679.576001
841.294537	3547.205383
841.610054	3441.426852
841.925527	3369.761809
842.240957	3300.198927
842.556344	3237.867580
842.871687	3179.803570
843.186987	3120.648151
843.502244	3066.715366
843.817458	3025.362781
844.132629	2996.056033
844.447756	2972.715491
844.762840	2951.696400
845.077881	2934.092691
845.392879	2920.284970
845.707833	2909.670821
846.022745	2895.989129
846.337613	2898.358472
846.652438	2886.320196
846.967221	2882.793909
847.281960	2870.372506
847.596656	2867.138606
847.911309	2864.363451
848.225919	2862.087370
848.540485	2855.526308
848.855009	2851.765607
849.169490	2850.056656
849.483928	2845.713702
849.798323	2841.907631
850.112675	2840.312106
850.426984	2837.015191
850.741251	2838.018381
851.055474	2836.047290
851.369654	2837.844461
851.683792	2833.486383
851.997887	2832.001764
852.311938	2833.806497
852.625947	2833.619974
852.939914	2833.473781
853.253837	2835.873370
853.567718	2835.195335
853.881555	2830.691064
854.195350	2833.524192
854.509103	2834.560149
854.822812	2832.619305
855.136479	2833.801456
855.450103	2833.090653
855.763685	2831.616115
856.077224	2831.522854
856.390720	2831.583348
856.704173	2835.122238
857.017584	2837.816735
857.330953	2837.713391
857.644278	2840.748166
857.957561	2840.937209
858.270802	2843.183043
858.584000	2843.982066
858.897155	2844.619772
859.210268	2841.537106
859.523339	2838.086436
859.836367	2839.298834
860.149352	2840.332270
860.462295	2837.138699
860.775195	2830.249963
861.088054	2827.220229
861.400869	2829.040086
861.713642	2828.346927
862.026373	2829.135868
862.339062	2832.384891
862.651708	2835.649038
862.964312	2838.855212
863.276873	2840.770851
863.589392	2850.643951
863.901869	2856.491689
864.214303	2862.972092
864.526696	2868.068699
864.839045	2875.065820
865.151353	2883.857593
865.463619	2887.918242
865.775842	2886.471431
866.088023	2889.415465
866.400162	2889.788510
866.712258	2892.954355
867.024313	2893.995353
867.336325	2893.834036
867.648296	2896.510889
867.960224	2896.561300
868.272110	2900.894172
868.583954	2901.862074
868.895755	2901.617578
869.207515	2903.550860
869.519233	2910.356418
869.830909	2912.088054
870.142542	2913.885226
870.454134	2914.611152
870.765684	2918.936462
871.077191	2926.208326
871.388657	2931.872063
871.700081	2938.118052
872.011463	2945.178188
872.322803	2950.297480
872.634101	2954.148921
872.945357	2960.213429
873.256571	2971.775316
873.567744	2977.809577
873.878874	2981.562716
874.189963	2991.302225
874.501010	2994.962103
874.812015	2995.539315
875.122979	3001.918895
875.433900	3002.962414
875.744780	3007.668331
876.055618	3012.623785
876.366415	3013.077489
876.677169	3020.442615
876.987882	3024.762884
877.298554	3033.428627
877.609183	3048.468910
877.919771	3066.359965
878.230317	3089.077925
878.540822	3127.410858
878.851285	3178.371883
879.161707	3243.231368
879.472087	3346.857327
879.782425	3510.929240
880.092722	3785.021816
880.402977	4203.800548
880.713191	4747.340277
881.023363	5341.286502
881.333494	5773.116782
881.643583	6062.327778
881.953631	6132.548530
882.263637	6077.211785
882.573602	5933.629641
882.883526	5769.966061
883.193408	5564.629782
883.503248	5349.990054
883.813048	5133.285974
884.122806	4916.687758
884.432522	4678.485677
884.742197	4455.570895
885.051831	4247.973659
885.361424	4056.548444
885.670975	3885.981004
885.980485	3741.287286
886.289954	3618.651136
886.599382	3517.815456
886.908768	3430.996705
887.218113	3351.311186
887.527417	3291.674336
887.836680	3233.728793
888.145901	3186.861186
888.455082	3148.576143
888.764221	3118.077162
889.073319	3088.304108
889.382376	3068.825089
889.691392	3053.031154
890.000366	3042.923641
890.309300	3037.794267
890.618193	3033.295037
890.927044	3027.538039
891.235855	3027.699356
891.544625	3031.923843
891.853353	3039.215872
892.162041	3053.482337
892.470687	3078.773806
892.779293	3111.995010
893.087858	3158.280364
893.396381	3236.153588
893.704864	3340.936491
894.013306	3498.175121
894.321707	3680.853933
894.630068	3831.254238
894.938387	3911.277514
895.246665	3914.173657
895.554903	3862.111141
895.863100	3772.918006
896.171256	3698.175338
896.479371	3624.584574
896.787446	3549.894839
897.095480	3481.841783
897.403473	3427.162907
897.711425	3370.495297
898.019336	3318.755414
898.327207	3264.005963
898.635038	3219.807647
898.942827	3167.722445
899.250576	3125.553193
899.558284	3087.807554
899.865952	3060.991136
900.173579	3029.400745
900.481165	3008.452231
900.788711	2993.008656
901.096216	2976.766058
901.403681	2961.975313
901.711105	2954.292594
902.018489	2948.490226
902.325832	2957.508850
902.633135	2966.078812
902.940397	3005.263701
903.247619	3095.069336
903.554800	3269.689864
903.861941	3544.251267
904.169041	3803.137202
904.476101	3969.369250
904.783121	3990.093434
905.090100	3926.191768
905.397039	3823.148062
905.703938	3717.246023
906.010796	3616.057462
906.317614	3528.169986
906.624391	3444.590176
906.931129	3376.093498
907.237826	3306.878456
907.544483	3242.250864
907.851099	3171.309226
908.157675	3096.879110
908.464211	3026.854963
908.770707	2969.768937
909.077163	2923.082811
909.383578	2883.671070
909.689954	2859.947400
909.996289	2839.548371
910.302584	2826.764005
910.608839	2817.150524
910.915054	2809.780357
911.221229	2804.280459
911.527363	2803.892290
911.833458	2807.010243
912.139513	2810.198773
912.445527	2809.435038
912.751502	2820.754949
913.057436	2837.332784
913.363331	2856.831967
913.669186	2885.420350
913.975000	2922.024168
914.280775	2977.907879
914.586510	3062.120354
914.892205	3172.559432
915.197859	3316.769200
915.503475	3496.141015
915.809050	3669.181142
916.114585	3799.230308
916.420081	3871.409549
916.725536	3906.493459
917.030952	3869.113303
917.336328	3830.024196
917.641665	3781.762710
917.946961	3725.916808
918.252218	3665.160822
918.557435	3595.802106
918.862612	3529.190820
919.167750	3467.202272
919.472848	3393.682084
919.777906	3325.384532
920.082925	3258.793410
920.387904	3188.290353
920.692843	3130.002012
920.997743	3079.885381
921.302603	3030.436703
921.607423	2996.013183
921.912204	2962.363482
922.216946	2937.518155
922.521647	2914.772469
922.826310	2890.958058
923.130932	2874.279400
923.435516	2850.671677
923.740059	2839.165243
924.044564	2823.663695
924.349028	2811.101140
924.653454	2796.375929
924.957840	2782.669032
925.262186	2773.141251
925.566493	2764.346958
925.870761	2751.877664
926.174989	2748.714340
926.479178	2740.373751
926.783328	2729.348748
927.087438	2722.540670
927.391509	2718.580843
927.695541	2710.177240
927.999533	2707.507949
928.303486	2702.270190
928.607400	2699.444623
928.911275	2696.503110
929.215110	2693.062522
929.518906	2690.511699
929.822663	2688.550690
930.126381	2687.436595
930.430060	2688.018848
930.733699	2686.740916
931.037299	2690.859538
931.340861	2686.788807
931.644383	2689.924404
931.947866	2687.872655
932.251309	2688.817871
932.554714	2689.284178
932.858080	2689.584126
933.161407	2687.688652
933.464694	2687.963395
933.767943	2686.269568
934.071153	2684.696728
934.374323	2680.411747
934.677455	2682.100533
934.980548	2681.044412
935.283602	2679.126253
935.586617	2676.751869
935.889593	2679.345543
936.192530	2678.934689
936.495428	2681.175482
936.798287	2684.832839
937.101108	2686.529187
937.403890	2693.453212
937.706632	2705.592310
938.009336	2716.360215
938.312002	2726.576113
938.614628	2737.701940
938.917216	2749.644433
939.219765	2752.888416
939.522275	2763.689088
939.824747	2766.832247
940.127179	2762.728748
940.429573	2763.023656
940.731929	2764.919129
941.034246	2762.058275
941.336524	2761.458377
941.638763	2764.359561
941.940964	2764.271341
942.243126	2755.222470
942.545250	2752.192737
942.847335	2746.012282
943.149381	2740.212434
943.451389	2734.788153
943.753359	2726.949159
944.055290	2724.655434
944.357182	2721.875237
944.659036	2718.974053
944.960851	2715.435163
945.262628	2706.865202
945.564367	2710.484750
945.866067	2705.937629
946.167729	2706.101467
946.469352	2705.110880
946.770937	2705.269677
947.072484	2703.374203
947.373992	2703.291024
947.675462	2698.726259
947.976893	2701.042669
948.278286	2699.729448
948.579641	2699.003522
948.880958	2695.278110
949.182236	2696.440096
949.483476	2694.889941
949.784678	2696.389684
950.085841	2692.729806
950.386967	2696.137626
950.688054	2696.820703
950.989103	2698.990919
951.290114	2702.698688
951.591087	2705.884697
951.892021	2710.343598
952.192917	2717.565051
952.493776	2717.302911
952.794596	2721.706359
953.095378	2724.511761
953.396122	2724.776421
953.696828	2723.967316
953.997496	2723.493448
954.298126	2718.033878
954.598718	2719.276522
954.899272	2712.249154
955.199788	2708.274204
955.500266	2706.724049
955.800706	2698.935467
956.101108	2688.835515
956.401472	2683.333096
956.701798	2677.603824
957.002087	2669.706857
957.302337	2667.453461
957.602550	2663.392812
957.902724	2656.514157
958.202861	2652.554331
958.502960	2648.057622
958.803022	2642.416570
959.103045	2638.625623
959.403031	2636.241157
959.702979	2630.912657
960.002889	2629.468367
960.302762	2625.339662
960.602596	2626.073150
960.902393	2624.709517
961.202153	2623.605505
961.501875	2619.774228
961.801559	2618.808847
962.101205	2615.461521
962.400814	2614.685183
962.700385	2613.051849
962.999918	2616.283229
963.299414	2611.199225
963.598873	2614.319699
963.898293	2609.729729
964.197677	2610.364914
964.497022	2609.472630
964.796331	2607.841817
965.095601	2607.249481
965.394835	2611.395830
965.694030	2607.173864
965.993189	2607.415839
966.292309	2606.216045
966.591393	2607.645212
966.890439	2607.206631
967.189447	2607.546909
967.488419	2603.831579
967.787353	2604.779316
968.086249	2606.374841
968.385108	2609.666714
968.683930	2604.565067
968.982714	2607.665376
969.281462	2605.530448
969.580172	2610.667383
969.878844	2610.221241
970.177480	2610.387599
970.476078	2610.526231
970.774639	2616.472272
971.073162	2613.508074
971.371649	2613.003958
971.670098	2613.026643
971.968510	2615.650564
972.266885	2616.270626
972.565223	2616.096706
972.863524	2617.944289
973.161788	2622.940072
973.460014	2619.391100
973.758204	2623.487038
974.056356	2622.980402
974.354471	2622.929990
974.652550	2621.962089
974.950591	2623.620628
975.248595	2620.374125
975.546563	2623.779425
975.844493	2623.202212
976.142386	2623.262706
976.440243	2619.691049
976.738062	2622.572068
977.035845	2617.987139
977.333590	2616.636110
977.631299	2617.472941
977.928971	2612.958588
978.226606	2613.790378
978.524204	2615.436315
978.821765	2615.683332
979.119290	2611.781478
979.416777	2614.176027
979.714228	2612.920779
980.011642	2614.717951
980.309020	2614.062601
980.606360	2617.835904
980.903664	2617.906480
981.200931	2626.660444
981.498162	2631.194962
981.795356	2645.360604
982.092513	2659.080104
982.389633	2675.037877
982.686717	2695.706608
982.983764	2710.295707
983.280775	2724.179045
983.577749	2729.757081
983.874686	2729.416803
984.171587	2724.922615
984.468451	2721.938252
984.765279	2713.242261
985.062070	2707.951570
985.358824	2698.567462
985.655543	2692.941535
985.952224	2681.470389
986.248869	2668.640653
986.545478	2652.753456
986.842050	2645.635347
987.138586	2631.961217
987.435086	2624.427213
987.731549	2614.528907
988.027975	2612.139400
988.324366	2608.812239
988.620719	2605.631271
988.917037	2601.225302
989.213318	2599.259252
989.509563	2598.137596
989.805772	2598.392174
990.101944	2594.170207
990.398080	2595.422934
990.694180	2596.494179
990.990244	2597.590630
991.286271	2593.136771
991.582262	2596.499221
991.878217	2595.634663
992.174136	2595.145671
992.470019	2595.276741
992.765865	2597.210023
993.061676	2596.693305
993.357450	2600.648090
993.653188	2600.801845
993.948890	2605.323760
994.244556	2607.277207
994.540186	2611.363063
994.835780	2615.524535
995.131337	2623.597943
995.426859	2628.170270
995.722345	2638.645787
996.017795	2647.561068
996.313208	2658.462563
996.608586	2662.608912
996.903928	2665.154695
997.199234	2665.946156
997.494504	2666.737617
997.789738	2665.250477
998.084936	2661.819972
998.380099	2656.320073
998.675225	2654.301091
998.970316	2647.198105
999.265371	2641.778864
999.560390	2633.216465
999.855373	2627.477111
1000.150320	2619.260030
1000.445232	2614.775924
1000.740108	2613.162755
1001.034948	2608.882815
1001.329752	2601.701691
1001.624521	2602.392329
1001.919254	2595.513675
1002.213951	2592.657861
1002.508613	2592.491503
1002.803239	2591.823550
1003.097829	2587.959506
1003.392384	2591.677357
1003.686903	2590.147367
1003.981386	2590.754826
1004.275834	2589.292891
1004.570246	2590.958992
1004.864623	2587.868765
1005.158964	2586.515215
1005.453270	2586.986563
1005.747540	2587.289032
1006.041775	2585.322982
1006.335974	2586.999166
1006.630138	2584.105544
1006.924266	2585.138980
1007.218359	2585.368353
1007.512416	2582.318455
1007.806438	2587.314238
1008.100425	2582.666294
1008.394376	2585.703590
1008.688292	2584.796182
1008.982172	2582.845255
1009.276017	2584.917170
1009.569827	2582.668815
1009.863602	2584.022365
1010.157341	2586.134608
1010.451045	2581.557241
1010.744714	2583.172930
1011.038347	2583.319124
1011.331945	2582.661253
1011.625508	2580.949782
1011.919036	2583.399782
1012.212528	2582.638568
1012.505986	2583.281315
1012.799408	2582.399113
1013.092795	2583.472879
1013.386147	2581.794175
1013.679464	2581.295101
1013.972745	2582.676377
1014.265992	2581.184195
1014.559204	2583.132601
1014.852380	2582.207549
1015.145521	2581.814339
1015.438628	2580.523804
1015.731699	2580.576736
1016.024736	2580.974987
1016.317737	2581.602611
1016.610703	2580.927096
1016.903635	2579.666808
1017.196531	2581.305183
1017.489393	2581.602611
1017.782219	2579.649164
1018.075011	2577.627661
1018.367768	2583.127560
1018.660490	2583.735019
1018.953177	2583.735019
1019.245829	2583.735019
