Dividing Wavelength (nm)	Counts (n)	Blue Motor Position (mm): 49.500000	Red Motor Position (mm): 0.000000	
326.493990	2151.589667
326.888308	2151.589667
327.282561	2151.589667
327.676750	2125.736110
328.070874	2129.307767
328.464933	2135.750362
328.858929	2140.942750
329.252859	2154.256438
329.646726	2169.828562
330.040528	2186.275326
330.434265	2203.508511
330.827938	2220.308156
331.221547	2238.965466
331.615091	2259.989598
332.008571	2280.396189
332.401986	2302.042904
332.795338	2319.807930
333.188625	2341.631085
333.581847	2360.220340
333.975006	2380.258926
334.368100	2399.760630
334.761129	2416.396438
335.154095	2430.219282
335.546996	2456.307253
335.939833	2487.375884
336.332606	2500.132524
336.725315	2511.379338
337.117960	2519.634227
337.510540	2528.020187
337.903056	2538.916641
338.295508	2545.732281
338.687896	2552.368960
339.080220	2564.974365
339.472480	2566.252297
339.864676	2570.741445
340.256807	2575.097002
340.648875	2578.361149
341.040879	2579.056828
341.432818	2576.392578
341.824694	2580.637230
342.216506	2578.663618
342.608253	2576.385017
342.999937	2580.022209
343.391557	2577.368042
343.783113	2578.154462
344.174605	2575.303689
344.566033	2571.563153
344.957397	2572.357135
345.348697	2569.019891
345.739934	2568.064592
346.131106	2566.007802
346.522215	2566.090981
346.913260	2560.623849
347.304241	2560.210475
347.695159	2558.990515
348.086012	2559.618139
348.476802	2558.473797
348.867528	2555.481872
349.258191	2554.695452
349.648789	2554.279557
350.039324	2551.731254
350.429796	2550.095399
350.820203	2548.585574
351.210548	2547.463917
351.600828	2545.757487
351.991045	2548.958619
352.381198	2547.728578
352.771288	2546.548948
353.161314	2544.933258
353.551276	2548.504915
353.941175	2547.216901
354.331010	2549.155224
354.720782	2545.306303
355.110490	2549.104813
355.500135	2546.801005
355.889717	2550.375183
356.279235	2547.796633
356.668689	2550.044988
357.058080	2550.050029
357.447408	2549.442570
357.836672	2547.347971
358.225873	2545.591128
358.615010	2547.153886
359.004084	2552.036244
359.393095	2551.431305
359.782043	2556.316183
360.170927	2550.775955
360.559748	2553.566234
360.948505	2553.427602
361.337199	2556.676626
361.725830	2554.829043
362.114398	2554.236707
362.502903	2556.608570
362.891344	2558.327604
363.279722	2557.142932
363.668037	2557.823488
364.056289	2556.485062
364.444478	2559.053530
364.832603	2555.998591
365.220665	2557.228632
365.608665	2561.579148
365.996601	2559.799621
366.384474	2560.533108
366.772284	2560.117213
367.160031	2561.601833
367.547715	2560.119734
367.935336	2561.327090
368.322893	2562.617626
368.710388	2561.803479
369.097820	2565.738100
369.485189	2563.250290
369.872495	2562.864642
370.259738	2567.326063
370.646918	2560.974209
371.034035	2563.373799
371.421090	2565.564180
371.808081	2566.721125
372.195010	2566.365723
372.581875	2564.785322
372.968678	2564.525702
373.355418	2567.928481
373.742096	2568.430076
374.128710	2566.280024
374.515262	2570.494428
374.901751	2571.464851
375.288177	2573.342680
375.674540	2571.898390
376.060841	2574.108936
376.447079	2577.047928
376.833254	2576.521128
377.219367	2575.192784
377.605417	2580.087744
377.991404	2580.095306
378.377329	2583.437591
378.763191	2582.779720
379.148991	2591.377408
379.534727	2595.977461
379.920402	2596.952924
380.306013	2602.667072
380.691563	2607.166302
381.077049	2608.658484
381.462474	2615.252313
381.847835	2616.958743
382.233134	2624.278499
382.618371	2627.893006
383.003545	2635.943729
383.388657	2641.655356
383.773706	2646.600728
384.158693	2652.909732
384.543618	2658.515495
384.928480	2663.165960
385.313280	2673.762465
385.698017	2678.949812
386.082692	2689.642100
386.467305	2691.487162
386.851856	2703.195242
387.236344	2714.278218
387.620770	2719.621842
388.005133	2729.131978
388.389435	2741.855851
388.773674	2743.282497
389.157851	2755.184661
389.541965	2767.079264
389.926018	2771.316354
390.310008	2783.319341
390.693936	2792.327883
391.077802	2800.504634
391.461606	2810.937302
391.845348	2821.009528
392.229027	2831.520333
392.612645	2842.734380
392.996200	2853.794672
393.379694	2869.172712
393.763125	2882.589743
394.146494	2891.391597
394.529801	2902.923237
394.913047	2920.572316
395.296230	2926.422575
395.679351	2927.377874
396.062410	2946.161213
396.445408	2943.202056
396.828343	2959.578244
397.211217	2964.367340
397.594028	2957.090435
397.976778	2973.537199
398.359466	2986.102275
398.742092	2984.302583
399.124656	2999.564676
399.507158	3011.802077
399.889598	3018.801719
400.271977	3029.897299
400.654294	3041.103784
401.036549	3054.256154
401.418742	3056.373439
401.800874	3079.323292
402.182944	3089.864345
402.564952	3117.469703
402.946898	3109.126593
403.328783	3115.818725
403.710606	3135.083495
404.092367	3157.037720
404.474067	3181.704085
404.855705	3172.995492
405.237282	3175.294258
405.618797	3205.294165
406.000250	3227.099676
406.381642	3258.848863
406.762972	3259.778956
407.144240	3253.490116
407.525447	3277.586832
407.906593	3274.844444
408.287677	3296.665078
408.668700	3316.459169
409.049661	3315.796257
409.430560	3329.142712
409.811399	3330.927280
410.192176	3352.657174
410.572891	3361.428782
410.953545	3400.008732
411.334138	3369.073692
411.714669	3421.720982
412.095139	3366.487580
412.475547	3419.248296
412.855894	3409.435690
413.236180	3438.941563
413.616405	3422.083945
413.996568	3441.426852
414.376670	3444.002882
414.756711	3440.489198
415.136691	3468.495328
415.516609	3491.276302
415.896466	3497.209740
416.276262	3523.708565
416.655997	3554.852814
417.035670	3560.975295
417.415283	3625.025675
417.794834	3647.665497
418.174324	3634.334166
418.553753	3633.139412
418.933121	3678.567770
419.312428	3664.714679
419.691674	3660.898526
420.070859	3698.235832
420.449983	3680.085157
420.829045	3728.739854
421.208047	3712.593038
421.586988	3759.624483
421.965867	3791.277888
422.344686	3799.835247
422.723444	3835.587110
423.102141	3740.122779
423.480777	3844.603213
423.859352	3813.343018
424.237866	3911.711053
424.616319	3895.972571
424.994712	3953.598001
425.373044	3946.164819
425.751314	4006.678830
426.129524	3945.751445
426.507673	4043.590158
426.885762	4020.741129
427.263789	4043.378430
427.641756	4045.599058
428.019662	4078.265735
428.397508	4075.004109
428.775292	4115.048514
429.153016	4122.849700
429.530679	4140.314777
429.908282	4147.745438
430.285824	4122.799288
430.663305	4198.741750
431.040726	4154.316582
431.418086	4145.998678
431.795385	4219.670101
432.172624	4254.660749
432.549802	4221.328640
432.926920	4240.109459
433.303977	4235.970672
433.680974	4275.858801
434.057910	4296.426709
434.434786	4303.489366
434.811601	4297.185403
435.188355	4402.674068
435.565050	4371.693657
435.941683	4373.067371
436.318257	4458.754383
436.694770	4466.439622
437.071222	4523.444990
437.447614	4456.359835
437.823946	4460.420485
438.200218	4476.206858
438.576429	4458.220021
438.952580	4484.010564
439.328670	4488.630782
439.704700	4533.857493
440.080670	4495.401051
440.456580	4556.890525
440.832429	4592.652471
441.208218	4494.639837
441.583947	4546.180594
441.959616	4563.237338
442.335224	4587.568467
442.710773	4609.290799
443.086261	4662.681659
443.461689	4614.178198
443.837057	4629.082369
444.212365	4705.435685
444.587612	4706.312846
444.962800	4673.293288
445.337927	4713.630081
445.712995	4600.587247
446.088002	4787.120022
446.462949	4819.254857
446.837837	4837.042568
447.212664	4823.076051
447.587431	5054.076844
447.962139	5350.892421
448.336786	5688.052352
448.711374	5669.218601
449.085901	5315.286751
449.460369	5252.231999
449.834776	5187.808573
450.209124	5422.421353
450.583412	5436.173620
450.957640	5559.167692
451.331808	5421.702988
451.705917	5270.856542
452.079965	5259.304738
452.453954	5302.124298
452.827883	5261.485037
453.201752	5272.184886
453.575562	5306.946162
453.949311	5437.945586
454.323001	5443.329538
454.696632	5437.532211
455.070202	5592.151962
455.443713	5623.107167
455.817164	5714.132761
456.190556	5786.216220
456.563888	5761.202015
456.937160	5838.321586
457.310373	5675.174724
457.683526	5737.380042
458.056619	5729.624227
458.429653	5713.159818
458.802628	5758.701602
459.175542	5786.717815
459.548398	5930.415905
459.921194	6115.970696
460.293930	6179.572413
460.666607	6428.582728
461.039224	6648.067005
461.411782	6770.904801
461.784280	6679.032293
462.156719	6690.301792
462.529099	6652.576317
462.901419	6510.887127
463.273680	6380.021293
463.645882	6367.375559
464.018024	6370.236414
464.390106	6435.869716
464.762130	6699.050714
465.134094	7090.639983
465.505999	7729.712098
465.877845	8440.482022
466.249631	8787.078993
466.621358	8707.605203
466.993026	8509.898711
467.364634	8292.715721
467.736184	8016.097527
468.107674	7859.363013
468.479105	7775.710106
468.850477	7702.842748
469.221790	7529.485029
469.593043	7309.174003
469.964238	7213.997018
470.335373	7183.190527
470.706449	7338.843714
471.077467	7533.517952
471.448425	8196.812810
471.819324	8780.210421
472.190164	8817.736771
472.560945	8324.293509
472.931667	7856.872683
473.302330	7663.877149
473.672934	7543.149076
474.043479	7620.198072
474.413965	7520.811723
474.784393	7468.792057
475.154761	7623.878114
475.525070	7637.895042
475.895321	7593.195131
476.265513	7694.665996
476.635645	7846.994542
477.005719	7842.475148
477.375734	7931.932943
477.745691	8043.168523
478.115588	8248.104030
478.485427	8486.830391
478.855207	8964.706570
479.224928	9400.211851
479.594591	9775.046845
479.964194	9780.019943
480.333739	9873.745075
480.703226	9868.235094
481.072653	9967.374426
481.442022	10087.711809
481.811333	10236.186393
482.180584	10076.306199
482.549777	10015.978711
482.918912	9952.311458
483.287988	9941.518348
483.657005	9845.663328
484.025964	9761.264330
484.394864	9828.687242
484.763706	9780.904666
485.132489	9692.581130
485.501213	9690.247075
485.869879	9746.312268
486.238487	9682.430766
486.607036	9764.127706
486.975527	9711.399757
487.343959	9760.215770
487.712333	9802.800917
488.080648	9854.359318
488.448905	9949.480850
488.817104	9957.057704
489.185244	10120.418815
489.553326	10340.203041
489.921350	10817.229785
490.289315	11454.376179
490.657222	11733.847666
491.025070	11915.581262
491.392861	11819.108701
491.760593	11669.504898
492.128267	11415.115673
492.495883	11171.423775
492.863440	10941.078332
493.230939	10713.392098
493.598380	10528.853100
493.965763	10499.921918
494.333088	10374.066992
494.700354	10305.441764
495.067563	10275.255335
495.434713	10276.785325
495.801805	10324.482202
496.168839	10283.663980
496.535815	10257.039126
496.902733	10305.461929
497.269593	10259.441236
497.636395	10263.469118
498.003139	10376.136385
498.369825	10301.418924
498.736453	10390.415454
499.103023	10337.874028
499.469535	10341.261683
499.835989	10393.500640
500.202385	10367.863852
500.568723	10380.726356
500.935003	10446.621798
501.301226	10416.269011
501.667390	10578.165667
502.033497	10678.938332
502.399546	10607.570717
502.765537	10522.155927
503.131470	10620.624785
503.497345	10714.521317
503.863163	10482.282921
504.228923	10615.152613
504.594625	10738.786911
504.960269	10642.263938
505.325856	10793.377566
505.691385	10675.321304
506.056856	10738.930584
506.422270	10843.421100
506.787625	10779.337952
507.152924	10831.529018
507.518164	10888.667976
507.883347	10759.637123
508.248472	10832.935500
508.613540	10936.725296
508.978550	11008.254228
509.343503	10995.512712
509.708398	11043.975844
510.073236	11177.362254
510.438016	11190.812053
510.802738	11105.543456
511.167403	11237.727551
511.532010	11289.575818
511.896561	11390.751776
512.261053	11589.232085
512.625488	11492.441931
512.989866	11494.405461
513.354186	11465.670884
513.718449	11471.853859
514.082655	11615.199069
514.446803	11575.522667
514.810894	11687.358145
515.174927	11678.773060
515.538904	11663.528611
515.902822	11829.319558
516.266684	11696.888446
516.630488	11798.755042
516.994235	11782.363730
517.357925	11904.896536
517.721558	11957.132972
518.085133	12024.137469
518.448651	12058.011502
518.812112	12019.991120
519.175516	12034.996114
519.538863	12116.844288
519.902152	12121.363682
520.265385	12229.662790
520.628560	12249.131727
520.991678	12201.117257
521.354739	12249.285482
521.717743	12324.078561
522.080690	12303.442598
522.443580	12430.643512
522.806413	12444.360492
523.169189	12438.749687
523.531908	12490.373623
523.894569	12455.917337
524.257174	12471.852424
524.619722	12577.535173
524.982213	12564.443297
525.344647	12547.462170
525.707025	12567.626785
526.069345	12669.402640
526.431608	12646.167962
526.793815	12733.631982
527.155964	12616.137809
527.518057	12650.813386
527.880093	12608.409720
528.242072	12727.650652
528.603995	12638.366777
528.965860	12651.347748
529.327669	12688.737986
529.689421	12637.613124
530.051117	12647.423210
530.412755	12688.213706
530.774337	12699.246271
531.135862	12650.092501
531.497331	12718.516082
531.858743	12675.802385
532.220098	12757.453954
532.581396	12681.380422
532.942638	12600.706837
533.303824	12669.879029
533.664953	12660.744459
534.026025	12606.915018
534.387040	12707.322200
534.747999	12681.869414
535.108902	12723.015312
535.469748	12596.293307
535.830537	12630.091723
536.191270	12681.524095
536.551947	12601.120212
536.912567	12663.784274
537.273131	12699.473123
537.633638	12571.400089
537.994089	12633.572639
538.354483	12549.302191
538.714821	12678.683405
539.075103	12756.617122
539.435328	12690.136906
539.795497	12676.175431
540.155609	12662.531548
540.515665	12770.692024
540.875665	12625.254736
541.235609	12731.217269
541.595496	12690.094056
541.955328	12856.366434
542.315102	12718.354765
542.674821	12648.620484
543.034483	12664.308554
543.394090	12663.244871
543.753640	12633.751600
544.113134	12872.351933
544.472571	12639.420378
544.831953	12915.136205
545.191278	12734.189029
545.550548	12673.024709
545.909761	12780.071091
546.268918	12829.781909
546.628019	12891.538564
546.987064	12778.306687
547.346053	12625.867236
547.704986	12830.490191
548.063863	12710.183054
548.422684	12753.219385
548.781449	12721.276113
549.140158	12811.674084
549.498811	12765.058535
549.857408	12634.936272
550.215949	12839.594515
550.574434	12804.288794
550.932864	12750.635793
551.291237	12948.077625
551.649555	12840.209536
552.007817	12899.496025
552.366022	12812.732727
552.724173	12853.377029
553.082267	12946.177110
553.440305	13036.721274
553.798288	12863.207279
554.156215	12936.697220
554.514086	12986.002225
554.871902	12926.199017
555.229661	12948.929580
555.587365	12902.067014
555.945014	12921.770364
556.302606	12888.715518
556.660143	12953.262452
557.017625	12984.699087
557.375050	12941.148559
557.732421	13052.384139
558.089735	13051.867421
558.446994	13022.863142
558.804197	13135.936223
559.161345	13129.208803
559.518437	12946.653499
559.875474	13039.216645
560.232455	13058.715828
560.589381	13105.316255
560.946251	13045.628993
561.303065	13217.043347
561.659825	13170.669773
562.016528	13076.599322
562.373177	13026.533102
562.729770	13156.264676
563.086307	13038.392417
563.442789	13145.892502
563.799216	13180.532791
564.155587	13126.168988
564.511904	13151.480621
564.868164	13157.663596
565.224370	13229.747055
565.580520	13175.990711
565.936615	13233.795102
566.292654	13167.808918
566.648638	13242.707862
567.004567	13239.390782
567.360441	13245.931679
567.716260	13211.200650
568.072023	13290.828196
568.427732	13279.480558
568.783385	13177.732430
569.138982	13291.400367
569.494525	13283.808389
569.850013	13238.480854
570.205445	13226.787898
570.560823	13230.581366
570.916145	13190.047968
571.271412	13197.518958
571.626625	13154.417093
571.981782	13156.196620
572.336884	13114.362605
572.691931	13192.661807
573.046923	13081.947986
573.401860	13061.614492
573.756743	13055.257597
574.111570	13082.920929
574.466342	13061.667424
574.821059	13114.470990
575.175722	12986.138337
575.530330	13005.839166
575.884882	12932.044235
576.239380	12938.499433
576.593823	12921.737596
576.948211	12916.290629
577.302544	12786.138119
577.656823	12809.856748
578.011047	12875.268240
578.365216	12806.630410
578.719330	12746.655803
579.073389	12726.871794
579.427394	12728.850447
579.781344	12717.278478
580.135239	12644.698466
580.489080	12667.393741
580.842866	12543.885471
581.196597	12651.186431
581.550273	12639.627065
581.903895	12593.331629
582.257463	12705.121736
582.610975	12545.894371
582.964434	12612.036830
583.317837	12537.669729
583.671186	12499.573729
584.024481	12545.491079
584.377721	12438.825305
584.730906	12516.428827
585.084037	12527.592462
585.437113	12442.679267
585.790135	12458.831124
586.143103	12378.664175
586.496016	12398.869119
586.848874	12399.206877
587.201679	12402.826425
587.554428	12276.709359
587.907124	12323.440855
588.259765	12255.599527
588.612352	12330.382524
588.964884	12187.740555
589.317362	12244.624935
589.669786	12234.600601
590.022155	12185.577900
590.374470	12297.756176
590.726731	12186.755009
591.078937	12070.306876
591.431090	12087.822365
591.783188	12009.775221
592.135232	11941.457504
592.487222	12006.226249
592.839157	12018.919874
593.191038	11948.278186
593.542866	11898.305227
593.894639	11740.381001
594.246358	11811.622587
594.598022	11812.630818
594.949633	11728.718292
595.301190	11704.755167
595.652692	11664.698158
596.004141	11749.724780
596.355535	11532.062880
596.706876	11512.470436
597.058162	11474.644138
597.409395	11579.706825
597.760573	11609.429468
598.111698	11502.110864
598.462768	11493.301448
598.813785	11510.733758
599.164748	11379.426824
599.515657	11468.267078
599.866511	11329.829432
600.217312	11470.938890
600.568060	11232.179761
600.918753	11395.059442
601.269392	11384.241126
601.619978	11290.611775
601.970510	11336.183806
602.320988	11373.422810
602.671412	11446.607761
603.021783	11364.933507
603.372100	11298.909515
603.722363	11312.888634
604.072572	11312.760085
604.422728	11321.836682
604.772830	11269.106213
605.122878	11284.068358
605.472872	11249.231464
605.822813	11311.978706
606.172701	11270.285843
606.522534	11307.388735
606.872314	11357.646519
607.222041	11297.346757
607.571714	11368.994156
607.921333	11237.271327
608.270899	11288.126487
608.620411	11350.241064
608.969870	11299.700976
609.319276	11283.080292
609.668627	11298.612087
610.017926	11371.239990
610.367171	11411.097873
610.716362	11395.593804
611.065500	11368.699248
611.414585	11389.052907
611.763616	11445.458378
612.112594	11409.628377
612.461518	11440.369333
612.810389	11474.500465
613.159207	11418.352093
613.507971	11417.726990
613.856682	11515.457319
614.205340	11483.448513
614.553945	11618.246446
614.902496	11493.175419
615.250994	11549.316229
615.599439	11545.555528
615.947830	11583.850653
616.296169	11552.192207
616.644454	11561.775441
616.992686	11579.903430
617.340864	11671.932214
617.688990	11561.891387
618.037063	11688.890656
618.385082	11669.832573
618.733048	11710.681043
619.080961	11689.477950
619.428821	11675.274499
619.776628	11678.226095
620.124382	11619.242074
620.472083	11646.371043
620.819731	11663.730257
621.167326	11594.661408
621.514868	11565.004300
621.862357	11469.023251
622.209793	11465.224742
622.557176	11388.107691
622.904506	11329.252220
623.251783	11251.948646
623.599007	11190.781806
623.946179	11138.452108
624.293297	11114.486463
624.640363	10970.584206
624.987376	10961.724378
625.334336	10892.562268
625.681243	10812.420524
626.028097	10783.378437
626.374899	10756.350291
626.721647	10718.090454
627.068343	10683.845896
627.414987	10613.645308
627.761577	10550.008302
628.108115	10590.634961
628.454600	10471.709101
628.801032	10489.789199
629.147412	10469.601898
629.493739	10439.375140
629.840014	10367.732782
630.186236	10416.503425
630.532405	10310.707250
630.878521	10343.610861
631.224585	10301.829778
631.570597	10230.368901
631.916556	10231.172965
632.262462	10215.323578
632.608316	10192.366163
632.954117	10176.257156
633.299866	10154.933075
633.645562	10126.669846
633.991206	10024.959526
634.336797	9933.074415
634.682336	9925.492520
635.027823	9860.431388
635.373257	9822.542076
635.718639	9756.553372
636.063968	9722.704544
636.409245	9610.856464
636.754470	9604.612995
637.099642	9543.413387
637.444762	9441.279610
637.789829	9450.066342
638.134845	9375.459785
638.479808	9355.156538
638.824719	9331.334566
639.169577	9240.931554
639.514383	9241.584383
639.859137	9175.504938
640.203839	9209.928458
640.548489	9132.340059
640.893086	9139.896748
641.237632	9063.818175
641.582125	9076.206811
641.926566	9061.169049
642.270955	9042.993168
642.615292	9037.770533
642.959576	9008.506635
643.303809	9005.688630
643.647990	9023.476341
643.992118	9005.192076
644.336195	8980.528231
644.680219	8976.880956
645.024192	9017.442080
645.368112	9088.388759
645.711981	9068.866891
646.055797	9205.928302
646.399562	9159.108586
646.743274	9316.349736
647.086935	9388.710458
647.430544	9373.791163
647.774101	9387.041836
648.117606	9416.146938
648.461059	9480.270415
648.804460	9413.223069
649.147810	9294.294688
649.491108	9260.710521
649.834354	9197.449081
650.177548	9046.922748
650.520690	8966.299574
650.863781	8950.760218
651.206820	8931.813041
651.549807	8834.816200
651.892742	8740.206345
652.235626	8701.923823
652.578458	8663.222885
652.921238	8552.564517
653.263967	8595.414324
653.606644	8528.021659
653.949269	8512.731839
654.291843	8432.033049
654.634365	8507.179008
654.976836	8423.601719
655.319255	8418.883199
655.661622	8415.881192
656.003938	8370.346970
656.346203	8342.260181
656.688416	8362.898665
657.030577	8320.033734
657.372687	8284.095348
657.714746	8320.588261
658.056753	8328.316349
658.398708	8236.126248
658.740612	8220.629742
659.082465	8264.558356
659.424266	8227.974703
659.766016	8239.788647
660.107715	8212.349646
660.449362	8232.894869
660.790958	8227.052172
661.132503	8218.499854
661.473996	8211.850572
661.815438	8237.903255
662.156829	8270.620344
662.498168	8213.796458
662.839456	8203.431845
663.180693	8225.799445
663.521879	8243.607321
663.863013	8234.127431
664.204097	8226.845484
664.545129	8296.642780
664.886110	8285.458980
665.227040	8291.624311
665.567918	8308.134090
665.908746	8328.386926
666.249522	8342.592897
666.590248	8334.537133
666.930922	8354.699228
667.271545	8342.960901
667.612118	8363.034776
667.952639	8326.428437
668.293109	8324.258221
668.633528	8303.324829
668.973896	8292.791338
669.314213	8300.307699
669.654480	8253.800534
669.994695	8252.333558
670.334859	8229.124086
670.674973	8205.612144
671.015035	8223.228456
671.355047	8219.283753
671.695008	8203.008388
672.034918	8180.560130
672.374777	8187.985750
672.714585	8158.129516
673.054342	8184.875358
673.394049	8156.302098
673.733705	8200.704581
674.073310	8147.238103
674.412864	8156.004670
674.752368	8102.611289
675.091820	8151.747415
675.431223	8077.763442
675.770574	8030.825258
676.109875	8009.715426
676.449125	7963.175494
676.788324	7945.765869
677.127473	7853.225408
677.466571	7841.285435
677.805619	7783.317207
678.144616	7781.111702
678.483562	7759.840554
678.822458	7717.179789
679.161303	7702.396606
679.500098	7667.373189
679.838842	7660.121489
680.177535	7672.910897
680.516179	7704.511370
680.854771	7726.112714
681.193314	7839.515990
681.531805	7994.105493
681.870247	8125.306563
682.208638	8266.587421
682.546978	8344.579112
682.885268	8370.495684
683.223508	8303.168553
683.561697	8258.148529
683.899836	8228.672903
684.237925	8144.619224
684.575963	8110.598997
684.913951	8025.340483
685.251889	8045.114409
685.589776	8036.859519
685.927614	8025.310236
686.265401	8044.514511
686.603137	8053.936428
686.940824	8117.626366
687.278460	8173.169799
687.616046	8194.642593
687.953582	8298.954149
688.291068	8283.051829
688.628504	8342.025767
688.965889	8348.599432
689.303224	8303.486146
689.640510	8259.794466
689.977745	8153.322776
690.314930	8031.185701
690.652065	7962.444527
690.989150	7844.383224
691.326185	7694.383692
691.663170	7585.560303
692.000105	7458.568597
692.336990	7338.485792
692.673825	7264.053155
693.010610	7169.954977
693.347345	7075.350164
693.684030	6967.776982
694.020665	6915.316214
694.357251	6809.628424
694.693786	6797.849768
695.030272	6756.610609
695.366707	6656.281565
695.703093	6603.755263
696.039429	6606.578309
696.375716	6554.861112
696.711952	6545.350975
697.048139	6513.301839
697.384276	6481.202292
697.720363	6507.249934
698.056400	6474.709286
698.392388	6439.794254
698.728326	6445.072342
699.064214	6414.850625
699.400053	6412.937507
699.735842	6349.885276
700.071581	6312.222815
700.407270	6267.512822
700.742910	6234.009313
701.078501	6186.420821
701.414042	6150.681561
701.749533	6095.145689
702.084974	6033.338623
702.420366	6073.693059
702.755709	6002.839642
703.091002	5954.247960
703.426246	5957.572601
703.761440	5941.667761
704.096584	5893.565071
704.431679	5887.412342
704.766725	5868.974322
705.101721	5851.589903
705.436668	5875.810127
705.771565	5818.146888
706.106413	5871.683942
706.441212	5867.953488
706.775961	5887.188011
707.110661	5893.295369
707.445311	5956.874401
707.779913	5924.195121
708.114465	5961.497139
708.448967	6007.734602
708.783421	6121.531089
709.117825	6168.537328
709.452180	6200.369694
709.786485	6260.956801
710.120742	6391.439507
710.454949	6394.542337
710.789107	6473.811961
711.123216	6593.110866
711.457275	6626.649663
711.791286	6731.359469
712.125247	6749.258086
712.459159	6717.738272
712.793023	6851.520413
713.126837	6670.805129
713.460602	6736.987918
713.794318	6695.007709
714.127985	6646.673126
714.461602	6495.209138
714.795171	6497.034036
715.128691	6329.309806
715.462162	6239.909984
715.795584	6167.277039
716.128957	6127.189784
716.462281	6060.611265
716.795556	6024.372931
717.128782	5936.283808
717.461960	5840.033058
717.795088	5824.753321
718.128167	5760.140852
718.461198	5673.596843
718.794180	5650.425179
719.127113	5590.740438
719.459997	5556.024532
719.792833	5494.025902
720.125619	5487.895859
720.458357	5431.906284
720.791046	5399.577364
721.123686	5372.776070
721.456278	5330.208567
721.788821	5323.105581
722.121315	5279.330721
722.453761	5283.479591
722.786158	5269.568527
723.118506	5269.835708
723.450805	5257.943626
723.783056	5275.819558
724.115259	5263.929996
724.447412	5245.701184
724.779518	5289.473523
725.111574	5293.695489
725.443582	5327.128422
725.775542	5323.743287
726.107453	5408.336369
726.439315	5381.772009
726.771129	5454.717505
727.102895	5514.177914
727.434612	5553.511517
727.766281	5583.506383
728.097901	5644.133819
728.429473	5660.212580
728.760996	5666.012427
729.092471	5690.658628
729.423897	5675.116751
729.755276	5650.843595
730.086606	5658.191077
730.417887	5750.522330
730.749120	5837.739333
731.080305	5876.367174
731.411442	5951.871056
731.742530	5973.633717
732.073570	5998.995762
732.404562	6066.370783
732.735506	6062.060597
733.066401	6034.866092
733.397249	5970.399817
733.728048	5875.139653
734.058798	5733.395010
734.389501	5605.448005
734.720156	5523.050345
735.050762	5412.417183
735.381320	5338.208878
735.711831	5283.860198
736.042293	5208.497469
736.372707	5200.600501
736.703073	5153.533768
737.033391	5183.994940
737.363661	5170.461963
737.693883	5182.452347
738.024056	5206.498651
738.354182	5236.906891
738.684260	5282.635198
739.014290	5322.954346
739.344272	5356.515828
739.674207	5415.283079
740.004093	5441.436585
740.333931	5445.688798
740.663722	5471.857428
740.993464	5482.748841
741.323159	5457.235561
741.652806	5416.515641
741.982405	5389.643770
742.311956	5334.526315
742.641460	5322.084747
742.970915	5275.645638
743.300323	5210.440833
743.629683	5175.268703
743.958996	5128.655674
744.288260	5077.820679
744.617477	5012.356255
744.946647	5003.388042
745.275768	4950.292089
745.604842	4915.818159
745.933869	4878.531264
746.262847	4873.656468
746.591778	4860.930076
746.920662	4834.587526
747.249498	4835.051312
747.578286	4849.191749
747.907027	4875.650245
748.235720	4916.370165
748.564365	4930.518163
748.892963	4911.313888
749.221514	4931.397845
749.550017	4906.628135
749.878473	4902.738885
750.206881	4862.064335
750.535242	4850.293241
750.863555	4835.638607
751.191821	4809.522909
751.520039	4816.956091
751.848210	4797.638389
752.176334	4806.583917
752.504411	4787.687151
752.832440	4755.128859
753.160421	4767.966157
753.488356	4750.299434
753.816243	4731.677412
754.144082	4696.480075
754.471875	4685.812994
754.799620	4672.809337
755.127318	4667.758101
755.454969	4662.568233
755.782572	4653.365607
756.110129	4656.213859
756.437638	4635.663595
756.765100	4635.819871
757.092515	4638.305160
757.419882	4644.720028
757.747203	4642.474194
758.074477	4652.669928
758.401703	4643.026201
758.728882	4674.712373
759.056014	4686.780895
759.383099	4709.324935
759.710138	4735.448195
760.037129	4755.801853
760.364073	4769.806179
760.690970	4771.726858
761.017820	4770.821971
761.344623	4800.048061
761.671379	4863.100292
761.998088	4951.544816
762.324751	5182.338921
762.651366	5640.521833
762.977935	6335.717113
763.304456	6899.131590
763.630931	7208.754218
763.957359	7143.619990
764.283740	6849.095618
764.610074	6526.073602
764.936362	6120.943794
765.262602	5806.932842
765.588796	5454.044511
765.914943	5204.789700
766.241044	4980.481039
766.567097	4808.270182
766.893104	4655.193025
767.219064	4557.931524
767.544978	4456.342191
767.870845	4378.042990
768.196665	4330.252851
768.522438	4282.611427
768.848165	4238.387905
769.173846	4199.147563
769.499479	4171.781660
769.825066	4135.813027
770.150607	4097.442284
770.476101	4077.877566
770.801548	4059.671439
771.126949	4024.280019
771.452303	4007.966845
771.777611	3968.620639
772.102872	3967.244404
772.428087	3941.582410
772.753256	3913.525869
773.078378	3897.643713
773.403453	3864.276316
773.728482	3835.503931
774.053465	3824.133608
774.378401	3803.379178
774.703291	3783.824542
775.028135	3758.601129
775.352932	3751.702310
775.677683	3731.963672
776.002388	3714.367524
776.327046	3709.099518
776.651658	3695.367415
776.976224	3672.599044
777.300743	3670.282634
777.625216	3659.093793
777.949643	3646.982421
778.274024	3650.425529
778.598359	3631.748054
778.922647	3631.170842
779.246889	3620.939820
779.571086	3619.903863
779.895236	3622.048874
780.219339	3623.261271
780.543397	3618.948564
780.867409	3636.537150
781.191374	3636.269969
781.515294	3627.568937
781.839167	3644.671052
782.162995	3642.619302
782.486776	3634.550935
782.810511	3627.228659
783.134201	3615.870940
783.457844	3611.175105
783.781441	3605.254270
784.104993	3595.625666
784.428498	3590.899584
784.751958	3585.296342
785.075372	3582.342226
785.398739	3574.067172
785.722061	3574.901482
786.045337	3578.026998
786.368568	3604.828292
786.691752	3597.395111
787.014891	3646.939571
787.337983	3692.204091
787.661030	3778.468316
787.984031	3872.110269
788.306987	3954.354174
788.629897	3998.234897
788.952760	4006.867873
789.275579	3987.615707
789.598351	3942.867905
789.921078	3889.275398
790.243759	3826.724761
790.566395	3779.494191
790.888984	3731.638517
791.211529	3697.172148
791.534027	3651.705982
791.856480	3614.048563
792.178888	3594.887137
792.501249	3572.353179
792.823566	3541.314795
793.145836	3536.596275
793.468062	3529.377343
793.790241	3513.532996
794.112375	3520.721682
794.434464	3542.370917
794.756507	3540.488046
795.078505	3556.798699
795.400457	3596.379318
795.722364	3644.978562
796.044226	3696.171479
796.366042	3739.386771
796.687812	3734.133888
797.009538	3761.651027
797.331218	3748.740632
797.652852	3742.819797
797.974442	3720.764748
798.295986	3713.576063
798.617484	3681.710930
798.938938	3660.492713
799.260346	3644.401350
799.581709	3610.242492
799.903026	3594.846808
800.224299	3575.836617
800.545526	3544.984755
800.866708	3526.902136
801.187845	3512.665918
801.508936	3491.888802
801.829983	3485.947802
802.150984	3454.589305
802.471940	3445.273253
802.792851	3437.504834
803.113717	3433.988630
803.434538	3425.464038
803.755314	3409.183632
804.076045	3407.693971
804.396731	3396.701735
804.717372	3398.619894
805.037967	3397.125192
805.358518	3397.891448
805.679024	3410.562388
805.999485	3406.247160
806.319901	3413.824014
806.640272	3416.107657
806.960598	3428.080397
807.280879	3427.717434
807.601115	3439.861574
807.921306	3431.372271
808.241453	3432.814041
808.561554	3437.237653
808.881611	3435.879062
809.201623	3436.173970
809.521590	3427.868669
809.841513	3425.642999
810.161390	3434.767488
810.481223	3415.666556
810.801011	3411.404260
811.120755	3406.736152
811.440453	3396.318608
811.760107	3393.137639
812.079716	3384.255126
812.399281	3373.030997
812.718801	3372.708363
813.038276	3361.746374
813.357707	3357.244624
813.677093	3363.190665
813.996434	3350.507122
814.315731	3358.230170
814.634983	3356.299408
814.954191	3357.998277
815.273354	3372.970503
815.592473	3380.862430
815.911547	3405.102818
816.230577	3416.281577
816.549562	3446.195784
816.868502	3462.665233
817.187399	3479.868171
817.506250	3507.455885
817.825058	3520.769573
818.143821	3564.420924
818.462539	3612.495887
818.781213	3666.902540
819.099843	3749.380858
819.418429	3902.984816
819.736970	4057.244124
820.055466	4245.347218
820.373919	4480.398577
820.692327	4821.067152
821.010691	5334.667467
821.329011	6421.076450
821.647286	8155.135071
821.965517	10348.102529
822.283704	11984.849236
822.601847	13083.137698
822.919945	12667.088751
823.237999	11981.615336
823.556010	11080.960269
823.873976	10119.690369
824.191897	9149.903439
824.509775	8379.017754
824.827609	7567.049187
825.145398	7015.690629
825.463144	6629.049252
825.780845	6492.209652
826.098502	6556.625515
826.416116	6937.260357
826.733685	7453.698842
827.051210	7737.644353
827.368692	7645.797051
827.686129	7202.188115
828.003522	6647.434340
828.320872	6075.119706
828.638177	5613.712977
828.955439	5242.852932
829.272656	4902.655706
829.589830	4617.664156
829.906960	4354.165565
830.224046	4142.913492
830.541088	3973.949139
830.858086	3858.552086
831.175041	3759.506016
831.491952	3711.897359
831.808819	3699.473435
832.125642	3732.692118
832.442421	3834.783046
832.759157	4048.490160
833.075849	4429.810599
833.392497	4897.244027
833.709101	5286.532010
834.025662	5403.519546
834.342179	5274.314773
834.658653	5004.310573
834.975083	4731.299325
835.291469	4481.535358
835.607811	4258.073611
835.924110	4097.182665
836.240366	3938.222481
836.556578	3773.946401
836.872746	3639.760968
837.188871	3523.489275
837.504952	3428.851694
837.820990	3353.998121
838.136984	3297.562404
838.452935	3266.297167
838.768842	3250.999786
839.084706	3285.204015
839.400526	3423.888678
839.716303	3651.622803
840.032037	3858.098382
840.347727	3923.078855
840.663373	3836.292871
840.978977	3687.432639
841.294537	3553.249727
841.610054	3448.590332
841.925527	3371.309443
842.240957	3305.829896
842.556344	3244.547109
842.871687	3184.779189
843.186987	3122.674694
843.502244	3069.997157
843.817458	3029.756147
844.132629	2996.282885
844.447756	2974.353866
844.762840	2953.077676
845.077881	2934.019594
845.392879	2922.505599
845.707833	2910.275759
846.022745	2900.616909
846.337613	2894.433933
846.652438	2885.009496
846.967221	2884.228117
847.281960	2872.333515
847.596656	2873.308978
847.911309	2864.739017
848.225919	2860.970754
848.540485	2855.922039
848.855009	2852.907429
849.169490	2847.294104
849.483928	2846.500122
849.798323	2845.683455
850.112675	2840.775892
850.426984	2840.246571
850.741251	2838.444358
851.055474	2836.037207
851.369654	2837.451251
851.683792	2833.141064
851.997887	2836.243895
852.311938	2833.814058
852.625947	2837.536951
852.939914	2832.725169
853.253837	2835.177691
853.567718	2833.924964
853.881555	2831.232988
854.195350	2836.596775
854.509103	2832.473112
854.822812	2834.524861
855.136479	2831.656445
855.450103	2831.752227
855.763685	2830.391115
856.077224	2830.759119
856.390720	2833.163750
856.704173	2835.054182
857.017584	2835.896055
857.330953	2834.628205
857.644278	2839.818073
857.957561	2842.469720
858.270802	2843.803105
858.584000	2843.780420
858.897155	2842.565502
859.210268	2840.591890
859.523339	2837.292455
859.836367	2834.852536
860.149352	2835.006291
860.462295	2837.199193
860.775195	2830.930518
861.088054	2829.455981
861.400869	2831.011177
861.713642	2827.275682
862.026373	2827.941114
862.339062	2832.019408
862.651708	2838.693895
862.964312	2841.002744
863.276873	2842.419308
863.589392	2849.355936
863.901869	2856.549662
864.214303	2864.955786
864.526696	2869.671786
864.839045	2876.668907
865.151353	2882.446070
865.463619	2886.458828
865.775842	2889.382697
866.088023	2892.876217
866.400162	2892.936711
866.712258	2895.064078
867.024313	2897.877042
867.336325	2895.817730
867.648296	2898.713873
867.960224	2901.955335
868.272110	2902.073802
868.583954	2898.960890
868.895755	2904.513721
869.207515	2903.245870
869.519233	2911.624268
869.830909	2911.881367
870.142542	2916.443611
870.454134	2917.829928
870.765684	2924.121288
871.077191	2930.142947
871.388657	2934.047320
871.700081	2942.430759
872.011463	2949.551389
872.322803	2953.980043
872.634101	2958.527163
872.945357	2964.218626
873.256571	2975.828403
873.567744	2979.639516
873.878874	2984.605052
874.189963	2991.473624
874.501010	2996.038389
874.812015	2994.304232
875.122979	3004.920902
875.433900	3004.880573
875.744780	3007.045749
876.055618	3016.669311
876.366415	3014.695700
876.677169	3023.550486
876.987882	3028.286650
877.298554	3034.714122
877.609183	3050.669373
877.919771	3071.123855
878.230317	3093.433482
878.540822	3134.382774
878.851285	3181.910773
879.161707	3247.319744
879.472087	3356.037268
879.782425	3514.241278
880.092722	3796.397180
880.402977	4222.092375
880.713191	4770.091004
881.023363	5370.343713
881.333494	5813.851825
881.643583	6100.285146
881.953631	6181.334297
882.263637	6131.741946
882.573602	5988.263146
882.883526	5813.617412
883.193408	5615.815138
883.503248	5393.999327
883.813048	5180.030073
884.122806	4956.800219
884.432522	4712.110173
884.742197	4488.580370
885.051831	4274.979120
885.361424	4076.045107
885.670975	3905.283582
885.980485	3756.894698
886.289954	3633.572952
886.599382	3525.367105
886.908768	3439.473405
887.218113	3363.896427
887.527417	3300.849236
887.836680	3239.679875
888.145901	3193.550797
888.455082	3157.889675
888.764221	3123.503964
889.073319	3093.267123
889.382376	3073.140317
889.691392	3055.806309
890.000366	3048.163920
890.309300	3039.999771
890.618193	3035.777805
890.927044	3031.770088
891.235855	3032.453164
891.544625	3039.286448
891.853353	3042.961449
892.162041	3055.995352
892.470687	3081.793457
892.779293	3117.938530
893.087858	3163.520643
893.396381	3242.540730
893.704864	3348.394878
894.013306	3505.512520
894.321707	3694.162580
894.630068	3844.789736
894.938387	3927.487344
895.246665	3937.874642
895.554903	3876.932133
895.863100	3788.900984
896.171256	3716.694017
896.479371	3642.541164
896.787446	3562.079308
897.095480	3493.252434
897.403473	3438.414763
897.711425	3377.820093
898.019336	3328.073987
898.327207	3276.109773
898.635038	3225.829305
898.942827	3176.632685
899.250576	3136.011067
899.558284	3092.833584
899.865952	3065.613874
900.173579	3038.464740
900.481165	3017.004548
900.788711	2993.527895
901.096216	2980.017602
901.403681	2966.454378
901.711105	2959.500106
902.018489	2951.759414
902.325832	2961.642597
902.633135	2971.326653
902.940397	3005.354442
903.247619	3096.803493
903.554800	3272.661624
903.861941	3554.147052
904.169041	3819.077331
904.476101	3990.416068
904.783121	4012.728215
905.090100	3944.823872
905.397039	3839.065506
905.703938	3735.096749
906.010796	3627.518526
906.317614	3543.774878
906.624391	3456.484779
906.931129	3383.385527
907.237826	3315.269457
907.544483	3251.642533
907.851099	3180.292562
908.157675	3108.539299
908.464211	3030.101466
908.770707	2974.197590
909.077163	2925.187493
909.383578	2890.033006
909.689954	2859.939838
909.996289	2842.416787
910.302584	2828.586382
910.608839	2819.590443
910.915054	2810.788588
911.221229	2805.134934
911.527363	2806.246509
911.833458	2806.284317
912.139513	2809.742549
912.445527	2807.862198
912.751502	2823.061277
913.057436	2838.910665
913.363331	2858.114941
913.669186	2889.407903
913.975000	2926.510795
914.280775	2987.342399
914.586510	3068.625963
914.892205	3181.706606
915.197859	3326.720438
915.503475	3513.283459
915.809050	3686.827701
916.114585	3820.917352
916.420081	3893.741860
916.725536	3925.606994
917.030952	3894.271182
917.336328	3853.876416
917.641665	3805.768685
917.946961	3747.256012
918.252218	3683.359387
918.557435	3609.887090
918.862612	3544.067265
919.167750	3481.478819
919.472848	3409.937285
919.777906	3338.756192
920.082925	3269.599123
920.387904	3197.790407
920.692843	3142.357880
920.997743	3088.808223
921.302603	3039.629247
921.607423	3002.987620
921.912204	2967.311374
922.216946	2943.733898
922.521647	2915.906728
922.826310	2893.907133
923.130932	2876.615975
923.435516	2856.887420
923.740059	2845.106243
924.044564	2829.433296
924.349028	2815.318065
924.653454	2798.959521
924.957840	2784.985442
925.262186	2779.140224
925.566493	2766.716301
925.870761	2752.139804
926.174989	2746.841552
926.479178	2738.939543
926.783328	2730.656927
927.087438	2726.951679
927.391509	2721.633262
927.695541	2715.251161
927.999533	2707.215562
928.303486	2706.270346
928.607400	2699.185004
928.911275	2696.137626
929.215110	2694.814323
929.518906	2690.957841
929.822663	2689.359795
930.126381	2689.473221
930.430060	2688.989270
930.733699	2688.676719
931.037299	2691.729137
931.340861	2688.633869
931.644383	2690.388190
931.947866	2691.061184
932.251309	2688.467511
932.554714	2688.490196
932.858080	2690.060515
933.161407	2689.425330
933.464694	2687.396266
933.767943	2687.159331
934.071153	2684.671522
934.374323	2681.893846
934.677455	2680.951150
934.980548	2677.908814
935.283602	2678.536438
935.586617	2678.740604
935.889593	2680.595749
936.192530	2677.003927
936.495428	2682.345029
936.798287	2682.733198
937.101108	2689.563962
937.403890	2696.102338
937.706632	2702.504604
938.009336	2716.488764
938.312002	2729.384036
938.614628	2740.892990
938.917216	2748.507653
939.219765	2752.709455
939.522275	2763.704211
939.824747	2767.482556
940.127179	2765.612288
940.429573	2762.852256
940.731929	2765.919798
941.034246	2763.174890
941.336524	2760.704725
941.638763	2763.810076
941.940964	2764.251177
942.243126	2758.204312
942.545250	2755.590474
942.847335	2746.087899
943.149381	2742.917013
943.451389	2735.400653
943.753359	2728.169118
944.055290	2726.306412
944.357182	2718.875751
944.659036	2715.977087
944.960851	2716.128322
945.262628	2708.652291
945.564367	2709.612631
945.866067	2705.869574
946.167729	2706.691282
946.469352	2705.602393
946.770937	2704.934440
947.072484	2701.478729
947.373992	2703.475026
947.675462	2703.618699
947.976893	2700.843543
948.278286	2697.322297
948.579641	2698.073429
948.880958	2692.707121
949.182236	2697.171063
949.483476	2695.041175
949.784678	2695.547811
950.085841	2694.743747
950.386967	2696.278779
950.688054	2696.770291
950.989103	2697.037472
951.290114	2704.828576
951.591087	2706.444265
951.892021	2711.908876
952.192917	2716.423229
952.493776	2722.802810
952.794596	2722.152501
953.095378	2724.892368
953.396122	2726.440002
953.696828	2722.454970
953.997496	2722.631410
954.298126	2721.839949
954.598718	2716.566902
954.899272	2714.573126
955.199788	2708.304451
955.500266	2704.992413
955.800706	2698.080991
956.101108	2688.530525
956.401472	2685.455421
956.701798	2675.509225
957.002087	2668.058399
957.302337	2669.580828
957.602550	2663.176042
957.902724	2656.496513
958.202861	2653.320586
958.502960	2644.922024
958.803022	2641.851961
959.103045	2638.575211
959.403031	2633.912144
959.702979	2631.527678
960.002889	2627.134312
960.302762	2627.101545
960.602596	2621.175669
960.902393	2619.002931
961.202153	2619.837242
961.501875	2617.500667
961.801559	2617.609052
962.101205	2614.599483
962.400814	2615.005296
962.700385	2612.262909
962.999918	2608.925665
963.299414	2609.359204
963.598873	2608.388782
963.898293	2606.831065
964.197677	2608.119080
964.497022	2607.620006
964.796331	2604.257556
965.095601	2603.624892
965.394835	2605.122114
965.694030	2603.040118
965.993189	2605.328802
966.292309	2603.413163
966.591393	2603.481219
966.890439	2602.667072
967.189447	2604.408791
967.488419	2603.191352
967.787353	2603.483739
968.086249	2605.792588
968.385108	2601.933584
968.683930	2606.447938
968.982714	2604.804522
969.281462	2603.244284
969.580172	2606.228648
969.878844	2607.466251
970.177480	2609.696961
970.476078	2611.552106
970.774639	2610.314503
971.073162	2613.765172
971.371649	2611.295007
971.670098	2611.360542
971.968510	2613.553444
972.266885	2612.540172
972.565223	2617.351953
972.863524	2618.244238
973.161788	2619.769187
973.460014	2618.405555
973.758204	2620.868158
974.056356	2619.406224
974.354471	2622.529218
974.652550	2623.408900
974.950591	2625.747995
975.248595	2622.534260
975.546563	2620.401852
975.844493	2623.502161
976.142386	2619.633076
976.440243	2619.373456
976.738062	2620.643827
977.035845	2616.953702
977.333590	2616.711727
977.631299	2612.330964
977.928971	2614.659977
978.226606	2611.673094
978.524204	2611.655450
978.821765	2610.606890
979.119290	2611.632764
979.416777	2607.448607
979.714228	2612.033536
980.011642	2614.281891
980.309020	2614.360029
980.606360	2615.461521
980.903664	2617.714917
981.200931	2623.340844
981.498162	2632.712349
981.795356	2640.929430
982.092513	2657.759322
982.389633	2674.385047
982.686717	2694.544622
982.983764	2709.317723
983.280775	2725.509909
983.577749	2729.343707
983.874686	2729.835219
984.171587	2727.440671
984.468451	2720.640155
984.765279	2714.351315
985.062070	2708.526262
985.358824	2704.367310
985.655543	2694.093438
985.952224	2679.622806
986.248869	2667.360200
986.545478	2650.948723
986.842050	2642.209883
987.138586	2633.115642
987.435086	2622.982922
987.731549	2612.857765
988.027975	2612.451952
988.324366	2605.500201
988.620719	2603.622371
988.917037	2598.006526
989.213318	2602.392329
989.509563	2598.061978
989.805772	2594.896134
990.101944	2595.322111
990.398080	2593.955958
990.694180	2593.305650
990.990244	2594.129878
991.286271	2591.085021
991.582262	2592.287337
991.878217	2593.270362
992.174136	2594.760023
992.470019	2593.429158
992.765865	2594.187852
993.061676	2598.046855
993.357450	2596.655496
993.653188	2598.714808
993.948890	2599.846547
994.244556	2605.795108
994.540186	2608.272835
994.835780	2618.163579
995.131337	2622.882099
995.426859	2627.603140
995.722345	2637.085550
996.017795	2647.361942
996.313208	2653.910401
996.608586	2662.124961
996.903928	2666.672082
997.199234	2665.991526
997.494504	2670.084943
997.789738	2669.132165
998.084936	2664.431289
998.380099	2656.897285
998.675225	2654.727068
998.970316	2646.951088
999.265371	2639.895993
999.560390	2631.704118
999.855373	2628.946607
1000.150320	2620.759773
1000.445232	2616.333640
1000.740108	2609.578494
1001.034948	2603.519027
1001.329752	2601.736979
1001.624521	2598.505600
1001.919254	2595.294385
1002.213951	2594.018973
1002.508613	2590.936307
1002.803239	2589.542428
1003.097829	2587.321800
1003.392384	2588.181317
1003.686903	2587.495720
1003.981386	2587.755339
1004.275834	2587.503282
1004.570246	2586.724423
1004.864623	2583.767787
1005.158964	2582.484813
1005.453270	2584.798702
1005.747540	2580.659915
1006.041775	2582.603280
1006.335974	2582.963722
1006.630138	2581.146387
1006.924266	2580.899370
1007.218359	2584.045050
1007.512416	2582.472210
1007.806438	2583.336768
1008.100425	2580.559092
1008.394376	2581.965574
1008.688292	2580.874164
1008.982172	2583.034299
1009.276017	2581.867272
1009.569827	2579.878536
1009.863602	2581.653022
1010.157341	2580.833835
1010.451045	2579.714699
1010.744714	2581.779051
1011.038347	2579.129925
1011.331945	2580.798547
1011.625508	2581.809298
1011.919036	2580.793506
1012.212528	2579.762590
1012.505986	2576.949626
1012.799408	2576.266550
1013.092795	2578.527507
1013.386147	2579.140007
1013.679464	2580.155800
1013.972745	2576.720253
1014.265992	2578.335943
1014.559204	2579.031623
1014.852380	2577.201684
1015.145521	2578.809812
1015.438628	2576.488360
1015.731699	2577.473906
1016.024736	2576.127918
1016.317737	2578.565316
1016.610703	2579.916345
1016.903635	2576.576581
1017.196531	2573.559450
1017.489393	2576.937023
1017.782219	2574.391240
1018.075011	2577.436097
1018.367768	2579.427353
1018.660490	2580.841397
1018.953177	2580.841397
1019.245829	2580.841397
