Dividing Wavelength (nm)	Counts (n)	Blue Motor Position (mm): 11.500000	Red Motor Position (mm): 0.000000	
326.493990	2159.529485
326.888308	2159.529485
327.282561	2159.529485
327.676750	2134.837913
328.070874	2135.931843
328.464933	2140.897380
328.858929	2150.291570
329.252859	2162.753303
329.646726	2176.014058
330.040528	2189.133661
330.434265	2208.317772
330.827938	2228.552963
331.221547	2248.082393
331.615091	2267.107708
332.008571	2286.707714
332.401986	2306.665642
332.795338	2328.390494
333.188625	2349.729699
333.581847	2367.398943
333.975006	2388.309649
334.368100	2402.704664
334.761129	2424.570669
335.154095	2436.639191
335.546996	2460.488890
335.939833	2486.181130
336.332606	2497.548932
336.725315	2509.229286
337.117960	2519.125071
337.510540	2522.409383
337.903056	2535.541588
338.295508	2538.891435
338.687896	2546.180943
339.080220	2556.578323
339.472480	2561.163253
339.864676	2565.133161
340.256807	2567.706670
340.648875	2572.485684
341.040879	2574.587845
341.432818	2574.252609
341.824694	2572.710016
342.216506	2573.022567
342.608253	2572.132803
342.999937	2573.778740
343.391557	2573.766137
343.783113	2573.670355
344.174605	2570.058369
344.566033	2566.821948
344.957397	2567.986454
345.348697	2565.244067
345.739934	2564.550908
346.131106	2560.117213
346.522215	2558.937583
346.913260	2557.321893
347.304241	2557.405072
347.695159	2555.209650
348.086012	2553.329300
348.476802	2549.515667
348.867528	2548.920811
349.258191	2546.649771
349.648789	2549.087169
350.039324	2547.272353
350.429796	2548.215049
350.820203	2543.657846
351.210548	2542.982331
351.600828	2543.181457
351.991045	2541.969059
352.381198	2541.795140
352.771288	2541.653987
353.161314	2542.029553
353.551276	2542.815973
353.941175	2541.729605
354.331010	2542.861344
354.720782	2541.941333
355.110490	2541.603576
355.500135	2540.267670
355.889717	2543.977959
356.279235	2543.960315
356.668689	2542.682383
357.058080	2540.887732
357.447408	2541.273380
357.836672	2540.953267
358.225873	2542.052238
358.615010	2540.978473
359.004084	2544.807229
359.393095	2545.530635
359.782043	2545.288659
360.170927	2545.250851
360.559748	2547.486602
360.948505	2547.892415
361.337199	2545.414688
361.725830	2551.000287
362.114398	2550.443239
362.502903	2551.539690
362.891344	2549.523228
363.279722	2552.580688
363.668037	2549.881150
364.056289	2549.934083
364.444478	2552.250493
364.832603	2550.135729
365.220665	2550.304607
365.608665	2553.127653
365.996601	2555.849877
366.384474	2554.135884
366.772284	2555.950700
367.160031	2554.738302
367.547715	2556.064126
367.935336	2556.651420
368.322893	2554.584547
368.710388	2551.156562
369.097820	2557.090000
369.485189	2556.800134
369.872495	2556.376677
370.259738	2555.381049
370.646918	2556.545556
371.034035	2556.389280
371.421090	2557.014383
371.808081	2560.785166
372.195010	2555.396173
372.581875	2557.818447
372.968678	2556.164949
373.355418	2559.078736
373.742096	2562.476473
374.128710	2558.597305
374.515262	2561.165773
374.901751	2558.814075
375.288177	2559.217367
375.674540	2558.211657
376.060841	2561.564024
376.447079	2561.778273
376.833254	2560.575958
377.219367	2556.895916
377.605417	2558.123437
377.991404	2561.090156
378.377329	2558.443550
378.763191	2557.100083
379.148991	2564.689540
379.534727	2561.558983
379.920402	2562.841957
380.306013	2562.615105
380.691563	2560.548232
381.077049	2562.042934
381.462474	2566.852195
381.847835	2562.930177
382.233134	2567.212637
382.618371	2564.235836
383.003545	2564.404715
383.388657	2562.955383
383.773706	2562.831875
384.158693	2565.483522
384.543618	2566.610219
384.928480	2565.791032
385.313280	2566.809345
385.698017	2566.763975
386.082692	2566.708522
386.467305	2567.676423
386.851856	2568.866136
387.236344	2565.695250
387.620770	2565.352452
388.005133	2565.765826
388.389435	2563.850188
388.773674	2564.860939
389.157851	2565.158367
389.541965	2566.645507
389.926018	2566.842113
390.310008	2570.668348
390.693936	2566.993347
391.077802	2568.603996
391.461606	2570.007957
391.845348	2569.680282
392.229027	2571.535427
392.612645	2570.454099
392.996200	2568.568708
393.379694	2569.405539
393.763125	2570.076013
394.146494	2569.070303
394.529801	2568.427555
394.913047	2571.931157
395.296230	2573.004923
395.679351	2572.500808
396.062410	2573.130952
396.445408	2569.541650
396.828343	2571.240519
397.211217	2566.065775
397.594028	2568.369582
397.976778	2569.413101
398.359466	2567.787329
398.742092	2566.421176
399.124656	2571.185067
399.507158	2570.391085
399.889598	2573.912331
400.271977	2572.152968
400.654294	2573.778740
401.036549	2574.746642
401.418742	2573.682958
401.800874	2574.333267
402.182944	2573.075499
402.564952	2575.205387
402.946898	2573.206569
403.328783	2576.190932
403.710606	2575.160016
404.092367	2574.996179
404.474067	2575.308730
404.855705	2573.307392
405.237282	2575.666652
405.618797	2577.297466
406.000250	2577.478947
406.381642	2575.366704
406.762972	2573.274625
407.144240	2575.593556
407.525447	2579.525656
407.906593	2575.331416
408.287677	2574.376117
408.668700	2577.783937
409.049661	2579.467682
409.430560	2576.329564
409.811399	2576.440469
410.192176	2577.365521
410.572891	2575.331416
410.953545	2577.007599
411.334138	2576.934502
411.714669	2579.855851
412.095139	2576.664801
412.475547	2577.224369
412.855894	2578.202353
413.236180	2577.615058
413.616405	2580.949782
413.996568	2578.416602
414.376670	2578.966087
414.756711	2577.499112
415.136691	2580.682600
415.516609	2579.694534
415.896466	2578.101530
416.276262	2581.327868
416.655997	2577.247054
417.035670	2575.054152
417.415283	2577.010120
417.794834	2576.516087
418.174324	2576.097671
418.553753	2579.462641
418.933121	2581.388362
419.312428	2577.136149
419.691674	2577.544482
420.070859	2580.589339
420.449983	2578.580439
420.829045	2580.937179
421.208047	2579.457600
421.586988	2580.861561
421.965867	2582.008424
422.344686	2584.244176
422.723444	2582.643609
423.102141	2580.579257
423.480777	2581.794175
423.859352	2583.982036
424.237866	2582.121850
424.616319	2584.125708
424.994712	2585.796851
425.373044	2584.168558
425.751314	2583.740060
426.129524	2582.578074
426.507673	2585.693507
426.885762	2582.086562
427.263789	2583.488002
427.641756	2584.040009
428.019662	2580.549010
428.397508	2582.842735
428.775292	2581.476582
429.153016	2583.072107
429.530679	2584.355081
429.908282	2584.612180
430.285824	2582.121850
430.663305	2583.029258
431.040726	2582.177302
431.418086	2582.383990
431.795385	2585.602767
432.172624	2584.017324
432.549802	2585.658219
432.926920	2582.575554
433.303977	2583.903898
433.680974	2588.627459
434.057910	2585.489341
434.434786	2583.694690
434.811601	2583.503126
435.188355	2584.776017
435.565050	2587.934300
435.941683	2582.754515
436.318257	2581.090934
436.694770	2580.022209
437.071222	2584.365163
437.447614	2580.957343
437.823946	2580.833835
438.200218	2586.550503
438.576429	2587.077304
438.952580	2586.893302
439.328670	2586.232911
439.704700	2588.143508
440.080670	2586.119485
440.456580	2585.295256
440.832429	2586.623600
441.208218	2585.116295
441.583947	2587.994794
441.959616	2586.091758
442.335224	2586.600915
442.710773	2586.900864
443.086261	2586.674012
443.461689	2588.801379
443.837057	2588.365319
444.212365	2589.013107
444.587612	2586.212746
444.962800	2587.193251
445.337927	2586.074114
445.712995	2587.586461
446.088002	2584.856676
446.462949	2586.840370
446.837837	2588.839187
447.212664	2588.385483
447.587431	2588.975298
447.962139	2590.717017
448.336786	2591.311873
448.711374	2588.577047
449.085901	2589.502099
449.460369	2586.747108
449.834776	2590.399424
450.209124	2585.474217
450.583412	2588.488827
450.957640	2589.055957
451.331808	2587.788107
451.705917	2589.149218
452.079965	2591.599219
452.453954	2587.820874
452.827883	2587.304156
453.201752	2589.739033
453.575562	2589.136615
453.949311	2588.665267
454.323001	2589.194589
454.696632	2591.233735
455.070202	2591.221132
455.443713	2589.797007
455.817164	2587.268868
456.190556	2587.732654
456.563888	2589.809609
456.937160	2588.264496
457.310373	2587.165524
457.683526	2589.073601
458.056619	2590.278437
458.429653	2590.457398
458.802628	2591.599219
459.175542	2589.733992
459.548398	2590.759867
459.921194	2591.631987
460.293930	2589.849939
460.666607	2590.016297
461.039224	2591.122830
461.411782	2593.461925
461.784280	2589.171903
462.156719	2590.240628
462.529099	2590.895978
462.901419	2591.505958
463.273680	2591.818509
463.645882	2588.841708
464.018024	2593.570310
464.390106	2590.855649
464.762130	2592.168869
465.134094	2590.646441
465.505999	2592.007552
465.877845	2592.967892
466.249631	2593.892944
466.621358	2594.581062
466.993026	2597.499890
467.364634	2594.712132
467.736184	2591.309353
468.107674	2592.546956
468.479105	2592.937645
468.850477	2594.351689
469.221790	2591.929415
469.593043	2593.444281
469.964238	2594.129878
470.335373	2592.267172
470.706449	2592.937645
471.077467	2591.334558
471.448425	2592.695670
471.819324	2594.855804
472.190164	2596.836978
472.560945	2592.660382
472.931667	2592.171390
473.302330	2594.823037
473.672934	2593.056112
474.043479	2594.497882
474.413965	2592.589806
474.784393	2590.122161
475.154761	2593.512337
475.525070	2591.130392
475.895321	2591.243818
476.265513	2588.599732
476.635645	2595.987543
477.005719	2593.802203
477.375734	2593.247676
477.745691	2596.085846
478.115588	2595.624580
478.485427	2594.475197
478.855207	2598.435024
479.224928	2595.370002
479.594591	2598.180445
479.964194	2596.700867
480.333739	2597.043665
480.703226	2597.545260
481.072653	2597.688933
481.442022	2595.763212
481.811333	2595.682554
482.180584	2596.917636
482.549777	2595.614498
482.918912	2597.792277
483.287988	2597.794797
483.657005	2597.895620
484.025964	2597.406628
484.394864	2596.413521
484.763706	2596.705908
485.132489	2595.213726
485.501213	2595.548963
485.869879	2597.935949
486.238487	2597.169694
486.607036	2597.008377
486.975527	2596.466453
487.343959	2598.193048
487.712333	2597.192379
488.080648	2597.646083
488.448905	2598.654314
488.817104	2596.920157
489.185244	2597.958635
489.553326	2597.706577
489.921350	2598.782863
490.289315	2599.229005
490.657222	2598.606423
491.025070	2599.932246
491.392861	2600.398553
491.760593	2598.334201
492.128267	2600.622884
492.495883	2598.311515
492.863440	2599.143306
493.230939	2599.002153
493.598380	2597.628439
493.965763	2593.764395
494.333088	2592.216760
494.700354	2596.448809
495.067563	2597.880497
495.434713	2592.504106
495.801805	2599.191197
496.168839	2599.516351
496.535815	2602.795622
496.902733	2598.916454
497.269593	2596.516865
497.636395	2601.195055
498.003139	2598.994592
498.369825	2599.844026
498.736453	2599.140785
499.103023	2599.627257
499.469535	2601.200097
499.835989	2600.887545
500.202385	2601.139603
500.568723	2602.868718
500.935003	2598.692122
501.301226	2597.996443
501.667390	2600.915271
502.033497	2602.223451
502.399546	2602.717484
502.765537	2600.685899
503.131470	2600.098604
503.497345	2602.102463
503.863163	2601.593307
504.228923	2599.972576
504.594625	2599.367637
504.960269	2602.881321
505.325856	2602.107504
505.691385	2601.147164
506.056856	2603.259408
506.422270	2603.105653
506.787625	2602.599017
507.152924	2600.940477
507.518164	2599.440734
507.883347	2603.425766
508.248472	2604.633122
508.613540	2602.606578
508.978550	2603.783688
509.343503	2605.532968
509.708398	2603.340066
510.073236	2602.891404
510.438016	2605.195211
510.802738	2603.450972
511.167403	2603.924840
511.532010	2606.780654
511.896561	2605.858123
512.261053	2606.266456
512.625488	2603.329984
512.989866	2604.186980
513.354186	2600.496856
513.718449	2602.349480
514.082655	2604.628081
514.446803	2607.471292
514.810894	2609.397013
515.174927	2610.828700
515.538904	2608.101436
515.902822	2610.339708
516.266684	2608.693772
516.630488	2611.242075
516.994235	2610.758124
517.357925	2610.851386
517.721558	2612.157044
518.085133	2611.988166
518.448651	2612.734257
518.812112	2610.838783
519.175516	2612.305758
519.538863	2613.729884
519.902152	2614.874226
520.265385	2613.997066
520.628560	2617.621655
520.991678	2615.080914
521.354739	2613.235851
521.717743	2617.667026
522.080690	2614.410440
522.443580	2618.745832
522.806413	2616.656274
523.169189	2616.439505
523.531908	2620.114506
523.894569	2617.614093
524.257174	2617.858589
524.619722	2618.017386
524.982213	2618.939917
525.344647	2617.780452
525.707025	2619.209619
526.069345	2618.813888
526.431608	2619.975874
526.793815	2619.204577
527.155964	2621.808333
527.518057	2620.737088
527.880093	2618.786162
528.242072	2623.081225
528.603995	2621.369753
528.965860	2618.309773
529.327669	2622.075515
529.689421	2621.299177
530.051117	2621.016872
530.412755	2622.322531
530.774337	2621.977212
531.135862	2622.153652
531.497331	2620.096862
531.858743	2618.108127
532.220098	2620.076697
532.581396	2617.901439
532.942638	2619.302880
533.303824	2623.318159
533.664953	2623.958386
534.026025	2622.443519
534.387040	2624.941411
534.747999	2625.140536
535.108902	2624.253293
535.469748	2625.165742
535.830537	2625.075001
536.191270	2622.935031
536.551947	2621.856224
536.912567	2622.778756
537.273131	2625.798407
537.633638	2622.090638
537.994089	2626.153808
538.354483	2625.654734
538.714821	2627.542646
539.075103	2625.430402
539.435328	2625.788324
539.795497	2624.215484
540.155609	2626.219343
540.515665	2627.467029
540.875665	2625.276647
541.235609	2624.525515
541.595496	2626.635238
541.955328	2626.506689
542.315102	2627.313273
542.674821	2622.814044
543.034483	2625.311935
543.394090	2624.901081
543.753640	2626.244549
544.113134	2626.514251
544.472571	2627.497276
544.831953	2624.684312
545.191278	2628.311422
545.550548	2627.961062
545.909761	2625.551390
546.268918	2625.848818
546.628019	2627.668675
546.987064	2626.695732
547.346053	2625.647172
547.704986	2625.911833
548.063863	2627.935856
548.422684	2626.350413
548.781449	2627.668675
549.140158	2627.383850
549.498811	2626.224384
549.857408	2625.468211
550.215949	2625.730351
550.574434	2623.602984
550.932864	2625.493417
551.291237	2625.339662
551.649555	2630.486680
552.007817	2630.164046
552.366022	2628.442492
552.724173	2629.498614
553.082267	2629.720424
553.440305	2630.489200
553.798288	2630.312760
554.156215	2629.307050
554.514086	2631.341155
554.871902	2631.169756
555.229661	2631.300826
555.587365	2631.807462
555.945014	2633.544140
556.302606	2633.768471
556.660143	2632.316619
557.017625	2631.625981
557.375050	2631.068933
557.732421	2634.207051
558.089735	2634.738893
558.446994	2633.392905
558.804197	2633.740745
559.161345	2635.361476
559.518437	2636.843575
559.875474	2636.682258
560.232455	2635.815179
560.589381	2637.440952
560.946251	2639.578401
561.303065	2638.781898
561.659825	2635.351393
562.016528	2637.526651
562.373177	2638.701240
562.729770	2639.709471
563.086307	2640.327012
563.442789	2640.165695
563.799216	2641.110912
564.155587	2642.580408
564.511904	2642.093937
564.868164	2642.721560
565.224370	2642.348515
565.580520	2642.265336
565.936615	2646.381438
566.292654	2644.448155
566.648638	2644.879174
567.004567	2646.089051
567.360441	2648.332364
567.716260	2647.772796
568.072023	2649.025523
568.427732	2646.436891
568.783385	2648.488640
569.138982	2647.344298
569.494525	2646.729277
569.850013	2649.695997
570.205445	2652.332520
570.560823	2654.820329
570.916145	2655.914260
571.271412	2656.367964
571.626625	2656.667912
571.981782	2656.879641
572.336884	2659.528767
572.691931	2658.797800
573.046923	2660.882317
573.401860	2658.971720
573.756743	2661.109169
574.111570	2663.546567
574.466342	2663.743172
574.821059	2664.925322
575.175722	2669.006136
575.530330	2665.434479
575.884882	2667.639984
576.239380	2669.573266
576.593823	2667.687875
576.948211	2672.056034
577.302544	2671.574604
577.656823	2673.366734
578.011047	2675.322702
578.365216	2678.077693
578.719330	2679.769000
579.073389	2679.955522
579.427394	2679.421160
579.781344	2684.104392
580.135239	2684.348888
580.489080	2686.917356
580.842866	2689.107737
581.196597	2688.943900
581.550273	2690.299970
581.903895	2691.484641
582.257463	2698.007894
582.610975	2696.906402
582.964434	2701.014943
583.317837	2700.780529
583.671186	2703.825386
584.024481	2706.845037
584.377721	2709.070707
584.730906	2713.189329
585.084037	2714.005996
585.437113	2714.043805
585.790135	2719.369784
586.143103	2717.680997
586.496016	2723.362378
586.848874	2721.119064
587.201679	2727.896896
587.554428	2729.089128
587.907124	2731.571897
588.259765	2732.602813
588.612352	2745.253588
588.964884	2740.247722
589.317362	2746.713002
589.669786	2751.025709
590.022155	2754.012593
590.374470	2756.853283
590.726731	2759.212543
591.078937	2762.360744
591.431090	2765.377874
591.783188	2767.515324
592.135232	2773.473967
592.487222	2775.319030
592.839157	2781.111316
593.191038	2782.416974
593.542866	2785.061060
593.894639	2786.835546
594.246358	2791.763274
594.598022	2797.386681
594.949633	2799.264511
595.301190	2804.706436
595.652692	2807.214410
596.004141	2815.915442
596.355535	2814.327478
596.706876	2819.477017
597.058162	2820.086997
597.409395	2829.589572
597.760573	2833.872032
598.111698	2835.586024
598.462768	2842.162209
598.813785	2847.949454
599.164748	2850.192767
599.515657	2854.623942
599.866511	2860.262472
600.217312	2867.473843
600.568060	2868.744213
600.918753	2880.893394
601.269392	2886.547048
601.619978	2889.486041
601.970510	2896.243708
602.320988	2903.245870
602.671412	2912.841707
603.021783	2918.699528
603.372100	2923.821340
603.722363	2932.222423
604.072572	2938.178546
604.422728	2944.963939
604.772830	2946.279680
605.122878	2953.014662
605.472872	2962.159315
605.822813	2972.034935
606.172701	2978.772437
606.522534	2991.539159
606.872314	3001.818072
607.222041	3008.968949
607.571714	3020.813140
607.921333	3023.608460
608.270899	3036.176056
608.620411	3043.866336
608.969870	3053.595763
609.319276	3060.819737
609.668627	3073.843558
610.017926	3084.961823
610.367171	3098.237701
610.716362	3108.907303
611.065500	3118.646813
611.414585	3130.206178
611.763616	3145.196049
612.112594	3155.258192
612.461518	3169.748989
612.810389	3182.651822
613.159207	3193.908719
613.507971	3205.437838
613.856682	3225.468862
614.205340	3235.941860
614.553945	3255.582195
614.902496	3264.021087
615.250994	3282.295269
615.599439	3295.510654
615.947830	3313.288283
616.296169	3325.316476
616.644454	3344.001513
616.992686	3362.598329
617.340864	3383.438459
617.688990	3391.088410
618.037063	3418.761824
618.385082	3435.397632
618.733048	3457.334213
619.080961	3474.068323
619.428821	3487.558451
619.776628	3507.576873
620.124382	3520.530118
620.472083	3531.802138
620.819731	3549.184036
621.167326	3556.465983
621.514868	3572.113724
621.862357	3571.541553
622.209793	3586.266764
622.557176	3593.684822
622.904506	3597.574072
623.251783	3603.106738
623.599007	3607.605968
623.946179	3616.488481
624.293297	3624.468628
624.640363	3629.809730
624.987376	3643.456134
625.334336	3651.088441
625.681243	3655.678411
626.028097	3665.992612
626.374899	3680.395188
626.721647	3692.715768
627.068343	3703.105587
627.414987	3713.008933
627.761577	3721.790623
628.108115	3744.596803
628.454600	3744.551433
628.801032	3767.710494
629.147412	3780.464613
629.493739	3797.531439
629.840014	3805.110814
630.186236	3829.694001
630.532405	3832.244825
630.878521	3859.545193
631.224585	3871.412069
631.570597	3884.758524
631.916556	3902.974734
632.262462	3916.278339
632.608316	3938.005712
632.954117	3949.817135
633.299866	3963.256851
633.645562	3976.620950
633.991206	3980.936178
634.336797	3975.453923
634.682336	3992.266171
635.027823	3993.891943
635.373257	4005.441227
635.718639	4005.400897
636.063968	4018.197867
636.409245	4013.212165
636.754470	4025.961243
637.099642	4035.133623
637.444762	4026.606511
637.789829	4043.058317
638.134845	4048.414543
638.479808	4059.525246
638.824719	4071.818099
639.169577	4071.351793
639.514383	4089.787292
639.859137	4091.435750
640.203839	4119.633444
640.548489	4114.675469
640.893086	4132.369919
641.237632	4137.123727
641.582125	4155.105523
641.926566	4168.940969
642.270955	4186.620296
642.615292	4205.209551
642.959576	4215.400243
643.303809	4231.405907
643.647990	4252.659411
643.992118	4268.463429
644.336195	4281.993886
644.680219	4299.456443
645.024192	4331.969364
645.368112	4366.972616
645.711981	4388.120256
646.055797	4442.259728
646.399562	4457.272284
646.743274	4519.495246
647.086935	4562.072832
647.430544	4581.796346
647.774101	4608.811889
648.117606	4638.451353
648.461059	4675.740768
648.804460	4680.567673
649.147810	4659.230990
649.491108	4666.094521
649.834354	4665.913039
650.177548	4636.893637
650.520690	4626.629848
650.863781	4639.973782
651.206820	4653.037932
651.549807	4633.057319
651.892742	4629.105054
652.235626	4630.330055
652.578458	4639.699039
652.921238	4624.759580
653.263967	4651.215555
653.606644	4649.143641
653.949269	4656.738139
654.291843	4646.444103
654.634365	4692.542934
654.976836	4682.276624
655.319255	4694.864386
655.661622	4714.996233
656.003938	4719.031677
656.346203	4719.709712
656.688416	4749.225668
657.030577	4751.602572
657.372687	4752.446965
657.714746	4792.004900
658.056753	4812.691274
658.398708	4789.965753
658.740612	4801.726765
659.082465	4838.781766
659.424266	4837.687836
659.766016	4858.051577
660.107715	4867.690263
660.449362	4893.432915
660.790958	4905.647631
661.132503	4925.245116
661.473996	4941.437303
661.815438	4966.708607
662.156829	4997.789841
662.498168	4989.880270
662.839456	5007.705790
663.180693	5029.498698
663.521879	5063.597063
663.863013	5071.252055
664.204097	5086.267132
664.545129	5134.142970
664.886110	5147.139065
665.227040	5171.775183
665.567918	5186.318912
665.908746	5210.801276
666.249522	5241.431327
666.590248	5257.845324
666.930922	5282.425990
667.271545	5292.465448
667.612118	5313.272810
667.952639	5319.082740
668.293109	5341.871276
668.633528	5344.626267
668.973896	5356.697309
669.314213	5381.338469
669.654480	5372.455956
669.994695	5392.650819
670.334859	5395.589811
670.674973	5402.927211
671.015035	5428.874030
671.355047	5445.628304
671.695008	5454.901507
672.034918	5459.483916
672.374777	5476.515454
672.714585	5482.547195
673.054342	5513.504920
673.394049	5516.007853
673.733705	5550.005395
674.073310	5538.022572
674.412864	5560.911931
674.752368	5544.949117
675.091820	5589.727167
675.431223	5569.786882
675.770574	5557.894801
676.109875	5556.795829
676.449125	5551.401794
676.788324	5560.614503
677.127473	5534.972674
677.466571	5536.790010
677.805619	5526.072517
678.144616	5535.688518
678.483562	5546.335435
678.822458	5534.118198
679.161303	5539.608015
679.500098	5540.596081
679.838842	5542.667995
680.177535	5566.512653
680.516179	5603.560093
680.854771	5625.206807
681.193314	5706.397111
681.531805	5810.083563
681.870247	5892.042642
682.208638	5997.097768
682.546978	6055.350821
682.885268	6090.895997
683.223508	6061.291821
683.561697	6047.421086
683.899836	6045.170211
684.237925	6003.885681
684.575963	6002.441391
684.913951	5971.239169
685.251889	5993.861347
685.589776	6003.167317
685.927614	6000.553479
686.265401	6029.935844
686.603137	6046.715324
686.940824	6100.696000
687.278460	6137.040198
687.616046	6157.058620
687.953582	6235.297328
688.291068	6233.971505
688.628504	6280.831550
688.965889	6297.391741
689.303224	6281.587723
689.640510	6270.235045
689.977745	6218.908537
690.314930	6158.238250
690.652065	6131.862933
690.989150	6069.362708
691.326185	5985.969421
691.663170	5928.974135
692.000105	5868.767635
692.336990	5806.479138
692.673825	5769.955978
693.010610	5727.103650
693.347345	5673.375032
693.684030	5604.618735
694.020665	5587.279686
694.357251	5518.656980
694.693786	5523.894738
695.030272	5507.211040
695.366707	5454.142813
695.703093	5421.539151
696.039429	5429.748670
696.375716	5406.418210
696.711952	5402.309669
697.048139	5391.861878
697.384276	5379.896699
697.720363	5399.284977
698.056400	5388.063369
698.392388	5374.923601
698.728326	5381.252770
699.064214	5365.277353
699.400053	5377.083736
699.735842	5342.700546
700.071581	5320.942926
700.407270	5297.917456
700.742910	5288.460251
701.078501	5267.393269
701.414042	5243.316718
701.749533	5211.449064
702.084974	5178.369013
702.420366	5215.240012
702.755709	5166.595398
703.091002	5138.937107
703.426246	5150.546885
703.761440	5145.213344
704.096584	5119.324498
704.431679	5119.485815
704.766725	5115.737717
705.101721	5111.256132
705.436668	5128.428822
705.771565	5092.661836
706.106413	5143.680833
706.441212	5146.816431
706.775961	5168.415254
707.110661	5177.650648
707.445311	5229.534204
707.779913	5208.409248
708.114465	5243.069702
708.448967	5281.861381
708.783421	5377.368561
709.117825	5410.572121
709.452180	5445.703922
709.786485	5491.381817
710.120742	5598.849134
710.454949	5604.875834
710.789107	5664.326161
711.123216	5758.184884
711.457275	5776.312873
711.791286	5863.025761
712.125247	5883.460078
712.459159	5855.232137
712.793023	5972.133974
713.126837	5841.424416
713.460602	5894.782509
713.794318	5870.214446
714.127985	5841.225291
714.461602	5737.339713
714.795171	5752.362351
715.128691	5630.754597
715.462162	5569.623045
715.795584	5523.874574
716.128957	5500.337427
716.462281	5457.412002
716.795556	5433.955513
717.128782	5371.634248
717.461960	5295.958967
717.795088	5296.097599
718.128167	5247.102625
718.461198	5180.022511
718.794180	5164.629348
719.127113	5122.843224
719.459997	5097.602166
719.792833	5050.711874
720.125619	5053.411412
720.458357	5008.968599
720.791046	4987.699971
721.123686	4966.471673
721.456278	4929.479686
721.788821	4925.703861
722.121315	4891.895363
722.453761	4909.370523
722.786158	4893.611876
723.118506	4897.206219
723.450805	4884.472264
723.783056	4909.791459
724.115259	4894.012648
724.447412	4886.150968
724.779518	4926.971712
725.111574	4934.132671
725.443582	4962.733657
725.775542	4958.080672
726.107453	5039.475142
726.439315	5014.965052
726.771129	5079.625412
727.102895	5130.999811
727.434612	5168.629503
727.766281	5194.026837
728.097901	5242.777315
728.429473	5257.348770
728.760996	5268.898053
729.092471	5297.052898
729.423897	5290.486795
729.755276	5272.240338
730.086606	5286.355569
730.417887	5365.060584
730.749120	5449.285662
731.080305	5491.089430
731.411442	5556.579059
731.742530	5586.979738
732.073570	5608.243325
732.404562	5670.257079
732.735506	5659.852137
733.066401	5653.160005
733.397249	5597.568681
733.728048	5524.348442
734.058798	5400.313372
734.389501	5294.015603
734.720156	5221.304520
735.050762	5131.009893
735.381320	5070.518567
735.711831	5018.882028
736.042293	4957.410198
736.372707	4956.404488
736.703073	4915.182973
737.033391	4938.742806
737.363661	4929.658647
737.693883	4940.965955
738.024056	4958.821722
738.354182	4984.851719
738.684260	5030.688411
739.014290	5066.127722
739.344272	5090.166464
739.674207	5140.993898
740.004093	5167.220501
740.333931	5172.697715
740.663722	5187.795970
740.993464	5203.410944
741.323159	5189.840158
741.652806	5154.922606
741.982405	5134.047188
742.311956	5089.075055
742.641460	5079.690947
742.970915	5043.346748
743.300323	4988.778778
743.629683	4963.578050
743.958996	4924.050363
744.288260	4877.376840
744.617477	4828.419674
744.946647	4818.327284
745.275768	4772.475470
745.604842	4742.483125
745.933869	4709.894586
746.262847	4709.657652
746.591778	4698.809088
746.920662	4676.965769
747.249498	4671.226415
747.578286	4689.495557
747.907027	4711.573290
748.235720	4752.159620
748.564365	4765.082617
748.892963	4752.139455
749.221514	4767.724182
749.550017	4745.780039
749.878473	4745.704422
750.206881	4709.995409
750.535242	4701.110375
750.863555	4688.147048
751.191821	4669.688863
751.520039	4679.388043
751.848210	4661.812060
752.176334	4667.790869
752.504411	4651.734794
752.832440	4620.676245
753.160421	4637.138133
753.488356	4615.806490
753.816243	4599.576496
754.144082	4571.721600
754.471875	4562.524015
754.799620	4553.263415
755.127318	4546.798135
755.454969	4537.293040
755.782572	4538.253380
756.110129	4537.335890
756.437638	4525.678221
756.765100	4524.390207
757.092515	4525.138818
757.419882	4526.116802
757.747203	4524.606976
758.074477	4538.744892
758.401703	4530.719375
758.728882	4553.376841
759.056014	4564.613573
759.383099	4584.533693
759.710138	4613.762303
760.037129	4632.865755
760.364073	4646.812107
760.690970	4644.536026
761.017820	4644.558711
761.344623	4678.016849
761.671379	4741.243001
761.998088	4825.130322
762.324751	5044.798600
762.651366	5482.431248
762.977935	6132.727491
763.304456	6653.955073
763.630931	6941.915863
763.957359	6893.440127
764.283740	6624.920547
764.610074	6320.477705
764.936362	5943.490138
765.262602	5642.427389
765.588796	5318.805477
765.914943	5076.638528
766.241044	4864.489130
766.567097	4700.633986
766.893104	4559.695928
767.219064	4467.783090
767.544978	4376.276065
767.870845	4294.576606
768.196665	4254.086058
768.522438	4206.792473
768.848165	4170.841484
769.173846	4131.591061
769.499479	4101.913788
769.825066	4070.603181
770.150607	4030.329403
770.476101	4015.284080
770.801548	3998.582737
771.126949	3965.948827
771.452303	3947.508287
771.777611	3912.011002
772.102872	3911.426228
772.428087	3890.870923
772.753256	3865.828992
773.078378	3847.721167
773.403453	3814.568019
773.728482	3790.105820
774.053465	3778.226341
774.378401	3761.378804
774.703291	3737.723190
775.028135	3715.148903
775.352932	3707.635063
775.677683	3688.516487
776.002388	3673.256915
776.327046	3670.998478
776.651658	3649.974346
776.976224	3635.503713
777.300743	3633.900627
777.625216	3616.859006
777.949643	3612.211062
778.274024	3612.037142
778.598359	3591.743977
778.922647	3595.809668
779.246889	3586.617124
779.571086	3586.982608
779.895236	3586.417998
780.219339	3586.165941
780.543397	3584.230138
780.867409	3601.470884
781.191374	3600.087087
781.515294	3591.504523
781.839167	3605.902058
782.162995	3609.831637
782.486776	3600.523147
782.810511	3591.625510
783.134201	3577.913572
783.457844	3579.579673
783.781441	3573.000967
784.104993	3568.350503
784.428498	3560.698032
784.751958	3556.801220
785.075372	3550.840055
785.398739	3540.830844
785.722061	3549.395765
786.045337	3545.597255
786.368568	3569.819999
786.691752	3569.502407
787.014891	3613.534365
787.337983	3656.195129
787.661030	3743.223089
787.984031	3831.287005
788.306987	3906.372471
788.629897	3952.612455
788.952760	3961.137046
789.275579	3947.072227
789.598351	3902.699991
789.921078	3853.473123
790.243759	3795.522539
790.566395	3748.881784
790.888984	3701.918395
791.211529	3664.122344
791.534027	3623.891416
791.856480	3586.017227
792.178888	3566.079463
792.501249	3545.080537
792.823566	3520.772093
793.145836	3512.323119
793.468062	3505.026049
793.790241	3491.651868
794.112375	3495.024400
794.434464	3517.056763
794.756507	3512.844879
795.078505	3530.153680
795.400457	3570.760175
795.722364	3617.723564
796.044226	3660.749812
796.366042	3707.912327
796.687812	3702.132644
797.009538	3727.953434
797.331218	3718.932289
797.652852	3711.597410
797.974442	3691.624359
798.295986	3682.872916
798.617484	3653.520797
798.938938	3627.251345
799.260346	3615.548306
799.581709	3580.744180
799.903026	3567.067529
800.224299	3548.374931
800.545526	3519.403420
800.866708	3502.611336
801.187845	3488.042402
801.508936	3467.580358
801.829983	3459.678350
802.150984	3433.658434
802.471940	3422.414140
802.792851	3418.262750
803.113717	3412.755290
803.434538	3402.690626
803.755314	3395.539749
804.076045	3390.503637
804.396731	3375.465875
804.717372	3376.038046
805.037967	3373.628374
805.358518	3377.749517
805.679024	3385.520456
805.999485	3388.313255
806.319901	3387.690673
806.640272	3390.420458
806.960598	3405.342273
807.280879	3402.672982
807.601115	3415.003644
807.921306	3407.280597
808.241453	3407.386461
808.561554	3414.751587
808.881611	3416.301741
809.201623	3413.103129
809.521590	3405.760689
809.841513	3403.986203
810.161390	3413.513983
810.481223	3390.586816
810.801011	3389.704614
811.120755	3389.278636
811.440453	3375.322202
811.760107	3373.477139
812.079716	3362.487424
812.399281	3352.836135
812.718801	3354.948378
813.038276	3348.263808
813.357707	3341.317098
813.677093	3347.406812
813.996434	3331.209585
814.315731	3337.642097
814.634983	3338.617561
814.954191	3338.960359
815.273354	3355.760004
815.592473	3363.835933
815.911547	3386.271588
816.230577	3395.353227
816.549562	3427.684667
816.868502	3443.491205
817.187399	3462.977785
817.506250	3488.014675
817.825058	3498.223012
818.143821	3543.908469
818.462539	3585.480344
818.781213	3641.321205
819.099843	3721.266343
819.418429	3871.810321
819.736970	4023.130636
820.055466	4204.763409
820.373919	4438.957772
820.692327	4767.963637
821.010691	5270.395276
821.329011	6325.347459
821.647286	8004.568408
821.965517	10090.335730
822.283704	11638.138839
822.601847	12655.935198
822.919945	12285.796038
823.237999	11648.110242
823.556010	10793.087699
823.873976	9874.065189
824.191897	8946.674363
824.509775	8200.064354
824.827609	7414.403048
825.145398	6884.083746
825.463144	6512.923753
825.780845	6391.109311
826.098502	6459.255629
826.416116	6826.244067
826.733685	7312.780948
827.051210	7582.797751
827.368692	7495.502611
827.686129	7073.235400
828.003522	6534.487288
828.320872	5985.291385
828.638177	5533.228435
828.955439	5171.757539
829.272656	4844.014484
829.589830	4570.476435
829.906960	4315.452024
830.224046	4107.033080
830.541088	3940.291875
830.858086	3825.653516
831.175041	3731.862849
831.491952	3688.718133
831.808819	3671.121986
832.125642	3705.311091
832.442421	3808.256494
832.759157	4019.085110
833.075849	4385.934916
833.392497	4838.910316
833.709101	5220.162699
834.025662	5322.031815
834.342179	5199.768711
834.658653	4934.185603
834.975083	4669.462011
835.291469	4435.854942
835.607811	4215.221282
835.924110	4061.380390
836.240366	3903.703180
836.556578	3744.536309
836.872746	3609.889611
837.188871	3504.106038
837.504952	3407.527613
837.820990	3338.851974
838.136984	3279.938530
838.452935	3251.559354
838.768842	3240.171388
839.084706	3272.293620
839.400526	3403.461923
839.716303	3625.529791
840.032037	3833.190041
840.347727	3897.195051
840.663373	3810.343532
840.978977	3662.393228
841.294537	3529.828526
841.610054	3430.054009
841.925527	3352.465610
842.240957	3289.335241
842.556344	3225.819223
842.871687	3167.288906
843.186987	3107.188270
843.502244	3058.682288
843.817458	3020.054446
844.132629	2988.063284
844.447756	2969.524441
844.762840	2941.261212
845.077881	2926.377205
845.392879	2914.265833
845.707833	2900.407701
846.022745	2891.835219
846.337613	2887.409086
846.652438	2879.706203
846.967221	2875.814432
847.281960	2866.377392
847.596656	2864.519727
847.911309	2859.229036
848.225919	2854.964219
848.540485	2849.834845
848.855009	2849.726461
849.169490	2842.807477
849.483928	2840.395285
849.798323	2839.339163
850.112675	2835.618792
850.426984	2833.297340
850.741251	2832.813389
851.055474	2829.425734
851.369654	2828.782987
851.683792	2826.832060
851.997887	2829.566886
852.311938	2826.869869
852.625947	2826.746361
852.939914	2825.213850
853.253837	2827.852894
853.567718	2829.733244
853.881555	2826.161587
854.195350	2827.255517
854.509103	2828.301557
854.822812	2825.092862
855.136479	2824.583706
855.450103	2825.707883
855.763685	2824.976916
856.077224	2824.979436
856.390720	2827.505054
856.704173	2827.983964
857.017584	2828.803152
857.330953	2832.452947
857.644278	2836.543843
857.957561	2838.882939
858.270802	2839.316478
858.584000	2837.673062
858.897155	2838.038545
859.210268	2834.784481
859.523339	2828.228460
859.836367	2832.934377
860.149352	2829.594613
860.462295	2830.197031
860.775195	2825.581854
861.088054	2824.656802
861.400869	2823.761998
861.713642	2821.306956
862.026373	2824.039261
862.339062	2826.491782
862.651708	2831.318687
862.964312	2832.062257
863.276873	2832.405056
863.589392	2844.796212
863.901869	2846.081706
864.214303	2856.053109
864.526696	2863.289685
864.839045	2867.481404
865.151353	2876.187477
865.463619	2878.332488
865.775842	2882.927500
866.088023	2885.253992
866.400162	2885.357336
866.712258	2885.281719
867.024313	2886.209291
867.336325	2890.403531
867.648296	2889.854045
867.960224	2890.509395
868.272110	2891.593243
868.583954	2893.163563
868.895755	2893.226577
869.207515	2893.317318
869.519233	2901.249573
869.830909	2902.693864
870.142542	2904.647311
870.454134	2907.089750
870.765684	2908.831469
871.077191	2919.538880
871.388657	2926.488110
871.700081	2930.069850
872.011463	2938.402877
872.322803	2943.232303
872.634101	2945.223558
872.945357	2956.200671
873.256571	2964.664768
873.567744	2971.351859
873.878874	2974.157261
874.189963	2981.469455
874.501010	2984.121102
874.812015	2983.743015
875.122979	2993.411948
875.433900	2993.122082
875.744780	2996.315653
876.055618	3004.048783
876.366415	3005.666993
876.677169	3010.814011
876.987882	3016.417254
877.298554	3026.469314
877.609183	3038.754606
877.919771	3056.577606
878.230317	3078.975452
878.540822	3116.315279
878.851285	3168.062723
879.161707	3231.175449
879.472087	3340.248374
879.782425	3495.347034
880.092722	3766.808127
880.402977	4180.094522
880.713191	4705.251683
881.023363	5284.417246
881.333494	5705.487182
881.643583	5981.684440
881.953631	6055.686058
882.263637	6004.490620
882.573602	5869.319641
882.883526	5706.923911
883.193408	5514.666906
883.503248	5304.508764
883.813048	5092.671918
884.122806	4877.591089
884.432522	4644.528464
884.742197	4424.789609
885.051831	4222.256213
885.361424	4028.781769
885.670975	3863.575596
885.980485	3721.301631
886.289954	3599.928291
886.599382	3500.055471
886.908768	3416.667225
887.218113	3340.329032
887.527417	3284.157976
887.836680	3219.245558
888.145901	3176.814166
888.455082	3138.236736
888.764221	3108.604834
889.073319	3080.364290
889.382376	3057.981567
889.691392	3043.636964
890.000366	3035.263607
890.309300	3025.695497
890.618193	3025.909746
890.927044	3016.359280
891.235855	3020.908922
891.544625	3023.613501
891.853353	3032.990047
892.162041	3045.476985
892.470687	3069.334246
892.779293	3102.709205
893.087858	3149.120587
893.396381	3224.833677
893.704864	3327.325376
894.013306	3480.957060
894.321707	3661.813495
894.630068	3811.631547
894.938387	3890.646592
895.246665	3896.988363
895.554903	3839.521730
895.863100	3751.820777
896.171256	3680.974921
896.479371	3610.497070
896.787446	3538.332952
897.095480	3465.941983
897.403473	3410.514497
897.711425	3355.397041
898.019336	3306.732263
898.327207	3257.490272
898.635038	3209.027139
898.942827	3160.115344
899.250576	3115.380145
899.558284	3079.545103
899.865952	3053.535269
900.173579	3022.201978
900.481165	3002.120541
900.788711	2982.207984
901.096216	2965.405818
901.403681	2954.678243
901.711105	2947.189608
902.018489	2941.311623
902.325832	2949.490895
902.633135	2958.741413
902.940397	2998.569048
903.247619	3085.171030
903.554800	3257.291146
903.861941	3524.953730
904.169041	3781.061990
904.476101	3946.187504
904.783121	3972.550218
905.090100	3903.451123
905.397039	3802.007984
905.703938	3695.932025
906.010796	3598.158846
906.317614	3514.485774
906.624391	3429.199533
906.931129	3362.396683
907.237826	3295.026703
907.544483	3229.494224
907.851099	3160.034686
908.157675	3086.436360
908.464211	3016.825587
908.770707	2959.154787
909.077163	2914.956471
909.383578	2877.402395
909.689954	2849.330730
909.996289	2831.134685
910.302584	2819.681184
910.608839	2810.329843
910.915054	2802.977320
911.221229	2796.189407
911.527363	2798.462967
911.833458	2799.544295
912.139513	2803.252063
912.445527	2801.424645
912.751502	2816.689259
913.057436	2827.487410
913.363331	2849.502129
913.669186	2876.812580
913.975000	2915.926893
914.280775	2971.356900
914.586510	3051.259188
914.892205	3159.182731
915.197859	3304.327632
915.503475	3483.487719
915.809050	3656.369049
916.114585	3779.761372
916.420081	3853.107640
916.725536	3882.109398
917.030952	3847.212010
917.336328	3811.407215
917.641665	3766.056995
917.946961	3697.580482
918.252218	3646.952174
918.557435	3575.695464
918.862612	3509.530320
919.167750	3452.189716
919.472848	3378.404867
919.777906	3315.584529
920.082925	3248.574991
920.387904	3173.696212
920.692843	3118.248561
920.997743	3069.251067
921.302603	3019.416740
921.607423	2989.005980
921.912204	2954.078345
922.216946	2929.036413
922.521647	2903.984399
922.826310	2883.804661
923.130932	2866.044676
923.435516	2845.239834
923.740059	2833.017556
924.044564	2816.971563
924.349028	2807.045532
924.653454	2790.147584
924.957840	2779.009154
925.262186	2768.745365
925.566493	2756.286153
925.870761	2745.545975
926.174989	2743.431211
926.479178	2733.230436
926.783328	2725.709035
927.087438	2719.362222
927.391509	2716.748384
927.695541	2708.279245
927.999533	2705.330170
928.303486	2698.905220
928.607400	2694.922708
928.911275	2691.313242
929.215110	2688.868282
929.518906	2683.960719
929.822663	2685.324351
930.126381	2685.195802
930.430060	2685.984742
930.733699	2683.151614
931.037299	2686.009948
931.340861	2684.495082
931.644383	2686.105730
931.947866	2684.805112
932.251309	2684.979032
932.554714	2685.533559
932.858080	2684.316121
933.161407	2682.975174
933.464694	2681.576253
933.767943	2681.089782
934.071153	2678.342353
934.374323	2677.394616
934.677455	2677.082065
934.980548	2678.201201
935.283602	2676.184739
935.586617	2673.492763
935.889593	2673.510407
936.192530	2675.952846
936.495428	2678.753207
936.798287	2679.320337
937.101108	2684.255627
937.403890	2690.332738
937.706632	2699.147195
938.009336	2710.242775
938.312002	2723.533777
938.614628	2733.706825
938.917216	2740.623288
939.219765	2748.222828
939.522275	2755.736668
939.824747	2755.678694
940.127179	2754.446132
940.429573	2754.778848
940.731929	2757.662388
941.034246	2757.080135
941.336524	2755.560227
941.638763	2754.889754
941.940964	2756.235742
942.243126	2754.476379
942.545250	2747.043198
942.847335	2741.016498
943.149381	2735.519120
943.451389	2729.913357
943.753359	2723.901781
944.055290	2718.507747
944.357182	2714.802498
944.659036	2709.917620
944.960851	2710.890563
945.262628	2702.217258
945.564367	2707.444934
945.866067	2702.877649
946.167729	2702.739017
946.469352	2703.291024
946.770937	2703.487629
947.072484	2696.503110
947.373992	2701.007381
947.675462	2697.917154
947.976893	2695.177287
948.278286	2691.829960
948.579641	2691.378777
948.880958	2691.608150
949.182236	2692.815506
949.483476	2692.485310
949.784678	2688.984229
950.085841	2688.507840
950.386967	2691.461956
950.688054	2692.452543
950.989103	2694.479087
951.290114	2698.519572
951.591087	2698.630477
951.892021	2705.257074
952.192917	2710.378886
952.493776	2713.030533
952.794596	2715.929196
953.095378	2716.985318
953.396122	2718.880792
953.696828	2716.950030
953.997496	2717.171841
954.298126	2715.089844
954.598718	2712.065152
954.899272	2707.545757
955.199788	2706.025850
955.500266	2700.445292
955.800706	2693.697708
956.101108	2686.105730
956.401472	2679.758917
956.701798	2672.847496
957.002087	2664.209478
957.302337	2664.461536
957.602550	2661.857780
957.902724	2653.315545
958.202861	2648.060142
958.502960	2643.470172
958.803022	2639.858185
959.103045	2635.457257
959.403031	2634.360807
959.702979	2633.168574
960.002889	2625.727831
960.302762	2625.193468
960.602596	2620.684156
960.902393	2619.680967
961.202153	2618.697942
961.501875	2612.797271
961.801559	2614.755759
962.101205	2612.724174
962.400814	2611.267281
962.700385	2613.210646
962.999918	2612.076386
963.299414	2610.818618
963.598873	2608.527414
963.898293	2606.389964
964.197677	2609.850717
964.497022	2603.362752
964.796331	2606.223606
965.095601	2607.080602
965.394835	2604.822166
965.694030	2605.878287
965.993189	2604.093719
966.292309	2603.836620
966.591393	2603.695468
966.890439	2603.284614
967.189447	2601.444592
967.488419	2604.963318
967.787353	2602.135231
968.086249	2601.938626
968.385108	2604.134048
968.683930	2602.409973
968.982714	2604.282762
969.281462	2605.074223
969.580172	2606.601693
969.878844	2610.581684
970.177480	2609.250819
970.476078	2609.427260
970.774639	2611.968001
971.073162	2613.382045
971.371649	2610.092692
971.670098	2613.497991
971.968510	2611.456324
972.266885	2611.869699
972.565223	2614.813733
972.863524	2619.169289
973.161788	2617.654423
973.460014	2618.917232
973.758204	2621.251286
974.056356	2619.028137
974.354471	2622.004938
974.652550	2622.040227
974.950591	2618.488734
975.248595	2620.454784
975.546563	2619.988477
975.844493	2623.056019
976.142386	2618.987808
976.440243	2615.892539
976.738062	2617.505709
977.035845	2616.689042
977.333590	2616.121912
977.631299	2615.408589
977.928971	2616.983949
978.226606	2614.178547
978.524204	2613.364401
978.821765	2612.651078
979.119290	2611.060593
979.416777	2612.109153
979.714228	2610.906838
980.011642	2612.991355
980.309020	2613.818105
980.606360	2613.906325
980.903664	2618.503857
981.200931	2622.314969
981.498162	2630.907616
981.795356	2642.535037
982.092513	2656.622542
982.389633	2676.726663
982.686717	2692.318952
982.983764	2705.589790
983.280775	2719.168138
983.577749	2723.110320
983.874686	2726.021586
984.171587	2721.940772
984.468451	2716.902139
984.765279	2708.609441
985.062070	2704.032073
985.358824	2696.858511
985.655543	2689.170752
985.952224	2677.926458
986.248869	2667.067813
986.545478	2650.764721
986.842050	2641.247023
987.138586	2630.196813
987.435086	2621.291615
987.731549	2614.203753
988.027975	2613.745008
988.324366	2608.106477
988.620719	2605.200252
988.917037	2601.396702
989.213318	2600.774119
989.509563	2599.886876
989.805772	2597.479725
990.101944	2595.937132
990.398080	2593.482090
990.694180	2593.865218
990.990244	2594.361771
991.286271	2594.691967
991.582262	2595.914447
991.878217	2594.228181
992.174136	2595.180959
992.470019	2594.780187
992.765865	2598.803028
993.061676	2599.695312
993.357450	2598.649273
993.653188	2597.883017
993.948890	2603.561877
994.244556	2605.900973
994.540186	2609.505397
994.835780	2614.864144
995.131337	2622.302367
995.426859	2628.026597
995.722345	2636.087402
996.017795	2649.338075
996.313208	2652.191368
996.608586	2661.444406
996.903928	2664.373316
997.199234	2665.172339
997.494504	2666.278872
997.789738	2664.673265
998.084936	2663.158398
998.380099	2655.213539
998.675225	2650.915956
998.970316	2645.733650
999.265371	2640.790798
999.560390	2634.610344
999.855373	2627.819909
1000.150320	2618.967643
1000.445232	2615.209463
1000.740108	2609.757455
1001.034948	2607.907352
1001.329752	2603.922320
1001.624521	2602.004161
1001.919254	2593.582913
1002.213951	2593.083839
1002.508613	2590.916143
1002.803239	2590.379260
1003.097829	2590.734661
1003.392384	2589.981009
1003.686903	2589.373550
1003.981386	2589.701225
1004.275834	2589.290371
1004.570246	2588.181317
1004.864623	2586.585792
1005.158964	2588.743405
1005.453270	2587.268868
1005.747540	2586.938672
1006.041775	2585.393559
1006.335974	2587.374732
1006.630138	2584.876840
1006.924266	2584.677715
1007.218359	2583.732498
1007.512416	2587.392376
1007.806438	2583.823239
1008.100425	2582.658733
1008.394376	2584.783579
1008.688292	2582.477251
1008.982172	2583.246027
1009.276017	2583.109916
1009.569827	2582.885585
1009.863602	2586.568147
1010.157341	2585.655699
1010.451045	2584.297108
1010.744714	2582.809967
1011.038347	2585.000349
1011.331945	2580.753177
1011.625508	2583.936665
1011.919036	2583.056984
1012.212528	2585.698548
1012.505986	2580.977508
1012.799408	2581.101016
1013.092795	2580.904411
1013.386147	2582.769638
1013.679464	2581.809298
1013.972745	2578.625810
1014.265992	2580.417940
1014.559204	2582.845255
1014.852380	2584.612180
1015.145521	2581.912642
1015.438628	2582.479772
1015.731699	2583.636717
1016.024736	2581.640420
1016.317737	2582.809967
1016.610703	2582.326017
1016.903635	2580.057497
1017.196531	2579.596232
1017.489393	2581.963053
1017.782219	2579.271077
1018.075011	2579.984401
1018.367768	2581.602611
1018.660490	2582.930955
1018.953177	2582.930955
1019.245829	2582.930955
