Dividing Wavelength (nm)	Counts (n)	Blue Motor Position (mm): 50.000000	Red Motor Position (mm): 0.000000	
326.493990	2151.498927
326.888308	2151.498927
327.282561	2151.498927
327.676750	2126.061264
328.070874	2129.726183
328.464933	2132.297172
328.858929	2141.003244
329.252859	2154.049750
329.646726	2169.405105
330.040528	2185.012517
330.434265	2202.346525
330.827938	2221.795296
331.221547	2238.373131
331.615091	2259.616553
332.008571	2279.617331
332.401986	2298.685495
332.795338	2317.410861
333.188625	2338.739983
333.581847	2358.849146
333.975006	2379.119626
334.368100	2397.653428
334.761129	2414.251427
335.154095	2431.141813
335.546996	2454.762139
335.939833	2489.034423
336.332606	2499.918275
336.725315	2515.634072
337.117960	2518.873013
337.510540	2528.461288
337.903056	2536.759027
338.295508	2545.989380
338.687896	2551.469114
339.080220	2557.374826
339.472480	2566.211968
339.864676	2569.894531
340.256807	2572.004254
340.648875	2573.236816
341.040879	2575.192784
341.432818	2576.516087
341.824694	2579.003896
342.216506	2576.294276
342.608253	2578.484657
342.999937	2577.105902
343.391557	2574.597928
343.783113	2573.294789
344.174605	2574.862588
344.566033	2570.481826
344.957397	2568.775395
345.348697	2566.854715
345.739934	2567.842782
346.131106	2564.258521
346.522215	2563.540157
346.913260	2558.950186
347.304241	2561.193500
347.695159	2558.574620
348.086012	2558.660320
348.476802	2555.451625
348.867528	2554.327448
349.258191	2551.416182
349.648789	2552.885678
350.039324	2549.800492
350.429796	2547.063145
350.820203	2548.401572
351.210548	2547.857127
351.600828	2546.223793
351.991045	2544.640871
352.381198	2545.523073
352.771288	2545.873433
353.161314	2546.889226
353.551276	2548.956099
353.941175	2544.933258
354.331010	2546.934596
354.720782	2546.463248
355.110490	2544.983669
355.500135	2545.752445
355.889717	2548.348640
356.279235	2547.915100
356.668689	2547.761345
357.058080	2546.629606
357.447408	2544.469472
357.836672	2543.151210
358.225873	2546.841335
358.615010	2546.932075
359.004084	2550.644885
359.393095	2550.821326
359.782043	2551.093548
360.170927	2551.527087
360.559748	2552.779814
360.948505	2552.240410
361.337199	2552.989022
361.725830	2554.256872
362.114398	2553.369629
362.502903	2554.077911
362.891344	2556.112017
363.279722	2555.615463
363.668037	2554.705535
364.056289	2556.885834
364.444478	2557.584033
364.832603	2555.998591
365.220665	2558.020093
365.608665	2557.397511
365.996601	2556.658982
366.384474	2558.695608
366.772284	2557.699980
367.160031	2559.169476
367.547715	2559.355999
367.935336	2562.184086
368.322893	2558.771225
368.710388	2559.761812
369.097820	2563.278017
369.485189	2561.558983
369.872495	2562.176525
370.259738	2562.010167
370.646918	2559.696277
371.034035	2562.927657
371.421090	2567.822617
371.808081	2562.037893
372.195010	2565.223902
372.581875	2565.702812
372.968678	2565.228943
373.355418	2566.317832
373.742096	2569.168605
374.128710	2566.779098
374.515262	2571.064079
374.901751	2573.307392
375.288177	2570.065930
375.674540	2573.060376
376.060841	2574.078689
376.447079	2573.612382
376.833254	2578.308217
377.219367	2574.832341
377.605417	2579.235789
377.991404	2577.698237
378.377329	2584.972622
378.763191	2585.529670
379.148991	2594.134919
379.534727	2597.373861
379.920402	2600.625405
380.306013	2603.667741
380.691563	2609.177722
381.077049	2615.181737
381.462474	2616.999073
381.847835	2622.836729
382.233134	2628.066926
382.618371	2631.752009
383.003545	2638.466826
383.388657	2644.362456
383.773706	2650.689104
384.158693	2655.861328
384.543618	2665.595796
384.928480	2669.943791
385.313280	2676.005778
385.698017	2685.808302
386.082692	2695.885569
386.467305	2701.579552
386.851856	2707.928885
387.236344	2718.056563
387.620770	2725.351113
388.005133	2736.333267
388.389435	2746.579412
388.773674	2754.360433
389.157851	2761.254211
389.541965	2770.766868
389.926018	2775.142589
390.310008	2787.397634
390.693936	2794.135137
391.077802	2804.925726
391.461606	2815.592808
391.845348	2824.687049
392.229027	2836.407732
392.612645	2847.896522
392.996200	2858.495548
393.379694	2871.297558
393.763125	2888.555948
394.146494	2894.784294
394.529801	2907.979514
394.913047	2922.119950
395.296230	2925.311001
395.679351	2929.490117
396.062410	2950.176492
396.445408	2944.278342
396.828343	2957.221505
397.211217	2965.602423
397.594028	2958.489355
397.976778	2973.524596
398.359466	2986.059425
398.742092	2981.696307
399.124656	3000.991323
399.507158	3009.039525
399.889598	3016.823067
400.271977	3033.219419
400.654294	3040.793753
401.036549	3051.783468
401.418742	3054.503171
401.800874	3082.267326
402.182944	3087.406782
402.564952	3114.462655
402.946898	3105.680965
403.328783	3117.066411
403.710606	3131.683236
404.092367	3155.716937
404.474067	3181.081503
404.855705	3172.456089
405.237282	3171.072292
405.618797	3203.426417
406.000250	3222.915518
406.381642	3259.564707
406.762972	3262.297012
407.144240	3250.170516
407.525447	3271.030811
407.906593	3272.931326
408.287677	3290.497227
408.668700	3314.508242
409.049661	3309.396512
409.430560	3327.413596
409.811399	3331.416272
410.192176	3355.487782
410.572891	3360.062629
410.953545	3399.809607
411.334138	3367.120244
411.714669	3419.084458
412.095139	3366.477497
412.475547	3415.883326
412.855894	3407.585586
413.236180	3438.288734
413.616405	3416.556320
413.996568	3444.209569
414.376670	3449.089406
414.756711	3443.864250
415.136691	3465.939463
415.516609	3487.840756
415.896466	3497.575224
416.276262	3519.816794
416.655997	3554.993966
417.035670	3559.420099
417.415283	3628.846870
417.794834	3647.637771
418.174324	3632.665544
418.553753	3632.756285
418.933121	3673.103159
419.312428	3666.552180
419.691674	3660.308711
420.070859	3699.143240
420.449983	3679.417205
420.829045	3730.282447
421.208047	3714.624623
421.586988	3754.137187
421.965867	3793.788383
422.344686	3799.845329
422.723444	3832.227181
423.102141	3744.972369
423.480777	3843.332842
423.859352	3813.642967
424.237866	3910.047472
424.616319	3896.607756
424.994712	3955.254020
425.373044	3943.881177
425.751314	4012.934902
426.129524	3943.278759
426.507673	4043.759037
426.885762	4021.779606
427.263789	4040.542781
427.641756	4048.590983
428.019662	4073.259869
428.397508	4080.604831
428.775292	4118.204277
429.153016	4126.111326
429.530679	4135.374447
429.908282	4145.638236
430.285824	4120.772744
430.663305	4196.024568
431.040726	4154.457734
431.418086	4144.501456
431.795385	4219.423084
432.172624	4253.375255
432.549802	4221.106829
432.926920	4241.435282
433.303977	4231.726020
433.680974	4271.205816
434.057910	4295.695742
434.434786	4303.000374
434.811601	4295.342861
435.188355	4405.572731
435.565050	4372.359089
435.941683	4371.832288
436.318257	4460.337306
436.694770	4463.548521
437.071222	4522.000700
437.447614	4457.342860
437.823946	4462.164724
438.200218	4476.005212
438.576429	4456.778251
438.952580	4485.497705
439.328670	4491.171523
439.704700	4531.210888
440.080670	4495.310311
440.456580	4558.775917
440.832429	4592.057615
441.208218	4496.313500
441.583947	4545.822672
441.959616	4563.086103
442.335224	4592.120629
442.710773	4609.734421
443.086261	4665.834901
443.461689	4615.493939
443.837057	4628.502636
444.212365	4704.152712
444.587612	4706.176735
444.962800	4672.398483
445.337927	4718.789702
445.712995	4603.863997
446.088002	4796.519253
446.462949	4819.055731
446.837837	4836.523329
447.212664	4824.099406
447.587431	5052.009971
447.962139	5350.302606
448.336786	5689.786509
448.711374	5675.797307
449.085901	5314.419673
449.460369	5248.758644
449.834776	5189.951064
450.209124	5426.570222
450.583412	5437.570020
450.957640	5560.750614
451.331808	5425.390592
451.705917	5269.571047
452.079965	5260.897742
452.453954	5302.250327
452.827883	5260.249954
453.201752	5268.940903
453.575562	5304.339886
453.949311	5439.291574
454.323001	5446.500424
454.696632	5435.893836
455.070202	5593.497950
455.443713	5618.260097
455.817164	5714.977154
456.190556	5785.399553
456.563888	5757.587507
456.937160	5837.807388
457.310373	5678.073388
457.683526	5734.340226
458.056619	5727.779165
458.429653	5709.852822
458.802628	5758.207569
459.175542	5791.582528
459.548398	5929.178302
459.921194	6120.724504
460.293930	6179.834553
460.666607	6429.875784
461.039224	6647.754453
461.411782	6769.369769
461.784280	6688.202151
462.156719	6689.873294
462.529099	6656.420197
462.901419	6512.444843
463.273680	6386.736110
463.645882	6366.904211
464.018024	6371.721033
464.390106	6436.988852
464.762130	6701.251178
465.134094	7090.239212
465.505999	7731.002633
465.877845	8437.452289
466.249631	8791.631155
466.621358	8712.676604
466.993026	8518.514043
467.364634	8299.077657
467.736184	8014.698607
468.107674	7860.295626
468.479105	7777.575333
468.850477	7705.262502
469.221790	7532.887808
469.593043	7314.358829
469.964238	7207.657767
470.335373	7187.500713
470.706449	7347.020465
471.077467	7540.494909
471.448425	8197.498407
471.819324	8782.141183
472.190164	8816.322727
472.560945	8333.876742
472.931667	7860.492231
473.302330	7661.502766
473.672934	7545.145373
474.043479	7623.371478
474.413965	7525.628546
474.784393	7472.396482
475.154761	7627.734597
475.525070	7642.033829
475.895321	7601.223168
476.265513	7691.086777
476.635645	7856.234977
477.005719	7848.935386
477.375734	7929.281296
477.745691	8041.729274
478.115588	8253.792972
478.485427	8489.784507
478.855207	8965.939132
479.224928	9400.012725
479.594591	9780.773596
479.964194	9787.909349
480.333739	9866.301812
480.703226	9867.302481
481.072653	9974.966403
481.442022	10087.058980
481.811333	10247.392878
482.180584	10074.796373
482.549777	10020.447693
482.918912	9962.358478
483.287988	9950.322723
483.657005	9849.411426
484.025964	9769.408314
484.394864	9829.130864
484.763706	9787.125449
485.132489	9699.396770
485.501213	9693.826295
485.869879	9753.841231
486.238487	9689.942086
486.607036	9769.244477
486.975527	9712.997803
487.343959	9764.304146
487.712333	9807.973141
488.080648	9846.573256
488.448905	9955.258013
488.817104	9960.399989
489.185244	10120.091140
489.553326	10341.997692
489.921350	10816.876904
490.289315	11458.280552
490.657222	11745.850653
491.025070	11911.719738
491.392861	11822.224134
491.760593	11673.991525
492.128267	11414.714901
492.495883	11180.258397
492.863440	10942.134454
493.230939	10712.608199
493.598380	10528.137256
493.965763	10507.516416
494.333088	10372.715963
494.700354	10306.671806
495.067563	10275.076374
495.434713	10284.125245
495.801805	10328.817595
496.168839	10289.791502
496.535815	10252.905380
496.902733	10303.062340
497.269593	10259.499209
497.636395	10269.095045
498.003139	10374.301405
498.369825	10309.653648
498.736453	10401.092617
499.103023	10337.702628
499.469535	10340.553401
499.835989	10397.407534
500.202385	10368.068019
500.568723	10389.162727
500.935003	10447.718249
501.301226	10410.774153
501.667390	10588.053890
502.033497	10681.751296
502.399546	10612.044741
502.765537	10523.980825
503.131470	10625.297935
503.497345	10716.714219
503.863163	10490.323561
504.228923	10620.289548
504.594625	10738.106355
504.960269	10640.817127
505.325856	10793.110385
505.691385	10678.986223
506.056856	10747.601368
506.422270	10845.145175
506.787625	10780.825093
507.152924	10841.011428
507.518164	10902.334544
507.883347	10757.161917
508.248472	10834.284009
508.613540	10940.823754
508.978550	11013.237408
509.343503	10999.069246
509.708398	11048.875846
510.073236	11165.074442
510.438016	11189.428256
510.802738	11107.759043
511.167403	11231.244627
511.532010	11292.809718
511.896561	11400.556820
512.261053	11590.739390
512.625488	11507.313335
512.989866	11491.693320
513.354186	11464.647530
513.718449	11481.331228
514.082655	11616.146806
514.446803	11574.111144
514.810894	11689.606499
515.174927	11684.540140
515.538904	11672.385918
515.902822	11827.499701
516.266684	11704.447656
516.630488	11792.539299
516.994235	11783.535798
517.357925	11910.507340
517.721558	11961.337295
518.085133	12028.125021
518.448651	12059.150803
518.812112	12016.948783
519.175516	12032.135259
519.538863	12114.792538
519.902152	12127.234106
520.265385	12226.491905
520.628560	12262.684869
520.991678	12202.644726
521.354739	12257.220258
521.717743	12325.631236
522.080690	12303.487968
522.443580	12434.459665
522.806413	12454.825927
523.169189	12445.051130
523.531908	12500.511384
523.894569	12454.969600
524.257174	12482.617808
524.619722	12594.745673
524.982213	12561.753841
525.344647	12550.363354
525.707025	12564.854151
526.069345	12672.631499
526.431608	12647.967654
526.793815	12732.041498
527.155964	12626.212555
527.518057	12657.014005
527.880093	12601.624327
528.242072	12724.129407
528.603995	12643.067653
528.965860	12659.663131
529.327669	12693.401053
529.689421	12637.807209
530.051117	12651.289775
530.412755	12694.908358
530.774337	12696.821476
531.135862	12655.123572
531.497331	12720.270403
531.858743	12674.249710
532.220098	12764.388061
532.581396	12690.232688
532.942638	12605.705141
533.303824	12672.555882
533.664953	12656.378819
534.026025	12609.259154
534.387040	12712.169269
534.747999	12682.194568
535.108902	12731.106363
535.469748	12607.519956
535.830537	12635.558854
536.191270	12675.091582
536.551947	12607.918208
536.912567	12669.377435
537.273131	12706.881099
537.633638	12575.301942
537.994089	12642.492961
538.354483	12548.873693
538.714821	12681.075432
539.075103	12767.223710
539.435328	12695.102443
539.795497	12670.509174
540.155609	12659.383347
540.515665	12773.510029
540.875665	12625.710960
541.235609	12730.156106
541.595496	12690.341073
541.955328	12865.780788
542.315102	12717.349055
542.674821	12654.495948
543.034483	12661.631702
543.394090	12669.644616
543.753640	12630.656332
544.113134	12884.425496
544.472571	12645.563024
544.831953	12927.729007
545.191278	12738.007703
545.550548	12677.811285
545.909761	12783.257100
546.268918	12828.861898
546.628019	12891.949418
546.987064	12782.992439
547.346053	12633.282773
547.704986	12834.485305
548.063863	12707.544010
548.422684	12762.248091
548.781449	12725.603944
549.140158	12817.012666
549.498811	12767.589194
549.857408	12642.170327
550.215949	12842.891429
550.574434	12818.134323
550.932864	12760.166095
551.291237	12954.535343
551.649555	12845.248169
552.007817	12899.128021
552.366022	12818.146926
552.724173	12868.465203
553.082267	12941.496399
553.440305	13048.452039
553.798288	12859.996064
554.156215	12940.468003
554.514086	12985.432575
554.871902	12927.179522
555.229661	12959.135396
555.587365	12902.213207
555.945014	12910.261409
556.302606	12901.590625
556.660143	12953.590127
557.017625	12993.135458
557.375050	12947.349178
557.732421	13051.111248
558.089735	13047.305177
558.446994	13028.395809
558.804197	13135.787509
559.161345	13131.653763
559.518437	12947.056791
559.875474	13043.962892
560.232455	13062.002661
560.589381	13110.480917
560.946251	13047.390876
561.303065	13220.622567
561.659825	13171.859485
562.016528	13094.200510
562.373177	13034.266232
562.729770	13161.615861
563.086307	13036.731357
563.442789	13146.305877
563.799216	13180.626052
564.155587	13124.729738
564.511904	13144.337306
564.868164	13160.332887
565.224370	13230.765368
565.580520	13180.842822
565.936615	13240.532604
566.292654	13176.719158
566.648638	13244.527718
567.004567	13247.360847
567.360441	13250.168769
567.716260	13215.087380
568.072023	13290.434986
568.427732	13280.849232
568.783385	13173.497860
569.138982	13298.831027
569.494525	13297.159885
569.850013	13234.473137
570.205445	13223.929563
570.560823	13242.370104
570.916145	13203.059187
571.271412	13212.899519
571.626625	13164.998475
571.981782	13162.452692
572.336884	13113.021658
572.691931	13191.799769
573.046923	13087.178183
573.401860	13073.786358
573.756743	13057.642063
574.111570	13088.181373
574.466342	13061.538875
574.821059	13115.809416
575.175722	12975.183909
575.530330	13002.275070
575.884882	12939.293414
576.239380	12939.553034
576.593823	12928.548195
576.948211	12915.937749
577.302544	12791.179273
577.656823	12808.203250
578.011047	12885.335424
578.365216	12803.278042
578.719330	12751.631421
579.073389	12727.375910
579.427394	12738.002662
579.781344	12727.769120
580.135239	12655.804128
580.489080	12662.655056
580.842866	12548.843446
581.196597	12640.426088
581.550273	12639.243938
581.903895	12595.126280
582.257463	12713.888302
582.610975	12553.075495
582.964434	12616.218467
583.317837	12538.211653
583.671186	12505.343330
584.024481	12544.422354
584.377721	12440.357815
584.730906	12516.136440
585.084037	12526.170857
585.437113	12447.458281
585.790135	12471.469296
586.143103	12389.820248
586.496016	12396.393913
586.848874	12407.640727
587.201679	12405.263823
587.554428	12278.110799
587.907124	12331.123573
588.259765	12262.422729
588.612352	12330.485867
588.964884	12199.362935
589.317362	12250.124834
589.669786	12241.262485
590.022155	12188.317767
590.374470	12294.023202
590.726731	12183.692508
591.078937	12070.410220
591.431090	12093.528951
591.783188	12017.757888
592.135232	11947.338010
592.487222	12000.864982
592.839157	12012.991478
593.191038	11948.091663
593.542866	11899.439487
593.894639	11746.879048
594.246358	11810.206023
594.598022	11813.719707
594.949633	11729.108981
595.301190	11710.376053
595.652692	11666.971719
596.004141	11759.741552
596.355535	11530.754701
596.706876	11510.970692
597.058162	11485.172588
597.409395	11575.321021
597.760573	11607.584406
598.111698	11500.853097
598.462768	11507.603202
598.813785	11515.361537
599.164748	11385.851774
599.515657	11463.528393
599.866511	11336.176244
600.217312	11472.015176
600.568060	11233.941644
600.918753	11392.248999
601.269392	11385.695499
601.619978	11300.074021
601.970510	11337.993580
602.320988	11375.247707
602.671412	11448.929212
603.021783	11367.610359
603.372100	11291.347784
603.722363	11316.606485
604.072572	11316.881228
604.422728	11327.359266
604.772830	11273.086204
605.122878	11286.520879
605.472872	11251.804973
605.822813	11314.232102
606.172701	11261.912487
606.522534	11316.099849
606.872314	11362.062569
607.222041	11299.418671
607.571714	11381.743234
607.921333	11249.218861
608.270899	11297.918928
608.620411	11358.692558
608.969870	11298.067642
609.319276	11285.714294
609.668627	11300.278188
610.017926	11373.556400
610.367171	11410.646690
610.716362	11406.714590
611.065500	11374.441123
611.414585	11389.279759
611.763616	11453.289810
612.112594	11412.060733
612.461518	11438.902357
612.810389	11486.745428
613.159207	11431.126377
613.507971	11414.190621
613.856682	11524.135666
614.205340	11483.748462
614.553945	11624.915893
614.902496	11496.789927
615.250994	11560.134545
615.599439	11547.400591
615.947830	11588.329719
616.296169	11551.806559
616.644454	11570.844477
616.992686	11577.478635
617.340864	11681.833040
617.688990	11559.731253
618.037063	11702.400948
618.385082	11664.516677
618.733048	11715.079450
619.080961	11690.221520
619.428821	11672.317862
619.776628	11684.343535
620.124382	11631.880247
620.472083	11646.918009
620.819731	11673.648727
621.167326	11593.363311
621.514868	11573.481000
621.862357	11480.328039
622.209793	11466.386728
622.557176	11387.858154
622.904506	11331.498054
623.251783	11262.948444
623.599007	11189.090499
623.946179	11139.225925
624.293297	11115.524941
624.640363	10975.658127
624.987376	10961.484923
625.334336	10899.239276
625.681243	10816.524024
626.028097	10785.709971
626.374899	10749.630433
626.721647	10719.433921
627.068343	10686.013592
627.414987	10618.333581
627.761577	10552.289424
628.108115	10601.700294
628.454600	10470.438730
628.801032	10492.443366
629.147412	10471.164656
629.493739	10446.881418
629.840014	10374.462722
630.186236	10415.228013
630.532405	10315.178753
630.878521	10348.241161
631.224585	10299.646958
631.570597	10226.421678
631.916556	10230.810002
632.262462	10216.079751
632.608316	10196.247852
632.954117	10185.878198
633.299866	10152.067179
633.645562	10131.665630
633.991206	10035.790445
634.336797	9934.690105
634.682336	9923.004710
635.027823	9868.240135
635.373257	9834.166977
635.718639	9764.251214
636.063968	9729.762160
636.409245	9614.108008
636.754470	9603.761040
637.099642	9549.140138
637.444762	9443.253222
637.789829	9455.102454
638.134845	9377.566988
638.479808	9355.002783
638.824719	9334.399587
639.169577	9247.258202
639.514383	9248.941947
639.859137	9177.808746
640.203839	9210.336791
640.548489	9137.837437
640.893086	9145.752048
641.237632	9076.133714
641.582125	9074.578518
641.926566	9056.415241
642.270955	9044.064414
642.615292	9038.680461
642.959576	9010.651646
643.303809	9006.553188
643.647990	9019.458542
643.992118	9007.052262
644.336195	8978.935227
644.680219	8980.273653
645.024192	9021.054067
645.368112	9099.196993
645.711981	9065.156601
646.055797	9206.613899
646.399562	9153.240683
646.743274	9316.566505
647.086935	9389.063339
647.430544	9362.554431
647.774101	9380.947081
648.117606	9415.869674
648.461059	9481.744952
648.804460	9414.987472
649.147810	9296.868197
649.491108	9263.394935
649.834354	9199.422693
650.177548	9053.201505
650.520690	8967.370820
650.863781	8954.893964
651.206820	8927.974202
651.549807	8833.679420
651.892742	8738.636026
652.235626	8701.641518
652.578458	8666.643308
652.921238	8558.659272
653.263967	8597.163605
653.606644	8526.224488
653.949269	8507.075665
654.291843	8434.190663
654.634365	8504.855037
654.976836	8429.756968
655.319255	8426.858304
655.661622	8416.864217
656.003938	8373.056590
656.346203	8332.187956
656.688416	8362.119807
657.030577	8321.389804
657.372687	8285.771532
657.714746	8311.831776
658.056753	8334.456475
658.398708	8235.856547
658.740612	8223.276347
659.082465	8263.489632
659.424266	8231.949653
659.766016	8242.830983
660.107715	8217.199236
660.449362	8238.578770
660.790958	8226.830361
661.132503	8221.408600
661.473996	8218.610759
661.815438	8239.042556
662.156829	8272.437680
662.498168	8211.648926
662.839456	8208.140283
663.180693	8228.269610
663.521879	8253.924042
663.863013	8229.267759
664.204097	8225.365906
664.545129	8301.323491
664.886110	8289.665823
665.227040	8297.434241
665.567918	8311.904873
665.908746	8323.930546
666.249522	8343.611210
666.590248	8342.471909
666.930922	8352.687808
667.271545	8347.631530
667.612118	8364.012760
667.952639	8324.795103
668.293109	8327.018252
668.633528	8304.791805
668.973896	8295.168242
669.314213	8300.978172
669.654480	8256.676512
669.994695	8247.403310
670.334859	8222.132005
670.674973	8204.631640
671.015035	8228.998057
671.355047	8217.766366
671.695008	8202.189201
672.034918	8183.665481
672.374777	8186.475924
672.714585	8159.213364
673.054342	8192.716873
673.394049	8159.409969
673.733705	8199.527472
674.073310	8149.083166
674.412864	8159.442737
674.752368	8099.185825
675.091820	8154.948548
675.431223	8079.321158
675.770574	8039.012092
676.109875	8007.769541
676.449125	7966.111966
676.788324	7944.684542
677.127473	7852.804472
677.466571	7846.520673
677.805619	7790.379864
678.144616	7786.203268
678.483562	7766.840196
678.822458	7716.685756
679.161303	7699.790329
679.500098	7676.691762
679.838842	7657.618557
680.177535	7673.503232
680.516179	7710.916156
680.854771	7721.963844
681.193314	7839.493305
681.531805	7991.673137
681.870247	8116.522353
682.208638	8272.263760
682.546978	8344.327054
682.885268	8371.241774
683.223508	8308.560068
683.561697	8256.142150
683.899836	8226.054023
684.237925	8142.393554
684.575963	8115.209132
684.913951	8034.081843
685.251889	8046.014255
685.589776	8042.518214
685.927614	8024.387705
686.265401	8043.077782
686.603137	8049.409472
686.940824	8123.146429
687.278460	8175.234151
687.616046	8185.792848
687.953582	8298.838202
688.291068	8278.497147
688.628504	8341.471240
688.965889	8344.395110
689.303224	8305.237947
689.640510	8261.011904
689.977745	8148.909246
690.314930	8031.626802
690.652065	7960.798590
690.989150	7841.671083
691.326185	7696.261521
691.663170	7582.142401
692.000105	7457.749409
692.336990	7342.879157
692.673825	7263.740604
693.010610	7169.597056
693.347345	7078.541214
693.684030	6966.579708
694.020665	6919.054230
694.357251	6808.705893
694.693786	6799.712474
695.030272	6760.434324
695.366707	6659.412122
695.703093	6602.731908
696.039429	6600.465910
696.375716	6554.815741
696.711952	6546.535646
697.048139	6513.984916
697.384276	6480.856973
697.720363	6508.434605
698.056400	6480.395707
698.392388	6443.159225
698.728326	6444.008659
699.064214	6414.868269
699.400053	6407.238483
699.735842	6356.403487
700.071581	6304.328368
700.407270	6264.863695
700.742910	6233.810188
701.078501	6190.904927
701.414042	6147.266179
701.749533	6093.981183
702.084974	6039.009921
702.420366	6078.003246
702.755709	6000.944168
703.091002	5952.506241
703.426246	5956.140913
703.761440	5937.120640
704.096584	5895.657149
704.431679	5886.908227
704.766725	5872.551021
705.101721	5853.676941
705.436668	5873.977667
705.771565	5817.274769
706.106413	5873.932297
706.441212	5871.898191
706.775961	5888.725563
707.110661	5890.058948
707.445311	5954.658814
707.779913	5924.401809
708.114465	5960.183919
708.448967	6010.484552
708.783421	6123.260204
709.117825	6164.456514
709.452180	6198.612852
709.786485	6260.792964
710.120742	6390.481687
710.454949	6391.701647
710.789107	6471.135108
711.123216	6590.716318
711.457275	6625.775023
711.791286	6724.478294
712.125247	6747.723055
712.459159	6714.068312
712.793023	6844.656882
713.126837	6671.846128
713.460602	6731.674542
713.794318	6693.903696
714.127985	6638.632486
714.461602	6495.153685
714.795171	6492.688561
715.128691	6322.726059
715.462162	6236.292956
715.795584	6167.559344
716.128957	6123.963445
716.462281	6060.959105
716.795556	6021.610378
717.128782	5932.686945
717.461960	5834.414692
717.795088	5825.887580
718.128167	5759.094812
718.461198	5676.929046
718.794180	5649.805117
719.127113	5586.279017
719.459997	5557.216765
719.792833	5492.253936
720.125619	5486.643132
720.458357	5426.618113
720.791046	5407.466770
721.123686	5368.372622
721.456278	5326.359646
721.788821	5319.249098
722.121315	5282.229385
722.453761	5286.206855
722.786158	5275.055823
723.118506	5277.553715
723.450805	5247.493314
723.783056	5275.388539
724.115259	5261.232979
724.447412	5245.018108
724.779518	5294.723885
725.111574	5293.382938
725.443582	5328.166899
725.775542	5318.240867
726.107453	5406.284619
726.439315	5374.238004
726.771129	5447.617040
727.102895	5509.154405
727.434612	5555.727104
727.766281	5584.199541
728.097901	5637.713910
728.429473	5657.344163
728.760996	5664.321120
729.092471	5688.400191
729.423897	5674.226987
729.755276	5646.556094
730.086606	5658.072610
730.417887	5741.654941
730.749120	5834.533159
731.080305	5873.191247
731.411442	5953.816941
731.742530	5974.946938
732.073570	5998.784034
732.404562	6060.780144
732.735506	6053.513320
733.066401	6034.926586
733.397249	5970.309076
733.728048	5876.498244
734.058798	5729.447787
734.389501	5608.918839
734.720156	5515.266804
735.050762	5409.790742
735.381320	5342.019990
735.711831	5282.350372
736.042293	5207.217016
736.372707	5202.019586
736.703073	5153.405219
737.033391	5185.230023
737.363661	5168.301828
737.693883	5183.402605
738.024056	5206.380184
738.354182	5231.233073
738.684260	5280.366678
739.014290	5324.111291
739.344272	5355.089181
739.674207	5413.659827
740.004093	5437.343168
740.333931	5449.202482
740.663722	5465.172858
740.993464	5473.110155
741.323159	5456.610458
741.652806	5415.101597
741.982405	5382.865939
742.311956	5334.087734
742.641460	5320.237164
742.970915	5265.898567
743.300323	5207.154001
743.629683	5173.779042
743.958996	5123.518738
744.288260	5075.531995
744.617477	5010.460781
744.946647	5000.438967
745.275768	4950.818890
745.604842	4910.822375
745.933869	4880.010843
746.262847	4868.731261
746.591778	4856.763562
746.920662	4835.767156
747.249498	4833.773380
747.578286	4850.542778
747.907027	4871.284606
748.235720	4910.285492
748.564365	4924.176392
748.892963	4905.685439
749.221514	4928.980611
749.550017	4902.570006
749.878473	4897.319645
750.206881	4861.978636
750.535242	4846.058672
750.863555	4833.722968
751.191821	4808.552487
751.520039	4817.389630
751.848210	4797.580416
752.176334	4802.692146
752.504411	4784.352428
752.832440	4755.638016
753.160421	4770.383391
753.488356	4745.023866
753.816243	4730.727154
754.144082	4696.926217
754.471875	4681.908620
754.799620	4677.716901
755.127318	4666.361702
755.454969	4664.168800
755.782572	4653.657994
756.110129	4656.251668
756.437638	4634.541939
756.765100	4637.402793
757.092515	4637.022186
757.419882	4640.961848
757.747203	4639.545284
758.074477	4649.675482
758.401703	4641.712980
758.728882	4674.586344
759.056014	4685.936502
759.383099	4706.509451
759.710138	4735.627156
760.037129	4754.453345
760.364073	4767.772073
760.690970	4766.690746
761.017820	4767.159573
761.344623	4799.493534
761.671379	4864.421075
761.998088	4949.568684
762.324751	5175.233415
762.651366	5632.037571
762.977935	6334.802143
763.304456	6894.985241
763.630931	7204.186933
763.957359	7130.119780
764.283740	6845.682756
764.610074	6528.185846
764.936362	6120.157374
765.262602	5801.284229
765.588796	5452.638029
765.914943	5202.042271
766.241044	4974.671109
766.567097	4801.993946
766.893104	4655.477851
767.219064	4554.599321
767.544978	4456.997541
767.870845	4374.793966
768.196665	4325.413344
768.522438	4281.469606
768.848165	4235.448912
769.173846	4197.562120
769.499479	4170.579344
769.825066	4132.722800
770.150607	4088.138835
770.476101	4079.808328
770.801548	4056.863517
771.126949	4025.714227
771.452303	4004.506093
771.777611	3964.648210
772.102872	3966.871359
772.428087	3937.819189
772.753256	3911.857247
773.078378	3899.735792
773.403453	3863.600802
773.728482	3838.664734
774.053465	3824.247034
774.378401	3805.080567
774.703291	3781.792957
775.028135	3758.475100
775.352932	3747.598810
775.677683	3729.637179
776.002388	3709.374261
776.327046	3711.204200
776.651658	3691.465562
776.976224	3672.210875
777.300743	3667.283147
777.625216	3655.910304
777.949643	3646.049807
778.274024	3649.689520
778.598359	3632.148826
778.922647	3628.801499
779.246889	3621.572485
779.571086	3617.877319
779.895236	3619.351857
780.219339	3619.853451
780.543397	3619.813122
780.867409	3638.205772
781.191374	3636.801811
781.515294	3625.988536
781.839167	3641.414466
782.162995	3640.449085
782.486776	3633.076398
782.810511	3626.732106
783.134201	3610.030763
783.457844	3611.480095
783.781441	3603.159670
784.104993	3591.761622
784.428498	3586.173503
784.751958	3583.791557
785.075372	3578.707554
785.398739	3567.427972
785.722061	3578.268973
786.045337	3576.161771
786.368568	3600.777725
786.691752	3598.108434
787.014891	3644.056031
787.337983	3687.725026
787.661030	3775.824231
787.984031	3873.360475
788.306987	3949.063483
788.629897	3996.389835
788.952760	4004.740506
789.275579	3993.912108
789.598351	3939.873459
789.921078	3888.783886
790.243759	3825.398938
790.566395	3779.413532
790.888984	3729.808578
791.211529	3694.938917
791.534027	3649.739932
791.856480	3611.054117
792.178888	3590.176179
792.501249	3575.541709
792.823566	3539.436965
793.145836	3535.567880
793.468062	3527.338196
793.790241	3511.100639
794.112375	3520.827546
794.434464	3539.371430
794.756507	3535.739279
795.078505	3555.881209
795.400457	3595.910491
795.722364	3645.328922
796.044226	3690.515305
796.366042	3738.577666
796.687812	3734.900144
797.009538	3759.102723
797.331218	3747.137545
797.652852	3742.043459
797.974442	3721.473031
798.295986	3713.591187
798.617484	3682.245292
798.938938	3656.545490
799.260346	3644.691216
799.581709	3606.423817
799.903026	3592.943772
800.224299	3572.758992
800.545526	3544.687327
800.866708	3524.951210
801.187845	3511.829086
801.508936	3490.343688
801.829983	3481.186433
802.150984	3453.626444
802.471940	3446.044549
802.792851	3438.001388
803.113717	3431.941921
803.434538	3422.643513
803.755314	3411.006009
804.076045	3404.782705
804.396731	3391.935324
804.717372	3398.035120
805.037967	3394.160994
805.358518	3396.202661
805.679024	3406.302613
805.999485	3406.531985
806.319901	3413.282090
806.640272	3412.309148
806.960598	3426.489913
807.280879	3422.419182
807.601115	3436.083229
807.921306	3430.311108
808.241453	3431.505861
808.561554	3436.736058
808.881611	3430.966458
809.201623	3437.519958
809.521590	3424.826333
809.841513	3423.092176
810.161390	3430.119544
810.481223	3410.758993
810.801011	3409.831420
811.120755	3408.936616
811.440453	3392.976323
811.760107	3387.499109
812.079716	3382.412585
812.399281	3371.420349
812.718801	3369.552601
813.038276	3363.619163
813.357707	3360.861652
813.677093	3366.127137
813.996434	3347.164837
814.315731	3354.381249
814.634983	3354.323275
814.954191	3353.698172
815.273354	3372.393291
815.592473	3381.502656
815.911547	3399.492014
816.230577	3415.381731
816.549562	3441.961214
816.868502	3461.079790
817.187399	3478.466730
817.506250	3509.668952
817.825058	3519.171527
818.143821	3559.427661
818.462539	3607.779888
818.781213	3666.471522
819.099843	3747.676948
819.418429	3899.019948
819.736970	4051.091395
820.055466	4243.940736
820.373919	4477.015963
820.692327	4816.830062
821.010691	5328.514739
821.329011	6413.091262
821.647286	8148.856314
821.965517	10334.647689
822.283704	11973.879685
822.601847	13058.486456
822.919945	12647.861790
823.237999	11973.534366
823.556010	11075.934239
823.873976	10116.718608
824.191897	9142.122418
824.509775	8371.239254
824.827609	7558.219606
825.145398	7012.270206
825.463144	6630.291897
825.780845	6494.717626
826.098502	6547.070008
826.416116	6931.326919
826.733685	7439.931451
827.051210	7727.214206
827.368692	7635.797922
827.686129	7194.575973
828.003522	6644.003835
828.320872	6074.202216
828.638177	5609.725424
828.955439	5242.401749
829.272656	4900.432557
829.589830	4615.498980
829.906960	4349.850337
830.224046	4141.754027
830.541088	3970.279179
830.858086	3855.323227
831.175041	3759.785800
831.491952	3713.666804
831.808819	3694.321376
832.125642	3731.008373
832.442421	3830.939166
832.759157	4046.987896
833.075849	4429.835804
833.392497	4892.104571
833.709101	5282.138644
834.025662	5394.261467
834.342179	5270.959885
834.658653	4999.637424
834.975083	4728.786310
835.291469	4476.466478
835.607811	4253.173609
835.924110	4097.464970
836.240366	3934.774332
836.556578	3772.406328
836.872746	3635.478508
837.188871	3520.136908
837.504952	3425.496806
837.820990	3350.905373
838.136984	3295.361940
838.452935	3263.695932
838.768842	3253.275867
839.084706	3282.701082
839.400526	3420.070004
839.716303	3646.364879
840.032037	3852.815253
840.347727	3923.335954
840.663373	3835.544260
840.978977	3687.878781
841.294537	3552.518759
841.610054	3443.239147
841.925527	3368.007488
842.240957	3303.510965
842.556344	3242.702047
842.871687	3181.147038
843.186987	3119.415588
843.502244	3067.700912
843.817458	3027.217926
844.132629	2995.007473
844.447756	2972.443269
844.762840	2952.392079
845.077881	2935.534461
845.392879	2920.587440
845.707833	2907.649318
846.022745	2894.774211
846.337613	2895.096845
846.652438	2882.955226
846.967221	2881.740308
847.281960	2873.187991
847.596656	2871.148844
847.911309	2864.297916
848.225919	2860.244828
848.540485	2853.552696
848.855009	2852.073118
849.169490	2847.727643
849.483928	2844.138342
849.798323	2842.202538
850.112675	2838.368741
850.426984	2839.346725
850.741251	2834.824810
851.055474	2834.885304
851.369654	2835.155005
851.683792	2833.309943
851.997887	2834.638287
852.311938	2832.818431
852.625947	2832.127792
852.939914	2831.648883
853.253837	2832.289109
853.567718	2835.389419
853.881555	2832.460509
854.195350	2830.870025
854.509103	2830.421362
854.822812	2830.769202
855.136479	2830.817092
855.450103	2831.558142
855.763685	2828.414983
856.077224	2829.539160
856.390720	2830.136537
856.704173	2835.457475
857.017584	2838.671210
857.330953	2836.075016
857.644278	2837.930161
857.957561	2840.690192
858.270802	2841.020388
858.584000	2841.302692
858.897155	2838.845130
859.210268	2837.426045
859.523339	2835.858246
859.836367	2837.746158
860.149352	2837.337825
860.462295	2833.430931
860.775195	2830.411280
861.088054	2826.300219
861.400869	2825.135712
861.713642	2824.787872
862.026373	2828.775425
862.339062	2831.669047
862.651708	2831.454798
862.964312	2838.651046
863.276873	2836.783298
863.589392	2847.657067
863.901869	2855.065042
864.214303	2862.946887
864.526696	2867.526775
864.839045	2876.626057
865.151353	2883.902963
865.463619	2885.506050
865.775842	2887.547717
866.088023	2891.963768
866.400162	2891.096690
866.712258	2893.773542
867.024313	2896.715056
867.336325	2895.984088
867.648296	2897.377967
867.960224	2900.022053
868.272110	2897.945097
868.583954	2899.487690
868.895755	2900.473236
869.207515	2902.293092
869.519233	2911.430184
869.830909	2909.900193
870.142542	2914.051584
870.454134	2916.771286
870.765684	2921.187337
871.077191	2929.797628
871.388657	2932.356013
871.700081	2938.115532
872.011463	2947.119032
872.322803	2951.971143
872.634101	2958.897688
872.945357	2961.360292
873.256571	2975.626757
873.567744	2982.225628
873.878874	2983.090186
874.189963	2989.885661
874.501010	2993.185096
874.812015	2992.474293
875.122979	3003.549708
875.433900	3001.772702
875.744780	3009.808301
876.055618	3013.039681
876.366415	3014.221831
876.677169	3018.658047
876.987882	3025.975281
877.298554	3033.658000
877.609183	3050.356822
877.919771	3068.840213
878.230317	3092.115220
878.540822	3131.388329
878.851285	3179.954805
879.161707	3245.988879
879.472087	3354.784541
879.782425	3515.478882
880.092722	3793.869041
880.402977	4214.558371
880.713191	4761.392493
881.023363	5362.887846
881.333494	5804.631555
881.643583	6090.109577
881.953631	6172.779459
882.263637	6119.746520
882.573602	5975.342668
882.883526	5814.842412
883.193408	5604.787614
883.503248	5386.929109
883.813048	5169.904915
884.122806	4951.353252
884.432522	4708.699832
884.742197	4482.352025
885.051831	4269.534674
885.361424	4069.557142
885.670975	3900.938107
885.980485	3752.657608
886.289954	3627.697487
886.599382	3527.572610
886.908768	3440.595062
887.218113	3359.656816
887.527417	3299.780511
887.836680	3237.625605
888.145901	3191.491486
888.455082	3155.958913
888.764221	3120.196967
889.073319	3090.320569
889.382376	3073.283990
889.691392	3057.787483
890.000366	3045.623178
890.309300	3037.380892
890.618193	3033.254707
890.927044	3033.247146
891.235855	3032.715304
891.544625	3033.100952
891.853353	3040.105636
892.162041	3056.602812
892.470687	3083.721699
892.779293	3116.348046
893.087858	3164.556601
893.396381	3238.590986
893.704864	3345.092923
894.013306	3502.424814
894.321707	3687.994728
894.630068	3845.359386
894.938387	3922.867127
895.246665	3928.437602
895.554903	3872.896689
895.863100	3785.997279
896.171256	3711.862071
896.479371	3636.819455
896.787446	3559.314235
897.095480	3489.300170
897.403473	3433.930656
897.711425	3373.716594
898.019336	3323.186589
898.327207	3275.058693
898.635038	3223.906105
898.942827	3170.656397
899.250576	3132.636014
899.558284	3091.003645
899.865952	3065.049265
900.173579	3034.552805
900.481165	3011.875174
900.788711	2992.363388
901.096216	2978.535503
901.403681	2966.308184
901.711105	2954.857203
902.018489	2950.108437
902.325832	2959.023717
902.633135	2967.986889
902.940397	3005.921571
903.247619	3094.890375
903.554800	3272.921244
903.861941	3550.963563
904.169041	3814.678924
904.476101	3987.116632
904.783121	4006.923326
905.090100	3942.852781
905.397039	3832.474197
905.703938	3730.226994
906.010796	3625.623052
906.317614	3539.245401
906.624391	3453.936475
906.931129	3382.097513
907.237826	3314.031853
907.544483	3247.680186
907.851099	3177.010771
908.157675	3104.277003
908.464211	3031.860828
908.770707	2970.842702
909.077163	2922.069539
909.383578	2888.165259
909.689954	2857.746936
909.996289	2840.546519
910.302584	2827.285764
910.608839	2816.076759
910.915054	2808.983855
911.221229	2803.546971
911.527363	2804.477064
911.833458	2806.543937
912.139513	2807.539565
912.445527	2808.928402
912.751502	2820.444918
913.057436	2839.031653
913.363331	2856.176617
913.669186	2885.417830
913.975000	2924.348140
914.280775	2982.656646
914.586510	3065.613874
914.892205	3177.557736
915.197859	3325.071980
915.503475	3509.968900
915.809050	3685.617824
916.114585	3817.144048
916.420081	3893.356212
916.725536	3924.596242
917.030952	3889.187178
917.336328	3849.636805
917.641665	3802.653252
917.946961	3741.851895
918.252218	3680.763193
918.557435	3606.537243
918.862612	3541.294630
919.167750	3481.214159
919.472848	3404.258425
919.777906	3338.655369
920.082925	3266.186262
920.387904	3196.149512
920.692843	3139.186994
920.997743	3087.774786
921.302603	3035.611447
921.607423	2999.635253
921.912204	2967.182825
922.216946	2939.156530
922.521647	2915.770617
922.826310	2892.266237
923.130932	2874.700337
923.435516	2854.581092
923.740059	2839.676920
924.044564	2826.854746
924.349028	2816.727067
924.653454	2797.933646
924.957840	2783.710030
925.262186	2774.308278
925.566493	2762.380908
925.870761	2749.243662
926.174989	2744.588156
926.479178	2740.114132
926.783328	2730.851012
927.087438	2724.950341
927.391509	2718.018755
927.695541	2711.959288
927.999533	2707.490305
928.303486	2700.024356
928.607400	2699.999150
928.911275	2697.433203
929.215110	2693.332224
929.518906	2687.907943
929.822663	2686.879547
930.126381	2685.236131
930.430060	2687.086235
930.733699	2686.294773
931.037299	2685.936852
931.340861	2686.932479
931.644383	2687.068591
931.947866	2687.925587
932.251309	2684.890812
932.554714	2686.682942
932.858080	2685.707479
933.161407	2686.027592
933.464694	2686.700586
933.767943	2681.775379
934.071153	2681.409895
934.374323	2680.041222
934.677455	2680.308403
934.980548	2679.219514
935.283602	2681.014165
935.586617	2674.387568
935.889593	2678.730522
936.192530	2676.456962
936.495428	2680.131963
936.798287	2681.919052
937.101108	2688.245700
937.403890	2694.758871
937.706632	2701.181301
938.009336	2712.561706
938.312002	2727.014694
938.614628	2737.041549
938.917216	2747.232241
939.219765	2753.581574
939.522275	2762.375867
939.824747	2765.569438
940.127179	2762.146495
940.429573	2762.149015
940.731929	2762.547267
941.034246	2762.753954
941.336524	2760.399735
941.638763	2761.914602
941.940964	2761.181114
942.243126	2756.202974
942.545250	2752.117119
942.847335	2745.523290
943.149381	2737.898545
943.451389	2735.458626
943.753359	2727.291957
944.055290	2722.250803
944.357182	2719.480689
944.659036	2715.495657
944.960851	2714.164792
945.262628	2709.032898
945.564367	2709.264791
945.866067	2707.961653
946.167729	2705.816642
946.469352	2704.853781
946.770937	2705.289841
947.072484	2701.967721
947.373992	2702.307999
947.675462	2699.762216
947.976893	2700.193235
948.278286	2696.077132
948.579641	2694.577389
948.880958	2695.794828
949.182236	2693.561597
949.483476	2693.145702
949.784678	2694.037986
950.085841	2694.267358
950.386967	2692.669312
950.688054	2695.056299
950.989103	2701.163657
951.290114	2698.771629
951.591087	2708.531303
951.892021	2708.332177
952.192917	2711.697148
952.493776	2717.713765
952.794596	2719.087479
953.095378	2722.767522
953.396122	2724.234497
953.696828	2722.815412
953.997496	2723.705176
954.298126	2717.991028
954.598718	2715.679659
954.899272	2711.818135
955.199788	2707.460058
955.500266	2704.788246
955.800706	2694.905064
956.101108	2689.213602
956.401472	2680.706654
956.701798	2674.831190
957.002087	2668.164264
957.302337	2667.103101
957.602550	2663.866680
957.902724	2654.154897
958.202861	2652.337561
958.502960	2647.286325
958.803022	2644.811118
959.103045	2635.079171
959.403031	2635.835344
959.702979	2631.462143
960.002889	2628.293778
960.302762	2624.149949
960.602596	2623.275309
960.902393	2617.299021
961.202153	2618.085441
961.501875	2615.920266
961.801559	2616.162241
962.101205	2612.545213
962.400814	2612.179730
962.700385	2611.390789
962.999918	2611.176540
963.299414	2607.632609
963.598873	2608.724019
963.898293	2607.095726
964.197677	2605.994234
964.497022	2603.372834
964.796331	2603.897114
965.095601	2600.786722
965.394835	2605.512804
965.694030	2603.743359
965.993189	2602.720004
966.292309	2602.082298
966.591393	2602.354521
966.890439	2603.513986
967.189447	2604.345777
967.488419	2601.396702
967.787353	2602.606578
968.086249	2602.717484
968.385108	2603.450972
968.683930	2601.578183
968.982714	2603.634974
969.281462	2605.785026
969.580172	2604.938112
969.878844	2606.609255
970.177480	2607.183946
970.476078	2607.499018
970.774639	2611.484050
971.073162	2609.691920
971.371649	2610.180912
971.670098	2611.776437
971.968510	2611.955398
972.266885	2610.246447
972.565223	2616.714247
972.863524	2614.607045
973.161788	2618.251799
973.460014	2618.292129
973.758204	2619.580143
974.056356	2617.735081
974.354471	2621.485700
974.652550	2619.131481
974.950591	2620.580812
975.248595	2622.841770
975.546563	2620.825308
975.844493	2618.622324
976.142386	2618.745833
976.440243	2616.459669
976.738062	2616.764659
977.035845	2617.316665
977.333590	2615.779113
977.631299	2613.719802
977.928971	2613.006479
978.226606	2612.346088
978.524204	2611.569750
978.821765	2612.179730
979.119290	2609.384410
979.416777	2608.872733
979.714228	2609.376848
980.011642	2612.789709
980.309020	2613.261057
980.606360	2614.889350
980.903664	2618.468569
981.200931	2624.586009
981.498162	2630.577421
981.795356	2641.700727
982.092513	2657.358550
982.389633	2673.553257
982.686717	2694.126206
982.983764	2709.826880
983.280775	2725.144426
983.577749	2727.155846
983.874686	2730.495610
984.171587	2722.833057
984.468451	2721.814743
984.765279	2711.828218
985.062070	2705.917465
985.358824	2699.663913
985.655543	2687.623117
985.952224	2682.750842
986.248869	2666.926660
986.545478	2651.231028
986.842050	2638.960859
987.138586	2629.513737
987.435086	2621.190792
987.731549	2611.239554
988.027975	2609.684358
988.324366	2605.583380
988.620719	2602.601537
988.917037	2600.731269
989.213318	2596.786566
989.509563	2596.990733
989.805772	2592.710793
990.101944	2592.282295
990.398080	2591.702563
990.694180	2593.030907
990.990244	2593.807244
991.286271	2589.030751
991.582262	2592.758684
991.878217	2591.364805
992.174136	2590.172573
992.470019	2591.841194
992.765865	2593.598037
993.061676	2593.623242
993.357450	2596.040476
993.653188	2597.825044
993.948890	2601.099273
994.244556	2603.604727
994.540186	2607.221755
994.835780	2613.813063
995.131337	2620.469907
995.426859	2625.493417
995.722345	2634.965745
996.017795	2642.623258
996.313208	2652.876965
996.608586	2659.508602
996.903928	2664.854746
997.199234	2666.480518
997.494504	2667.085457
997.789738	2665.167298
998.084936	2662.399704
998.380099	2656.166317
998.675225	2652.521563
998.970316	2646.010913
999.265371	2637.894655
999.560390	2630.300157
999.855373	2623.930659
1000.150320	2619.285236
1000.445232	2613.198043
1000.740108	2612.015892
1001.034948	2605.243102
1001.329752	2600.781681
1001.624521	2597.129365
1001.919254	2590.868252
1002.213951	2588.224167
1002.508613	2587.399938
1002.803239	2586.963878
1003.097829	2584.854155
1003.392384	2588.289702
1003.686903	2586.472366
1003.981386	2587.931780
1004.275834	2582.376428
1004.570246	2583.084710
1004.864623	2581.983218
1005.158964	2582.872982
1005.453270	2581.821901
1005.747540	2585.201995
1006.041775	2582.522622
1006.335974	2579.931468
1006.630138	2579.944071
1006.924266	2580.680080
1007.218359	2582.968764
1007.512416	2582.953640
1007.806438	2581.746284
1008.100425	2582.290728
1008.394376	2580.473392
1008.688292	2579.795357
1008.982172	2580.370049
1009.276017	2580.826273
1009.569827	2577.685634
1009.863602	2583.069587
1010.157341	2578.134297
1010.451045	2577.378124
1010.744714	2578.484657
1011.038347	2578.807291
1011.331945	2578.968608
1011.625508	2579.339133
1011.919036	2575.331416
1012.212528	2576.868968
1012.505986	2576.324523
1012.799408	2577.965418
1013.092795	2579.114802
1013.386147	2577.857034
1013.679464	2573.713205
1013.972745	2574.970973
1014.265992	2576.586663
1014.559204	2578.144379
1014.852380	2575.878381
1015.145521	2575.046590
1015.438628	2578.403999
1015.731699	2576.251426
1016.024736	2578.230079
1016.317737	2578.391396
1016.610703	2579.487847
1016.903635	2573.367886
1017.196531	2574.318144
1017.489393	2575.502815
1017.782219	2573.345201
1018.075011	2576.274111
1018.367768	2577.141190
1018.660490	2576.894173
1018.953177	2576.894173
1019.245829	2576.894173
