Dividing Wavelength (nm)	Counts (n)	Blue Motor Position (mm): 30.000000	Red Motor Position (mm): 0.000000	
326.493990	2156.958496
326.888308	2156.958496
327.282561	2156.958496
327.676750	2131.982099
328.070874	2132.087964
328.464933	2137.161885
328.858929	2145.557927
329.252859	2157.306336
329.646726	2173.415343
330.040528	2186.325738
330.434265	2204.801567
330.827938	2223.358054
331.221547	2243.371435
331.615091	2263.349528
332.008571	2283.178906
332.401986	2304.250929
332.795338	2324.133240
333.188625	2344.350788
333.581847	2363.308047
333.975006	2381.804040
334.368100	2402.540826
334.761129	2421.548497
335.154095	2437.357555
335.546996	2460.017542
335.939833	2491.562562
336.332606	2504.346928
336.725315	2515.762621
337.117960	2522.800072
337.510540	2532.700898
337.903056	2542.095088
338.295508	2549.722354
338.687896	2554.982798
339.080220	2564.210630
339.472480	2568.089798
339.864676	2571.769840
340.256807	2576.735377
340.648875	2577.337795
341.040879	2580.513722
341.432818	2578.719071
341.824694	2579.656726
342.216506	2581.695872
342.608253	2579.598752
342.999937	2579.311407
343.391557	2581.106057
343.783113	2576.599266
344.174605	2578.562795
344.566033	2575.265881
344.957397	2573.582135
345.348697	2573.362845
345.739934	2568.470405
346.131106	2569.156002
346.522215	2567.789849
346.913260	2565.022256
347.304241	2564.833213
347.695159	2561.233829
348.086012	2563.625856
348.476802	2558.330124
348.867528	2558.589744
349.258191	2555.242418
349.648789	2557.400031
350.039324	2554.345092
350.429796	2554.105637
350.820203	2549.641696
351.210548	2552.121943
351.600828	2553.573796
351.991045	2549.467776
352.381198	2549.659340
352.771288	2548.915769
353.161314	2551.869886
353.551276	2548.971222
353.941175	2551.481717
354.331010	2551.222097
354.720782	2547.491643
355.110490	2552.288301
355.500135	2548.933413
355.889717	2549.132539
356.279235	2549.369473
356.668689	2552.598332
357.058080	2551.020451
357.447408	2549.566078
357.836672	2550.163455
358.225873	2548.991387
358.615010	2548.520039
359.004084	2551.890050
359.393095	2554.992880
359.782043	2555.239897
360.170927	2556.447253
360.559748	2555.418858
360.948505	2553.770401
361.337199	2559.247614
361.725830	2556.664023
362.114398	2558.020093
362.502903	2557.019424
362.891344	2561.306926
363.279722	2558.166287
363.668037	2559.161915
364.056289	2560.311298
364.444478	2560.928839
364.832603	2559.908005
365.220665	2559.716442
365.608665	2563.015877
365.996601	2560.628890
366.384474	2559.030845
366.772284	2563.756926
367.160031	2561.760629
367.547715	2563.666186
367.935336	2561.211144
368.322893	2562.781463
368.710388	2564.460167
369.097820	2565.838923
369.485189	2564.376988
369.872495	2565.112997
370.259738	2562.927657
370.646918	2562.549570
371.034035	2566.970662
371.421090	2565.846485
371.808081	2564.616443
372.195010	2565.433110
372.581875	2564.891186
372.968678	2564.681978
373.355418	2565.120558
373.742096	2567.131979
374.128710	2568.160374
374.515262	2567.928481
374.901751	2568.548543
375.288177	2568.326732
375.674540	2568.601475
376.060841	2566.660631
376.447079	2566.436300
376.833254	2569.312278
377.219367	2564.855898
377.605417	2567.016032
377.991404	2567.512586
378.377329	2567.240364
378.763191	2567.406722
379.148991	2570.290262
379.534727	2570.224727
379.920402	2569.849161
380.306013	2571.553071
380.691563	2572.495767
381.077049	2570.885118
381.462474	2573.171281
381.847835	2570.822103
382.233134	2574.373596
382.618371	2572.394943
383.003545	2574.658422
383.388657	2572.692372
383.773706	2574.149265
384.158693	2574.323185
384.543618	2574.086251
384.928480	2573.811508
385.313280	2575.525500
385.698017	2573.892166
386.082692	2575.767475
386.467305	2576.619430
386.851856	2576.034657
387.236344	2573.970304
387.620770	2578.903073
388.005133	2576.775706
388.389435	2577.499112
388.773674	2576.485840
389.157851	2574.665983
389.541965	2578.285532
389.926018	2577.829307
390.310008	2577.708320
390.693936	2577.935172
391.077802	2576.074986
391.461606	2578.328382
391.845348	2578.270408
392.229027	2579.230748
392.612645	2580.271746
392.996200	2577.090778
393.379694	2578.923238
393.763125	2580.856520
394.146494	2579.253433
394.529801	2578.111612
394.913047	2582.492375
395.296230	2581.201839
395.679351	2582.373907
396.062410	2577.431056
396.445408	2580.410378
396.828343	2584.614700
397.211217	2580.065059
397.594028	2578.235120
397.976778	2580.102868
398.359466	2583.382138
398.742092	2579.061869
399.124656	2580.488516
399.507158	2581.746284
399.889598	2584.902046
400.271977	2586.668971
400.654294	2586.464804
401.036549	2585.781727
401.418742	2583.001531
401.800874	2584.821388
402.182944	2583.813157
402.564952	2586.590833
402.946898	2584.034968
403.328783	2583.543455
403.710606	2586.043868
404.092367	2584.687797
404.474067	2586.288363
404.855705	2589.857500
405.237282	2586.018662
405.618797	2586.588312
406.000250	2587.132757
406.381642	2587.750298
406.762972	2591.193406
407.144240	2590.598550
407.525447	2589.703745
407.906593	2588.357757
408.287677	2589.451687
408.668700	2587.074783
409.049661	2590.200299
409.430560	2590.182655
409.811399	2591.377408
410.192176	2588.330031
410.572891	2589.108889
410.953545	2591.783221
411.334138	2592.433530
411.714669	2591.115268
412.095139	2591.644589
412.475547	2590.575865
412.855894	2593.429158
413.236180	2590.575865
413.616405	2592.090732
413.996568	2592.642738
414.376670	2594.497882
414.756711	2594.548294
415.136691	2596.705908
415.516609	2594.412183
415.896466	2593.237594
416.276262	2596.534509
416.655997	2590.061667
417.035670	2589.633169
417.415283	2592.264651
417.794834	2591.763057
418.174324	2594.402101
418.553753	2595.306988
418.933121	2596.400918
419.312428	2595.848912
419.691674	2599.123141
420.070859	2596.809252
420.449983	2595.627101
420.829045	2599.786053
421.208047	2597.600713
421.586988	2598.765219
421.965867	2599.730600
422.344686	2596.718511
422.723444	2600.897627
423.102141	2600.305292
423.480777	2603.292175
423.859352	2601.517689
424.237866	2604.582711
424.616319	2603.796291
424.994712	2604.078595
425.373044	2605.792588
425.751314	2605.782505
426.129524	2607.010026
426.507673	2607.400716
426.885762	2607.115891
427.263789	2608.832403
427.641756	2611.741149
428.019662	2616.101747
428.397508	2615.874895
428.775292	2615.325410
429.153016	2616.270626
429.530679	2622.141050
429.908282	2623.852521
430.285824	2624.505351
430.663305	2629.269241
431.040726	2628.830661
431.418086	2632.319139
431.795385	2638.282824
432.172624	2644.211221
432.549802	2646.900677
432.926920	2651.717499
433.303977	2656.557007
433.680974	2661.930877
434.057910	2666.528409
434.434786	2674.173319
434.811601	2680.215142
435.188355	2693.576720
435.565050	2699.484952
435.941683	2706.837475
436.318257	2717.002962
436.694770	2726.366905
437.071222	2741.480285
437.447614	2744.799884
437.823946	2755.242635
438.200218	2771.780140
438.576429	2780.662653
438.952580	2795.123203
439.328670	2805.818011
439.704700	2826.151505
440.080670	2832.906651
440.456580	2853.005731
440.832429	2873.576159
441.208218	2873.140100
441.583947	2898.643297
441.959616	2916.481420
442.335224	2937.313988
442.710773	2956.160342
443.086261	2985.925835
443.461689	2993.031341
443.837057	3014.373066
444.212365	3049.005793
444.587612	3071.690985
444.962800	3083.061308
445.337927	3109.933178
445.712995	3103.404884
446.088002	3173.305523
446.462949	3204.563197
446.837837	3231.303998
447.212664	3250.853593
447.587431	3346.363293
447.962139	3469.939618
448.336786	3606.567490
448.711374	3632.315184
449.085901	3536.165256
449.460369	3546.285373
449.834776	3558.787434
450.209124	3678.313192
450.583412	3714.891804
450.957640	3791.877785
451.331808	3768.567490
451.705917	3738.547419
452.079965	3772.797018
452.453954	3820.700582
452.827883	3836.486956
453.201752	3870.998695
453.575562	3921.649688
453.949311	4017.678628
454.323001	4057.712951
454.696632	4090.258640
455.070202	4204.806258
455.443713	4256.276439
455.817164	4342.084439
456.190556	4421.427160
456.563888	4445.581848
456.937160	4524.685114
457.310373	4468.806444
457.683526	4540.335376
458.056619	4573.241508
458.429653	4599.077421
458.802628	4665.774407
459.175542	4719.802974
459.548398	4845.368034
459.921194	5012.749465
460.293930	5089.503553
460.666607	5299.197909
461.039224	5485.592052
461.411782	5616.268842
461.784280	5591.834369
462.156719	5641.885465
462.529099	5647.952493
462.901419	5586.205921
463.273680	5523.481364
463.645882	5553.584614
464.018024	5594.591880
464.390106	5682.915416
464.762130	5918.380150
465.134094	6265.730774
465.505999	6810.954248
465.877845	7409.840804
466.249631	7749.609532
466.621358	7741.112667
466.993026	7625.602188
467.364634	7481.783110
467.736184	7283.106196
468.107674	7191.465581
468.479105	7150.682646
468.850477	7125.252546
469.221790	7006.490523
469.593043	6838.178999
469.964238	6770.937568
470.335373	6774.773886
470.706449	6944.194464
471.077467	7138.367107
471.448425	7770.638705
471.819324	8326.924991
472.190164	8380.401551
472.560945	7948.924152
472.931667	7524.015377
473.302330	7366.607868
473.672934	7275.796523
474.043479	7363.527723
474.413965	7291.313195
474.784393	7254.371619
475.154761	7408.903149
475.525070	7437.708302
475.895321	7404.756800
476.265513	7509.048191
476.635645	7682.670571
477.005719	7687.280706
477.375734	7779.811085
477.745691	7898.195021
478.115588	8098.177594
478.485427	8339.187598
478.855207	8810.958939
479.224928	9242.900124
479.594591	9626.698290
479.964194	9640.216144
480.333739	9732.491945
480.703226	9741.545857
481.072653	9852.179019
481.442022	9970.809972
481.811333	10121.303538
482.180584	9975.962031
482.549777	9916.317620
482.918912	9865.260813
483.287988	9862.881389
483.657005	9763.399259
484.025964	9688.091982
484.394864	9752.356611
484.763706	9716.080468
485.132489	9634.595257
485.501213	9623.918094
485.869879	9685.543679
486.238487	9629.730544
486.607036	9707.190393
486.975527	9659.145677
487.343959	9706.567811
487.712333	9753.846272
488.080648	9799.078025
488.448905	9904.793542
488.817104	9915.551364
489.185244	10090.517211
489.553326	10293.932810
489.921350	10770.014338
490.289315	11390.287990
490.657222	11685.850840
491.025070	11865.078983
491.392861	11762.955288
491.760593	11611.844181
492.128267	11361.271108
492.495883	11124.125149
492.863440	10893.754501
493.230939	10671.018680
493.598380	10490.379014
493.965763	10469.183482
494.333088	10337.611888
494.700354	10274.332804
495.067563	10243.007074
495.434713	10250.369679
495.801805	10294.283170
496.168839	10245.807435
496.535815	10218.749042
496.902733	10270.302402
497.269593	10227.795392
497.636395	10232.617256
498.003139	10339.913174
498.369825	10274.789028
498.736453	10365.756650
499.103023	10308.085850
499.469535	10319.025153
499.835989	10367.342092
500.202385	10333.508388
500.568723	10362.096772
500.935003	10425.138921
501.301226	10393.838397
501.667390	10555.961905
502.033497	10653.530917
502.399546	10583.806718
502.765537	10492.135856
503.131470	10598.088307
503.497345	10677.819196
503.863163	10464.091917
504.228923	10591.794426
504.594625	10715.010309
504.960269	10624.110743
505.325856	10776.035997
505.691385	10654.634930
506.056856	10722.672862
506.422270	10824.199180
506.787625	10750.933571
507.152924	10810.575462
507.518164	10876.753209
507.883347	10735.603422
508.248472	10814.101749
508.613540	10917.132852
508.978550	10996.127732
509.343503	10977.558642
509.708398	11024.098574
510.073236	11155.234109
510.438016	11169.692139
510.802738	11084.005126
511.167403	11209.570186
511.532010	11263.848290
511.896561	11371.834846
512.261053	11558.959956
512.625488	11473.063736
512.989866	11468.430916
513.354186	11447.283275
513.718449	11460.773403
514.082655	11593.204514
514.446803	11557.162785
514.810894	11667.808550
515.174927	11658.953763
515.538904	11639.757050
515.902822	11799.758232
516.266684	11669.935917
516.630488	11781.524378
516.994235	11762.395720
517.357925	11876.053574
517.721558	11938.185796
518.085133	12005.238183
518.448651	12042.036085
518.812112	11995.745690
519.175516	12001.845486
519.538863	12092.399733
519.902152	12101.335178
520.265385	12209.515819
520.628560	12228.778068
520.991678	12178.885768
521.354739	12234.915673
521.717743	12313.446767
522.080690	12281.334617
522.443580	12415.734299
522.806413	12429.882298
523.169189	12425.735949
523.531908	12481.947335
523.894569	12444.645317
524.257174	12468.147176
524.619722	12563.790467
524.982213	12548.437633
525.344647	12539.971015
525.707025	12543.930842
526.069345	12646.677119
526.431608	12617.753499
526.793815	12705.013351
527.155964	12593.150147
527.518057	12625.990744
527.880093	12587.768716
528.242072	12706.238352
528.603995	12621.073098
528.965860	12644.713589
529.327669	12677.007221
529.689421	12621.020166
530.051117	12625.496711
530.412755	12663.950632
530.774337	12663.459120
531.135862	12625.269859
531.497331	12681.655165
531.858743	12648.620484
532.220098	12735.184657
532.581396	12666.801405
532.942638	12602.899739
533.303824	12658.097853
533.664953	12636.572126
534.026025	12591.453799
534.387040	12696.617309
534.747999	12666.687979
535.108902	12713.961399
535.469748	12587.574631
535.830537	12614.995988
536.191270	12659.375785
536.551947	12585.137233
536.912567	12641.101603
537.273131	12678.968230
537.633638	12552.299157
537.994089	12615.784928
538.354483	12532.489943
538.714821	12659.680775
539.075103	12732.764903
539.435328	12672.321468
539.795497	12650.843633
540.155609	12639.329637
540.515665	12752.644693
540.875665	12598.864295
541.235609	12704.098382
541.595496	12662.135817
541.955328	12848.224970
542.315102	12701.741642
542.674821	12639.619503
543.034483	12651.559476
543.394090	12654.785815
543.753640	12624.485960
544.113134	12869.849000
544.472571	12623.021504
544.831953	12907.151017
545.191278	12727.312895
545.550548	12661.140189
545.909761	12765.668514
546.268918	12811.696769
546.628019	12875.646327
546.987064	12763.788164
547.346053	12605.072476
547.704986	12806.093527
548.063863	12691.107328
548.422684	12741.745719
548.781449	12704.927652
549.140158	12797.301755
549.498811	12739.741860
549.857408	12619.943880
550.215949	12826.018687
550.574434	12798.861992
550.932864	12731.676014
551.291237	12934.126232
551.649555	12826.580776
552.007817	12880.024569
552.366022	12800.402064
552.724173	12833.444307
553.082267	12927.038369
553.440305	13027.558977
553.798288	12844.000483
554.156215	12913.772573
554.514086	12967.728043
554.871902	12899.470820
555.229661	12921.417483
555.587365	12883.182852
555.945014	12900.083320
556.302606	12878.824774
556.660143	12941.861882
557.017625	12971.113178
557.375050	12932.019029
557.732421	13028.398329
558.089735	13022.512782
558.446994	12996.646622
558.804197	13117.183131
559.161345	13110.301956
559.518437	12921.488059
559.875474	13025.482022
560.232455	13045.591184
560.589381	13095.891818
560.946251	13036.065924
561.303065	13207.669322
561.659825	13150.106907
562.016528	13080.788521
562.373177	13013.574816
562.729770	13146.797389
563.086307	13027.624512
563.442789	13135.497643
563.799216	13180.557996
564.155587	13118.448460
564.511904	13145.907625
564.868164	13150.605981
565.224370	13214.598388
565.580520	13162.477898
565.936615	13222.644069
566.292654	13145.630362
566.648638	13226.329153
567.004567	13225.726735
567.360441	13226.409811
567.716260	13214.132081
568.072023	13279.364612
568.427732	13272.596863
568.783385	13164.567456
569.138982	13287.453143
569.494525	13273.330351
569.850013	13231.881984
570.205445	13211.603942
570.560823	13222.767577
570.916145	13188.218030
571.271412	13188.734748
571.626625	13144.803613
571.981782	13140.899239
572.336884	13099.952467
572.691931	13176.262933
573.046923	13071.273343
573.401860	13041.802757
573.756743	13048.179817
574.111570	13073.173858
574.466342	13046.889282
574.821059	13097.091612
575.175722	12970.354484
575.530330	12992.119666
575.884882	12926.592227
576.239380	12926.113318
576.593823	12904.784196
576.948211	12896.045356
577.302544	12775.370215
577.656823	12799.343422
578.011047	12857.447761
578.365216	12795.814614
578.719330	12727.171743
579.073389	12697.998586
579.427394	12710.495606
579.781344	12704.143752
580.135239	12645.696614
580.489080	12660.875529
580.842866	12546.063250
581.196597	12645.769711
581.550273	12637.232517
581.903895	12602.234307
582.257463	12705.930841
582.610975	12544.445039
582.964434	12600.842948
583.317837	12518.528468
583.671186	12477.029689
584.024481	12532.938606
584.377721	12418.915268
584.730906	12494.109118
585.084037	12502.134635
585.437113	12431.147627
585.790135	12448.637911
586.143103	12361.919982
586.496016	12377.905481
586.848874	12390.735217
587.201679	12382.245914
587.554428	12265.056732
587.907124	12314.717138
588.259765	12246.696849
588.612352	12319.702839
588.964884	12179.999863
589.317362	12229.945095
589.669786	12223.782284
590.022155	12174.164728
590.374470	12281.017025
590.726731	12162.973366
591.078937	12053.396326
591.431090	12075.191754
591.783188	12006.067453
592.135232	11931.786051
592.487222	11994.866009
592.839157	12004.935714
593.191038	11935.493819
593.542866	11880.749409
593.894639	11735.932183
594.246358	11792.637602
594.598022	11797.620782
594.949633	11706.532173
595.301190	11693.326871
595.652692	11648.253914
596.004141	11745.275961
596.355535	11522.293124
596.706876	11504.016421
597.058162	11469.411420
597.409395	11566.577140
597.760573	11587.926426
598.111698	11479.897020
598.462768	11490.233906
598.813785	11490.995120
599.164748	11366.450894
599.515657	11441.145670
599.866511	11314.635394
600.217312	11447.976434
600.568060	11214.316432
600.918753	11380.745086
601.269392	11377.188552
601.619978	11281.625919
601.970510	11319.684110
602.320988	11356.842455
602.671412	11434.627458
603.021783	11361.051818
603.372100	11284.050714
603.722363	11302.304732
604.072572	11303.575102
604.422728	11308.008797
604.772830	11259.858216
605.122878	11264.854000
605.472872	11233.702190
605.822813	11290.949533
606.172701	11256.619275
606.522534	11282.843357
606.872314	11345.822492
607.222041	11280.531988
607.571714	11354.367248
607.921333	11221.210210
608.270899	11280.542071
608.620411	11340.640186
608.969870	11283.201279
609.319276	11268.037488
609.668627	11277.235074
610.017926	11367.862417
610.367171	11392.475851
610.716362	11389.514173
611.065500	11366.282015
611.414585	11372.548169
611.763616	11438.425968
612.112594	11397.481716
612.461518	11427.569843
612.810389	11473.051133
613.159207	11415.279510
613.507971	11415.276989
613.856682	11515.853050
614.205340	11473.459467
614.553945	11611.692946
614.902496	11482.510858
615.250994	11545.830271
615.599439	11537.305680
615.947830	11571.691390
616.296169	11534.800227
616.644454	11546.510827
616.992686	11567.338354
617.340864	11657.590131
617.688990	11556.083978
618.037063	11685.639111
618.385082	11651.611323
618.733048	11681.656600
619.080961	11681.523009
619.428821	11665.449290
619.776628	11673.300887
620.124382	11618.349790
620.472083	11634.042902
620.819731	11653.300109
621.167326	11576.830847
621.514868	11555.103474
621.862357	11464.859258
622.209793	11456.528751
622.557176	11368.789989
622.904506	11312.197996
623.251783	11241.415155
623.599007	11178.262100
623.946179	11132.259051
624.293297	11107.673343
624.640363	10964.416354
624.987376	10965.444749
625.334336	10889.189736
625.681243	10808.294340
626.028097	10771.413258
626.374899	10739.585934
626.721647	10707.756088
627.068343	10665.342340
627.414987	10614.847623
627.761577	10549.771368
628.108115	10600.553431
628.454600	10462.650147
628.801032	10487.374486
629.147412	10471.454522
629.493739	10443.040059
629.840014	10363.508295
630.186236	10411.084184
630.532405	10314.901490
630.878521	10339.772022
631.224585	10296.332399
631.570597	10219.422036
631.916556	10220.258867
632.262462	10206.849398
632.608316	10181.963742
632.954117	10163.036730
633.299866	10144.548298
633.645562	10120.663311
633.991206	10020.893836
634.336797	9924.033106
634.682336	9917.068752
635.027823	9856.277477
635.373257	9824.009052
635.718639	9759.371377
636.063968	9722.429802
636.409245	9609.707081
636.754470	9596.814330
637.099642	9545.601248
637.444762	9447.344118
637.789829	9451.460221
638.134845	9372.349393
638.479808	9360.437147
638.824719	9329.940687
639.169577	9239.618333
639.514383	9238.829393
639.859137	9172.225668
640.203839	9211.738232
640.548489	9126.661199
640.893086	9129.648083
641.237632	9061.196775
641.582125	9057.241990
641.926566	9053.261999
642.270955	9033.765336
642.615292	9033.185604
642.959576	9010.399588
643.303809	8998.888113
643.647990	9017.555506
643.992118	8999.127568
644.336195	8979.535124
644.680219	8968.187487
645.024192	9006.018826
645.368112	9085.250641
645.711981	9061.693329
646.055797	9200.945121
646.399562	9159.078339
646.743274	9318.681269
647.086935	9392.314883
647.430544	9361.647024
647.774101	9382.890446
648.117606	9406.241071
648.461059	9475.856885
648.804460	9398.548270
649.147810	9287.390828
649.491108	9248.528573
649.834354	9185.695631
650.177548	9042.252119
650.520690	8957.931259
650.863781	8950.777862
651.206820	8919.704189
651.549807	8826.899068
651.892742	8737.963032
652.235626	8693.595837
652.578458	8661.120723
652.921238	8558.278664
653.263967	8594.126309
653.606644	8519.635700
653.949269	8503.483843
654.291843	8427.029703
654.634365	8490.570927
654.976836	8413.443794
655.319255	8407.686796
655.661622	8395.877893
656.003938	8351.092283
656.346203	8319.895102
656.688416	8355.309208
657.030577	8316.948548
657.372687	8286.003425
657.714746	8310.183319
658.056753	8330.168973
658.398708	8226.235505
658.740612	8222.310966
659.082465	8257.029393
659.424266	8220.743167
659.766016	8228.531750
660.107715	8203.449489
660.449362	8224.639979
660.790958	8215.525573
661.132503	8214.353505
661.473996	8216.735450
661.815438	8229.746668
662.156829	8257.130216
662.498168	8211.994245
662.839456	8211.127167
663.180693	8224.188796
663.521879	8241.704285
663.863013	8224.123261
664.204097	8215.379380
664.545129	8297.179663
664.886110	8289.350751
665.227040	8287.533415
665.567918	8296.007594
665.908746	8312.061149
666.249522	8337.403029
666.590248	8330.640321
666.930922	8345.925100
667.271545	8337.135848
667.612118	8359.168211
667.952639	8318.307138
668.293109	8321.644382
668.633528	8298.646638
668.973896	8283.382025
669.314213	8289.144063
669.654480	8246.563958
669.994695	8239.213955
670.334859	8216.226294
670.674973	8202.413532
671.015035	8222.361378
671.355047	8211.112043
671.695008	8196.273407
672.034918	8173.280704
672.374777	8180.537445
672.714585	8157.020462
673.054342	8183.489041
673.394049	8148.707600
673.733705	8190.203857
674.073310	8137.112946
674.412864	8144.359604
674.752368	8085.899864
675.091820	8141.508832
675.431223	8064.467398
675.770574	8014.738936
676.109875	7988.789597
676.449125	7952.984802
676.788324	7940.633975
677.127473	7856.061057
677.466571	7843.115374
677.805619	7786.669574
678.144616	7776.695652
678.483562	7760.639577
678.822458	7711.062349
679.161303	7695.149947
679.500098	7673.130187
679.838842	7658.697363
680.177535	7670.632295
680.516179	7707.349539
680.854771	7720.748926
681.193314	7836.239240
681.531805	7998.024991
681.870247	8123.766491
682.208638	8271.426928
682.546978	8341.299841
682.885268	8363.990075
683.223508	8295.228736
683.561697	8243.907269
683.899836	8209.909728
684.237925	8131.774364
684.575963	8101.461906
684.913951	8019.223042
685.251889	8041.545272
685.589776	8032.839199
685.927614	8015.583329
686.265401	8034.737193
686.603137	8044.774131
686.940824	8114.170655
687.278460	8163.238726
687.616046	8182.939555
687.953582	8286.336141
688.291068	8270.244778
688.628504	8328.092018
688.965889	8324.394332
689.303224	8286.792365
689.640510	8249.626458
689.977745	8142.433884
690.314930	8021.965430
690.652065	7942.325282
690.989150	7830.240267
691.326185	7675.411309
691.663170	7565.385606
692.000105	7446.351361
692.336990	7334.122673
692.673825	7263.503669
693.010610	7167.172261
693.347345	7074.225987
693.684030	6965.788247
694.020665	6912.538539
694.357251	6800.569471
694.693786	6788.395084
695.030272	6750.137768
695.366707	6658.426576
695.703093	6605.028154
696.039429	6602.144614
696.375716	6554.031842
696.711952	6540.813936
697.048139	6513.453074
697.384276	6481.749257
697.720363	6499.332802
698.056400	6469.960519
698.392388	6436.575478
698.728326	6436.454490
699.064214	6412.108237
699.400053	6404.972484
699.735842	6343.356981
700.071581	6298.999869
700.407270	6256.641573
700.742910	6225.860288
701.078501	6184.411921
701.414042	6144.934645
701.749533	6088.037663
702.084974	6028.342839
702.420366	6066.237193
702.755709	5994.630123
703.091002	5944.432833
703.426246	5952.715449
703.761440	5941.430826
704.096584	5893.638167
704.431679	5880.488318
704.766725	5864.689341
705.101721	5850.407753
705.436668	5867.890474
705.771565	5814.255118
706.106413	5869.551534
706.441212	5869.894333
706.775961	5884.725407
707.110661	5887.475357
707.445311	5949.368123
707.779913	5919.640439
708.114465	5958.182581
708.448967	6004.072204
708.783421	6114.838957
709.117825	6157.267828
709.452180	6195.668818
709.786485	6252.795173
710.120742	6385.125462
710.454949	6390.302727
710.789107	6469.418595
711.123216	6586.741368
711.457275	6619.009794
711.791286	6724.130455
712.125247	6748.885041
712.459159	6715.419341
712.793023	6846.396080
713.126837	6679.531367
713.460602	6739.163176
713.794318	6689.255753
714.127985	6636.835314
714.461602	6492.171843
714.795171	6497.028995
715.128691	6326.824517
715.462162	6240.600622
715.795584	6168.892729
716.128957	6125.364886
716.462281	6061.916924
716.795556	6019.447723
717.128782	5938.317914
717.461960	5836.620197
717.795088	5823.107384
718.128167	5750.378657
718.461198	5672.417213
718.794180	5649.011136
719.127113	5591.433597
719.459997	5559.812960
719.792833	5488.972145
720.125619	5486.496939
720.458357	5428.488381
720.791046	5401.601387
721.123686	5368.150811
721.456278	5332.086396
721.788821	5323.650025
722.121315	5275.978354
722.453761	5287.711640
722.786158	5268.164566
723.118506	5273.170431
723.450805	5245.139095
723.783056	5279.010608
724.115259	5254.434983
724.447412	5243.994753
724.779518	5290.975787
725.111574	5292.392351
725.443582	5328.842414
725.775542	5312.884641
726.107453	5402.463425
726.439315	5376.635073
726.771129	5446.699550
727.102895	5512.892420
727.434612	5557.231889
727.766281	5585.822793
728.097901	5640.211802
728.429473	5653.986755
728.760996	5660.686448
729.092471	5686.658473
729.423897	5677.211350
729.755276	5642.666844
730.086606	5654.674872
730.417887	5744.909005
730.749120	5840.443912
731.080305	5880.599223
731.411442	5955.384740
731.742530	5975.148584
732.073570	6000.825701
732.404562	6068.452780
732.735506	6059.744187
733.066401	6037.910949
733.397249	5969.852852
733.728048	5875.729468
734.058798	5734.027675
734.389501	5605.977326
734.720156	5521.906003
735.050762	5412.054220
735.381320	5343.008056
735.711831	5281.601761
736.042293	5199.710738
736.372707	5196.817115
736.703073	5154.645343
737.033391	5180.871946
737.363661	5167.422147
737.693883	5184.463768
738.024056	5206.712900
738.354182	5237.037961
738.684260	5283.000681
739.014290	5317.872863
739.344272	5357.319892
739.674207	5409.289147
740.004093	5439.405000
740.333931	5448.688285
740.663722	5466.349967
740.993464	5481.884283
741.323159	5463.121108
741.652806	5419.411784
741.982405	5388.811980
742.311956	5336.429350
742.641460	5323.874357
742.970915	5271.068270
743.300323	5210.385381
743.629683	5174.812479
743.958996	5120.471361
744.288260	5071.355399
744.617477	5011.910113
744.946647	4995.118029
745.275768	4946.410401
745.604842	4911.008898
745.933869	4876.824834
746.262847	4869.989029
746.591778	4856.143500
746.920662	4834.126261
747.249498	4827.272812
747.578286	4846.300647
747.907027	4867.864183
748.235720	4913.358076
748.564365	4920.912245
748.892963	4908.062343
749.221514	4924.937606
749.550017	4903.447167
749.878473	4893.405189
750.206881	4861.277915
750.535242	4847.971790
750.863555	4834.743802
751.191821	4808.779339
751.520039	4814.584228
751.848210	4794.336433
752.176334	4803.473525
752.504411	4784.347387
752.832440	4754.113067
753.160421	4768.455149
753.488356	4745.966562
753.816243	4726.245568
754.144082	4692.245506
754.471875	4680.945760
754.799620	4671.216333
755.127318	4666.588554
755.454969	4658.744518
755.782572	4650.562726
756.110129	4654.421729
756.437638	4636.182834
756.765100	4640.233401
757.092515	4636.719717
757.419882	4641.395387
757.747203	4637.793483
758.074477	4653.289990
758.401703	4642.171725
758.728882	4673.205068
759.056014	4683.335267
759.383099	4708.717476
759.710138	4733.608173
760.037129	4757.220938
760.364073	4769.352475
760.690970	4763.701341
761.017820	4772.319194
761.344623	4803.743226
761.671379	4863.458214
761.998088	4951.451555
762.324751	5181.507131
762.651366	5643.430578
762.977935	6335.510425
763.304456	6891.279993
763.630931	7202.319185
763.957359	7135.612117
764.283740	6842.194278
764.610074	6515.575400
764.936362	6116.915912
765.262602	5801.788344
765.588796	5449.860353
765.914943	5201.858269
766.241044	4976.637159
766.567097	4806.757836
766.893104	4655.767717
767.219064	4556.998910
767.544978	4461.355619
767.870845	4379.081467
768.196665	4328.848890
768.522438	4282.021612
768.848165	4241.866301
769.173846	4197.703273
769.499479	4170.717976
769.825066	4136.362513
770.150607	4095.307356
770.476101	4080.708174
770.801548	4057.218918
771.126949	4029.212788
771.452303	4008.150847
771.777611	3966.594095
772.102872	3966.904126
772.428087	3941.665589
772.753256	3912.116866
773.078378	3896.794279
773.403453	3864.467880
773.728482	3839.148685
774.053465	3826.676870
774.378401	3804.152995
774.703291	3778.675003
775.028135	3758.994339
775.352932	3749.708533
775.677683	3730.756315
776.002388	3710.929457
776.327046	3710.455589
776.651658	3689.922969
776.976224	3673.007377
777.300743	3672.455371
777.625216	3654.060201
777.949643	3648.598111
778.274024	3653.026764
778.598359	3631.823671
778.922647	3630.628918
779.246889	3622.704224
779.571086	3619.893781
779.895236	3624.652630
780.219339	3620.997793
780.543397	3621.199439
780.867409	3634.492962
781.191374	3634.702170
781.515294	3628.776294
781.839167	3645.384375
782.162995	3641.618633
782.486776	3636.320380
782.810511	3627.062301
783.134201	3616.198615
783.457844	3612.397585
783.781441	3606.063375
784.104993	3595.313114
784.428498	3593.289091
784.751958	3590.198864
785.075372	3582.475816
785.398739	3571.995257
785.722061	3580.540013
786.045337	3577.588417
786.368568	3604.793004
786.691752	3597.168259
787.014891	3648.411588
787.337983	3691.997404
787.661030	3778.133079
787.984031	3876.536402
788.306987	3951.687403
788.629897	4001.007532
788.952760	4008.244108
789.275579	3988.898680
789.598351	3941.821865
789.921078	3889.852610
790.243759	3830.477900
790.566395	3783.559881
790.888984	3733.334866
791.211529	3697.741799
791.534027	3648.114160
791.856480	3612.531175
792.178888	3592.061570
792.501249	3573.079105
792.823566	3544.919220
793.145836	3538.166594
793.468062	3525.430119
793.790241	3516.182123
794.112375	3523.131353
794.434464	3539.769681
794.756507	3543.358983
795.078505	3561.507137
795.400457	3602.065740
795.722364	3647.728512
796.044226	3696.015204
796.366042	3740.760485
796.687812	3737.287130
797.009538	3762.329062
797.331218	3748.377669
797.652852	3745.360538
797.974442	3718.833987
798.295986	3709.404508
798.617484	3681.403419
798.938938	3657.843587
799.260346	3640.819610
799.581709	3606.045731
799.903026	3595.391252
800.224299	3577.429621
800.545526	3543.653890
800.866708	3525.770397
801.187845	3519.892412
801.508936	3494.520284
801.829983	3484.621979
802.150984	3457.402269
802.471940	3446.780558
802.792851	3439.173456
803.113717	3434.351593
803.434538	3423.621497
803.755314	3415.525404
804.076045	3410.338056
804.396731	3398.569483
804.717372	3399.771798
805.037967	3395.343144
805.358518	3396.245511
805.679024	3411.762182
805.999485	3408.392171
806.319901	3412.805701
806.640272	3414.476844
806.960598	3426.242897
807.280879	3427.059564
807.601115	3440.559774
807.921306	3429.176848
808.241453	3432.635080
808.561554	3439.727983
808.881611	3432.554421
809.201623	3437.346038
809.521590	3427.440171
809.841513	3428.985284
810.161390	3435.548867
810.481223	3411.580701
810.801011	3413.501380
811.120755	3408.704723
811.440453	3398.128382
811.760107	3388.910632
812.079716	3384.572719
812.399281	3374.210627
812.718801	3374.364383
813.038276	3365.199565
813.357707	3359.369470
813.677093	3368.531768
813.996434	3349.735825
814.315731	3355.913759
814.634983	3356.148173
814.954191	3357.262268
815.273354	3375.007130
815.592473	3386.813512
815.911547	3407.179773
816.230577	3421.121084
816.549562	3448.212245
816.868502	3462.012404
817.187399	3485.168944
817.506250	3508.607789
817.825058	3519.327803
818.143821	3564.539391
818.462539	3608.415073
818.781213	3664.056809
819.099843	3750.447062
819.418429	3902.379877
819.736970	4050.388154
820.055466	4243.814707
820.373919	4476.630315
820.692327	4815.794105
821.010691	5331.269729
821.329011	6411.034472
821.647286	8147.752301
821.965517	10319.408281
822.283704	11928.794126
822.601847	13011.893592
822.919945	12605.173299
823.237999	11927.942171
823.556010	11027.713082
823.873976	10081.102857
824.191897	9111.250392
824.509775	8343.419646
824.827609	7540.071452
825.145398	6991.830847
825.463144	6613.956038
825.780845	6482.507951
826.098502	6548.917591
826.416116	6928.153513
826.733685	7434.786954
827.051210	7723.209009
827.368692	7629.093187
827.686129	7179.013931
828.003522	6632.240303
828.320872	6067.681483
828.638177	5600.981542
828.955439	5233.052929
829.272656	4893.548862
829.589830	4613.374134
829.906960	4347.138196
830.224046	4141.454078
830.541088	3973.878562
830.858086	3854.320037
831.175041	3759.185902
831.491952	3716.671332
831.808819	3695.495965
832.125642	3733.148343
832.442421	3835.516533
832.759157	4050.577198
833.075849	4426.201133
833.392497	4892.931320
833.709101	5281.455568
834.025662	5391.458586
834.342179	5270.342344
834.658653	4995.884285
834.975083	4721.713571
835.291469	4479.155933
835.607811	4251.542796
835.924110	4093.069083
836.240366	3938.212399
836.556578	3772.643263
836.872746	3637.442037
837.188871	3522.551620
837.504952	3426.673915
837.820990	3352.795806
838.136984	3299.407466
838.452935	3270.415790
838.768842	3254.102616
839.084706	3289.680560
839.400526	3421.385745
839.716303	3646.052328
840.032037	3860.278681
840.347727	3926.824432
840.663373	3838.551308
840.978977	3686.341229
841.294537	3554.835170
841.610054	3450.866413
841.925527	3372.327756
842.240957	3303.132879
842.556344	3242.697006
842.871687	3184.776669
843.186987	3126.420272
843.502244	3070.934812
843.817458	3031.419727
844.132629	2995.975375
844.447756	2975.137765
844.762840	2954.688325
845.077881	2937.503031
845.392879	2924.511978
845.707833	2914.192736
846.022745	2901.221847
846.337613	2898.444171
846.652438	2886.075700
846.967221	2883.862634
847.281960	2876.999103
847.596656	2870.798484
847.911309	2868.020808
848.225919	2863.589634
848.540485	2857.618387
848.855009	2856.373222
849.169490	2851.621934
849.483928	2848.977849
849.798323	2845.292766
850.112675	2840.957373
850.426984	2843.538444
850.741251	2839.445027
851.055474	2838.996365
851.369654	2836.032166
851.683792	2837.393278
851.997887	2836.369923
852.311938	2837.486539
852.625947	2837.559636
852.939914	2830.290292
853.253837	2837.887311
853.567718	2835.399501
853.881555	2835.233143
854.195350	2835.195335
854.509103	2836.518637
854.822812	2835.182732
855.136479	2833.476301
855.450103	2832.969665
855.763685	2834.361024
856.077224	2831.616115
856.390720	2834.711384
856.704173	2838.759430
857.017584	2839.724811
857.330953	2838.945953
857.644278	2843.775378
857.957561	2844.763445
858.270802	2844.990297
858.584000	2846.079186
858.897155	2847.873837
859.210268	2844.236644
859.523339	2841.582477
859.836367	2839.419822
860.149352	2841.973166
860.462295	2838.893021
860.775195	2832.319356
861.088054	2834.943277
861.400869	2833.153667
861.713642	2828.530929
862.026373	2832.851198
862.339062	2833.985458
862.651708	2837.196673
862.964312	2843.724967
863.276873	2846.268229
863.589392	2851.571523
863.901869	2859.803727
864.214303	2867.579707
864.526696	2871.310161
864.839045	2879.121429
865.151353	2888.283726
865.463619	2889.750702
865.775842	2888.339178
866.088023	2895.404356
866.400162	2894.081053
866.712258	2896.142885
867.024313	2898.456774
867.336325	2898.061044
867.648296	2900.369892
867.960224	2902.577918
868.272110	2901.700757
868.583954	2902.729152
868.895755	2905.968093
869.207515	2905.635377
869.519233	2914.654002
869.830909	2914.341450
870.142542	2918.114754
870.454134	2919.899322
870.765684	2924.844694
871.077191	2931.176383
871.388657	2937.881118
871.700081	2941.891356
872.011463	2948.833025
872.322803	2950.673046
872.634101	2962.774336
872.945357	2964.064871
873.256571	2977.890235
873.567744	2981.030874
873.878874	2985.494816
874.189963	2992.053357
874.501010	2993.974037
874.812015	2998.904285
875.122979	3003.751355
875.433900	3008.278311
875.744780	3009.924248
876.055618	3012.848117
876.366415	3017.692666
876.677169	3020.538397
876.987882	3026.655837
877.298554	3036.970038
877.609183	3053.152142
877.919771	3073.742735
878.230317	3092.788214
878.540822	3132.782208
878.851285	3180.310206
879.161707	3247.579363
879.472087	3355.989377
879.782425	3517.144983
880.092722	3792.253351
880.402977	4214.976786
880.713191	4759.459210
881.023363	5354.111198
881.333494	5790.564215
881.643583	6075.790179
881.953631	6147.498072
882.263637	6102.959478
882.573602	5958.139731
882.883526	5790.463392
883.193408	5588.726497
883.503248	5369.703486
883.813048	5154.907483
884.122806	4934.009162
884.432522	4697.470662
884.742197	4472.453719
885.051831	4264.551493
885.361424	4066.739137
885.670975	3899.420720
885.980485	3751.916559
886.289954	3625.285295
886.599382	3524.129502
886.908768	3439.188580
887.218113	3362.918443
887.527417	3299.266314
887.836680	3241.913106
888.145901	3191.690611
888.455082	3158.247597
888.764221	3124.229890
889.073319	3093.831733
889.382376	3076.601069
889.691392	3057.832853
890.000366	3046.535627
890.309300	3042.353990
890.618193	3037.186808
890.927044	3034.217568
891.235855	3033.968031
891.544625	3038.094215
891.853353	3042.031356
892.162041	3060.633214
892.470687	3084.293870
892.779293	3116.562295
893.087858	3162.467042
893.396381	3242.049217
893.704864	3348.520907
894.013306	3503.223837
894.321707	3689.814584
894.630068	3847.801825
894.938387	3922.153803
895.246665	3932.268879
895.554903	3871.134806
895.863100	3784.525262
896.171256	3712.174622
896.479371	3637.716780
896.787446	3563.702559
897.095480	3489.075838
897.403473	3437.499793
897.711425	3376.506873
898.019336	3325.077021
898.327207	3269.959566
898.635038	3227.039182
898.942827	3175.299299
899.250576	3132.177269
899.558284	3093.506578
899.865952	3067.237126
900.173579	3037.716129
900.481165	3015.104033
900.788711	2995.519150
901.096216	2983.622027
901.403681	2966.088894
901.711105	2958.103707
902.018489	2952.805454
902.325832	2961.735858
902.633135	2972.259267
902.940397	3007.852333
903.247619	3095.664192
903.554800	3276.487860
903.861941	3552.917011
904.169041	3816.317299
904.476101	3980.467351
904.783121	4004.985002
905.090100	3938.020835
905.397039	3833.563086
905.703938	3726.698187
906.010796	3623.951909
906.317614	3540.787994
906.624391	3457.581230
906.931129	3386.364849
907.237826	3314.873726
907.544483	3247.266812
907.851099	3179.478416
908.157675	3104.433279
908.464211	3030.590458
908.770707	2974.633650
909.077163	2926.503234
909.383578	2892.311608
909.689954	2863.085518
909.996289	2843.155317
910.302584	2829.549242
910.608839	2821.317038
910.915054	2810.100471
911.221229	2808.691468
911.527363	2808.439411
911.833458	2806.521252
912.139513	2810.171047
912.445527	2816.033909
912.751502	2827.583192
913.057436	2841.794205
913.363331	2860.491845
913.669186	2885.105278
913.975000	2926.475507
914.280775	2986.296359
914.586510	3064.020869
914.892205	3178.777696
915.197859	3325.566013
915.503475	3503.059999
915.809050	3682.409129
916.114585	3813.572391
916.420081	3890.644071
916.725536	3920.840583
917.030952	3885.459245
917.336328	3844.164633
917.641665	3797.622180
917.946961	3736.369640
918.252218	3676.097605
918.557435	3607.863067
918.862612	3534.935215
919.167750	3475.994044
919.472848	3405.188518
919.777906	3334.400635
920.082925	3266.839092
920.387904	3193.165149
920.692843	3139.348311
920.997743	3087.457194
921.302603	3036.387785
921.607423	3004.278155
921.912204	2967.354224
922.216946	2943.776747
922.521647	2916.902356
922.826310	2895.565673
923.130932	2877.067158
923.435516	2854.623942
923.740059	2842.752024
924.044564	2826.660661
924.349028	2816.233034
924.653454	2801.291054
924.957840	2787.445525
925.262186	2779.586367
925.566493	2767.497680
925.870761	2753.503437
926.174989	2748.875657
926.479178	2742.521283
926.783328	2734.571383
927.087438	2728.269941
927.391509	2724.133674
927.695541	2716.836604
927.999533	2710.439380
928.303486	2704.747917
928.607400	2701.808924
928.911275	2699.628625
929.215110	2696.430013
929.518906	2694.373222
929.822663	2691.885413
930.126381	2688.286029
930.430060	2690.688139
930.733699	2689.400124
931.037299	2690.335258
931.340861	2690.173941
931.644383	2693.261648
931.947866	2693.566638
932.251309	2690.425999
932.554714	2691.935825
932.858080	2691.966072
933.161407	2687.996163
933.464694	2685.016841
933.767943	2689.130422
934.071153	2685.208405
934.374323	2684.182530
934.677455	2683.678415
934.980548	2680.510049
935.283602	2679.847138
935.586617	2677.807991
935.889593	2681.470389
936.192530	2681.787982
936.495428	2685.644465
936.798287	2686.614887
937.101108	2689.228725
937.403890	2697.178625
937.706632	2706.895449
938.009336	2718.543035
938.312002	2730.293964
938.614628	2741.087075
938.917216	2748.517735
939.219765	2759.013418
939.522275	2763.311001
939.824747	2768.606733
940.127179	2766.441558
940.429573	2765.236722
940.731929	2766.948194
941.034246	2765.539191
941.336524	2766.038266
941.638763	2765.128337
941.940964	2766.897782
942.243126	2758.476535
942.545250	2757.039806
942.847335	2752.434712
943.149381	2742.566653
943.451389	2737.979203
943.753359	2732.698595
944.055290	2726.981926
944.357182	2722.923797
944.659036	2720.010010
944.960851	2716.647561
945.262628	2711.392158
945.564367	2709.232023
945.866067	2710.709082
946.167729	2711.462734
946.469352	2710.215048
946.770937	2708.997610
947.072484	2705.345294
947.373992	2709.519369
947.675462	2704.135417
947.976893	2704.054758
948.278286	2699.376568
948.579641	2698.975796
948.880958	2695.797348
949.182236	2696.571166
949.483476	2697.103007
949.784678	2696.961855
950.085841	2695.404138
950.386967	2696.467822
950.688054	2697.004705
950.989103	2701.445961
951.290114	2704.886549
951.591087	2708.692620
951.892021	2712.652446
952.192917	2718.316183
952.493776	2720.670402
952.794596	2723.674929
953.095378	2725.817420
953.396122	2726.475290
953.696828	2726.298850
953.997496	2725.151987
954.298126	2723.632079
954.598718	2721.008159
954.899272	2718.411965
955.199788	2712.395348
955.500266	2707.805377
955.800706	2697.866742
956.101108	2691.454394
956.401472	2686.375432
956.701798	2680.736901
957.002087	2671.831703
957.302337	2670.442865
957.602550	2663.798624
957.902724	2657.812254
958.202861	2656.206647
958.502960	2648.133239
958.803022	2644.927065
959.103045	2639.225520
959.403031	2636.732669
959.702979	2631.734365
960.002889	2631.535240
960.302762	2627.996350
960.602596	2627.283027
960.902393	2623.260186
961.202153	2623.368571
961.501875	2622.352778
961.801559	2619.781790
962.101205	2616.555451
962.400814	2617.586367
962.700385	2615.310286
962.999918	2613.581170
963.299414	2613.515635
963.598873	2611.360542
963.898293	2609.142434
964.197677	2611.171499
964.497022	2611.998248
964.796331	2610.027157
965.095601	2607.609924
965.394835	2606.397526
965.694030	2610.286776
965.993189	2608.446755
966.292309	2607.703185
966.591393	2607.635129
966.890439	2604.723863
967.189447	2606.735283
967.488419	2605.417022
967.787353	2607.728391
968.086249	2608.035901
968.385108	2607.506580
968.683930	2606.359717
968.982714	2607.221755
969.281462	2607.919955
969.580172	2611.342898
969.878844	2611.274843
970.177480	2611.405912
970.476078	2613.840790
970.774639	2615.713578
971.073162	2617.268774
971.371649	2613.568567
971.670098	2614.722992
971.968510	2615.315327
972.266885	2617.339351
972.565223	2621.657099
972.863524	2621.475617
973.161788	2623.431585
973.460014	2621.357150
973.758204	2623.860083
974.056356	2622.151132
974.354471	2625.639610
974.652550	2624.212964
974.950591	2625.203551
975.248595	2626.972996
975.546563	2626.020217
975.844493	2624.243211
976.142386	2624.689353
976.440243	2621.551235
976.738062	2620.182561
977.035845	2621.291615
977.333590	2618.907149
977.631299	2617.351953
977.928971	2616.162241
978.226606	2617.515791
978.524204	2617.596449
978.821765	2616.918414
979.119290	2615.035543
979.416777	2614.821294
979.714228	2617.712396
980.011642	2614.753239
980.309020	2620.048971
980.606360	2617.856069
980.903664	2621.266409
981.200931	2624.979219
981.498162	2631.968779
981.795356	2645.937816
982.092513	2662.487924
982.389633	2677.767662
982.686717	2697.193748
982.983764	2713.091027
983.280775	2724.398335
983.577749	2729.482338
983.874686	2732.867473
984.171587	2727.755743
984.468451	2724.811709
984.765279	2717.610421
985.062070	2707.323947
985.358824	2704.382433
985.655543	2696.477904
985.952224	2684.255627
986.248869	2671.839265
986.545478	2655.442912
986.842050	2644.120480
987.138586	2632.669499
987.435086	2623.960906
987.731549	2617.503188
988.027975	2615.595111
988.324366	2610.490943
988.620719	2605.084306
988.917037	2605.308637
989.213318	2601.807556
989.509563	2598.603902
989.805772	2599.108018
990.101944	2595.634663
990.398080	2596.456371
990.694180	2597.046186
990.990244	2593.988726
991.286271	2598.334201
991.582262	2599.072730
991.878217	2596.030393
992.174136	2599.339911
992.470019	2596.879828
992.765865	2597.759509
993.061676	2598.240939
993.357450	2601.212699
993.653188	2604.749069
993.948890	2604.764192
994.244556	2608.514811
994.540186	2613.903804
994.835780	2616.005965
995.131337	2624.704476
995.426859	2632.271248
995.722345	2638.834831
996.017795	2651.019299
996.313208	2655.584064
996.608586	2661.913233
996.903928	2666.301557
997.199234	2668.665858
997.494504	2670.926816
997.789738	2669.227947
998.084936	2662.666885
998.380099	2661.240239
998.675225	2654.538025
998.970316	2649.610297
999.265371	2641.640233
999.560390	2633.932308
999.855373	2630.214457
1000.150320	2626.221864
1000.445232	2616.424381
1000.740108	2612.272991
1001.034948	2608.146807
1001.329752	2606.216045
1001.624521	2599.992740
1001.919254	2595.707759
1002.213951	2596.675661
1002.508613	2593.345979
1002.803239	2593.197265
1003.097829	2587.462952
1003.392384	2592.652820
1003.686903	2590.462439
1003.981386	2590.598550
1004.275834	2589.562593
1004.570246	2591.364805
1004.864623	2586.674012
1005.158964	2586.026223
1005.453270	2586.353898
1005.747540	2587.835998
1006.041775	2589.325659
1006.335974	2588.660226
1006.630138	2586.996646
1006.924266	2585.295256
1007.218359	2585.436408
1007.512416	2587.843559
1007.806438	2585.703590
1008.100425	2584.297108
1008.394376	2588.246852
1008.688292	2584.516398
1008.982172	2585.141501
1009.276017	2581.660584
1009.569827	2586.099320
1009.863602	2586.013621
1010.157341	2584.753332
1010.451045	2586.026223
1010.744714	2584.826429
1011.038347	2585.128898
1011.331945	2583.775348
1011.625508	2582.898188
1011.919036	2584.418095
1012.212528	2582.353743
1012.505986	2580.750656
1012.799408	2583.427509
1013.092795	2583.397262
1013.386147	2582.449525
1013.679464	2582.056315
1013.972745	2581.554720
1014.265992	2581.595049
1014.559204	2582.941037
1014.852380	2581.559761
1015.145521	2581.305183
1015.438628	2582.152097
1015.731699	2581.118660
1016.024736	2581.539597
1016.317737	2582.835173
1016.610703	2583.140163
1016.903635	2579.853331
1017.196531	2577.665470
1017.489393	2578.235120
1017.782219	2578.547672
1018.075011	2581.597570
1018.367768	2583.172930
1018.660490	2583.455235
1018.953177	2583.455235
1019.245829	2583.455235
