Dividing Wavelength (nm)	Counts (n)	Blue Motor Position (mm): 38.500000	Red Motor Position (mm): 0.000000	
326.493990	2154.924391
326.888308	2154.924391
327.282561	2154.924391
327.676750	2130.121914
328.070874	2131.130144
328.464933	2135.672224
328.858929	2142.397123
329.252859	2157.563435
329.646726	2171.028357
330.040528	2184.778104
330.434265	2201.434076
330.827938	2224.671275
331.221547	2245.362691
331.615091	2262.396749
332.008571	2283.816612
332.401986	2302.857050
332.795338	2324.191213
333.188625	2342.286435
333.581847	2363.673530
333.975006	2381.791437
334.368100	2401.696433
334.761129	2419.930287
335.154095	2434.426124
335.546996	2458.948817
335.939833	2489.641883
336.332606	2502.534633
336.725315	2515.550893
337.117960	2525.330731
337.510540	2532.947915
337.903056	2541.061652
338.295508	2546.238917
338.687896	2554.297201
339.080220	2563.232646
339.472480	2569.198852
339.864676	2571.553071
340.256807	2573.075499
340.648875	2576.233782
341.040879	2580.460790
341.432818	2580.178485
341.824694	2580.039853
342.216506	2581.136304
342.608253	2579.891139
342.999937	2580.491037
343.391557	2578.235120
343.783113	2579.346695
344.174605	2577.219328
344.566033	2575.835531
344.957397	2573.481312
345.348697	2571.038873
345.739934	2571.651373
346.131106	2569.098029
346.522215	2566.015363
346.913260	2563.898079
347.304241	2563.734241
347.695159	2562.191648
348.086012	2559.260217
348.476802	2555.078580
348.867528	2556.467418
349.258191	2557.354661
349.648789	2554.287119
350.039324	2550.833928
350.429796	2554.806358
350.820203	2553.430123
351.210548	2551.302756
351.600828	2549.031716
351.991045	2550.165976
352.381198	2549.361912
352.771288	2547.562220
353.161314	2550.632282
353.551276	2548.245296
353.941175	2550.113043
354.331010	2547.375697
354.720782	2550.554144
355.110490	2548.840152
355.500135	2548.066335
355.889717	2549.392158
356.279235	2549.616490
356.668689	2548.187323
357.058080	2551.610266
357.447408	2545.633978
357.836672	2550.042467
358.225873	2547.698331
358.615010	2550.014741
359.004084	2552.520194
359.393095	2551.741336
359.782043	2552.880637
360.170927	2552.943651
360.559748	2556.356512
360.948505	2555.285267
361.337199	2556.926163
361.725830	2556.603529
362.114398	2558.015052
362.502903	2558.612429
362.891344	2557.236194
363.279722	2557.578992
363.668037	2562.002605
364.056289	2556.485062
364.444478	2559.592933
364.832603	2559.696277
365.220665	2561.506051
365.608665	2559.514795
365.996601	2561.445557
366.384474	2562.282389
366.772284	2562.665517
367.160031	2559.534960
367.547715	2559.577810
367.935336	2559.968499
368.322893	2565.642318
368.710388	2564.041752
369.097820	2563.872873
369.485189	2563.497307
369.872495	2563.583007
370.259738	2562.665517
370.646918	2562.501679
371.034035	2563.157029
371.421090	2565.743141
371.808081	2566.726166
372.195010	2564.205589
372.581875	2567.162226
372.968678	2563.913202
373.355418	2565.980075
373.742096	2567.222720
374.128710	2567.225240
374.515262	2570.267577
374.901751	2571.895869
375.288177	2568.916547
375.674540	2565.710373
376.060841	2570.174315
376.447079	2567.242884
376.833254	2569.196331
377.219367	2564.785322
377.605417	2566.307750
377.991404	2566.474108
378.377329	2564.434962
378.763191	2566.786660
379.148991	2570.028122
379.534727	2569.897052
379.920402	2570.854871
380.306013	2573.040211
380.691563	2573.932495
381.077049	2570.507031
381.462474	2571.769840
381.847835	2571.870663
382.233134	2571.507700
382.618371	2573.725808
383.003545	2572.331929
383.388657	2572.601631
383.773706	2573.733370
384.158693	2572.117680
384.543618	2575.149934
384.928480	2574.159347
385.313280	2575.563309
385.698017	2574.043401
386.082692	2576.511046
386.467305	2578.091447
386.851856	2579.142528
387.236344	2575.863257
387.620770	2578.262847
388.005133	2576.924420
388.389435	2578.227558
388.773674	2577.095819
389.157851	2576.506004
389.541965	2576.095150
389.926018	2578.978690
390.310008	2580.052456
390.693936	2579.918866
391.077802	2577.103381
391.461606	2577.685634
391.845348	2580.964905
392.229027	2585.141501
392.612645	2580.846438
392.996200	2583.795513
393.379694	2583.619072
393.763125	2585.882551
394.146494	2583.452714
394.529801	2585.746439
394.913047	2585.585123
395.296230	2587.163004
395.679351	2587.510843
396.062410	2585.144022
396.445408	2587.069742
396.828343	2590.033941
397.211217	2583.437591
397.594028	2586.807602
397.976778	2591.894127
398.359466	2592.012594
398.742092	2593.202306
399.124656	2596.690784
399.507158	2600.685899
399.889598	2605.502721
400.271977	2607.236878
400.654294	2611.990686
401.036549	2615.673249
401.418742	2617.833384
401.800874	2624.621297
402.182944	2628.387039
402.564952	2635.666465
402.946898	2641.262146
403.328783	2645.693320
403.710606	2651.838487
404.092367	2662.762667
404.474067	2671.229285
404.855705	2677.671880
405.237282	2684.996676
405.618797	2696.626618
406.000250	2708.238916
406.381642	2722.596122
406.762972	2731.574417
407.144240	2738.942064
407.525447	2755.325814
407.906593	2761.430651
408.287677	2779.717437
408.668700	2795.092956
409.049661	2803.816672
409.430560	2823.154539
409.811399	2833.551918
410.192176	2851.344671
410.572891	2865.109542
410.953545	2891.925959
411.334138	2895.522823
411.714669	2926.183120
412.095139	2915.173240
412.475547	2953.717903
412.855894	2960.979685
413.236180	2990.117554
413.616405	2995.950169
413.996568	3018.516894
414.376670	3036.450799
414.756711	3047.828683
415.136691	3075.257601
415.516609	3101.910182
415.896466	3122.231073
416.276262	3150.320382
416.655997	3182.175433
417.035670	3202.370296
417.415283	3258.037237
417.794834	3290.716517
418.174324	3291.565951
418.553753	3308.670586
418.933121	3356.503574
419.312428	3366.404401
419.691674	3375.947305
420.070859	3419.782658
420.449983	3418.025816
420.829045	3467.804690
421.208047	3470.060606
421.586988	3523.340561
421.965867	3559.021848
422.344686	3580.759303
422.723444	3625.935603
423.102141	3556.997825
423.480777	3655.544821
423.859352	3641.482522
424.237866	3735.217737
424.616319	3733.710432
424.994712	3798.121254
425.373044	3799.931028
425.751314	3866.930484
426.129524	3818.154800
426.507673	3919.887805
426.885762	3905.785177
427.263789	3940.065023
427.641756	3951.077424
428.019662	3987.313237
428.397508	3997.677850
428.775292	4040.504972
429.153016	4051.860171
429.530679	4070.441864
429.908282	4085.492229
430.285824	4066.671081
430.663305	4143.243688
431.040726	4106.627267
431.418086	4104.756999
431.795385	4178.199048
432.172624	4218.442580
432.549802	4188.956871
432.926920	4208.473698
433.303977	4205.360785
433.680974	4251.648660
434.057910	4273.650776
434.434786	4279.954739
434.811601	4276.791415
435.188355	4389.239393
435.565050	4356.580277
435.941683	4355.481306
436.318257	4449.254329
436.694770	4450.287766
437.071222	4508.447557
437.447614	4444.492959
437.823946	4449.488743
438.200218	4466.371567
438.576429	4450.179381
438.952580	4475.307012
439.328670	4484.456706
439.704700	4525.857182
440.080670	4490.120443
440.456580	4550.470616
440.832429	4585.274742
441.208218	4485.197756
441.583947	4539.639697
441.959616	4560.111823
442.335224	4578.088577
442.710773	4605.396508
443.086261	4659.535979
443.461689	4613.028815
443.837057	4625.712358
444.212365	4696.810271
444.587612	4704.026683
444.962800	4670.540818
445.337927	4712.049679
445.712995	4597.060960
446.088002	4792.491371
446.462949	4812.046007
446.837837	4830.110982
447.212664	4816.608251
447.587431	5045.340524
447.962139	5347.605588
448.336786	5681.503893
448.711374	5667.033261
449.085901	5310.651410
449.460369	5246.936267
449.834776	5179.646945
450.209124	5421.652577
450.583412	5429.305048
450.957640	5551.006064
451.331808	5410.909878
451.705917	5264.633237
452.079965	5258.417495
452.453954	5292.808246
452.827883	5260.812043
453.201752	5266.233804
453.575562	5300.173372
453.949311	5433.680770
454.323001	5433.809319
454.696632	5429.932672
455.070202	5580.428758
455.443713	5612.397235
455.817164	5710.351896
456.190556	5779.158605
456.563888	5755.162712
456.937160	5826.522766
457.310373	5672.596174
457.683526	5730.279577
458.056619	5726.405450
458.429653	5705.179672
458.802628	5753.095839
459.175542	5784.313184
459.548398	5923.063382
459.921194	6111.922649
460.293930	6169.727040
460.666607	6423.929743
461.039224	6637.223483
461.411782	6763.048163
461.784280	6678.409710
462.156719	6684.643097
462.529099	6639.968391
462.901419	6504.162227
463.273680	6373.132557
463.645882	6360.020515
464.018024	6363.035125
464.390106	6426.384785
464.762130	6695.116094
465.134094	7080.988694
465.505999	7719.334883
465.877845	8426.253366
466.249631	8775.328064
466.621358	8694.435189
466.993026	8497.167277
467.364634	8284.657437
467.736184	8002.186463
468.107674	7850.903957
468.479105	7768.193746
468.850477	7698.030966
469.221790	7525.084101
469.593043	7304.261398
469.964238	7198.921447
470.335373	7180.299425
470.706449	7335.539237
471.077467	7529.724483
471.448425	8192.628652
471.819324	8766.392619
472.190164	8797.735993
472.560945	8316.978794
472.931667	7847.221394
473.302330	7656.491859
473.672934	7533.838065
474.043479	7607.156607
474.413965	7512.481217
474.784393	7459.874256
475.154761	7617.128009
475.525070	7635.654249
475.895321	7582.311280
476.265513	7683.704007
476.635645	7852.113834
477.005719	7838.840476
477.375734	7924.870287
477.745691	8038.255919
478.115588	8238.672031
478.485427	8481.625400
478.855207	8957.981671
479.224928	9386.449501
479.594591	9764.553683
479.964194	9776.115569
480.333739	9861.308549
480.703226	9861.449701
481.072653	9963.858221
481.442022	10074.894676
481.811333	10227.061904
482.180584	10063.040402
482.549777	10007.123924
482.918912	9936.462070
483.287988	9927.811450
483.657005	9840.753244
484.025964	9753.485830
484.394864	9816.908586
484.763706	9768.730279
485.132489	9686.234317
485.501213	9677.802987
485.869879	9742.244057
486.238487	9678.140744
486.607036	9754.552034
486.975527	9699.807624
487.343959	9759.404144
487.712333	9803.824272
488.080648	9844.057720
488.448905	9949.259039
488.817104	9949.921951
489.185244	10118.921593
489.553326	10334.337658
489.921350	10805.499020
490.289315	11439.439240
490.657222	11727.959598
491.025070	11903.290929
491.392861	11813.717187
491.760593	11650.214923
492.128267	11398.177396
492.495883	11167.156438
492.863440	10928.414954
493.230939	10701.207629
493.598380	10521.583756
493.965763	10501.383853
494.333088	10368.551969
494.700354	10295.863572
495.067563	10274.214337
495.434713	10274.990675
495.801805	10322.503550
496.168839	10269.740313
496.535815	10244.088402
496.902733	10298.406834
497.269593	10251.493857
497.636395	10265.311659
498.003139	10375.256704
498.369825	10295.495568
498.736453	10391.501822
499.103023	10328.653757
499.469535	10342.146406
499.835989	10387.357994
500.202385	10364.435867
500.568723	10381.129648
500.935003	10444.108783
501.301226	10416.021995
501.667390	10578.591644
502.033497	10677.637715
502.399546	10600.865983
502.765537	10506.891313
503.131470	10612.682447
503.497345	10704.559997
503.863163	10482.461882
504.228923	10617.821904
504.594625	10725.170754
504.960269	10637.414348
505.325856	10785.299117
505.691385	10667.303349
506.056856	10732.845911
506.422270	10837.717034
506.787625	10774.422827
507.152924	10826.394603
507.518164	10884.864426
507.883347	10759.879098
508.248472	10827.027268
508.613540	10940.332242
508.978550	11013.179435
509.343503	10992.185550
509.708398	11046.503983
510.073236	11173.462922
510.438016	11188.069665
510.802738	11109.341965
511.167403	11229.003834
511.532010	11285.794953
511.896561	11382.456557
512.261053	11576.387225
512.625488	11497.110040
512.989866	11485.757361
513.354186	11457.443721
513.718449	11469.557613
514.082655	11607.339910
514.446803	11573.919580
514.810894	11674.233501
515.174927	11680.469408
515.538904	11665.298056
515.902822	11826.894763
516.266684	11699.865248
516.630488	11788.753393
516.994235	11794.089454
517.357925	11896.855896
517.721558	11960.092130
518.085133	12020.313753
518.448651	12053.177035
518.812112	12012.681447
519.175516	12010.954851
519.538863	12112.009821
519.902152	12118.762447
520.265385	12230.391237
520.628560	12251.712797
520.991678	12198.647091
521.354739	12247.309349
521.717743	12323.052686
522.080690	12301.322792
522.443580	12428.722832
522.806413	12451.261831
523.169189	12428.619489
523.531908	12492.868994
523.894569	12454.246194
524.257174	12474.519194
524.619722	12584.441554
524.982213	12548.024259
525.344647	12550.670864
525.707025	12558.522462
526.069345	12660.946105
526.431608	12642.104792
526.793815	12719.778891
527.155964	12617.919857
527.518057	12646.830874
527.880093	12605.843773
528.242072	12727.895148
528.603995	12639.984987
528.965860	12664.948781
529.327669	12691.150178
529.689421	12637.494657
530.051117	12643.115544
530.412755	12682.880165
530.774337	12691.288810
531.135862	12656.121721
531.497331	12698.447248
531.858743	12667.673525
532.220098	12759.039397
532.581396	12682.126513
532.942638	12605.937034
533.303824	12681.148529
533.664953	12654.543839
534.026025	12617.624949
534.387040	12712.658261
534.747999	12687.318901
535.108902	12734.398237
535.469748	12612.616563
535.830537	12633.761683
536.191270	12685.632635
536.551947	12611.126902
536.912567	12667.343329
537.273131	12698.807691
537.633638	12571.508474
537.994089	12641.721665
538.354483	12551.800083
538.714821	12678.471676
539.075103	12769.005758
539.435328	12689.169005
539.795497	12675.378928
540.155609	12664.182526
540.515665	12766.649019
540.875665	12626.630971
541.235609	12716.476935
541.595496	12683.056606
541.955328	12859.426414
542.315102	12718.203530
542.674821	12651.660299
543.034483	12666.619923
543.394090	12662.032473
543.753640	12634.724543
544.113134	12879.696894
544.472571	12635.316879
544.831953	12917.157708
545.191278	12740.344278
545.550548	12671.015810
545.909761	12781.530505
546.268918	12827.556239
546.628019	12882.068757
546.987064	12780.524795
547.346053	12633.804533
547.704986	12829.401302
548.063863	12709.300852
548.422684	12767.037188
548.781449	12719.269734
549.140158	12818.845126
549.498811	12772.247220
549.857408	12636.055408
550.215949	12835.627127
550.574434	12806.002786
550.932864	12746.318045
551.291237	12945.297429
551.649555	12826.668996
552.007817	12887.798028
552.366022	12806.922797
552.724173	12848.708921
553.082267	12940.178137
553.440305	13029.666179
553.798288	12856.726876
554.156215	12932.288731
554.514086	12977.134836
554.871902	12921.412442
555.229661	12948.859004
555.587365	12891.488152
555.945014	12914.909353
556.302606	12894.525448
556.660143	12955.858646
557.017625	12984.000887
557.375050	12952.803707
557.732421	13046.707800
558.089735	13039.665308
558.446994	13011.898633
558.804197	13126.738638
559.161345	13120.066671
559.518437	12937.715533
559.875474	13035.657591
560.232455	13065.647415
560.589381	13105.109567
560.946251	13039.461141
561.303065	13214.754663
561.659825	13163.523937
562.016528	13081.612749
562.373177	13024.090663
562.729770	13151.515909
563.086307	13037.784958
563.442789	13148.707986
563.799216	13183.872555
564.155587	13119.441568
564.511904	13139.475113
564.868164	13160.383299
565.224370	13219.964696
565.580520	13171.035257
565.936615	13236.169485
566.292654	13176.257892
566.648638	13249.757915
567.004567	13249.170621
567.360441	13253.236311
567.716260	13209.428684
568.072023	13297.676603
568.427732	13279.596505
568.783385	13175.839476
569.138982	13291.798618
569.494525	13288.912557
569.850013	13230.294020
570.205445	13227.244122
570.560823	13238.412798
570.916145	13188.328935
571.271412	13203.023898
571.626625	13156.945232
571.981782	13171.168847
572.336884	13114.997791
572.691931	13202.522304
573.046923	13092.020211
573.401860	13062.645408
573.756743	13062.710943
574.111570	13088.877052
574.466342	13056.885890
574.821059	13111.839508
575.175722	12979.736071
575.530330	13010.240093
575.884882	12932.066920
576.239380	12937.753342
576.593823	12932.762600
576.948211	12932.071962
577.302544	12804.233341
577.656823	12817.864621
578.011047	12879.434754
578.365216	12821.441320
578.719330	12752.226277
579.073389	12730.418246
579.427394	12733.463103
579.781344	12729.019326
580.135239	12657.830672
580.489080	12660.197493
580.842866	12546.834546
581.196597	12652.761792
581.550273	12635.208494
581.903895	12598.294645
582.257463	12721.646638
582.610975	12554.905434
582.964434	12615.185031
583.317837	12535.035726
583.671186	12497.096002
584.024481	12547.583158
584.377721	12437.812033
584.730906	12511.009587
585.084037	12525.815455
585.437113	12445.600615
585.790135	12462.924541
586.143103	12373.363401
586.496016	12385.124413
586.848874	12398.133111
587.201679	12397.886094
587.554428	12281.009463
587.907124	12337.079697
588.259765	12268.094027
588.612352	12333.316475
588.964884	12196.428984
589.317362	12248.249525
589.669786	12238.126888
590.022155	12201.414685
590.374470	12296.697534
590.726731	12175.543483
591.078937	12067.229252
591.431090	12089.400246
591.783188	12029.397913
592.135232	11943.834408
592.487222	12004.418995
592.839157	12014.627332
593.191038	11951.098711
593.542866	11898.501832
593.894639	11758.388003
594.246358	11811.672999
594.598022	11818.539050
594.949633	11721.189328
595.301190	11712.742875
595.652692	11661.081130
596.004141	11752.560429
596.355535	11532.425843
596.706876	11510.428768
597.058162	11483.040179
597.409395	11575.615929
597.760573	11603.939652
598.111698	11499.111378
598.462768	11495.537200
598.813785	11512.422545
599.164748	11377.047399
599.515657	11453.488936
599.866511	11327.001344
600.217312	11449.864346
600.568060	11222.188194
600.918753	11380.026721
601.269392	11390.388813
601.619978	11288.683534
601.970510	11327.747435
602.320988	11374.274765
602.671412	11438.746081
603.021783	11366.070287
603.372100	11294.783330
603.722363	11310.388222
604.072572	11312.681947
604.422728	11324.158134
604.772830	11263.969277
605.122878	11277.048551
605.472872	11251.555436
605.822813	11310.156329
606.172701	11269.539752
606.522534	11306.859414
606.872314	11361.316479
607.222041	11295.562188
607.571714	11369.024403
607.921333	11245.395146
608.270899	11292.625716
608.620411	11344.942811
608.969870	11300.295832
609.319276	11284.509459
609.668627	11291.783844
610.017926	11376.812986
610.367171	11412.736248
610.716362	11400.670246
611.065500	11377.367513
611.414585	11389.791436
611.763616	11446.980806
612.112594	11410.082080
612.461518	11431.234762
612.810389	11479.057668
613.159207	11423.889801
613.507971	11421.979203
613.856682	11521.448731
614.205340	11475.670012
614.553945	11618.858946
614.902496	11494.975111
615.250994	11562.524052
615.599439	11548.023173
615.947830	11595.735174
616.296169	11549.994264
616.644454	11563.244937
616.992686	11580.644480
617.340864	11676.562514
617.688990	11553.873432
618.037063	11686.402846
618.385082	11659.289000
618.733048	11700.860875
619.080961	11690.599607
619.428821	11680.910509
619.776628	11690.196314
620.124382	11631.222376
620.472083	11650.373720
620.819731	11673.426916
621.167326	11600.259609
621.514868	11571.872872
621.862357	11473.018366
622.209793	11472.463839
622.557176	11388.800849
622.904506	11324.538741
623.251783	11243.464384
623.599007	11186.645539
623.946179	11140.070319
624.293297	11113.488314
624.640363	10977.941770
624.987376	10955.521238
625.334336	10900.542414
625.681243	10816.506380
626.028097	10784.830289
626.374899	10746.235216
626.721647	10720.963911
627.068343	10691.677328
627.414987	10631.090221
627.761577	10561.461804
628.108115	10601.750705
628.454600	10470.907557
628.801032	10495.848666
629.147412	10474.247322
629.493739	10450.097674
629.840014	10361.877482
630.186236	10410.857332
630.532405	10314.838475
630.878521	10349.841727
631.224585	10306.200458
631.570597	10227.384538
631.916556	10233.320497
632.262462	10220.717612
632.608316	10200.797493
632.954117	10171.634418
633.299866	10159.102109
633.645562	10127.902408
633.991206	10029.423468
634.336797	9927.773642
634.682336	9917.479606
635.027823	9864.766780
635.373257	9824.336727
635.718639	9761.733157
636.063968	9725.862827
636.409245	9604.509651
636.754470	9597.633517
637.099642	9544.093943
637.444762	9447.039129
637.789829	9453.118760
638.134845	9382.373728
638.479808	9362.922436
638.824719	9336.138785
639.169577	9247.447245
639.514383	9248.697451
639.859137	9177.491153
640.203839	9206.255977
640.548489	9131.246128
640.893086	9138.046645
641.237632	9068.345131
641.582125	9073.567767
641.926566	9062.981343
642.270955	9046.753869
642.615292	9039.436634
642.959576	9022.432823
643.303809	9004.443465
643.647990	9023.761167
643.992118	9004.319957
644.336195	8981.223910
644.680219	8983.981422
645.024192	9011.334722
645.368112	9084.164272
645.711981	9061.388339
646.055797	9198.840440
646.399562	9156.706476
646.743274	9321.516918
647.086935	9387.835818
647.430544	9366.385708
647.774101	9386.971260
648.117606	9416.036032
648.461059	9479.403336
648.804460	9419.809336
649.147810	9302.050503
649.491108	9266.273434
649.834354	9203.967293
650.177548	9053.662771
650.520690	8961.621384
650.863781	8952.000342
651.206820	8936.198845
651.549807	8834.289399
651.892742	8746.694310
652.235626	8710.135862
652.578458	8663.850508
652.921238	8560.796721
653.263967	8595.772246
653.606644	8532.420066
653.949269	8512.356273
654.291843	8428.778984
654.634365	8503.158688
654.976836	8419.616687
655.319255	8417.058301
655.661622	8405.614882
656.003938	8363.193572
656.346203	8324.553128
656.688416	8365.991413
657.030577	8318.705390
657.372687	8280.332127
657.714746	8310.674832
658.056753	8337.191301
658.398708	8235.440652
658.740612	8222.096717
659.082465	8269.944829
659.424266	8226.220381
659.766016	8235.538954
660.107715	8211.795119
660.449362	8230.928819
660.790958	8223.306594
661.132503	8218.091521
661.473996	8218.240235
661.815438	8236.625323
662.156829	8266.002647
662.498168	8216.654792
662.839456	8206.277577
663.180693	8229.545022
663.521879	8253.898836
663.863013	8237.331084
664.204097	8225.605360
664.545129	8304.907752
664.886110	8291.856204
665.227040	8300.748800
665.567918	8307.362793
665.908746	8321.357037
666.249522	8345.473917
666.590248	8339.169954
666.930922	8349.935338
667.271545	8341.504008
667.612118	8361.550156
667.952639	8318.231521
668.293109	8325.528591
668.633528	8305.270715
668.973896	8286.265565
669.314213	8293.383674
669.654480	8251.345492
669.994695	8241.300993
670.334859	8219.490441
670.674973	8198.917492
671.015035	8225.877583
671.355047	8218.250317
671.695008	8197.553860
672.034918	8182.611880
672.374777	8179.927465
672.714585	8161.008015
673.054342	8186.758229
673.394049	8159.359558
673.733705	8200.944036
674.073310	8153.000142
674.412864	8159.092377
674.752368	8092.556707
675.091820	8140.810632
675.431223	8079.996673
675.770574	8027.200668
676.109875	8005.377513
676.449125	7963.132644
676.788324	7948.697300
677.127473	7859.592385
677.466571	7850.520829
677.805619	7787.423227
678.144616	7786.798124
678.483562	7763.843230
678.822458	7721.298412
679.161303	7703.036832
679.500098	7682.352978
679.838842	7662.619381
680.177535	7678.395672
680.516179	7703.354425
680.854771	7729.268476
681.193314	7850.840942
681.531805	7998.292172
681.870247	8133.059858
682.208638	8275.797609
682.546978	8343.356632
682.885268	8371.849233
683.223508	8302.515724
683.561697	8256.802541
683.899836	8222.419351
684.237925	8139.106722
684.575963	8112.733926
684.913951	8029.133951
685.251889	8050.432826
685.589776	8043.140797
685.927614	8023.727313
686.265401	8046.513329
686.603137	8051.884678
686.940824	8118.269113
687.278460	8174.467896
687.616046	8186.400307
687.953582	8294.447357
688.291068	8277.136035
688.628504	8332.434972
688.965889	8336.546033
689.303224	8296.438613
689.640510	8254.407993
689.977745	8140.457751
690.314930	8021.826798
690.652065	7950.509595
690.989150	7835.089857
691.326185	7681.644696
691.663170	7574.454642
692.000105	7457.184800
692.336990	7339.367994
692.673825	7267.544154
693.010610	7174.343302
693.347345	7083.615136
693.684030	6971.373845
694.020665	6921.728562
694.357251	6808.194216
694.693786	6798.192567
695.030272	6756.555156
695.366707	6661.174005
695.703093	6607.647033
696.039429	6602.618482
696.375716	6552.350617
696.711952	6542.560696
697.048139	6518.947932
697.384276	6481.333362
697.720363	6502.649881
698.056400	6475.339430
698.392388	6443.789369
698.728326	6446.163752
699.064214	6415.019504
699.400053	6410.195120
699.735842	6350.318815
700.071581	6302.682432
700.407270	6261.135762
700.742910	6232.630558
701.078501	6191.799732
701.414042	6146.328524
701.749533	6094.243323
702.084974	6033.739394
702.420366	6074.781948
702.755709	5999.673797
703.091002	5954.142096
703.426246	5954.994051
703.761440	5934.607625
704.096584	5894.001130
704.431679	5886.935953
704.766725	5864.220514
705.101721	5854.024780
705.436668	5871.232759
705.771565	5812.891486
706.106413	5872.924066
706.441212	5870.038006
706.775961	5888.143310
707.110661	5898.843159
707.445311	5958.573270
707.779913	5925.006747
708.114465	5958.182581
708.448967	6001.975084
708.783421	6120.923630
709.117825	6165.605897
709.452180	6197.332398
709.786485	6260.288848
710.120742	6389.871708
710.454949	6394.575104
710.789107	6467.835673
711.123216	6593.985507
711.457275	6628.048583
711.791286	6723.727163
712.125247	6753.873263
712.459159	6722.025773
712.793023	6851.134764
713.126837	6676.620100
713.460602	6743.455718
713.794318	6694.879160
714.127985	6638.899667
714.461602	6492.827193
714.795171	6501.215673
715.128691	6329.105639
715.462162	6241.598770
715.795584	6174.377504
716.128957	6128.871009
716.462281	6059.078754
716.795556	6024.584659
717.128782	5937.912101
717.461960	5837.580537
717.795088	5828.761038
718.128167	5756.828814
718.461198	5675.938459
718.794180	5656.933309
719.127113	5594.614565
719.459997	5563.833280
719.792833	5494.550182
720.125619	5489.057845
720.458357	5428.690027
720.791046	5399.862189
721.123686	5371.556110
721.456278	5330.069935
721.788821	5322.437628
722.121315	5280.122182
722.453761	5288.649294
722.786158	5277.904075
723.118506	5275.360813
723.450805	5250.528089
723.783056	5273.354433
724.115259	5259.576960
724.447412	5243.959465
724.779518	5293.201456
725.111574	5298.373680
725.443582	5331.892312
725.775542	5324.232279
726.107453	5406.425772
726.439315	5378.830495
726.771129	5452.128872
727.102895	5517.711763
727.434612	5559.979318
727.766281	5586.904120
728.097901	5644.030476
728.429473	5655.637732
728.760996	5662.531510
729.092471	5689.075706
729.423897	5677.460887
729.755276	5649.835364
730.086606	5662.592004
730.417887	5753.370582
730.749120	5843.508933
731.080305	5883.835644
731.411442	5959.495801
731.742530	5981.233257
732.073570	6003.646227
732.404562	6063.237706
732.735506	6061.075051
733.066401	6034.606473
733.397249	5966.387058
733.728048	5878.605447
734.058798	5734.642696
734.389501	5602.514053
734.720156	5517.341238
735.050762	5416.543367
735.381320	5341.740206
735.711831	5283.333397
736.042293	5208.232808
736.372707	5203.562179
736.703073	5158.552237
737.033391	5181.406308
737.363661	5169.211757
737.693883	5180.405639
738.024056	5207.116193
738.354182	5233.819184
738.684260	5282.486484
739.014290	5317.393953
739.344272	5356.233523
739.674207	5413.800980
740.004093	5444.970434
740.333931	5454.359583
740.663722	5472.923632
740.993464	5486.922916
741.323159	5462.846365
741.652806	5423.129635
741.982405	5389.391713
742.311956	5334.949772
742.641460	5324.849820
742.970915	5271.345534
743.300323	5202.501016
743.629683	5175.490514
743.958996	5127.425633
744.288260	5079.378395
744.617477	5015.060834
744.946647	5002.962065
745.275768	4952.434580
745.604842	4918.729425
745.933869	4882.087798
746.262847	4874.243763
746.591778	4857.938151
746.920662	4837.130788
747.249498	4831.129295
747.578286	4850.885577
747.907027	4874.977251
748.235720	4916.203807
748.564365	4928.284932
748.892963	4912.077622
749.221514	4928.993214
749.550017	4905.030089
749.878473	4903.109410
750.206881	4861.207339
750.535242	4850.484805
750.863555	4831.134336
751.191821	4816.731759
751.520039	4819.456503
751.848210	4796.662926
752.176334	4805.764729
752.504411	4787.193118
752.832440	4756.590794
753.160421	4770.587557
753.488356	4748.376234
753.816243	4724.771031
754.144082	4693.944375
754.471875	4680.214792
754.799620	4676.794370
755.127318	4669.290612
755.454969	4664.231814
755.782572	4653.365607
756.110129	4656.531452
756.437638	4640.679543
756.765100	4639.767095
757.092515	4638.219460
757.419882	4640.182990
757.747203	4647.525430
758.074477	4653.637829
758.401703	4644.105007
758.728882	4674.969472
759.056014	4691.529662
759.383099	4708.868711
759.710138	4733.467021
760.037129	4756.520218
760.364073	4769.516312
760.690970	4767.923308
761.017820	4764.747381
761.344623	4803.380263
761.671379	4867.511302
761.998088	4956.175116
762.324751	5184.914951
762.651366	5647.370240
762.977935	6344.531570
763.304456	6903.789616
763.630931	7207.095678
763.957359	7142.415154
764.283740	6845.975143
764.610074	6526.073602
764.936362	6128.944105
765.262602	5804.271113
765.588796	5461.243278
765.914943	5205.707190
766.241044	4981.403570
766.567097	4812.678672
766.893104	4656.665042
767.219064	4564.800096
767.544978	4464.493737
767.870845	4382.920306
768.196665	4330.245290
768.522438	4284.544709
768.848165	4240.195158
769.173846	4201.821895
769.499479	4174.045138
769.825066	4138.936022
770.150607	4096.882716
770.476101	4081.234975
770.801548	4061.191347
771.126949	4029.086759
771.452303	4006.424252
771.777611	3969.588541
772.102872	3966.619301
772.428087	3946.840334
772.753256	3915.965787
773.078378	3898.833426
773.403453	3865.637428
773.728482	3840.582893
774.053465	3825.766942
774.378401	3807.273469
774.703291	3784.507618
775.028135	3757.610542
775.352932	3753.028133
775.677683	3728.765060
776.002388	3710.722770
776.327046	3714.034808
776.651658	3693.756767
776.976224	3671.600896
777.300743	3675.144827
777.625216	3658.579595
777.949643	3646.080054
778.274024	3653.417454
778.598359	3629.479535
778.922647	3632.272334
779.246889	3623.367136
779.571086	3620.145838
779.895236	3623.490644
780.219339	3620.246661
780.543397	3624.992908
780.867409	3637.820124
781.191374	3635.871718
781.515294	3628.514154
781.839167	3644.716422
782.162995	3645.041577
782.486776	3637.406749
782.810511	3627.642034
783.134201	3616.120477
783.457844	3615.253398
783.781441	3608.929271
784.104993	3595.570213
784.428498	3593.432764
784.751958	3590.410592
785.075372	3584.772062
785.398739	3573.280752
785.722061	3579.816607
786.045337	3576.663366
786.368568	3606.315433
786.691752	3599.411572
787.014891	3648.701454
787.337983	3692.362888
787.661030	3783.433853
787.984031	3877.179149
788.306987	3954.777631
788.629897	4004.170856
788.952760	4009.678317
789.275579	3994.267509
789.598351	3943.326650
789.921078	3892.476531
790.243759	3827.959844
790.566395	3782.037453
790.888984	3733.130699
791.211529	3697.522509
791.534027	3649.470230
791.856480	3613.133593
792.178888	3594.554421
792.501249	3576.343252
792.823566	3543.308571
793.145836	3540.631719
793.468062	3531.116541
793.790241	3515.347812
794.112375	3522.203781
794.434464	3541.733211
794.756507	3536.999567
795.078505	3558.462280
795.400457	3598.715893
795.722364	3650.536434
796.044226	3692.733413
796.366042	3742.756782
796.687812	3736.273858
797.009538	3765.504989
797.331218	3754.888319
797.652852	3746.008326
797.974442	3720.316086
798.295986	3708.935681
798.617484	3681.993234
798.938938	3657.636899
799.260346	3644.000578
799.581709	3607.152264
799.903026	3600.039196
800.224299	3574.538519
800.545526	3547.830486
800.866708	3526.823998
801.187845	3515.708254
801.508936	3491.956858
801.829983	3487.540807
802.150984	3455.930252
802.471940	3446.402471
802.792851	3441.212603
803.113717	3434.785132
803.434538	3423.508071
803.755314	3413.609765
804.076045	3407.429311
804.396731	3397.200809
804.717372	3396.910943
805.037967	3397.213412
805.358518	3398.123341
805.679024	3412.651946
805.999485	3409.521389
806.319901	3415.976587
806.640272	3417.312493
806.960598	3431.571396
807.280879	3425.423709
807.601115	3438.210596
807.921306	3432.367899
808.241453	3432.224226
808.561554	3438.739917
808.881611	3435.579114
809.201623	3438.077005
809.521590	3430.326231
809.841513	3426.381528
810.161390	3435.074998
810.481223	3415.837955
810.801011	3411.709250
811.120755	3411.910896
811.440453	3399.413876
811.760107	3393.253586
812.079716	3382.742780
812.399281	3367.677292
812.718801	3372.771378
813.038276	3364.256869
813.357707	3358.832588
813.677093	3363.616643
813.996434	3351.253213
814.315731	3356.964840
814.634983	3356.085159
814.954191	3357.332844
815.273354	3376.443858
815.592473	3383.501474
815.911547	3404.956625
816.230577	3416.929365
816.549562	3443.602110
816.868502	3465.760502
817.187399	3483.248264
817.506250	3511.435876
817.825058	3519.181609
818.143821	3564.166345
818.462539	3612.863892
818.781213	3666.456398
819.099843	3749.005292
819.418429	3901.059095
819.736970	4057.428126
820.055466	4243.885283
820.373919	4481.290862
820.692327	4820.129497
821.010691	5328.295449
821.329011	6409.527167
821.647286	8155.503075
821.965517	10325.009003
822.283704	11961.670011
822.601847	13044.119167
822.919945	12632.027526
823.237999	11945.361878
823.556010	11045.949456
823.873976	10096.632131
824.191897	9127.838308
824.509775	8353.902726
824.827609	7547.207205
825.145398	7002.074472
825.463144	6625.482636
825.780845	6490.014229
826.098502	6558.031997
826.416116	6936.907476
826.733685	7441.589991
827.051210	7729.480205
827.368692	7633.511759
827.686129	7186.754623
828.003522	6631.221989
828.320872	6062.627727
828.638177	5606.413386
828.955439	5236.153239
829.272656	4902.176796
829.589830	4619.080720
829.906960	4351.629864
830.224046	4143.203358
830.541088	3973.908809
830.858086	3857.382538
831.175041	3760.199174
831.491952	3715.532031
831.808819	3695.843804
832.125642	3731.774628
832.442421	3837.366637
832.759157	4055.913259
833.075849	4432.910908
833.392497	4895.885436
833.709101	5287.527637
834.025662	5391.050252
834.342179	5271.375781
834.658653	5001.641282
834.975083	4724.425712
835.291469	4476.927743
835.607811	4253.478599
835.924110	4097.540587
836.240366	3937.678037
836.556578	3776.789612
836.872746	3638.087305
837.188871	3523.390973
837.504952	3429.708690
837.820990	3355.213039
838.136984	3299.336890
838.452935	3270.163733
838.768842	3254.558841
839.084706	3286.607976
839.400526	3423.664347
839.716303	3650.843945
840.032037	3860.346737
840.347727	3924.777724
840.663373	3837.679188
840.978977	3687.046991
841.294537	3555.636713
841.610054	3448.600414
841.925527	3373.527551
842.240957	3308.960453
842.556344	3243.543920
842.871687	3184.353212
843.186987	3125.482617
843.502244	3069.954307
843.817458	3029.262114
844.132629	2999.219357
844.447756	2979.021974
844.762840	2953.314610
845.077881	2937.525717
845.392879	2920.862183
845.707833	2912.856830
846.022745	2900.120355
846.337613	2894.461660
846.652438	2891.777245
846.967221	2883.555123
847.281960	2875.098588
847.596656	2873.881149
847.911309	2867.982999
848.225919	2862.586444
848.540485	2857.610825
848.855009	2858.551000
849.169490	2849.378621
849.483928	2847.931810
849.798323	2846.285873
850.112675	2843.427539
850.426984	2841.413598
850.741251	2838.638443
851.055474	2837.592403
851.369654	2836.415294
851.683792	2839.160202
851.997887	2835.467557
852.311938	2834.676096
852.625947	2836.619461
852.939914	2833.652742
853.253837	2837.826817
853.567718	2834.093842
853.881555	2830.935560
854.195350	2837.085767
854.509103	2834.877742
854.822812	2834.867660
855.136479	2833.562001
855.450103	2834.991168
855.763685	2831.333811
856.077224	2831.721980
856.390720	2831.727021
856.704173	2839.923937
857.017584	2841.232116
857.330953	2840.634740
857.644278	2840.886797
857.957561	2846.616069
858.270802	2845.723784
858.584000	2845.764114
858.897155	2844.891994
859.210268	2841.113649
859.523339	2840.332270
859.836367	2841.743793
860.149352	2837.917558
860.462295	2838.895542
860.775195	2831.006136
861.088054	2831.106959
861.400869	2827.268120
861.713642	2829.241732
862.026373	2830.925477
862.339062	2834.824810
862.651708	2835.976713
862.964312	2843.180522
863.276873	2842.321006
863.589392	2850.374249
863.901869	2858.140146
864.214303	2863.854294
864.526696	2870.821169
864.839045	2876.956253
865.151353	2886.642830
865.463619	2887.540156
865.775842	2891.610887
866.088023	2895.999212
866.400162	2893.337483
866.712258	2895.379150
867.024313	2896.752864
867.336325	2896.858728
867.648296	2898.386198
867.960224	2898.839902
868.272110	2904.775861
868.583954	2901.723442
868.895755	2904.914492
869.207515	2905.040521
869.519233	2912.819022
869.830909	2913.600400
870.142542	2920.012748
870.454134	2915.813467
870.765684	2920.978129
871.077191	2929.820313
871.388657	2935.448761
871.700081	2942.645008
872.011463	2948.074331
872.322803	2955.550362
872.634101	2959.545477
872.945357	2963.013790
873.256571	2975.525934
873.567744	2980.912407
873.878874	2985.267964
874.189963	2993.127123
874.501010	2997.356651
874.812015	2996.653410
875.122979	3006.697909
875.433900	3007.507014
875.744780	3012.966584
876.055618	3016.039167
876.366415	3015.562778
876.677169	3024.097452
876.987882	3029.854449
877.298554	3038.031201
877.609183	3052.038047
877.919771	3072.278279
878.230317	3093.428440
878.540822	3131.630304
878.851285	3180.519414
879.161707	3245.134404
879.472087	3358.449460
879.782425	3519.433667
880.092722	3794.786531
880.402977	4217.981314
880.713191	4761.730250
881.023363	5362.993711
881.333494	5800.638961
881.643583	6089.156799
881.953631	6170.165620
882.263637	6122.514114
882.573602	5975.244366
882.883526	5812.364685
883.193408	5607.890444
883.503248	5385.237802
883.813048	5172.382642
884.122806	4950.297130
884.432522	4708.903999
884.742197	4478.906396
885.051831	4273.320580
885.361424	4075.966969
885.670975	3904.451792
885.980485	3757.250099
886.289954	3631.054895
886.599382	3527.192003
886.908768	3446.707461
887.218113	3365.635625
887.527417	3300.977785
887.836680	3239.173239
888.145901	3192.227494
888.455082	3158.489572
888.764221	3123.647637
889.073319	3094.141764
889.382376	3075.429001
889.691392	3058.478121
890.000366	3051.024775
890.309300	3042.250647
890.618193	3040.942467
890.927044	3033.237063
891.235855	3034.590613
891.544625	3038.212682
891.853353	3043.173178
892.162041	3057.520302
892.470687	3084.661874
892.779293	3119.735702
893.087858	3163.949142
893.396381	3243.024681
893.704864	3348.674663
894.013306	3507.783560
894.321707	3695.148125
894.630068	3851.844831
894.938387	3929.360133
895.246665	3933.955145
895.554903	3875.722256
895.863100	3789.309317
896.171256	3712.252760
896.479371	3639.382881
896.787446	3563.440419
897.095480	3492.332424
897.403473	3434.379319
897.711425	3375.604506
898.019336	3328.434430
898.327207	3273.611882
898.635038	3227.684450
898.942827	3175.536234
899.250576	3134.468474
899.558284	3090.577668
899.865952	3068.515058
900.173579	3034.320912
900.481165	3016.676873
900.788711	2995.743482
901.096216	2982.036584
901.403681	2970.633494
901.711105	2958.002883
902.018489	2949.753035
902.325832	2959.694191
902.633135	2970.265490
902.940397	3007.091119
903.247619	3099.936570
903.554800	3272.459978
903.861941	3554.991445
904.169041	3814.056342
904.476101	3984.742249
904.783121	4003.568438
905.090100	3938.356072
905.397039	3836.350844
905.703938	3730.247159
906.010796	3626.664050
906.317614	3540.404867
906.624391	3456.131898
906.931129	3384.368552
907.237826	3317.585867
907.544483	3250.654467
907.851099	3178.737366
908.157675	3103.876232
908.464211	3032.397711
908.770707	2974.794967
909.077163	2927.634973
909.383578	2889.072666
909.689954	2858.152749
909.996289	2841.741273
910.302584	2829.546722
910.608839	2821.188489
910.915054	2811.360759
911.221229	2804.613175
911.527363	2808.799853
911.833458	2807.040490
912.139513	2808.119297
912.445527	2812.061480
912.751502	2823.406596
913.057436	2839.424863
913.363331	2860.070908
913.669186	2886.879764
913.975000	2927.367792
914.280775	2985.386431
914.586510	3066.264183
914.892205	3175.387520
915.197859	3322.967298
915.503475	3504.194259
915.809050	3683.472813
916.114585	3813.577432
916.420081	3890.318917
916.725536	3923.381324
917.030952	3888.494019
917.336328	3844.608254
917.641665	3798.668219
917.946961	3739.497676
918.252218	3679.666742
918.557435	3609.748458
918.862612	3540.656924
919.167750	3479.520331
919.472848	3406.405956
919.777906	3336.316274
920.082925	3266.609719
920.387904	3194.105324
920.692843	3142.322592
920.997743	3086.443922
921.302603	3038.162271
921.607423	3002.531395
921.912204	2970.751962
922.216946	2943.277673
922.521647	2917.862696
922.826310	2897.821589
923.130932	2877.886346
923.435516	2858.641741
923.740059	2840.785974
924.044564	2826.229642
924.349028	2814.884526
924.653454	2801.575880
924.957840	2783.639454
925.262186	2778.464710
925.566493	2765.539191
925.870761	2753.057294
926.174989	2750.582088
926.479178	2744.109246
926.783328	2734.334449
927.087438	2730.417472
927.391509	2722.903633
927.695541	2714.011037
927.999533	2709.685727
928.303486	2705.405788
928.607400	2701.375385
928.911275	2700.682227
929.215110	2695.189889
929.518906	2693.004549
929.822663	2690.531863
930.126381	2687.633200
930.430060	2688.210412
930.733699	2689.153108
931.037299	2690.670495
931.340861	2690.121009
931.644383	2691.489682
931.947866	2690.854497
932.251309	2689.896678
932.554714	2691.797193
932.858080	2691.018335
933.161407	2690.892306
933.464694	2687.539938
933.767943	2686.183868
934.071153	2683.580112
934.374323	2681.125070
934.677455	2683.307890
934.980548	2679.600121
935.283602	2681.422498
935.586617	2679.242199
935.889593	2681.699762
936.192530	2682.566840
936.495428	2682.168589
936.798287	2683.139011
937.101108	2690.872141
937.403890	2696.369519
937.706632	2703.800180
938.009336	2716.924824
938.312002	2726.182903
938.614628	2737.555746
938.917216	2750.229207
939.219765	2758.907553
939.522275	2765.700508
939.824747	2767.787546
940.127179	2764.440220
940.429573	2766.398708
940.731929	2770.540016
941.034246	2763.633635
941.336524	2765.448451
941.638763	2765.458533
941.940964	2765.995416
942.243126	2759.867893
942.545250	2754.897316
942.847335	2747.887591
943.149381	2742.788464
943.451389	2738.841241
943.753359	2730.462843
944.055290	2727.516288
944.357182	2722.074363
944.659036	2719.450442
944.960851	2715.795606
945.262628	2713.138918
945.564367	2714.336192
945.866067	2711.014071
946.167729	2709.695810
946.469352	2709.589945
946.770937	2709.824359
947.072484	2705.544419
947.373992	2706.046014
947.675462	2704.498380
947.976893	2702.781867
948.278286	2701.065354
948.579641	2698.748944
948.880958	2698.176773
949.182236	2697.410518
949.483476	2696.845908
949.784678	2695.923377
950.085841	2692.928932
950.386967	2697.231557
950.688054	2697.473532
950.989103	2701.080478
951.290114	2704.400077
951.591087	2708.228834
951.892021	2709.965511
952.192917	2718.943806
952.493776	2721.585371
952.794596	2725.968654
953.095378	2726.238356
953.396122	2728.559807
953.696828	2726.445043
953.997496	2723.937069
954.298126	2721.711400
954.598718	2719.566389
954.899272	2714.268136
955.199788	2710.898125
955.500266	2706.562732
955.800706	2695.872966
956.101108	2690.647810
956.401472	2683.754032
956.701798	2679.101047
957.002087	2671.148627
957.302337	2668.864984
957.602550	2664.390960
957.902724	2660.847029
958.202861	2652.163641
958.502960	2647.677014
958.803022	2644.448155
959.103045	2639.701909
959.403031	2638.245016
959.702979	2633.468522
960.002889	2633.551701
960.302762	2628.697070
960.602596	2625.148098
960.902393	2621.599126
961.202153	2620.323714
961.501875	2618.541666
961.801559	2619.277674
962.101205	2618.524022
962.400814	2613.697117
962.700385	2612.633433
962.999918	2613.145111
963.299414	2611.287445
963.598873	2613.193002
963.898293	2611.451283
964.197677	2611.670573
964.497022	2609.258381
964.796331	2608.293000
965.095601	2606.314347
965.394835	2608.398864
965.694030	2609.054214
965.993189	2606.538678
966.292309	2608.091354
966.591393	2607.466251
966.890439	2607.289810
967.189447	2603.753441
967.488419	2607.819132
967.787353	2605.469954
968.086249	2608.724019
968.385108	2607.110849
968.683930	2605.666559
968.982714	2605.646394
969.281462	2609.326437
969.580172	2608.797115
969.878844	2609.800305
970.177480	2611.524380
970.476078	2610.495984
970.774639	2613.949175
971.073162	2617.707355
971.371649	2612.323402
971.670098	2612.071345
971.968510	2613.750049
972.266885	2616.298352
972.565223	2620.162397
972.863524	2621.389918
973.161788	2620.427057
973.460014	2621.163066
973.758204	2622.466204
974.056356	2622.614918
974.354471	2624.243211
974.652550	2622.438478
974.950591	2625.203551
975.248595	2624.570886
975.546563	2624.759929
975.844493	2623.171966
976.142386	2621.203395
976.440243	2618.879423
976.738062	2622.186420
977.035845	2618.702983
977.333590	2616.847838
977.631299	2615.978239
977.928971	2615.711058
978.226606	2612.872888
978.524204	2615.597632
978.821765	2614.274329
979.119290	2617.019237
979.416777	2612.278032
979.714228	2616.147118
980.011642	2614.909514
980.309020	2617.152828
980.606360	2618.576954
980.903664	2624.182717
981.200931	2628.066926
981.498162	2630.884931
981.795356	2645.632827
982.092513	2661.091525
982.389633	2677.553413
982.686717	2696.760209
982.983764	2715.052036
983.280775	2726.944117
983.577749	2729.366392
983.874686	2732.975858
984.171587	2729.575600
984.468451	2722.240721
984.765279	2716.337530
985.062070	2708.332177
985.358824	2702.527289
985.655543	2690.773839
985.952224	2682.788651
986.248869	2672.897907
986.545478	2653.302942
986.842050	2642.895480
987.138586	2630.620270
987.435086	2620.555607
987.731549	2615.300204
988.027975	2613.281222
988.324366	2608.151848
988.620719	2605.127155
988.917037	2601.641197
989.213318	2602.878801
989.509563	2599.113059
989.805772	2597.633480
990.101944	2596.834457
990.398080	2594.921339
990.694180	2594.838160
990.990244	2593.857656
991.286271	2596.816813
991.582262	2596.012749
991.878217	2596.010229
992.174136	2597.404108
992.470019	2596.955445
992.765865	2599.791094
993.061676	2599.279417
993.357450	2599.589448
993.653188	2600.753954
993.948890	2604.975921
994.244556	2606.644543
994.540186	2613.492950
994.835780	2616.043774
995.131337	2624.888478
995.426859	2629.773357
995.722345	2637.501445
996.017795	2648.234062
996.313208	2656.244455
996.608586	2664.542195
996.903928	2666.707370
997.199234	2667.251815
997.494504	2668.305416
997.789738	2669.795077
998.084936	2661.537667
998.380099	2661.401556
998.675225	2654.926194
998.970316	2648.995276
999.265371	2641.080665
999.560390	2634.638070
999.855373	2629.110445
1000.150320	2620.316152
1000.445232	2615.501850
1000.740108	2610.311982
1001.034948	2606.422732
1001.329752	2606.132866
1001.624521	2602.399891
1001.919254	2597.159612
1002.213951	2591.276585
1002.508613	2592.730958
1002.803239	2591.122830
1003.097829	2586.656368
1003.392384	2591.916812
1003.686903	2589.028231
1003.981386	2587.667119
1004.275834	2585.519587
1004.570246	2588.468662
1004.864623	2586.003538
1005.158964	2586.951275
1005.453270	2584.937334
1005.747540	2587.740216
1006.041775	2586.759711
1006.335974	2585.070925
1006.630138	2585.179310
1006.924266	2586.963878
1007.218359	2584.367684
1007.512416	2584.256778
1007.806438	2583.971953
1008.100425	2583.528332
1008.394376	2583.719896
1008.688292	2583.485482
1008.982172	2582.789803
1009.276017	2582.086562
1009.569827	2583.039340
1009.863602	2584.324834
1010.157341	2584.833991
1010.451045	2583.477920
1010.744714	2580.143197
1011.038347	2584.292067
1011.331945	2581.801737
1011.625508	2582.961202
1011.919036	2581.259812
1012.212528	2581.098496
1012.505986	2582.567992
1012.799408	2582.847776
1013.092795	2578.333423
1013.386147	2581.032961
1013.679464	2581.259812
1013.972745	2581.756366
1014.265992	2576.899214
1014.559204	2579.248392
1014.852380	2580.181006
1015.145521	2579.505491
1015.438628	2580.397775
1015.731699	2579.301324
1016.024736	2582.378949
1016.317737	2580.065059
1016.610703	2582.441963
1016.903635	2580.465831
1017.196531	2578.527507
1017.489393	2577.342836
1017.782219	2577.015161
1018.075011	2582.557910
1018.367768	2584.390369
1018.660490	2582.832652
1018.953177	2582.832652
1019.245829	2582.832652
