Dividing Wavelength (nm)	Counts (n)	Blue Motor Position (mm): 43.500000	Red Motor Position (mm): 0.000000	
326.493990	2154.672333
326.888308	2154.672333
327.282561	2154.672333
327.676750	2128.783487
328.070874	2133.088633
328.464933	2133.496966
328.858929	2144.897536
329.252859	2159.554690
329.646726	2169.783192
330.040528	2185.877075
330.434265	2203.911803
330.827938	2222.301932
331.221547	2242.718605
331.615091	2264.665269
332.008571	2282.357198
332.401986	2300.326391
332.795338	2323.861018
333.188625	2341.026147
333.581847	2364.578417
333.975006	2380.929400
334.368100	2399.884138
334.761129	2417.591191
335.154095	2433.591813
335.546996	2455.278857
335.939833	2488.477376
336.332606	2501.927174
336.725315	2515.455111
337.117960	2522.853004
337.510540	2530.374406
337.903056	2540.822197
338.295508	2546.594318
338.687896	2553.404917
339.080220	2563.290620
339.472480	2565.533933
339.864676	2571.298492
340.256807	2576.405181
340.648875	2575.959039
341.040879	2578.275449
341.432818	2581.007755
341.824694	2578.903073
342.216506	2581.758887
342.608253	2579.389544
342.999937	2580.927096
343.391557	2581.544638
343.783113	2577.100861
344.174605	2578.648495
344.566033	2573.864440
344.957397	2573.708164
345.348697	2570.685992
345.739934	2569.662638
346.131106	2565.342369
346.522215	2566.743810
346.913260	2562.542008
347.304241	2562.995712
347.695159	2559.232491
348.086012	2558.864487
348.476802	2559.124106
348.867528	2557.889023
349.258191	2554.720658
349.648789	2556.510268
350.039324	2551.660678
350.429796	2551.277550
350.820203	2549.503064
351.210548	2549.145142
351.600828	2553.573796
351.991045	2549.465255
352.381198	2549.482899
352.771288	2550.455842
353.161314	2550.886861
353.551276	2551.327962
353.941175	2545.996941
354.331010	2548.502395
354.720782	2548.341078
355.110490	2548.802343
355.500135	2546.939637
355.889717	2551.118754
356.279235	2549.563558
356.668689	2549.702189
357.058080	2552.169834
357.447408	2546.586756
357.836672	2548.600697
358.225873	2549.072045
358.615010	2547.710934
359.004084	2551.771583
359.393095	2553.299053
359.782043	2553.399876
360.170927	2556.719476
360.559748	2554.234187
360.948505	2556.404403
361.337199	2553.160421
361.725830	2554.145967
362.114398	2557.896585
362.502903	2557.188303
362.891344	2558.430947
363.279722	2555.247459
363.668037	2560.434806
364.056289	2560.094528
364.444478	2561.405228
364.832603	2558.320042
365.220665	2560.205433
365.608665	2559.431616
365.996601	2561.649724
366.384474	2561.201061
366.772284	2562.002605
367.160031	2558.793910
367.547715	2560.870866
367.935336	2560.868345
368.322893	2563.066288
368.710388	2566.176680
369.097820	2568.258677
369.485189	2563.840105
369.872495	2563.300702
370.259738	2565.969993
370.646918	2564.692060
371.034035	2566.653069
371.421090	2565.165929
371.808081	2565.788511
372.195010	2565.589386
372.581875	2565.407904
372.968678	2565.622153
373.355418	2567.870508
373.742096	2567.812535
374.128710	2566.600137
374.515262	2566.711042
374.901751	2565.400342
375.288177	2568.483008
375.674540	2567.411763
376.060841	2568.621640
376.447079	2569.975190
376.833254	2569.851681
377.219367	2566.711042
377.605417	2566.395970
377.991404	2566.519479
378.377329	2567.386557
378.763191	2565.140723
379.148991	2572.541137
379.534727	2570.176836
379.920402	2570.562484
380.306013	2573.047773
380.691563	2574.517269
381.077049	2571.628688
381.462474	2573.594738
381.847835	2573.617423
382.233134	2575.051632
382.618371	2574.577763
383.003545	2574.527352
383.388657	2579.389544
383.773706	2576.894173
384.158693	2577.753690
384.543618	2578.388875
384.928480	2580.864082
385.313280	2582.643609
385.698017	2584.130750
386.082692	2588.899681
386.467305	2587.256265
386.851856	2589.827253
387.236344	2593.779518
387.620770	2598.944180
388.005133	2599.720518
388.389435	2605.376692
388.773674	2607.988010
389.157851	2609.593618
389.541965	2614.133177
389.926018	2620.424537
390.310008	2624.371760
390.693936	2632.364510
391.077802	2637.698050
391.461606	2643.785244
391.845348	2646.643578
392.229027	2655.455515
392.612645	2665.953718
392.996200	2673.976714
393.379694	2679.516942
393.763125	2691.623273
394.146494	2701.564428
394.529801	2711.233362
394.913047	2723.558983
395.296230	2730.460322
395.679351	2737.835530
396.062410	2752.638879
396.445408	2758.133736
396.828343	2771.815428
397.211217	2779.969494
397.594028	2780.617282
397.976778	2797.391722
398.359466	2810.791109
398.742092	2817.130360
399.124656	2837.058041
399.507158	2850.901049
399.889598	2862.906557
400.271977	2880.164948
400.654294	2891.986453
401.036549	2909.771644
401.418742	2920.184147
401.800874	2946.569547
402.182944	2956.248562
402.564952	2989.996566
402.946898	2987.682677
403.328783	3001.387053
403.710606	3020.674508
404.092367	3048.481513
404.474067	3075.691141
404.855705	3076.094433
405.237282	3081.211204
405.618797	3117.401647
406.000250	3142.801501
406.381642	3177.708971
406.762972	3183.811288
407.144240	3182.677028
407.525447	3210.678117
407.906593	3219.873182
408.287677	3238.918661
408.668700	3264.348762
409.049661	3267.186931
409.430560	3285.614869
409.811399	3295.107362
410.192176	3320.585353
410.572891	3329.598936
410.953545	3369.252653
411.334138	3343.729291
411.714669	3401.377405
412.095139	3347.308510
412.475547	3400.815317
412.855894	3393.626631
413.236180	3424.584357
413.616405	3408.382089
413.996568	3432.859411
414.376670	3439.052469
414.756711	3433.580296
415.136691	3460.038792
415.516609	3482.091320
415.896466	3492.082887
416.276262	3520.119264
416.655997	3551.248389
417.035670	3556.118143
417.415283	3623.372177
417.794834	3646.221207
418.174324	3630.581027
418.553753	3630.081952
418.933121	3676.483253
419.312428	3666.073270
419.691674	3663.905574
420.070859	3697.255327
420.449983	3679.704550
420.829045	3729.611973
421.208047	3713.069427
421.586988	3762.026593
421.965867	3792.823002
422.344686	3797.549083
422.723444	3837.618695
423.102141	3745.141248
423.480777	3844.673789
423.859352	3809.360507
424.237866	3912.862957
424.616319	3896.282602
424.994712	3954.999441
425.373044	3947.215900
425.751314	4008.165970
426.129524	3943.223306
426.507673	4043.897669
426.885762	4019.785830
427.263789	4042.808780
427.641756	4045.387330
428.019662	4077.121393
428.397508	4077.166764
428.775292	4117.730408
429.153016	4125.135863
429.530679	4140.592041
429.908282	4140.904592
430.285824	4124.903970
430.663305	4194.013148
431.040726	4152.277435
431.418086	4143.730159
431.795385	4219.027353
432.172624	4254.680914
432.549802	4220.093558
432.926920	4237.868666
433.303977	4235.527050
433.680974	4275.173204
434.057910	4298.985095
434.434786	4305.543636
434.811601	4295.211791
435.188355	4400.292122
435.565050	4372.381774
435.941683	4371.726424
436.318257	4462.462152
436.694770	4465.743943
437.071222	4518.655894
437.447614	4459.341678
437.823946	4461.620279
438.200218	4472.864573
438.576429	4457.756235
438.952580	4485.265812
439.328670	4489.616327
439.704700	4534.202812
440.080670	4499.083614
440.456580	4560.310948
440.832429	4591.205660
441.208218	4495.083459
441.583947	4545.444586
441.959616	4565.354623
442.335224	4588.793467
442.710773	4608.829533
443.086261	4663.364736
443.461689	4617.318837
443.837057	4629.974653
444.212365	4705.791087
444.587612	4706.196899
444.962800	4675.433258
445.337927	4715.817942
445.712995	4603.541363
446.088002	4793.855003
446.462949	4817.530782
446.837837	4836.561138
447.212664	4824.018747
447.587431	5052.486360
447.962139	5349.710270
448.336786	5689.163926
448.711374	5671.310680
449.085901	5314.225588
449.460369	5256.655611
449.834776	5190.553482
450.209124	5429.171458
450.583412	5431.480306
450.957640	5561.065686
451.331808	5417.239047
451.705917	5268.058701
452.079965	5261.580819
452.453954	5299.376870
452.827883	5264.560141
453.201752	5271.844608
453.575562	5300.874092
453.949311	5437.038178
454.323001	5444.718376
454.696632	5436.266882
455.070202	5590.173309
455.443713	5620.914265
455.817164	5710.999684
456.190556	5786.594307
456.563888	5762.399289
456.937160	5837.179765
457.310373	5679.525240
457.683526	5736.523046
458.056619	5728.457200
458.429653	5711.634869
458.802628	5759.495584
459.175542	5788.492301
459.548398	5931.310710
459.921194	6113.429954
460.293930	6178.105438
460.666607	6433.439880
461.039224	6647.008363
461.411782	6771.923114
461.784280	6683.934815
462.156719	6690.079981
462.529099	6651.512634
462.901419	6508.832856
463.273680	6375.638010
463.645882	6369.848245
464.018024	6372.325972
464.390106	6437.319048
464.762130	6700.651281
465.134094	7090.650066
465.505999	7728.366110
465.877845	8435.760982
466.249631	8790.789283
466.621358	8708.862971
466.993026	8505.979214
467.364634	8294.225547
467.736184	8010.325406
468.107674	7856.355965
468.479105	7776.909901
468.850477	7701.481636
469.221790	7534.435442
469.593043	7312.909498
469.964238	7212.933335
470.335373	7185.640528
470.706449	7339.650298
471.077467	7536.517438
471.448425	8196.911113
471.819324	8780.596070
472.190164	8813.441707
472.560945	8324.706883
472.931667	7854.810851
473.302330	7658.762898
473.672934	7545.163017
474.043479	7622.224615
474.413965	7519.929522
474.784393	7470.029660
475.154761	7628.102601
475.525070	7643.659602
475.895321	7590.404852
476.265513	7694.938218
476.635645	7852.244904
477.005719	7848.670726
477.375734	7933.276411
477.745691	8042.493009
478.115588	8247.962878
478.485427	8484.713106
478.855207	8963.436199
479.224928	9400.373168
479.594591	9782.898442
479.964194	9787.710223
480.333739	9877.067196
480.703226	9872.925888
481.072653	9976.647628
481.442022	10081.236447
481.811333	10239.702598
482.180584	10079.572866
482.549777	10016.419812
482.918912	9952.437487
483.287988	9939.945508
483.657005	9850.253298
484.025964	9762.998487
484.394864	9832.473149
484.763706	9793.704155
485.132489	9698.330566
485.501213	9694.363177
485.869879	9756.860882
486.238487	9689.221201
486.607036	9767.069219
486.975527	9709.398419
487.343959	9762.842211
487.712333	9810.249222
488.080648	9849.497125
488.448905	9952.480337
488.817104	9958.212129
489.185244	10127.098344
489.553326	10342.297640
489.921350	10820.042749
490.289315	11449.161105
490.657222	11737.104251
491.025070	11917.892631
491.392861	11826.493991
491.760593	11668.410968
492.128267	11412.625342
492.495883	11170.839001
492.863440	10942.552870
493.230939	10710.637108
493.598380	10530.856959
493.965763	10509.311067
494.333088	10378.258711
494.700354	10302.069232
495.067563	10279.804977
495.434713	10277.022260
495.801805	10330.909674
496.168839	10283.152303
496.535815	10256.822356
496.902733	10303.049737
497.269593	10259.206822
497.636395	10263.930383
498.003139	10379.750893
498.369825	10303.402618
498.736453	10398.579602
499.103023	10340.129944
499.469535	10344.409884
499.835989	10400.976671
500.202385	10375.569256
500.568723	10392.159693
500.935003	10450.747983
501.301226	10418.524927
501.667390	10585.150186
502.033497	10683.127531
502.399546	10610.454257
502.765537	10524.386638
503.131470	10622.248037
503.497345	10710.380009
503.863163	10492.037553
504.228923	10623.354570
504.594625	10732.334234
504.960269	10643.178907
505.325856	10798.539707
505.691385	10675.938846
506.056856	10740.269010
506.422270	10842.947232
506.787625	10785.039497
507.152924	10833.936169
507.518164	10894.435056
507.883347	10765.084090
508.248472	10831.922228
508.613540	10940.337283
508.978550	11021.590600
509.343503	10998.366005
509.708398	11047.855012
510.073236	11177.384939
510.438016	11196.037209
510.802738	11107.030596
511.167403	11240.197716
511.532010	11293.490274
511.896561	11393.451314
512.261053	11584.377454
512.625488	11506.484065
512.989866	11495.229689
513.354186	11472.723458
513.718449	11481.217802
514.082655	11623.471602
514.446803	11582.454254
514.810894	11694.851820
515.174927	11685.019049
515.538904	11662.419557
515.902822	11827.562716
516.266684	11702.900022
516.630488	11798.298818
516.994235	11786.371448
517.357925	11902.381000
517.721558	11957.939557
518.085133	12026.703416
518.448651	12058.608879
518.812112	12014.438289
519.175516	12030.138962
519.538863	12120.771347
519.902152	12123.705298
520.265385	12231.210425
520.628560	12256.627922
520.991678	12200.804705
521.354739	12254.992068
521.717743	12328.156854
522.080690	12305.970736
522.443580	12434.247937
522.806413	12460.532513
523.169189	12448.700925
523.531908	12509.802230
523.894569	12472.437198
524.257174	12480.772746
524.619722	12591.536978
524.982213	12564.355077
525.344647	12562.406671
525.707025	12570.401941
526.069345	12674.766428
526.431608	12649.220381
526.793815	12736.281108
527.155964	12618.761729
527.518057	12648.633087
527.880093	12611.131943
528.242072	12727.900190
528.603995	12651.181390
528.965860	12675.910770
529.327669	12706.306407
529.689421	12645.447077
530.051117	12668.890963
530.412755	12702.928834
530.774337	12694.603368
531.135862	12658.982575
531.497331	12711.100544
531.858743	12672.818022
532.220098	12759.951846
532.581396	12702.192826
532.942638	12613.529012
533.303824	12685.869569
533.664953	12660.648677
534.026025	12612.372067
534.387040	12710.750184
534.747999	12687.722193
535.108902	12735.424112
535.469748	12609.929628
535.830537	12637.761838
536.191270	12682.290350
536.551947	12612.440123
536.912567	12675.043692
537.273131	12705.076366
537.633638	12580.448960
537.994089	12647.713076
538.354483	12557.947770
538.714821	12692.995240
539.075103	12767.546344
539.435328	12701.252650
539.795497	12683.505268
540.155609	12675.885564
540.515665	12778.115123
540.875665	12635.087506
541.235609	12731.849934
541.595496	12693.121269
541.955328	12869.972508
542.315102	12723.607647
542.674821	12665.079851
543.034483	12667.938185
543.394090	12671.940861
543.753640	12640.564720
544.113134	12882.028427
544.472571	12632.198925
544.831953	12924.109459
545.191278	12738.773958
545.550548	12679.696677
545.909761	12792.358903
546.268918	12838.309021
546.628019	12903.072724
546.987064	12788.731793
547.346053	12643.138229
547.704986	12839.448321
548.063863	12716.388715
548.422684	12766.873350
548.781449	12726.022360
549.140158	12817.065598
549.498811	12770.926438
549.857408	12639.879123
550.215949	12847.244466
550.574434	12807.401706
550.932864	12750.398859
551.291237	12951.818161
551.649555	12841.558044
552.007817	12900.889904
552.366022	12816.919405
552.724173	12871.966284
553.082267	12956.203965
553.440305	13035.284545
553.798288	12875.167417
554.156215	12942.408848
554.514086	12987.209582
554.871902	12931.388885
555.229661	12949.249693
555.587365	12910.274012
555.945014	12917.006473
556.302606	12894.943863
556.660143	12961.330818
557.017625	12995.817352
557.375050	12955.916619
557.732421	13054.985375
558.089735	13051.575034
558.446994	13021.973379
558.804197	13153.018173
559.161345	13131.767189
559.518437	12953.338069
559.875474	13044.083879
560.232455	13066.864854
560.589381	13107.373045
560.946251	13043.035319
561.303065	13221.391343
561.659825	13174.017099
562.016528	13093.845109
562.373177	13031.722970
562.729770	13168.267663
563.086307	13046.183520
563.442789	13148.889468
563.799216	13186.917412
564.155587	13135.706851
564.511904	13161.298268
564.868164	13168.933096
565.224370	13227.216396
565.580520	13182.521526
565.936615	13247.423861
566.292654	13174.629599
566.648638	13251.063574
567.004567	13244.903284
567.360441	13253.339655
567.716260	13221.474522
568.072023	13305.447542
568.427732	13282.656485
568.783385	13180.787369
569.138982	13292.343062
569.494525	13290.714770
569.850013	13249.841094
570.205445	13229.933578
570.560823	13244.076535
570.916145	13196.745141
571.271412	13208.125546
571.626625	13164.017971
571.981782	13168.060976
572.336884	13109.064353
572.691931	13205.617572
573.046923	13094.994492
573.401860	13071.686717
573.756743	13067.603383
574.111570	13087.009304
574.466342	13068.967015
574.821059	13124.482722
575.175722	12986.312256
575.530330	13010.650947
575.884882	12935.409205
576.239380	12950.303294
576.593823	12923.446547
576.948211	12928.454934
577.302544	12802.768886
577.656823	12817.904950
578.011047	12877.935010
578.365216	12815.739775
578.719330	12757.942946
579.073389	12729.503277
579.427394	12749.869538
579.781344	12739.701531
580.135239	12667.101354
580.489080	12681.677850
580.842866	12553.995505
581.196597	12658.743121
581.550273	12646.064619
581.903895	12597.823297
582.257463	12718.833674
582.610975	12557.675548
582.964434	12618.441616
583.317837	12540.041592
583.671186	12502.600942
584.024481	12560.523800
584.377721	12442.376797
584.730906	12518.543591
585.084037	12538.257023
585.437113	12453.847943
585.790135	12471.368473
586.143103	12387.899568
586.496016	12393.901062
586.848874	12410.494020
587.201679	12410.819174
587.554428	12285.843929
587.907124	12332.162051
588.259765	12266.548913
588.612352	12340.114471
588.964884	12202.591794
589.317362	12252.244639
589.669786	12241.045716
590.022155	12194.631812
590.374470	12297.423460
590.726731	12185.003208
591.078937	12079.227198
591.431090	12096.324271
591.783188	12025.803570
592.135232	11948.328597
592.487222	12009.266065
592.839157	12015.786797
593.191038	11952.472426
593.542866	11903.903429
593.894639	11752.759554
594.246358	11811.874645
594.598022	11818.317239
594.949633	11719.137579
595.301190	11712.808410
595.652692	11668.791575
596.004141	11764.255906
596.355535	11542.399766
596.706876	11513.282061
597.058162	11488.499749
597.409395	11583.901065
597.760573	11605.204981
598.111698	11497.828404
598.462768	11495.121305
598.813785	11514.507062
599.164748	11384.888914
599.515657	11468.972840
599.866511	11342.298726
600.217312	11470.487706
600.568060	11225.696837
600.918753	11395.966850
601.269392	11398.066490
601.619978	11303.512088
601.970510	11333.854793
602.320988	11379.152081
602.671412	11451.749737
603.021783	11376.560928
603.372100	11304.479990
603.722363	11317.965076
604.072572	11317.876856
604.422728	11323.424646
604.772830	11272.987902
605.122878	11283.929726
605.472872	11260.251426
605.822813	11312.533233
606.172701	11272.251893
606.522534	11314.050620
606.872314	11359.799091
607.222041	11295.950357
607.571714	11374.060516
607.921333	11246.410938
608.270899	11287.375355
608.620411	11352.920437
608.969870	11304.399331
609.319276	11283.831423
609.668627	11297.301387
610.017926	11384.089891
610.367171	11412.045610
610.716362	11405.850032
611.065500	11374.151256
611.414585	11391.200439
611.763616	11450.184459
612.112594	11415.914695
612.461518	11442.254724
612.810389	11488.658545
613.159207	11432.996645
613.507971	11428.000862
613.856682	11532.756039
614.205340	11484.418935
614.553945	11624.537806
614.902496	11505.783345
615.250994	11559.421222
615.599439	11552.179604
615.947830	11582.645818
616.296169	11546.916640
616.644454	11568.989332
616.992686	11580.256311
617.340864	11677.434633
617.688990	11556.789740
618.037063	11698.166379
618.385082	11671.085300
618.733048	11712.387474
619.080961	11689.009123
619.428821	11670.802996
619.776628	11688.321005
620.124382	11629.137859
620.472083	11656.029894
620.819731	11675.163594
621.167326	11598.522932
621.514868	11578.948131
621.862357	11476.244704
622.209793	11473.517440
622.557176	11389.753628
622.904506	11329.630306
623.251783	11244.396998
623.599007	11185.372648
623.946179	11136.390276
624.293297	11111.930598
624.640363	10981.624333
624.987376	10966.543721
625.334336	10903.491489
625.681243	10818.863119
626.028097	10797.312186
626.374899	10757.204766
626.721647	10725.793337
627.068343	10689.630620
627.414987	10623.616710
627.761577	10556.889477
628.108115	10602.763977
628.454600	10483.734773
628.801032	10495.631896
629.147412	10469.017124
629.493739	10440.879924
629.840014	10369.199758
630.186236	10419.938971
630.532405	10319.289814
630.878521	10354.494712
631.224585	10306.026538
631.570597	10225.882274
631.916556	10235.704963
632.262462	10215.399195
632.608316	10200.527791
632.954117	10172.849336
633.299866	10156.994907
633.645562	10129.336617
633.991206	10034.131906
634.336797	9932.716493
634.682336	9922.450183
635.027823	9868.000681
635.373257	9828.994753
635.718639	9761.143342
636.063968	9729.149660
636.409245	9613.442576
636.754470	9600.010422
637.099642	9547.441269
637.444762	9445.584756
637.789829	9454.484913
638.134845	9378.408860
638.479808	9353.508081
638.824719	9333.885389
639.169577	9241.412984
639.514383	9239.204958
639.859137	9174.065689
640.203839	9211.481133
640.548489	9134.916088
640.893086	9139.906831
641.237632	9063.198113
641.582125	9079.133200
641.926566	9056.137977
642.270955	9050.557420
642.615292	9040.054176
642.959576	9028.293164
643.303809	9009.635853
643.647990	9023.874592
643.992118	9007.137962
644.336195	8980.102254
644.680219	8982.302717
645.024192	9013.847738
645.368112	9089.651568
645.711981	9068.130882
646.055797	9204.133651
646.399562	9163.426334
646.743274	9320.279315
647.086935	9387.273729
647.430544	9367.794711
647.774101	9386.923369
648.117606	9408.615454
648.461059	9477.641453
648.804460	9410.082430
649.147810	9293.823340
649.491108	9259.505685
649.834354	9189.612608
650.177548	9052.183192
650.520690	8963.698339
650.863781	8955.743398
651.206820	8933.627856
651.549807	8840.532868
651.892742	8747.054753
652.235626	8701.417187
652.578458	8664.624325
652.921238	8555.130464
653.263967	8599.288451
653.606644	8526.842029
653.949269	8511.340481
654.291843	8433.114376
654.634365	8504.779419
654.976836	8425.073736
655.319255	8423.052233
655.661622	8412.806088
656.003938	8377.218062
656.346203	8334.605189
656.688416	8360.022687
657.030577	8320.973909
657.372687	8287.188096
657.714746	8317.689597
658.056753	8332.818100
658.398708	8237.633553
658.740612	8227.584013
659.082465	8271.237885
659.424266	8228.458653
659.766016	8236.453923
660.107715	8211.774955
660.449362	8234.712205
660.790958	8226.774908
661.132503	8220.123106
661.473996	8219.301398
661.815438	8239.899552
662.156829	8265.589272
662.498168	8211.603556
662.839456	8199.416566
663.180693	8227.039569
663.521879	8251.456397
663.863013	8229.572748
664.204097	8228.541833
664.545129	8302.639232
664.886110	8292.617418
665.227040	8298.008932
665.567918	8303.292062
665.908746	8323.212181
666.249522	8341.254471
666.590248	8342.280346
666.930922	8345.620110
667.271545	8347.654216
667.612118	8362.928912
667.952639	8326.299888
668.293109	8324.548087
668.633528	8302.840878
668.973896	8291.931822
669.314213	8299.581773
669.654480	8254.264320
669.994695	8247.609997
670.334859	8224.322387
670.674973	8206.413688
671.015035	8231.707677
671.355047	8223.825833
671.695008	8206.454017
672.034918	8186.748147
672.374777	8192.747120
672.714585	8163.629415
673.054342	8194.771143
673.394049	8159.430134
673.733705	8205.039973
674.073310	8150.577868
674.412864	8161.149167
674.752368	8099.916792
675.091820	8151.218094
675.431223	8081.032630
675.770574	8035.702574
676.109875	8011.807505
676.449125	7966.956359
676.788324	7948.541024
677.127473	7859.340328
677.466571	7845.693924
677.805619	7785.517671
678.144616	7786.414996
678.483562	7768.526462
678.822458	7716.446301
679.161303	7700.816204
679.500098	7672.769744
679.838842	7658.702405
680.177535	7674.718150
680.516179	7709.771814
680.854771	7726.763023
681.193314	7843.937082
681.531805	8000.142275
681.870247	8121.646686
682.208638	8269.448275
682.546978	8346.860234
682.885268	8381.802992
683.223508	8303.995303
683.561697	8259.257583
683.899836	8222.958755
684.237925	8140.929099
684.575963	8108.834593
684.913951	8028.554218
685.251889	8047.433339
685.589776	8045.217752
685.927614	8031.397429
686.265401	8049.661529
686.603137	8046.987197
686.940824	8121.853373
687.278460	8174.576281
687.616046	8180.260182
687.953582	8295.294271
688.291068	8278.235007
688.628504	8336.619130
688.965889	8342.242537
689.303224	8301.439438
689.640510	8264.172708
689.977745	8154.003332
690.314930	8029.809466
690.652065	7959.911347
690.989150	7844.017741
691.326185	7693.977879
691.663170	7579.833553
692.000105	7459.027342
692.336990	7346.183634
692.673825	7271.947602
693.010610	7176.982346
693.347345	7079.529280
693.684030	6968.034081
694.020665	6920.092708
694.357251	6804.189019
694.693786	6796.665097
695.030272	6755.690598
695.366707	6654.464229
695.703093	6606.611076
696.039429	6605.048319
696.375716	6551.937242
696.711952	6546.341562
697.048139	6514.305029
697.384276	6484.907540
697.720363	6506.907136
698.056400	6474.406817
698.392388	6445.825995
698.728326	6445.543690
699.064214	6411.314256
699.400053	6409.305356
699.735842	6346.212795
700.071581	6309.414892
700.407270	6265.541731
700.742910	6229.638633
701.078501	6191.270411
701.414042	6149.948073
701.749533	6092.342808
702.084974	6032.985742
702.420366	6080.261683
702.755709	6005.826526
703.091002	5952.541529
703.426246	5955.535975
703.761440	5944.417710
704.096584	5896.337705
704.431679	5887.435027
704.766725	5869.024734
705.101721	5854.158371
705.436668	5868.364343
705.771565	5810.340662
706.106413	5870.849631
706.441212	5870.017841
706.775961	5883.437393
707.110661	5895.039608
707.445311	5951.220747
707.779913	5923.365852
708.114465	5965.900587
708.448967	6012.069995
708.783421	6125.329598
709.117825	6170.609242
709.452180	6202.945723
709.786485	6262.708602
710.120742	6387.847685
710.454949	6400.095168
710.789107	6472.082845
711.123216	6594.552636
711.457275	6628.320805
711.791286	6730.157154
712.125247	6749.769763
712.459159	6714.837088
712.793023	6845.332396
713.126837	6676.660430
713.460602	6735.425160
713.794318	6689.989240
714.127985	6637.349512
714.461602	6494.314333
714.795171	6500.905642
715.128691	6324.699671
715.462162	6236.907977
715.795584	6171.846845
716.128957	6125.213652
716.462281	6064.102264
716.795556	6023.924268
717.128782	5938.607780
717.461960	5843.055230
717.795088	5826.227858
718.128167	5761.050780
718.461198	5673.337224
718.794180	5653.404501
719.127113	5589.618782
719.459997	5561.854627
719.792833	5492.508515
720.125619	5492.256457
720.458357	5427.333957
720.791046	5398.909411
721.123686	5370.447057
721.456278	5327.390562
721.788821	5319.196166
722.121315	5280.618736
722.453761	5289.977638
722.786158	5272.794865
723.118506	5274.592037
723.450805	5254.003964
723.783056	5282.065547
724.115259	5261.870685
724.447412	5250.092029
724.779518	5295.759842
725.111574	5295.895953
725.443582	5333.523125
725.775542	5322.760262
726.107453	5408.565741
726.439315	5379.785794
726.771129	5448.950425
727.102895	5510.966699
727.434612	5562.850255
727.766281	5580.297688
728.097901	5640.915043
728.429473	5657.404657
728.760996	5669.127860
729.092471	5690.204924
729.423897	5678.254869
729.755276	5650.178163
730.086606	5663.118805
730.417887	5751.989306
730.749120	5841.658830
731.080305	5879.074274
731.411442	5948.674964
731.742530	5975.496423
732.073570	5994.090719
732.404562	6063.260391
732.735506	6057.299227
733.066401	6034.523294
733.397249	5970.193130
733.728048	5876.251228
734.058798	5731.282767
734.389501	5605.349702
734.720156	5522.140417
735.050762	5413.332152
735.381320	5339.723744
735.711831	5287.588131
736.042293	5203.932704
736.372707	5204.388928
736.703073	5155.255322
737.033391	5182.643911
737.363661	5171.024052
737.693883	5178.371533
738.024056	5200.235018
738.354182	5234.630810
738.684260	5285.896824
739.014290	5320.549716
739.344272	5352.119942
739.674207	5411.729065
740.004093	5445.580413
740.333931	5450.931598
740.663722	5468.898271
740.993464	5482.300178
741.323159	5460.577846
741.652806	5416.739972
741.982405	5386.316609
742.311956	5331.781407
742.641460	5325.467361
742.970915	5268.013331
743.300323	5212.427048
743.629683	5173.655534
743.958996	5124.698368
744.288260	5080.757151
744.617477	5019.746586
744.946647	5005.253269
745.275768	4951.443993
745.604842	4915.924023
745.933869	4881.659300
746.262847	4870.568762
746.591778	4859.253892
746.920662	4833.760777
747.249498	4828.880940
747.578286	4851.208210
747.907027	4870.916601
748.235720	4918.699178
748.564365	4924.725878
748.892963	4911.316408
749.221514	4929.633441
749.550017	4902.809461
749.878473	4904.304163
750.206881	4863.758163
750.535242	4850.865412
750.863555	4833.470911
751.191821	4810.843692
751.520039	4818.249147
751.848210	4794.810302
752.176334	4802.460253
752.504411	4783.765134
752.832440	4756.827728
753.160421	4766.970530
753.488356	4744.471860
753.816243	4727.631886
754.144082	4696.023851
754.471875	4685.911296
754.799620	4674.450233
755.127318	4666.119726
755.454969	4660.592101
755.782572	4649.514166
756.110129	4653.796626
756.437638	4636.651662
756.765100	4635.701404
757.092515	4638.950428
757.419882	4643.081653
757.747203	4639.530160
758.074477	4654.885515
758.401703	4643.837826
758.728882	4673.557949
759.056014	4683.100853
759.383099	4705.014749
759.710138	4733.993822
760.037129	4754.914610
760.364073	4769.279378
760.690970	4764.079428
761.017820	4763.948358
761.344623	4800.234583
761.671379	4863.359912
761.998088	4953.178150
762.324751	5183.052245
762.651366	5640.478983
762.977935	6338.774572
763.304456	6898.700571
763.630931	7203.753393
763.957359	7133.106663
764.283740	6848.372212
764.610074	6529.799015
764.936362	6127.807325
765.262602	5806.985774
765.588796	5461.323937
765.914943	5205.772725
766.241044	4977.635308
766.567097	4809.192714
766.893104	4659.198222
767.219064	4559.574940
767.544978	4462.585660
767.870845	4379.547774
768.196665	4327.548272
768.522438	4281.706540
768.848165	4240.169953
769.173846	4202.794838
769.499479	4172.525230
769.825066	4134.482162
770.150607	4093.679063
770.476101	4081.456786
770.801548	4055.893094
771.126949	4026.175492
771.452303	4010.164788
771.777611	3972.567862
772.102872	3966.155515
772.428087	3947.228503
772.753256	3918.546858
773.078378	3901.744692
773.403453	3863.600802
773.728482	3840.378726
774.053465	3828.990760
774.378401	3805.287254
774.703291	3782.435704
775.028135	3756.952671
775.352932	3751.972011
775.677683	3733.027355
776.002388	3711.055486
776.327046	3714.654870
776.651658	3691.223587
776.976224	3675.308664
777.300743	3674.043335
777.625216	3656.132115
777.949643	3645.316319
778.274024	3652.968791
778.598359	3631.329638
778.922647	3633.089001
779.246889	3620.153400
779.571086	3620.155921
779.895236	3621.726240
780.219339	3625.643217
780.543397	3624.624903
780.867409	3633.693939
781.191374	3636.406080
781.515294	3631.070019
781.839167	3645.318840
782.162995	3644.512255
782.486776	3633.572952
782.810511	3628.688073
783.134201	3613.874643
783.457844	3614.086371
783.781441	3607.043879
784.104993	3594.624997
784.428498	3592.931169
784.751958	3588.898246
785.075372	3584.272988
785.398739	3570.339238
785.722061	3578.331988
786.045337	3576.509611
786.368568	3604.553549
786.691752	3600.455091
787.014891	3647.557112
787.337983	3690.825336
787.661030	3781.568626
787.984031	3877.549674
788.306987	3953.439204
788.629897	4000.768077
788.952760	4009.345600
789.275579	3995.069053
789.598351	3943.374541
789.921078	3894.755132
790.243759	3827.932118
790.566395	3780.595683
790.888984	3732.069536
791.211529	3691.911704
791.534027	3646.989982
791.856480	3608.505814
792.178888	3596.391921
792.501249	3571.856626
792.823566	3541.511400
793.145836	3538.128786
793.468062	3527.496992
793.790241	3511.781195
794.112375	3521.036754
794.434464	3542.491904
794.756507	3540.261194
795.078505	3555.883730
795.400457	3600.356789
795.722364	3647.950322
796.044226	3691.016900
796.366042	3740.475660
796.687812	3736.997264
797.009538	3762.661778
797.331218	3752.274481
797.652852	3743.011360
797.974442	3719.854820
798.295986	3715.340467
798.617484	3683.182947
798.938938	3660.180162
799.260346	3645.344046
799.581709	3609.062862
799.903026	3596.114658
800.224299	3577.900969
800.545526	3545.728325
800.866708	3527.449101
801.187845	3512.779344
801.508936	3493.063391
801.829983	3487.679439
802.150984	3453.671815
802.471940	3446.538582
802.792851	3438.520627
803.113717	3434.185235
803.434538	3424.440684
803.755314	3415.835435
804.076045	3407.381420
804.396731	3396.056468
804.717372	3399.451685
805.037967	3395.108731
805.358518	3399.227353
805.679024	3412.916607
805.999485	3410.025505
806.319901	3415.049015
806.640272	3416.147986
806.960598	3427.120057
807.280879	3425.572423
807.601115	3439.617078
807.921306	3429.219698
808.241453	3432.965275
808.561554	3438.470215
808.881611	3435.425358
809.201623	3441.636060
809.521590	3426.769697
809.841513	3426.868000
810.161390	3437.101542
810.481223	3414.693613
810.801011	3414.822163
811.120755	3410.733787
811.440453	3397.830954
811.760107	3391.703431
812.079716	3382.198336
812.399281	3373.807335
812.718801	3370.051675
813.038276	3362.923484
813.357707	3358.585571
813.677093	3367.762992
813.996434	3351.454859
814.315731	3358.762011
814.634983	3359.724872
814.954191	3356.982484
815.273354	3376.769013
815.592473	3384.834859
815.911547	3403.661048
816.230577	3419.197884
816.549562	3446.112605
816.868502	3463.088690
817.187399	3482.033346
817.506250	3511.191380
817.825058	3523.123791
818.143821	3567.541398
818.462539	3608.543623
818.781213	3665.937159
819.099843	3750.777258
819.418429	3901.527922
819.736970	4051.958474
820.055466	4242.556939
820.373919	4482.137776
820.692327	4818.455834
821.010691	5333.898691
821.329011	6413.018166
821.647286	8159.004156
821.965517	10343.356282
822.283704	11973.229377
822.601847	13055.338255
822.919945	12641.421716
823.237999	11962.932820
823.556010	11069.741181
823.873976	10116.343043
824.191897	9139.165781
824.509775	8369.396712
824.827609	7561.201448
825.145398	7012.713827
825.463144	6631.312730
825.780845	6495.746021
826.098502	6558.314302
826.416116	6935.188443
826.733685	7438.368693
827.051210	7728.880307
827.368692	7636.778427
827.686129	7191.770571
828.003522	6641.001828
828.320872	6071.109468
828.638177	5608.175269
828.955439	5240.145832
829.272656	4900.127567
829.589830	4618.848827
829.906960	4354.825956
830.224046	4144.824089
830.541088	3975.259839
830.858086	3859.517467
831.175041	3761.477107
831.491952	3715.068245
831.808819	3700.471584
832.125642	3732.145153
832.442421	3837.850588
832.759157	4052.303793
833.075849	4431.678346
833.392497	4893.286722
833.709101	5283.565291
834.025662	5395.693155
834.342179	5268.789669
834.658653	4999.559286
834.975083	4727.294128
835.291469	4480.353207
835.607811	4256.757869
835.924110	4099.340279
836.240366	3937.728448
836.556578	3776.227523
836.872746	3641.253149
837.188871	3524.031199
837.504952	3426.618463
837.820990	3355.432329
838.136984	3297.345634
838.452935	3271.056017
838.768842	3255.322576
839.084706	3289.597381
839.400526	3425.272475
839.716303	3648.061228
840.032037	3859.898074
840.347727	3927.326027
840.663373	3833.474866
840.978977	3689.025644
841.294537	3555.886250
841.610054	3448.232410
841.925527	3371.657283
842.240957	3306.588590
842.556344	3245.820001
842.871687	3185.164837
843.186987	3123.488841
843.502244	3070.256777
843.817458	3029.887217
844.132629	2995.751043
844.447756	2974.840337
844.762840	2952.923921
845.077881	2938.060079
845.392879	2925.560538
845.707833	2912.060328
846.022745	2899.964079
846.337613	2896.609191
846.652438	2888.563510
846.967221	2884.467572
847.281960	2875.726212
847.596656	2872.454503
847.911309	2865.737165
848.225919	2861.245497
848.540485	2855.609487
848.855009	2856.416072
849.169490	2849.061028
849.483928	2849.275277
849.798323	2844.672704
850.112675	2841.910152
850.426984	2844.108095
850.741251	2838.794718
851.055474	2837.902434
851.369654	2840.692713
851.683792	2835.341528
851.997887	2839.077023
852.311938	2835.429748
852.625947	2834.948318
852.939914	2832.246260
853.253837	2836.995027
853.567718	2835.865808
853.881555	2835.215499
854.195350	2833.993019
854.509103	2834.068637
854.822812	2834.401353
855.136479	2832.087463
855.450103	2834.880262
855.763685	2831.051506
856.077224	2830.365909
856.390720	2834.310612
856.704173	2838.711539
857.017584	2837.325222
857.330953	2838.930830
857.644278	2842.308403
857.957561	2844.849144
858.270802	2845.743949
858.584000	2842.636078
858.897155	2844.617251
859.210268	2840.518793
859.523339	2839.379492
859.836367	2839.671879
860.149352	2839.099708
860.462295	2838.295644
860.775195	2831.792556
861.088054	2829.803821
861.400869	2827.459684
861.713642	2831.134685
862.026373	2829.529078
862.339062	2833.652742
862.651708	2837.567197
862.964312	2840.188597
863.276873	2843.457786
863.589392	2849.025740
863.901869	2858.477904
864.214303	2865.817824
864.526696	2868.257742
864.839045	2876.893239
865.151353	2884.762480
865.463619	2884.119733
865.775842	2886.962943
866.088023	2893.760939
866.400162	2893.692884
866.712258	2896.944428
867.024313	2895.374109
867.336325	2896.989798
867.648296	2899.575910
867.960224	2899.737227
868.272110	2902.739234
868.583954	2900.647156
868.895755	2906.021026
869.207515	2903.742424
869.519233	2912.496388
869.830909	2912.095616
870.142542	2918.933941
870.454134	2916.211718
870.765684	2925.537853
871.077191	2931.640169
871.388657	2935.680654
871.700081	2943.161727
872.011463	2949.574074
872.322803	2957.889458
872.634101	2958.237297
872.945357	2963.875828
873.256571	2975.793115
873.567744	2982.170175
873.878874	2987.463387
874.189963	2993.749705
874.501010	2996.058554
874.812015	2995.057885
875.122979	3006.622292
875.433900	3004.247908
875.744780	3009.152951
876.055618	3019.247862
876.366415	3017.359949
876.677169	3024.500744
876.987882	3031.152546
877.298554	3040.662683
877.609183	3053.207594
877.919771	3070.382806
878.230317	3094.426589
878.540822	3131.383288
878.851285	3180.002696
879.161707	3249.827718
879.472087	3357.587423
879.782425	3519.194212
880.092722	3795.325934
880.402977	4220.547261
880.713191	4771.149646
881.023363	5372.085432
881.333494	5811.638759
881.643583	6103.151042
881.953631	6176.399007
882.263637	6126.163909
882.573602	5984.983875
882.883526	5820.735521
883.193408	5617.876970
883.503248	5398.564092
883.813048	5179.042007
884.122806	4953.384837
884.432522	4715.296182
884.742197	4489.944002
885.051831	4278.276035
885.361424	4074.575611
885.670975	3908.472112
885.980485	3761.651027
886.289954	3635.511275
886.599382	3532.409597
886.908768	3446.853654
887.218113	3365.262579
887.527417	3302.172539
887.836680	3242.936461
888.145901	3192.897967
888.455082	3160.080056
888.764221	3122.962040
889.073319	3094.807196
889.382376	3075.514700
889.691392	3057.560631
890.000366	3049.920762
890.309300	3043.331974
890.618193	3038.217723
890.927044	3035.886190
891.235855	3035.399718
891.544625	3039.319216
891.853353	3043.281563
892.162041	3057.832853
892.470687	3084.046853
892.779293	3119.004734
893.087858	3163.243380
893.396381	3240.662900
893.704864	3349.118284
894.013306	3510.742718
894.321707	3696.035368
894.630068	3847.194366
894.938387	3923.361160
895.246665	3933.065381
895.554903	3873.612533
895.863100	3783.254892
896.171256	3712.386351
896.479371	3638.127634
896.787446	3563.137950
897.095480	3492.254286
897.403473	3434.805297
897.711425	3377.628530
898.019336	3329.437619
898.327207	3273.183384
898.635038	3228.017166
898.942827	3175.705112
899.250576	3136.421921
899.558284	3094.482042
899.865952	3068.131930
900.173579	3040.836603
900.481165	3015.673683
900.788711	2995.516630
901.096216	2981.439208
901.403681	2968.433031
901.711105	2957.594550
902.018489	2953.808643
902.325832	2958.302832
902.633135	2971.737507
902.940397	3010.882067
903.247619	3101.819441
903.554800	3274.249588
903.861941	3552.465827
904.169041	3818.590859
904.476101	3991.192405
904.783121	4010.522710
905.090100	3947.180612
905.397039	3845.407277
905.703938	3734.509454
906.010796	3629.035913
906.317614	3544.415105
906.624391	3457.954275
906.931129	3387.736043
907.237826	3319.544355
907.544483	3251.934920
907.851099	3179.513704
908.157675	3106.888321
908.464211	3032.579193
908.770707	2976.730770
909.077163	2926.982143
909.383578	2891.048799
909.689954	2861.154756
909.996289	2843.094823
910.302584	2828.992195
910.608839	2819.630772
910.915054	2812.469813
911.221229	2805.538227
911.527363	2807.340439
911.833458	2807.600058
912.139513	2809.823207
912.445527	2813.583908
912.751502	2824.308963
913.057436	2838.860253
913.363331	2857.404138
913.669186	2889.060063
913.975000	2923.833943
914.280775	2984.400886
914.586510	3069.117476
914.892205	3176.410874
915.197859	3328.411745
915.503475	3506.745083
915.809050	3686.512629
916.114585	3815.089778
916.420081	3896.895102
916.725536	3928.639248
917.030952	3889.698855
917.336328	3851.416333
917.641665	3804.891524
917.946961	3746.305754
918.252218	3686.217721
918.557435	3609.440948
918.862612	3543.931154
919.167750	3484.029643
919.472848	3409.385278
919.777906	3337.727797
920.082925	3271.882766
920.387904	3196.038606
920.692843	3142.932571
920.997743	3088.336875
921.302603	3041.819628
921.607423	3006.034997
921.912204	2969.065696
922.216946	2941.079730
922.521647	2919.243972
922.826310	2899.223030
923.130932	2876.704195
923.435516	2859.584437
923.740059	2843.296469
924.044564	2827.610919
924.349028	2812.976449
924.653454	2798.704942
924.957840	2787.289250
925.262186	2777.549740
925.566493	2765.322422
925.870761	2751.776841
926.174989	2752.159969
926.479178	2742.523803
926.783328	2734.674727
927.087438	2726.956720
927.391509	2722.444888
927.695541	2713.907694
927.999533	2709.927703
928.303486	2705.244471
928.607400	2699.757175
928.911275	2696.777853
929.215110	2693.581761
929.518906	2692.311391
929.822663	2689.279137
930.126381	2688.918694
930.430060	2690.332738
930.733699	2686.433405
931.037299	2689.513550
931.340861	2687.426512
931.644383	2687.965916
931.947866	2687.819722
932.251309	2689.148067
932.554714	2690.920032
932.858080	2691.051102
933.161407	2691.267872
933.464694	2684.699248
933.767943	2686.256965
934.071153	2684.737057
934.374323	2683.438960
934.677455	2683.517098
934.980548	2681.067097
935.283602	2678.803619
935.586617	2680.056346
935.889593	2682.612211
936.192530	2681.046932
936.495428	2681.034329
936.798287	2684.510205
937.101108	2689.513550
937.403890	2697.397915
937.706632	2705.189018
938.009336	2717.728888
938.312002	2727.239025
938.614628	2739.383165
938.917216	2746.922210
939.219765	2758.010228
939.522275	2765.380395
939.824747	2768.362237
940.127179	2764.533481
940.429573	2767.689243
940.731929	2768.190838
941.034246	2764.714963
941.336524	2766.426434
941.638763	2768.021960
941.940964	2764.440220
942.243126	2757.165835
942.545250	2754.352871
942.847335	2746.491192
943.149381	2744.968763
943.451389	2737.051631
943.753359	2731.360168
944.055290	2726.916391
944.357182	2720.932542
944.659036	2717.998590
944.960851	2716.125801
945.262628	2712.942313
945.564367	2711.404761
945.866067	2710.386448
946.167729	2709.000130
946.469352	2709.181612
946.770937	2706.368648
947.072484	2702.426466
947.373992	2704.936960
947.675462	2704.266487
947.976893	2701.748431
948.278286	2702.277752
948.579641	2696.924046
948.880958	2696.805579
949.182236	2696.626618
949.483476	2694.816844
949.784678	2696.339272
950.085841	2695.197451
950.386967	2697.589479
950.688054	2697.339942
950.989103	2701.007381
951.290114	2704.510983
951.591087	2707.742362
951.892021	2710.426777
952.192917	2720.130998
952.493776	2722.623849
952.794596	2726.351782
953.095378	2724.597460
953.396122	2727.163408
953.696828	2725.933366
953.997496	2726.104765
954.298126	2720.352809
954.598718	2716.352653
954.899272	2715.535986
955.199788	2710.046170
955.500266	2703.180118
955.800706	2696.503110
956.101108	2689.163190
956.401472	2685.278981
956.701798	2678.710357
957.002087	2670.858760
957.302337	2669.444717
957.602550	2663.173521
957.902724	2656.713283
958.202861	2651.921666
958.502960	2646.961171
958.803022	2643.245840
959.103045	2640.193422
959.403031	2636.558750
959.702979	2632.646814
960.002889	2630.612709
960.302762	2626.229425
960.602596	2625.513582
960.902393	2621.571399
961.202153	2620.157356
961.501875	2619.930504
961.801559	2620.888323
962.101205	2616.600822
962.400814	2613.886160
962.700385	2615.368259
962.999918	2613.490430
963.299414	2608.900459
963.598873	2612.063783
963.898293	2609.008844
964.197677	2608.892897
964.497022	2605.197732
964.796331	2607.078082
965.095601	2605.616147
965.394835	2606.294182
965.694030	2604.776795
965.993189	2606.793257
966.292309	2603.304778
966.591393	2603.697988
966.890439	2603.322422
967.189447	2605.096908
967.488419	2603.854264
967.787353	2603.133379
968.086249	2603.571959
968.385108	2603.324943
968.683930	2609.187805
968.982714	2607.007506
969.281462	2605.540530
969.580172	2610.349791
969.878844	2609.467589
970.177480	2609.066817
970.476078	2610.067486
970.774639	2611.557147
971.073162	2613.409771
971.371649	2613.016561
971.670098	2612.855244
971.968510	2615.479165
972.266885	2612.540172
972.565223	2619.532252
972.863524	2617.432612
973.161788	2621.268930
973.460014	2622.037706
973.758204	2623.333282
974.056356	2621.158025
974.354471	2624.931328
974.652550	2623.338324
974.950591	2624.913684
975.248595	2622.105762
975.546563	2622.199023
975.844493	2621.377315
976.142386	2623.071142
976.440243	2619.529732
976.738062	2616.784824
977.035845	2617.765328
977.333590	2620.157356
977.631299	2616.789865
977.928971	2615.577467
978.226606	2611.511777
978.524204	2614.778444
978.821765	2614.047477
979.119290	2615.176696
979.416777	2612.590584
979.714228	2612.877929
980.011642	2612.220059
980.309020	2617.304062
980.606360	2613.944133
980.903664	2622.146091
981.200931	2627.388891
981.498162	2634.481794
981.795356	2643.674338
982.092513	2659.949703
982.389633	2678.755728
982.686717	2694.373222
982.983764	2712.491129
983.280775	2726.417317
983.577749	2728.274982
983.874686	2732.393605
984.171587	2726.261041
984.468451	2721.179558
984.765279	2718.114537
985.062070	2708.622044
985.358824	2702.045859
985.655543	2692.591175
985.952224	2682.135822
986.248869	2671.383040
986.545478	2653.529794
986.842050	2644.286838
987.138586	2632.094808
987.435086	2623.108951
987.731549	2613.704679
988.027975	2614.039915
988.324366	2609.485233
988.620719	2608.166971
988.917037	2601.802514
989.213318	2600.867380
989.509563	2598.712287
989.805772	2597.825044
990.101944	2593.149374
990.398080	2596.894951
990.694180	2592.806575
990.990244	2593.303129
991.286271	2595.521237
991.582262	2593.224991
991.878217	2595.748089
992.174136	2596.799169
992.470019	2595.478387
992.765865	2596.312698
993.061676	2598.853439
993.357450	2600.499376
993.653188	2602.110025
993.948890	2599.488625
994.244556	2606.858792
994.540186	2612.056221
994.835780	2616.593260
995.131337	2623.091307
995.426859	2627.890486
995.722345	2635.946249
996.017795	2647.525780
996.313208	2656.204126
996.608586	2664.093532
996.903928	2668.824655
997.199234	2669.863132
997.494504	2670.452947
997.789738	2666.727535
998.084936	2663.044972
998.380099	2661.593120
998.675225	2654.729589
998.970316	2647.830770
999.265371	2642.320788
999.560390	2632.765281
999.855373	2624.873355
1000.150320	2622.912346
1000.445232	2618.455966
1000.740108	2611.053032
1001.034948	2607.093205
1001.329752	2602.636825
1001.624521	2602.329315
1001.919254	2595.473346
1002.213951	2594.026535
1002.508613	2590.538056
1002.803239	2590.999322
1003.097829	2588.695514
1003.392384	2589.358426
1003.686903	2588.050247
1003.981386	2590.565782
1004.275834	2586.590833
1004.570246	2585.539752
1004.864623	2584.919690
1005.158964	2584.342478
1005.453270	2585.113775
1005.747540	2587.402458
1006.041775	2585.678384
1006.335974	2586.338775
1006.630138	2584.624783
1006.924266	2580.997672
1007.218359	2584.022365
1007.512416	2582.880543
1007.806438	2582.920873
1008.100425	2581.940368
1008.394376	2584.115626
1008.688292	2582.079000
1008.982172	2582.346181
1009.276017	2582.252920
1009.569827	2583.815677
1009.863602	2582.472210
1010.157341	2585.133939
1010.451045	2581.494226
1010.744714	2582.411716
1011.038347	2581.993300
1011.331945	2580.949782
1011.625508	2581.746284
1011.919036	2580.130594
1012.212528	2580.669997
1012.505986	2578.600604
1012.799408	2579.770152
1013.092795	2580.007086
1013.386147	2577.831828
1013.679464	2577.826787
1013.972745	2578.978690
1014.265992	2578.759400
1014.559204	2581.090934
1014.852380	2579.709658
1015.145521	2579.749987
1015.438628	2578.330902
1015.731699	2579.732343
1016.024736	2579.727302
1016.317737	2580.128073
1016.610703	2580.191088
1016.903635	2576.833679
1017.196531	2577.436097
1017.489393	2578.474575
1017.782219	2577.103381
1018.075011	2579.472723
1018.367768	2581.713516
1018.660490	2580.876685
1018.953177	2580.876685
1019.245829	2580.876685
