Dividing Wavelength (nm)	Counts (n)	Blue Motor Position (mm): 38.000000	Red Motor Position (mm): 0.000000	
326.493990	2154.195944
326.888308	2154.195944
327.282561	2154.195944
327.676750	2129.776595
328.070874	2131.629219
328.464933	2135.825979
328.858929	2146.404841
329.252859	2156.368681
329.646726	2171.570281
330.040528	2187.265913
330.434265	2205.318285
330.827938	2221.835626
331.221547	2243.552916
331.615091	2263.765423
332.008571	2282.037085
332.401986	2303.998872
332.795338	2322.235246
333.188625	2344.920438
333.581847	2360.326204
333.975006	2380.221118
334.368100	2401.119221
334.761129	2419.935328
335.154095	2435.714139
335.546996	2460.299847
335.939833	2488.951244
336.332606	2504.122597
336.725315	2514.830008
337.117960	2524.166225
337.510540	2532.179139
337.903056	2539.251878
338.295508	2548.744370
338.687896	2553.599001
339.080220	2563.406566
339.472480	2568.528378
339.864676	2569.130796
340.256807	2575.621282
340.648875	2575.031467
341.040879	2578.507343
341.432818	2580.846438
341.824694	2579.986921
342.216506	2581.058166
342.608253	2582.071438
342.999937	2581.055646
343.391557	2580.730491
343.783113	2578.328382
344.174605	2578.628330
344.566033	2573.617423
344.957397	2573.115828
345.348697	2571.583318
345.739934	2570.118862
346.131106	2567.542833
346.522215	2566.968141
346.913260	2566.252297
347.304241	2563.240208
347.695159	2563.121741
348.086012	2558.211657
348.476802	2559.741647
348.867528	2558.970351
349.258191	2555.628066
349.648789	2555.481872
350.039324	2555.565051
350.429796	2553.702345
350.820203	2554.624876
351.210548	2551.489278
351.600828	2550.304607
351.991045	2547.451314
352.381198	2551.436346
352.771288	2549.319062
353.161314	2550.445760
353.551276	2548.187323
353.941175	2551.506922
354.331010	2547.118598
354.720782	2551.118754
355.110490	2551.073383
355.500135	2549.896274
355.889717	2549.142621
356.279235	2549.079607
356.668689	2549.891233
357.058080	2552.492468
357.447408	2549.314021
357.836672	2548.063814
358.225873	2546.977446
358.615010	2549.314021
359.004084	2552.689073
359.393095	2553.344423
359.782043	2554.592109
360.170927	2552.880637
360.559748	2555.154197
360.948505	2555.892726
361.337199	2556.119578
361.725830	2559.419013
362.114398	2556.653941
362.502903	2558.647717
362.891344	2558.430947
363.279722	2557.904147
363.668037	2558.793910
364.056289	2562.766340
364.444478	2559.766853
364.832603	2561.367419
365.220665	2558.158725
365.608665	2561.533777
365.996601	2562.370609
366.384474	2559.935732
366.772284	2563.799776
367.160031	2562.282389
367.547715	2559.305588
367.935336	2561.460681
368.322893	2562.635270
368.710388	2564.999571
369.097820	2564.510579
369.485189	2565.286917
369.872495	2566.494273
370.259738	2563.698953
370.646918	2562.872204
371.034035	2564.326577
371.421090	2566.602658
371.808081	2565.145764
372.195010	2567.152143
372.581875	2564.298850
372.968678	2562.567214
373.355418	2565.486042
373.742096	2567.994016
374.128710	2564.518141
374.515262	2564.747513
374.901751	2567.532751
375.288177	2567.074006
375.674540	2569.186249
376.060841	2570.620457
376.447079	2569.849161
376.833254	2569.496280
377.219367	2565.889334
377.605417	2565.130641
377.991404	2563.310784
378.377329	2569.150961
378.763191	2566.859757
379.148991	2571.124573
379.534727	2571.119532
379.920402	2570.907803
380.306013	2570.544840
380.691563	2570.164233
381.077049	2571.603482
381.462474	2571.580797
381.847835	2575.230592
382.233134	2574.315623
382.618371	2575.722105
383.003545	2573.960222
383.388657	2574.686148
383.773706	2575.691858
384.158693	2573.849316
384.543618	2571.752196
384.928480	2576.203535
385.313280	2574.222362
385.698017	2576.379976
386.082692	2575.676735
386.467305	2576.236303
386.851856	2576.599266
387.236344	2577.330233
387.620770	2579.679411
388.005133	2577.625141
388.389435	2580.264185
388.773674	2579.709658
389.157851	2577.413412
389.541965	2578.887950
389.926018	2578.819894
390.310008	2579.145048
390.693936	2580.430543
391.077802	2580.251582
391.461606	2581.156469
391.845348	2579.853331
392.229027	2577.940213
392.612645	2581.509350
392.996200	2582.326017
393.379694	2582.046232
393.763125	2586.661409
394.146494	2579.588670
394.529801	2586.598394
394.913047	2586.321131
395.296230	2584.637386
395.679351	2583.808116
396.062410	2584.110585
396.445408	2584.586974
396.828343	2585.602767
397.211217	2585.254927
397.594028	2583.929103
397.976778	2586.777355
398.359466	2588.065370
398.742092	2587.772983
399.124656	2593.492172
399.507158	2593.673654
399.889598	2597.888058
400.271977	2600.864860
400.654294	2603.022474
401.036549	2603.539192
401.418742	2604.867536
401.800874	2607.146137
402.182944	2615.385903
402.564952	2615.022940
402.946898	2618.400513
403.328783	2626.000053
403.710606	2631.676392
404.092367	2638.638226
404.474067	2645.206849
404.855705	2653.209681
405.237282	2657.761843
405.618797	2664.950528
406.000250	2675.826817
406.381642	2685.967098
406.762972	2693.924560
407.144240	2700.926722
407.525447	2713.406099
407.906593	2720.385576
408.287677	2733.981568
408.668700	2749.256264
409.049661	2756.833119
409.430560	2771.278545
409.811399	2780.140893
410.192176	2797.038841
410.572891	2810.438228
410.953545	2832.813389
411.334138	2834.013184
411.714669	2863.372864
412.095139	2860.388501
412.475547	2890.322873
412.855894	2899.601116
413.236180	2925.384098
413.616405	2930.016918
413.996568	2953.579271
414.376670	2968.793473
414.756711	2978.873260
415.136691	3004.197497
415.516609	3030.167001
415.896466	3049.353632
416.276262	3077.609300
416.655997	3106.152313
417.035670	3126.314407
417.415283	3178.069413
417.794834	3207.784495
418.174324	3211.646019
418.553753	3228.846436
418.933121	3275.938374
419.312428	3282.393572
419.691674	3295.172897
420.070859	3337.115297
420.449983	3341.987572
420.829045	3388.794685
421.208047	3396.278278
421.586988	3441.978858
421.965867	3483.492760
422.344686	3505.706605
422.723444	3549.330230
423.102141	3487.729850
423.480777	3584.230138
423.859352	3573.943663
424.237866	3665.589320
424.616319	3666.781552
424.994712	3733.599526
425.373044	3734.317891
425.751314	3804.296668
426.129524	3759.478289
426.507673	3857.914380
426.885762	3851.776775
427.263789	3880.934809
427.641756	3900.391142
428.019662	3935.023869
428.397508	3945.038121
428.775292	3993.801202
429.153016	4010.401722
429.530679	4030.326883
429.908282	4041.750137
430.285824	4033.235628
430.663305	4109.346969
431.040726	4076.166095
431.418086	4077.161722
431.795385	4152.380779
432.172624	4191.101882
432.549802	4161.404444
432.926920	4189.569371
433.303977	4183.736756
433.680974	4231.889858
434.057910	4255.759721
434.434786	4269.164149
434.811601	4263.311369
435.188355	4372.356568
435.565050	4347.869163
435.941683	4346.155171
436.318257	4435.421403
436.694770	4446.196869
437.071222	4505.417824
437.447614	4438.743523
437.823946	4443.336014
438.200218	4461.690856
438.576429	4445.201241
438.952580	4472.662927
439.328670	4480.204493
439.704700	4522.487171
440.080670	4489.880988
440.456580	4549.669072
440.832429	4582.015636
441.208218	4491.279908
441.583947	4538.087022
441.959616	4555.322727
442.335224	4585.988065
442.710773	4603.707721
443.086261	4657.143952
443.461689	4614.268938
443.837057	4626.279487
444.212365	4700.213050
444.587612	4708.341910
444.962800	4670.528215
445.337927	4717.660483
445.712995	4599.805868
446.088002	4793.867606
446.462949	4820.215197
446.837837	4830.121064
447.212664	4822.486236
447.587431	5048.627357
447.962139	5348.003840
448.336786	5684.901631
448.711374	5666.521584
449.085901	5308.403056
449.460369	5246.583386
449.834776	5183.745403
450.209124	5421.972690
450.583412	5435.709834
450.957640	5554.519748
451.331808	5416.024128
451.705917	5265.999390
452.079965	5256.590076
452.453954	5299.772600
452.827883	5260.892701
453.201752	5268.567858
453.575562	5299.724709
453.949311	5436.360143
454.323001	5439.886430
454.696632	5431.341674
455.070202	5587.196507
455.443713	5621.153720
455.817164	5708.494231
456.190556	5783.529285
456.563888	5761.297797
456.937160	5831.763045
457.310373	5676.709756
457.683526	5732.759825
458.056619	5724.749431
458.429653	5708.191761
458.802628	5756.541468
459.175542	5784.545078
459.548398	5926.355256
459.921194	6118.110666
460.293930	6174.760632
460.666607	6426.556184
461.039224	6642.194061
461.411782	6771.323217
461.784280	6679.370050
462.156719	6687.882038
462.529099	6645.556510
462.901419	6504.719275
463.273680	6373.797989
463.645882	6366.314396
464.018024	6361.356421
464.390106	6432.497184
464.762130	6698.307144
465.134094	7086.352482
465.505999	7724.129020
465.877845	8429.394005
466.249631	8780.676728
466.621358	8704.666210
466.993026	8503.289758
467.364634	8287.331769
467.736184	8003.887852
468.107674	7850.525870
468.479105	7771.140300
468.850477	7702.956174
469.221790	7528.575100
469.593043	7310.300701
469.964238	7209.843107
470.335373	7182.777152
470.706449	7334.813311
471.077467	7531.191459
471.448425	8190.322325
471.819324	8777.558774
472.190164	8801.600037
472.560945	8320.368970
472.931667	7851.513936
473.302330	7666.216244
473.672934	7544.074128
474.043479	7613.337061
474.413965	7518.313832
474.784393	7471.037891
475.154761	7624.026828
475.525070	7634.638457
475.895321	7586.192968
476.265513	7685.964965
476.635645	7852.043257
477.005719	7841.348450
477.375734	7927.237108
477.745691	8041.459572
478.115588	8238.941733
478.485427	8482.840318
478.855207	8964.444430
479.224928	9398.328980
479.594591	9775.407287
479.964194	9778.681517
480.333739	9861.149753
480.703226	9866.616884
481.072653	9964.193458
481.442022	10078.738555
481.811333	10232.818902
482.180584	10063.763808
482.549777	10008.616105
482.918912	9947.779461
483.287988	9937.946690
483.657005	9840.791053
484.025964	9759.860369
484.394864	9825.065173
484.763706	9781.809553
485.132489	9696.425009
485.501213	9685.762969
485.869879	9739.156350
486.238487	9677.969345
486.607036	9759.943548
486.975527	9705.713335
487.343959	9760.160318
487.712333	9808.199993
488.080648	9852.365542
488.448905	9952.702148
488.817104	9959.222880
489.185244	10121.868147
489.553326	10340.840747
489.921350	10815.591410
490.289315	11446.113727
490.657222	11735.927142
491.025070	11908.674881
491.392861	11821.803197
491.760593	11655.666931
492.128267	11413.812534
492.495883	11171.065853
492.863440	10941.642942
493.230939	10708.229957
493.598380	10537.977588
493.965763	10504.549697
494.333088	10369.381239
494.700354	10303.568976
495.067563	10282.819587
495.434713	10283.424525
495.801805	10324.588067
496.168839	10285.209093
496.535815	10259.902501
496.902733	10302.475045
497.269593	10263.640517
497.636395	10269.858780
498.003139	10376.970696
498.369825	10306.704573
498.736453	10395.950641
499.103023	10331.496968
499.469535	10342.216982
499.835989	10394.869313
500.202385	10362.119457
500.568723	10381.963959
500.935003	10441.389081
501.301226	10418.681203
501.667390	10582.677500
502.033497	10681.831955
502.399546	10612.412746
502.765537	10515.746100
503.131470	10623.324323
503.497345	10709.457478
503.863163	10485.960442
504.228923	10618.273087
504.594625	10737.072918
504.960269	10648.058744
505.325856	10798.133894
505.691385	10679.669300
506.056856	10744.193548
506.422270	10845.671975
506.787625	10778.186049
507.152924	10834.036992
507.518164	10897.394214
507.883347	10761.363718
508.248472	10833.583288
508.613540	10941.403487
508.978550	11020.390806
509.343503	10999.187713
509.708398	11056.530838
510.073236	11174.448467
510.438016	11198.439318
510.802738	11114.398243
511.167403	11234.181099
511.532010	11294.874071
511.896561	11391.916282
512.261053	11592.833990
512.625488	11507.381391
512.989866	11498.519042
513.354186	11470.598612
513.718449	11484.272742
514.082655	11625.823300
514.446803	11576.404869
514.810894	11685.684482
515.174927	11686.589369
515.538904	11669.923314
515.902822	11833.342398
516.266684	11704.908922
516.630488	11805.938686
516.994235	11790.535441
517.357925	11908.170766
517.721558	11960.497943
518.085133	12033.909745
518.448651	12066.011813
518.812112	12015.781756
519.175516	12027.502439
519.538863	12117.257663
519.902152	12122.208076
520.265385	12230.691186
520.628560	12254.679516
520.991678	12207.847197
521.354739	12258.117583
521.717743	12331.993172
522.080690	12299.134932
522.443580	12443.077518
522.806413	12454.445320
523.169189	12446.679422
523.531908	12506.981705
523.894569	12455.589662
524.257174	12471.537352
524.619722	12590.785846
524.982213	12565.834655
525.344647	12558.817369
525.707025	12559.986917
526.069345	12668.381807
526.431608	12649.396821
526.793815	12724.444479
527.155964	12615.427006
527.518057	12653.263386
527.880093	12608.054319
528.242072	12737.906880
528.603995	12656.119200
528.965860	12663.736383
529.327669	12702.666694
529.689421	12646.351964
530.051117	12663.895180
530.412755	12688.352338
530.774337	12702.762476
531.135862	12659.658090
531.497331	12721.616391
531.858743	12680.563755
532.220098	12767.080037
532.581396	12697.456662
532.942638	12610.083383
533.303824	12689.368130
533.664953	12670.836849
534.026025	12611.036161
534.387040	12724.164695
534.747999	12692.254191
535.108902	12736.144997
535.469748	12615.295936
535.830537	12647.080411
536.191270	12682.222295
536.551947	12613.206378
536.912567	12679.769773
537.273131	12708.438815
537.633638	12581.270668
537.994089	12642.999597
538.354483	12552.410063
538.714821	12691.049355
539.075103	12768.115994
539.435328	12697.857433
539.795497	12685.390660
540.155609	12676.319103
540.515665	12777.356429
540.875665	12633.963329
541.235609	12736.392013
541.595496	12694.716794
541.955328	12870.847148
542.315102	12722.669993
542.674821	12656.736741
543.034483	12680.127695
543.394090	12681.123323
543.753640	12644.040595
544.113134	12881.915001
544.472571	12643.085297
544.831953	12930.819235
545.191278	12745.390473
545.550548	12675.119309
545.909761	12787.274900
546.268918	12830.971621
546.628019	12890.661403
546.987064	12782.773149
547.346053	12630.605920
547.704986	12832.526817
548.063863	12713.495093
548.422684	12770.714709
548.781449	12730.473699
549.140158	12827.641939
549.498811	12779.067901
549.857408	12640.083290
550.215949	12848.560207
550.574434	12814.597953
550.932864	12754.857760
551.291237	12953.317904
551.649555	12839.791120
552.007817	12898.860840
552.366022	12813.183910
552.724173	12857.334335
553.082267	12944.916822
553.440305	13045.505485
553.798288	12864.543185
554.156215	12942.716358
554.514086	12986.261845
554.871902	12924.580807
555.229661	12956.370323
555.587365	12902.404771
555.945014	12919.834561
556.302606	12894.318760
556.660143	12959.949542
557.017625	12990.811486
557.375050	12954.116927
557.732421	13055.522258
558.089735	13048.182337
558.446994	13023.977237
558.804197	13133.690389
559.161345	13132.586376
559.518437	12954.079119
559.875474	13043.398283
560.232455	13065.904514
560.589381	13116.381587
560.946251	13061.695150
561.303065	13222.830592
561.659825	13172.227490
562.016528	13094.767640
562.373177	13032.239688
562.729770	13167.829083
563.086307	13049.029251
563.442789	13145.496771
563.799216	13192.157691
564.155587	13135.860606
564.511904	13151.704952
564.868164	13170.818487
565.224370	13230.104977
565.580520	13180.472297
565.936615	13248.674067
566.292654	13188.480170
566.648638	13254.821754
567.004567	13250.299839
567.360441	13254.052978
567.716260	13215.420096
568.072023	13303.915031
568.427732	13282.863172
568.783385	13192.692054
569.138982	13307.642964
569.494525	13299.345225
569.850013	13240.890526
570.205445	13239.824322
570.560823	13253.886620
570.916145	13200.089947
571.271412	13207.976832
571.626625	13168.960822
571.981782	13174.518694
572.336884	13120.124644
572.691931	13214.875651
573.046923	13101.192591
573.401860	13070.630596
573.756743	13073.204105
574.111570	13092.985592
574.466342	13068.341912
574.821059	13127.852733
575.175722	12990.793842
575.530330	13009.977953
575.884882	12938.476747
576.239380	12939.306017
576.593823	12931.882918
576.948211	12933.491046
577.302544	12810.738950
577.656823	12829.131600
578.011047	12882.194785
578.365216	12819.555928
578.719330	12762.616096
579.073389	12725.276269
579.427394	12747.684198
579.781344	12735.973598
580.135239	12663.761589
580.489080	12683.366637
580.842866	12558.908110
581.196597	12655.010146
581.550273	12646.722489
581.903895	12606.509205
582.257463	12720.731669
582.610975	12556.251422
582.964434	12624.856484
583.317837	12541.914380
583.671186	12501.098678
584.024481	12553.438458
584.377721	12447.428034
584.730906	12511.538908
585.084037	12526.155733
585.437113	12453.033797
585.790135	12474.347795
586.143103	12387.496276
586.496016	12395.796536
586.848874	12406.720716
587.201679	12408.931262
587.554428	12285.488528
587.907124	12341.654544
588.259765	12273.286415
588.612352	12340.905932
588.964884	12200.847555
589.317362	12254.873601
589.669786	12246.331366
590.022155	12202.617000
590.374470	12305.136425
590.726731	12190.162829
591.078937	12077.054461
591.431090	12103.480189
591.783188	12027.381451
592.135232	11949.505707
592.487222	12010.977537
592.839157	12021.145544
593.191038	11954.143568
593.542866	11909.829305
593.894639	11751.960531
594.246358	11818.657517
594.598022	11828.699496
594.949633	11732.398334
595.301190	11715.215561
595.652692	11668.249651
596.004141	11758.882036
596.355535	11540.753829
596.706876	11517.814059
597.058162	11491.242137
597.409395	11583.202865
597.760573	11607.675147
598.111698	11503.562717
598.462768	11498.544248
598.813785	11508.205619
599.164748	11382.900179
599.515657	11458.041098
599.866511	11334.663898
600.217312	11457.955398
600.568060	11225.394368
600.918753	11393.773948
601.269392	11393.952909
601.619978	11296.023454
601.970510	11338.114568
602.320988	11373.994981
602.671412	11447.847884
603.021783	11362.289421
603.372100	11300.477313
603.722363	11317.655045
604.072572	11324.803401
604.422728	11326.209883
604.772830	11269.378435
605.122878	11278.288675
605.472872	11258.749162
605.822813	11319.694192
606.172701	11273.892789
606.522534	11309.135495
606.872314	11360.862775
607.222041	11295.080758
607.571714	11379.416742
607.921333	11250.189283
608.270899	11294.148145
608.620411	11350.553615
608.969870	11299.756428
609.319276	11287.876949
609.668627	11297.039247
610.017926	11388.258925
610.367171	11417.089284
610.716362	11407.281719
611.065500	11383.190045
611.414585	11395.412323
611.763616	11456.122938
612.112594	11412.942935
612.461518	11446.698501
612.810389	11488.653504
613.159207	11431.290215
613.507971	11421.298648
613.856682	11531.488188
614.205340	11480.945580
614.553945	11618.541354
614.902496	11501.488282
615.250994	11564.152345
615.599439	11556.472147
615.947830	11590.918351
616.296169	11555.809235
616.644454	11571.562841
616.992686	11583.054151
617.340864	11688.860409
617.688990	11568.570916
618.037063	11691.688496
618.385082	11667.188488
618.733048	11709.937473
619.080961	11692.462313
619.428821	11679.095694
619.776628	11692.064062
620.124382	11641.579427
620.472083	11659.987200
620.819731	11679.816579
621.167326	11612.497010
621.514868	11579.258162
621.862357	11483.869449
622.209793	11472.630197
622.557176	11389.947712
622.904506	11334.532828
623.251783	11254.817062
623.599007	11193.766169
623.946179	11144.201544
624.293297	11121.569284
624.640363	10982.602317
624.987376	10967.277209
625.334336	10906.584237
625.681243	10820.183901
626.028097	10794.496702
626.374899	10756.322564
626.721647	10726.453728
627.068343	10695.559017
627.414987	10633.444439
627.761577	10561.965919
628.108115	10605.803793
628.454600	10478.166819
628.801032	10496.619962
629.147412	10475.300923
629.493739	10451.615061
629.840014	10371.896775
630.186236	10426.784858
630.532405	10318.815946
630.878521	10356.692655
631.224585	10312.305295
631.570597	10238.162525
631.916556	10241.502290
632.262462	10215.479853
632.608316	10201.682215
632.954117	10178.452578
633.299866	10159.878447
633.645562	10136.515220
633.991206	10028.730309
634.336797	9927.892109
634.682336	9926.112582
635.027823	9866.137974
635.373257	9833.834260
635.718639	9766.189537
636.063968	9735.214168
636.409245	9618.634964
636.754470	9608.814797
637.099642	9552.603411
637.444762	9448.856465
637.789829	9461.494637
638.134845	9379.313747
638.479808	9365.102735
638.824719	9337.643570
639.169577	9251.707020
639.514383	9248.183253
639.859137	9184.518522
640.203839	9217.863234
640.548489	9137.459350
640.893086	9143.022264
641.237632	9074.555833
641.582125	9072.741017
641.926566	9058.966064
642.270955	9052.168068
642.615292	9041.178353
642.959576	9026.276702
643.303809	9014.104836
643.647990	9025.737299
643.992118	9006.749793
644.336195	8986.789344
644.680219	8979.908169
645.024192	9018.072224
645.368112	9091.063091
645.711981	9062.275582
646.055797	9200.544350
646.399562	9160.129419
646.743274	9324.012290
647.086935	9391.452846
647.430544	9375.568170
647.774101	9388.682732
648.117606	9420.116847
648.461059	9485.538421
648.804460	9415.325230
649.147810	9300.586048
649.491108	9274.064537
649.834354	9202.959062
650.177548	9059.472700
650.520690	8969.460378
650.863781	8961.021486
651.206820	8936.574411
651.549807	8841.047066
651.892742	8749.545082
652.235626	8707.660656
652.578458	8663.011156
652.921238	8564.514572
653.263967	8598.489428
653.606644	8538.981128
653.949269	8510.775872
654.291843	8436.491949
654.634365	8498.699788
654.976836	8425.658510
655.319255	8412.407837
655.661622	8406.270232
656.003938	8371.362762
656.346203	8330.950352
656.688416	8359.700053
657.030577	8319.549783
657.372687	8286.499978
657.714746	8313.875964
658.056753	8336.225920
658.398708	8239.597083
658.740612	8233.540137
659.082465	8270.632947
659.424266	8230.142399
659.766016	8236.937874
660.107715	8215.460038
660.449362	8233.802277
660.790958	8225.832212
661.132503	8229.943273
661.473996	8224.607212
661.815438	8240.441476
662.156829	8266.557174
662.498168	8217.300059
662.839456	8209.067855
663.180693	8238.102381
663.521879	8250.581757
663.863013	8238.447700
664.204097	8235.612051
664.545129	8308.088720
664.886110	8298.487842
665.227040	8301.716701
665.567918	8314.702713
665.908746	8321.452818
666.249522	8342.413936
666.590248	8346.600614
666.930922	8355.044547
667.271545	8345.045418
667.612118	8365.832616
667.952639	8321.689753
668.293109	8328.500352
668.633528	8304.423801
668.973896	8293.348386
669.314213	8293.676061
669.654480	8249.364318
669.994695	8246.321982
670.334859	8224.498827
670.674973	8207.278246
671.015035	8232.315136
671.355047	8213.688073
671.695008	8205.980148
672.034918	8180.701282
672.374777	8190.846605
672.714585	8162.006163
673.054342	8190.155967
673.394049	8162.729569
673.733705	8200.162657
674.073310	8158.000967
674.412864	8165.814755
674.752368	8096.778674
675.091820	8150.290522
675.431223	8080.160510
675.770574	8030.784929
676.109875	8007.552771
676.449125	7967.402502
676.788324	7953.811551
677.127473	7866.201338
677.466571	7854.881427
677.805619	7793.812889
678.144616	7790.929349
678.483562	7771.384796
678.822458	7718.508133
679.161303	7706.253088
679.500098	7682.922628
679.838842	7661.253228
680.177535	7680.888523
680.516179	7706.348870
680.854771	7731.831903
681.193314	7848.431271
681.531805	8003.766865
681.870247	8129.158005
682.208638	8276.808360
682.546978	8349.015327
682.885268	8380.429277
683.223508	8311.617527
683.561697	8261.057275
683.899836	8230.865804
684.237925	8142.340622
684.575963	8116.925645
684.913951	8036.312554
685.251889	8047.090541
685.589776	8044.736322
685.927614	8022.038527
686.265401	8046.331847
686.603137	8051.851911
686.940824	8118.264072
687.278460	8173.951178
687.616046	8189.886265
687.953582	8299.070095
688.291068	8277.299872
688.628504	8336.208276
688.965889	8341.027619
689.303224	8296.667986
689.640510	8255.307839
689.977745	8145.965212
690.314930	8027.840895
690.652065	7957.491593
690.989150	7841.282915
691.326185	7691.356479
691.663170	7577.575116
692.000105	7460.821993
692.336990	7347.421237
692.673825	7275.431039
693.010610	7177.020155
693.347345	7083.499189
693.684030	6973.773434
694.020665	6927.561177
694.357251	6810.029196
694.693786	6800.791281
695.030272	6757.880980
695.366707	6662.635940
695.703093	6610.001252
696.039429	6608.909843
696.375716	6560.703809
696.711952	6549.653600
697.048139	6523.686616
697.384276	6481.658517
697.720363	6507.290263
698.056400	6477.605429
698.392388	6450.171470
698.728326	6447.345903
699.064214	6416.083187
699.400053	6411.278968
699.735842	6351.886614
700.071581	6306.501106
700.407270	6260.896307
700.742910	6234.659622
701.078501	6191.227561
701.414042	6151.334390
701.749533	6091.516059
702.084974	6038.934303
702.420366	6070.320527
702.755709	6005.652606
703.091002	5950.000788
703.426246	5956.087981
703.761440	5937.163490
704.096584	5899.596811
704.431679	5883.815479
704.766725	5868.024065
705.101721	5852.630901
705.436668	5870.448860
705.771565	5816.458102
706.106413	5874.038161
706.441212	5871.613366
706.775961	5889.620368
707.110661	5896.970370
707.445311	5957.280214
707.779913	5924.732004
708.114465	5962.691893
708.448967	6008.805848
708.783421	6121.526048
709.117825	6167.629920
709.452180	6204.838677
709.786485	6253.740389
710.120742	6389.231481
710.454949	6396.218521
710.789107	6465.052956
711.123216	6594.282935
711.457275	6623.352748
711.791286	6727.210600
712.125247	6754.062306
712.459159	6724.886628
712.793023	6851.475042
713.126837	6678.853332
713.460602	6736.289718
713.794318	6692.645928
714.127985	6643.136757
714.461602	6492.023129
714.795171	6496.557647
715.128691	6331.296021
715.462162	6245.732517
715.795584	6177.238359
716.128957	6126.698271
716.462281	6061.795936
716.795556	6025.275297
717.128782	5938.887564
717.461960	5843.934911
717.795088	5830.711964
718.128167	5758.320995
718.461198	5678.317884
718.794180	5658.034801
719.127113	5594.130614
719.459997	5562.439401
719.792833	5496.203680
720.125619	5491.792671
720.458357	5436.314773
720.791046	5403.179268
721.123686	5374.900916
721.456278	5327.662784
721.788821	5323.657587
722.121315	5283.237616
722.453761	5287.751969
722.786158	5270.405358
723.118506	5273.079691
723.450805	5249.552626
723.783056	5276.399290
724.115259	5261.333802
724.447412	5247.773098
724.779518	5290.597700
725.111574	5292.379748
725.443582	5331.970450
725.775542	5322.046938
726.107453	5408.621194
726.439315	5382.026587
726.771129	5451.299602
727.102895	5515.355024
727.434612	5557.642743
727.766281	5588.144244
728.097901	5642.618953
728.429473	5652.844933
728.760996	5668.626265
729.092471	5689.499163
729.423897	5675.663716
729.755276	5652.933153
730.086606	5664.948744
730.417887	5750.363534
730.749120	5844.726372
731.080305	5883.288678
731.411442	5960.050328
731.742530	5980.441795
732.073570	6001.642368
732.404562	6069.808850
732.735506	6059.552623
733.066401	6042.475714
733.397249	5971.854190
733.728048	5878.340786
734.058798	5730.297221
734.389501	5604.999342
734.720156	5522.011867
735.050762	5420.548564
735.381320	5344.212892
735.711831	5283.250218
736.042293	5202.248958
736.372707	5197.875758
736.703073	5156.775230
737.033391	5187.921999
737.363661	5167.732178
737.693883	5183.763047
738.024056	5206.067633
738.354182	5235.618876
738.684260	5290.363287
739.014290	5317.648532
739.344272	5353.168502
739.674207	5413.591772
740.004093	5446.018994
740.333931	5450.828255
740.663722	5475.817254
740.993464	5487.182536
741.323159	5462.276715
741.652806	5420.868677
741.982405	5388.383482
742.311956	5336.610832
742.641460	5326.737732
742.970915	5274.410555
743.300323	5209.263724
743.629683	5176.496224
743.958996	5127.521414
744.288260	5081.331842
744.617477	5017.437738
744.946647	5005.283516
745.275768	4950.738231
745.604842	4916.433179
745.933869	4882.811204
746.262847	4875.017580
746.591778	4863.886712
746.920662	4835.628524
747.249498	4834.111137
747.578286	4846.910627
747.907027	4871.536663
748.235720	4916.428138
748.564365	4925.827370
748.892963	4912.049896
749.221514	4935.181231
749.550017	4905.118310
749.878473	4905.085542
750.206881	4869.207650
750.535242	4849.234599
750.863555	4837.854194
751.191821	4812.577848
751.520039	4819.456503
751.848210	4803.397907
752.176334	4803.428154
752.504411	4786.003406
752.832440	4757.115074
753.160421	4770.209471
753.488356	4750.135596
753.816243	4731.286722
754.144082	4697.934448
754.471875	4684.822407
754.799620	4675.329914
755.127318	4669.701466
755.454969	4663.808357
755.782572	4653.481554
756.110129	4656.289476
756.437638	4638.174090
756.765100	4637.796003
757.092515	4641.297085
757.419882	4643.553001
757.747203	4643.142147
758.074477	4655.351822
758.401703	4645.849247
758.728882	4676.239843
759.056014	4688.278118
759.383099	4706.078432
759.710138	4736.229573
760.037129	4758.198922
760.364073	4773.632414
760.690970	4769.133185
761.017820	4769.659985
761.344623	4799.995128
761.671379	4868.464080
761.998088	4953.699909
762.324751	5183.906720
762.651366	5654.150592
762.977935	6346.263207
763.304456	6905.017137
763.630931	7208.930658
763.957359	7149.785321
764.283740	6852.964703
764.610074	6529.937647
764.936362	6126.380679
765.262602	5813.055323
765.588796	5461.472651
765.914943	5210.851688
766.241044	4981.484229
766.567097	4811.415862
766.893104	4663.959592
767.219064	4561.457811
767.544978	4467.589006
767.870845	4381.105491
768.196665	4334.245445
768.522438	4281.388947
768.848165	4242.917382
769.173846	4202.671330
769.499479	4175.887679
769.825066	4135.729848
770.150607	4100.676185
770.476101	4080.909820
770.801548	4060.218404
771.126949	4029.946276
771.452303	4010.890714
771.777611	3970.301864
772.102872	3967.675423
772.428087	3944.546609
772.753256	3917.427722
773.078378	3898.268817
773.403453	3868.946945
773.728482	3844.595652
774.053465	3829.661233
774.378401	3808.432934
774.703291	3782.710447
775.028135	3759.803444
775.352932	3750.827669
775.677683	3733.715473
776.002388	3713.087071
776.327046	3713.838203
776.651658	3693.214843
776.976224	3677.352852
777.300743	3673.415711
777.625216	3655.514574
777.949643	3649.240858
778.274024	3652.676404
778.598359	3632.607571
778.922647	3633.424237
779.246889	3623.573823
779.571086	3622.963843
779.895236	3624.879482
780.219339	3623.142804
780.543397	3624.183803
780.867409	3635.838950
781.191374	3634.750061
781.515294	3628.546921
781.839167	3647.254643
782.162995	3645.956546
782.486776	3637.716780
782.810511	3629.308135
783.134201	3615.238275
783.457844	3616.879171
783.781441	3608.639405
784.104993	3601.181017
784.428498	3594.239349
784.751958	3592.323710
785.075372	3585.432453
785.398739	3575.937440
785.722061	3579.940116
786.045337	3582.276691
786.368568	3607.898355
786.691752	3603.678909
787.014891	3648.197339
787.337983	3692.904812
787.661030	3782.160961
787.984031	3879.364490
788.306987	3954.787713
788.629897	4000.047192
788.952760	4012.957587
789.275579	3997.579547
789.598351	3943.009057
789.921078	3894.442581
790.243759	3829.424299
790.566395	3781.034263
790.888984	3733.065164
791.211529	3697.860266
791.534027	3651.912669
791.856480	3614.146865
792.178888	3596.051643
792.501249	3575.571956
792.823566	3544.962070
793.145836	3538.360679
793.468062	3529.508413
793.790241	3515.443593
794.112375	3521.172865
794.434464	3544.760424
794.756507	3540.684651
795.078505	3562.704411
795.400457	3599.096500
795.722364	3653.664470
796.044226	3696.917570
796.366042	3746.512442
796.687812	3741.587234
797.009538	3763.218826
797.331218	3752.173658
797.652852	3744.632091
797.974442	3723.572671
798.295986	3714.347360
798.617484	3682.893080
798.938938	3660.812826
799.260346	3648.189777
799.581709	3608.289044
799.903026	3596.137343
800.224299	3580.610589
800.545526	3550.144376
800.866708	3528.406921
801.187845	3515.214221
801.508936	3494.827795
801.829983	3487.651712
802.150984	3456.988894
802.471940	3451.428501
802.792851	3439.904424
803.113717	3434.268414
803.434538	3426.615942
803.755314	3415.764858
804.076045	3408.682037
804.396731	3399.733989
804.717372	3400.177611
805.037967	3396.293402
805.358518	3398.708114
805.679024	3412.997265
805.999485	3411.835279
806.319901	3415.263264
806.640272	3416.858789
806.960598	3431.112651
807.280879	3428.198864
807.601115	3442.125052
807.921306	3431.188269
808.241453	3435.553908
808.561554	3440.915175
808.881611	3435.579114
809.201623	3439.191100
809.521590	3427.435130
809.841513	3428.113165
810.161390	3437.280503
810.481223	3416.142945
810.801011	3415.666556
811.120755	3414.330650
811.440453	3397.034451
811.760107	3394.269378
812.079716	3384.819736
812.399281	3373.986296
812.718801	3371.190976
813.038276	3366.245604
813.357707	3360.513812
813.677093	3370.248280
813.996434	3352.987370
814.315731	3357.988194
814.634983	3360.075232
814.954191	3359.601363
815.273354	3371.569063
815.592473	3385.255795
815.911547	3404.507962
816.230577	3421.756270
816.549562	3446.601597
816.868502	3462.939976
817.187399	3483.669201
817.506250	3511.451000
817.825058	3523.469110
818.143821	3566.689443
818.462539	3611.737194
818.781213	3663.943383
819.099843	3752.705499
819.418429	3902.594127
819.736970	4059.469793
820.055466	4245.808483
820.373919	4488.025843
820.692327	4826.672915
821.010691	5338.400442
821.329011	6420.227016
821.647286	8170.303903
821.965517	10345.148413
822.283704	11992.017757
822.601847	13080.720465
822.919945	12667.214780
823.237999	11970.423974
823.556010	11072.092880
823.873976	10111.022105
824.191897	9143.133169
824.509775	8365.764561
824.827609	7558.469143
825.145398	7008.577561
825.463144	6630.556557
825.780845	6499.426063
826.098502	6558.972173
826.416116	6940.789165
826.733685	7451.679860
827.051210	7740.643840
827.368692	7643.470558
827.686129	7199.659977
828.003522	6643.542569
828.320872	6074.073666
828.638177	5610.990753
828.955439	5241.327983
829.272656	4903.449688
829.589830	4625.314107
829.906960	4357.487685
830.224046	4142.908451
830.541088	3970.926967
830.858086	3859.956047
831.175041	3761.305708
831.491952	3718.748287
831.808819	3700.917726
832.125642	3737.042634
832.442421	3836.779342
832.759157	4057.712951
833.075849	4438.020118
833.392497	4902.048247
833.709101	5288.765241
834.025662	5400.809926
834.342179	5273.470380
834.658653	5002.641951
834.975083	4729.781938
835.291469	4483.193897
835.607811	4259.941358
835.924110	4099.141153
836.240366	3941.181639
836.556578	3778.138120
836.872746	3641.336328
837.188871	3527.166797
837.504952	3431.699946
837.820990	3356.748070
838.136984	3299.225984
838.452935	3270.756068
838.768842	3256.474479
839.084706	3288.964716
839.400526	3426.978905
839.716303	3650.881753
840.032037	3862.249772
840.347727	3930.196964
840.663373	3837.898479
840.978977	3688.849203
841.294537	3554.986404
841.610054	3451.120991
841.925527	3377.003427
842.240957	3307.062458
842.556344	3246.228334
842.871687	3185.457224
843.186987	3122.775517
843.502244	3069.876170
843.817458	3031.833102
844.132629	2996.940756
844.447756	2980.239413
844.762840	2954.101030
845.077881	2938.044955
845.392879	2926.314190
845.707833	2913.711306
846.022745	2899.023904
846.337613	2897.914850
846.652438	2889.768346
846.967221	2886.720968
847.281960	2876.668907
847.596656	2874.657487
847.911309	2868.794625
848.225919	2863.892103
848.540485	2861.046372
848.855009	2854.749970
849.169490	2852.415916
849.483928	2849.527335
849.798323	2845.668332
850.112675	2843.092302
850.426984	2842.920903
850.741251	2840.942250
851.055474	2838.328412
851.369654	2838.582990
851.683792	2834.189624
851.997887	2838.078875
852.311938	2835.396981
852.625947	2836.632063
852.939914	2835.722135
853.253837	2834.930674
853.567718	2837.431086
853.881555	2835.288596
854.195350	2835.959069
854.509103	2836.629543
854.822812	2834.040910
855.136479	2836.508555
855.450103	2833.904799
855.763685	2834.247598
856.077224	2833.110817
856.390720	2835.941425
856.704173	2838.504852
857.017584	2836.841271
857.330953	2840.622137
857.644278	2842.835203
857.957561	2847.334433
858.270802	2845.839731
858.584000	2845.743949
858.897155	2845.441480
859.210268	2843.392251
859.523339	2840.223886
859.836367	2842.220182
860.149352	2842.134483
860.462295	2838.797239
860.775195	2829.115703
861.088054	2833.153667
861.400869	2831.414469
861.713642	2831.018739
862.026373	2833.330108
862.339062	2833.473781
862.651708	2837.226920
862.964312	2844.944926
863.276873	2842.152127
863.589392	2849.575226
863.901869	2858.732482
864.214303	2866.326980
864.526696	2873.064482
864.839045	2882.015051
865.151353	2888.273643
865.463619	2891.091648
865.775842	2890.322873
866.088023	2896.664644
866.400162	2893.138357
866.712258	2895.028790
867.024313	2899.064233
867.336325	2898.078688
867.648296	2902.114131
867.960224	2900.632032
868.272110	2904.422980
868.583954	2904.574214
868.895755	2906.386509
869.207515	2906.409194
869.519233	2915.105185
869.830909	2913.045873
870.142542	2920.589960
870.454134	2921.431833
870.765684	2926.475507
871.077191	2930.500869
871.388657	2936.711570
871.700081	2943.174329
872.011463	2950.388221
872.322803	2955.285702
872.634101	2961.032617
872.945357	2963.470015
873.256571	2978.737149
873.567744	2981.915597
873.878874	2986.193016
874.189963	2996.729027
874.501010	2997.306239
874.812015	2996.043430
875.122979	3006.571880
875.433900	3010.486336
875.744780	3012.071779
876.055618	3015.104033
876.366415	3018.053108
876.677169	3024.954448
876.987882	3031.018956
877.298554	3037.103628
877.609183	3053.220197
877.919771	3073.238619
878.230317	3097.930191
878.540822	3131.839512
878.851285	3182.182995
879.161707	3249.797471
879.472087	3361.010366
879.782425	3523.131353
880.092722	3798.892551
880.402977	4224.948189
880.713191	4774.126447
881.023363	5374.958889
881.333494	5815.061702
881.643583	6107.514160
881.953631	6180.356313
882.263637	6134.965764
882.573602	5988.898331
882.883526	5824.798691
883.193408	5616.803204
883.503248	5392.454214
883.813048	5174.900699
884.122806	4960.429850
884.432522	4715.838106
884.742197	4488.824866
885.051831	4276.945170
885.361424	4077.146599
885.670975	3910.861619
885.980485	3759.548866
886.289954	3634.440030
886.599382	3530.763660
886.908768	3446.084878
887.218113	3366.422045
887.527417	3301.066006
887.836680	3245.525093
888.145901	3198.029862
888.455082	3161.143739
888.764221	3126.954634
889.073319	3095.664192
889.382376	3076.739701
889.691392	3062.586661
890.000366	3053.147101
890.309300	3044.030174
890.618193	3042.273332
890.927044	3036.236550
891.235855	3034.746889
891.544625	3040.677807
891.853353	3044.826676
892.162041	3059.312432
892.470687	3087.429467
892.779293	3119.861731
893.087858	3167.959379
893.396381	3245.026019
893.704864	3354.595498
894.013306	3511.677852
894.321707	3698.697098
894.630068	3854.937579
894.938387	3931.467335
895.246665	3936.324487
895.554903	3878.545302
895.863100	3792.545738
896.171256	3717.770303
896.479371	3642.115187
896.787446	3567.664906
897.095480	3495.145387
897.403473	3438.971810
897.711425	3379.607183
898.019336	3328.913339
898.327207	3276.288734
898.635038	3230.830130
898.942827	3179.178467
899.250576	3134.649955
899.558284	3096.279213
899.865952	3071.176787
900.173579	3039.941798
900.481165	3018.741226
900.788711	2998.838750
901.096216	2984.778972
901.403681	2968.082671
901.711105	2961.614870
902.018489	2956.019189
902.325832	2962.933132
902.633135	2974.101808
902.940397	3006.861747
903.247619	3100.062599
903.554800	3280.606483
903.861941	3558.346333
904.169041	3821.446673
904.476101	3990.363136
904.783121	4012.587062
905.090100	3942.716670
905.397039	3838.004343
905.703938	3737.302254
906.010796	3631.493476
906.317614	3547.563305
906.624391	3460.449646
906.931129	3391.103534
907.237826	3320.073676
907.544483	3252.691093
907.851099	3180.955474
908.157675	3106.253136
908.464211	3034.830068
908.770707	2975.041983
909.077163	2928.509613
909.383578	2890.078377
909.689954	2862.838502
909.996289	2844.168588
910.302584	2831.835406
910.608839	2820.391986
910.915054	2810.680203
911.221229	2808.751962
911.527363	2810.481078
911.833458	2807.000161
912.139513	2812.731953
912.445527	2815.023157
912.751502	2823.134374
913.057436	2843.709843
913.363331	2859.965044
913.669186	2889.425547
913.975000	2926.714962
914.280775	2983.604383
914.586510	3068.300809
914.892205	3178.608817
915.197859	3328.857887
915.503475	3506.876152
915.809050	3685.045653
916.114585	3822.086900
916.420081	3894.913929
916.725536	3927.353754
917.030952	3889.202301
917.336328	3850.675283
917.641665	3804.029487
917.946961	3743.646546
918.252218	3683.072041
918.557435	3614.819859
918.862612	3542.214641
919.167750	3486.542658
919.472848	3407.862850
919.777906	3339.073785
920.082925	3269.687343
920.387904	3197.946683
920.692843	3140.308651
920.997743	3090.585230
921.302603	3037.038093
921.607423	3004.817559
921.912204	2969.456385
922.216946	2944.275822
922.521647	2917.282963
922.826310	2897.667834
923.130932	2878.433311
923.435516	2853.650999
923.740059	2844.876871
924.044564	2827.409272
924.349028	2815.678507
924.653454	2802.016981
924.957840	2786.865793
925.262186	2779.460338
925.566493	2767.001126
925.870761	2753.669795
926.174989	2752.553179
926.479178	2742.123032
926.783328	2734.790673
927.087438	2728.642986
927.391509	2720.945144
927.695541	2715.926676
927.999533	2710.804863
928.303486	2703.752289
928.607400	2700.979655
928.911275	2701.478729
929.215110	2694.733665
929.518906	2691.368695
929.822663	2690.857018
930.126381	2690.955320
930.430060	2692.429858
930.733699	2689.508509
931.037299	2690.194106
931.340861	2689.400124
931.644383	2691.333407
931.947866	2691.146884
932.251309	2690.105886
932.554714	2693.846422
932.858080	2690.975485
933.161407	2690.428520
933.464694	2687.081193
933.767943	2687.610515
934.071153	2685.488189
934.374323	2684.016172
934.677455	2683.771676
934.980548	2680.560461
935.283602	2680.109278
935.586617	2680.361335
935.889593	2682.483661
936.192530	2680.822601
936.495428	2681.576253
936.798287	2684.321162
937.101108	2690.305011
937.403890	2698.012936
937.706632	2706.918134
938.009336	2718.941286
938.312002	2729.396639
938.614628	2740.330902
938.917216	2753.483272
939.219765	2757.745567
939.522275	2766.534819
939.824747	2767.376692
940.127179	2763.898296
940.429573	2766.209665
940.731929	2767.124634
941.034246	2766.938112
941.336524	2765.261928
941.638763	2764.677154
941.940964	2768.878956
942.243126	2761.279416
942.545250	2756.016452
942.847335	2750.819022
943.149381	2743.128742
943.451389	2739.244533
943.753359	2732.436455
944.055290	2727.296998
944.357182	2722.664178
944.659036	2720.415823
944.960851	2718.197716
945.262628	2711.727395
945.564367	2713.839638
945.866067	2712.491129
946.167729	2710.462065
946.469352	2707.412167
946.770937	2705.519214
947.072484	2702.348328
947.373992	2704.392516
947.675462	2707.795295
947.976893	2704.523586
948.278286	2702.464274
948.579641	2700.541074
948.880958	2698.832123
949.182236	2700.606609
949.483476	2697.690302
949.784678	2696.939170
950.085841	2695.656196
950.386967	2696.515713
950.688054	2700.231043
950.989103	2702.199614
951.290114	2704.334542
951.591087	2707.003833
951.892021	2710.555326
952.192917	2719.458004
952.493776	2723.679970
952.794596	2724.557131
953.095378	2724.431102
953.396122	2726.467728
953.696828	2725.174672
953.997496	2724.577296
954.298126	2722.709548
954.598718	2717.854917
954.899272	2716.312324
955.199788	2710.643547
955.500266	2707.593648
955.800706	2699.036290
956.101108	2691.726617
956.401472	2682.728157
956.701798	2679.625327
957.002087	2672.245078
957.302337	2671.171312
957.602550	2663.241577
957.902724	2657.630773
958.202861	2652.899650
958.502960	2647.293887
958.803022	2646.333547
959.103045	2638.045890
959.403031	2637.897176
959.702979	2633.284520
960.002889	2629.576752
960.302762	2629.796042
960.602596	2625.306894
960.902393	2624.618777
961.202153	2620.638786
961.501875	2619.486882
961.801559	2617.253651
962.101205	2616.361367
962.400814	2616.459669
962.700385	2615.196860
962.999918	2613.250975
963.299414	2612.091509
963.598873	2608.552619
963.898293	2609.419698
964.197677	2610.148145
964.497022	2610.536313
964.796331	2609.202928
965.095601	2607.050356
965.394835	2607.995572
965.694030	2607.156220
965.993189	2609.099585
966.292309	2607.665376
966.591393	2603.302258
966.890439	2607.572115
967.189447	2606.863833
967.488419	2605.290993
967.787353	2606.843668
968.086249	2605.013729
968.385108	2604.930550
968.683930	2607.594800
968.982714	2606.717639
969.281462	2609.084461
969.580172	2610.818618
969.878844	2609.853237
970.177480	2611.287445
970.476078	2614.135697
970.774639	2613.593773
971.073162	2614.788527
971.371649	2611.806684
971.670098	2614.390276
971.968510	2617.417488
972.266885	2615.688373
972.565223	2618.478651
972.863524	2618.634927
973.161788	2622.526698
973.460014	2622.070473
973.758204	2625.836215
974.056356	2621.957047
974.354471	2624.462501
974.652550	2621.883951
974.950591	2623.736575
975.248595	2624.843108
975.546563	2620.311111
975.844493	2627.343520
976.142386	2624.417131
976.440243	2620.336317
976.738062	2619.076028
977.035845	2618.103085
977.333590	2616.202570
977.631299	2618.377828
977.928971	2617.830863
978.226606	2617.488065
978.524204	2616.880606
978.821765	2616.126953
979.119290	2615.829525
979.416777	2613.679473
979.714228	2614.128136
980.011642	2615.610235
980.309020	2618.518981
980.606360	2616.585698
980.903664	2622.819085
981.200931	2625.780763
981.498162	2633.468522
981.795356	2646.038639
982.092513	2661.028510
982.389633	2677.692044
982.686717	2697.095446
982.983764	2716.874413
983.280775	2724.783983
983.577749	2731.939901
983.874686	2734.100035
984.171587	2730.351937
984.468451	2723.785835
984.765279	2717.585215
985.062070	2710.724205
985.358824	2703.258256
985.655543	2692.989426
985.952224	2682.675225
986.248869	2669.343894
986.545478	2655.808396
986.842050	2643.349184
987.138586	2632.508182
987.435086	2622.957717
987.731549	2617.183075
988.027975	2615.940430
988.324366	2608.182095
988.620719	2606.876436
988.917037	2601.999119
989.213318	2603.589603
989.509563	2598.845878
989.805772	2598.374530
990.101944	2595.881679
990.398080	2594.313880
990.694180	2596.857142
990.990244	2595.566607
991.286271	2594.697008
991.582262	2594.392018
991.878217	2595.458222
992.174136	2597.414190
992.470019	2598.331680
992.765865	2599.917123
993.061676	2599.342431
993.357450	2600.685899
993.653188	2600.464088
993.948890	2605.658997
994.244556	2606.324429
994.540186	2612.585542
994.835780	2617.135184
995.131337	2623.993674
995.426859	2629.196144
995.722345	2640.400109
996.017795	2650.623569
996.313208	2656.950217
996.608586	2662.268634
996.903928	2665.953718
997.199234	2671.272135
997.494504	2667.498831
997.789738	2670.546209
998.084936	2666.951866
998.380099	2659.730413
998.675225	2654.233035
998.970316	2650.338744
999.265371	2641.693165
999.560390	2633.491207
999.855373	2630.025414
1000.150320	2624.270937
1000.445232	2620.416975
1000.740108	2613.024123
1001.034948	2606.153030
1001.329752	2603.652618
1001.624521	2602.132710
1001.919254	2594.697008
1002.213951	2592.705752
1002.508613	2594.739858
1002.803239	2591.488314
1003.097829	2590.008735
1003.392384	2588.083014
1003.686903	2589.015628
1003.981386	2589.713827
1004.275834	2587.634352
1004.570246	2589.459249
1004.864623	2587.246183
1005.158964	2587.357088
1005.453270	2587.072263
1005.747540	2586.832808
1006.041775	2583.246027
1006.335974	2586.502612
1006.630138	2582.648650
1006.924266	2583.356932
1007.218359	2581.869792
1007.512416	2582.048753
1007.806438	2582.268043
1008.100425	2582.908270
1008.394376	2583.886254
1008.688292	2582.993969
1008.982172	2584.143352
1009.276017	2586.129567
1009.569827	2583.767787
1009.863602	2586.220308
1010.157341	2583.205698
1010.451045	2581.768969
1010.744714	2582.870461
1011.038347	2582.285687
1011.331945	2580.428022
1011.625508	2582.033630
1011.919036	2580.372569
1012.212528	2582.492375
1012.505986	2580.175964
1012.799408	2581.484144
1013.092795	2578.363670
1013.386147	2581.025399
1013.679464	2582.013465
1013.972745	2579.523135
1014.265992	2580.667477
1014.559204	2581.317786
1014.852380	2581.582446
1015.145521	2582.205029
1015.438628	2579.780234
1015.731699	2579.432394
1016.024736	2580.533886
1016.317737	2585.834660
1016.610703	2580.914493
1016.903635	2579.596232
1017.196531	2575.124728
1017.489393	2576.934502
1017.782219	2577.945254
1018.075011	2580.793506
1018.367768	2583.911459
1018.660490	2584.314752
1018.953177	2584.314752
1019.245829	2584.314752
