Dividing Wavelength (nm)	Counts (n)	Blue Motor Position (mm): 16.000000	Red Motor Position (mm): 0.000000	
326.493990	2157.903713
326.888308	2157.903713
327.282561	2157.903713
327.676750	2133.469240
328.070874	2135.586524
328.464933	2138.507873
328.858929	2149.905922
329.252859	2155.171407
329.646726	2173.440549
330.040528	2190.018383
330.434265	2208.151413
330.827938	2226.753271
331.221547	2243.250447
331.615091	2266.774992
332.008571	2286.042282
332.401986	2306.403502
332.795338	2324.289516
333.188625	2345.535459
333.581847	2363.698736
333.975006	2386.709083
334.368100	2403.760786
334.761129	2423.421286
335.154095	2439.517690
335.546996	2459.473097
335.939833	2485.117447
336.332606	2497.589262
336.725315	2512.901766
337.117960	2518.394103
337.510540	2529.048582
337.903056	2536.325488
338.295508	2544.857641
338.687896	2551.897612
339.080220	2557.868859
339.472480	2562.647872
339.864676	2564.311453
340.256807	2572.183215
340.648875	2572.258832
341.040879	2572.836044
341.432818	2574.240006
341.824694	2576.052301
342.216506	2579.545820
342.608253	2575.253278
342.999937	2576.301838
343.391557	2574.315623
343.783113	2573.622464
344.174605	2570.749007
344.566033	2566.040569
344.957397	2569.786146
345.348697	2564.382029
345.739934	2563.194838
346.131106	2563.767009
346.522215	2564.266083
346.913260	2559.245094
347.304241	2557.016904
347.695159	2555.791903
348.086012	2552.699155
348.476802	2551.769062
348.867528	2551.607746
349.258191	2548.683876
349.648789	2548.096582
350.039324	2548.580533
350.429796	2549.747560
350.820203	2544.023330
351.210548	2543.120963
351.600828	2545.054246
351.991045	2545.850748
352.381198	2543.758669
352.771288	2544.615665
353.161314	2543.128525
353.551276	2544.083823
353.941175	2545.011396
354.331010	2543.788916
354.720782	2542.384955
355.110490	2543.418391
355.500135	2542.261446
355.889717	2544.235058
356.279235	2545.676828
356.668689	2547.090872
357.058080	2544.184647
357.447408	2540.202135
357.836672	2541.848072
358.225873	2542.624409
358.615010	2542.901673
359.004084	2549.215718
359.393095	2549.992056
359.782043	2549.155224
360.170927	2547.839483
360.559748	2549.132539
360.948505	2551.285112
361.337199	2549.321582
361.725830	2550.798640
362.114398	2553.462890
362.502903	2549.989535
362.891344	2551.141439
363.279722	2552.628579
363.668037	2554.019938
364.056289	2553.777962
364.444478	2552.109340
364.832603	2554.478683
365.220665	2550.854093
365.608665	2556.550597
365.996601	2553.107489
366.384474	2554.458518
366.772284	2556.507747
367.160031	2555.595298
367.547715	2555.570093
367.935336	2559.693756
368.322893	2560.565876
368.710388	2554.181255
369.097820	2559.345917
369.485189	2556.966492
369.872495	2559.887841
370.259738	2555.978426
370.646918	2556.575803
371.034035	2560.369271
371.421090	2560.654096
371.808081	2557.647048
372.195010	2562.990671
372.581875	2557.876420
372.968678	2560.739796
373.355418	2557.331976
373.742096	2561.621998
374.128710	2559.852553
374.515262	2562.025290
374.901751	2563.330949
375.288177	2564.921433
375.674540	2562.920095
376.060841	2559.960938
376.447079	2562.862122
376.833254	2562.559652
377.219367	2558.050340
377.605417	2561.793397
377.991404	2555.562531
378.377329	2559.983623
378.763191	2558.864487
379.148991	2564.256001
379.534727	2560.061761
379.920402	2565.465877
380.306013	2564.714746
380.691563	2565.347410
381.077049	2565.261711
381.462474	2565.269273
381.847835	2562.768860
382.233134	2565.241546
382.618371	2565.004612
383.003545	2565.513768
383.388657	2565.831361
383.773706	2566.383368
384.158693	2567.406722
384.543618	2564.492935
384.928480	2569.050138
385.313280	2567.013512
385.698017	2566.219530
386.082692	2568.467885
386.467305	2567.736917
386.851856	2568.334294
387.236344	2568.830848
387.620770	2566.433779
388.005133	2568.077195
388.389435	2570.496949
388.773674	2570.842268
389.157851	2568.379664
389.541965	2570.844789
389.926018	2568.775395
390.310008	2570.975859
390.693936	2568.447720
391.077802	2571.414439
391.461606	2571.207752
391.845348	2571.739593
392.229027	2571.767320
392.612645	2571.268246
392.996200	2570.839747
393.379694	2570.746486
393.763125	2571.588359
394.146494	2572.730180
394.529801	2571.585838
394.913047	2573.990469
395.296230	2574.303020
395.679351	2572.122721
396.062410	2571.399316
396.445408	2572.021898
396.828343	2572.125242
397.211217	2564.800445
397.594028	2569.823955
397.976778	2570.539799
398.359466	2574.355952
398.742092	2569.546692
399.124656	2573.143555
399.507158	2573.703123
399.889598	2574.189594
400.271977	2576.165727
400.654294	2575.192784
401.036549	2575.908628
401.418742	2577.625141
401.800874	2576.823597
402.182944	2576.511046
402.564952	2576.866447
402.946898	2575.739749
403.328783	2576.490881
403.710606	2576.115315
404.092367	2574.827300
404.474067	2578.121694
404.855705	2577.297466
405.237282	2579.177816
405.618797	2578.565316
406.000250	2577.204204
406.381642	2576.828638
406.762972	2575.775037
407.144240	2577.501632
407.525447	2578.648495
407.906593	2578.714030
408.287677	2576.478278
408.668700	2578.053639
409.049661	2579.823084
409.430560	2578.424163
409.811399	2578.875347
410.192176	2575.230593
410.572891	2579.308886
410.953545	2578.598083
411.334138	2581.312745
411.714669	2579.422312
412.095139	2582.845255
412.475547	2580.854000
412.855894	2578.865264
413.236180	2580.110429
413.616405	2583.505647
413.996568	2578.968608
414.376670	2580.720409
414.756711	2583.480441
415.136691	2581.607652
415.516609	2580.652353
415.896466	2580.854000
416.276262	2583.848445
416.655997	2578.242682
417.035670	2582.532704
417.415283	2580.415419
417.794834	2578.035995
418.174324	2576.992476
418.553753	2582.557910
418.933121	2579.480285
419.312428	2584.347519
419.691674	2581.426171
420.070859	2582.716706
420.449983	2582.726788
420.829045	2583.475400
421.208047	2585.756522
421.586988	2582.257961
421.965867	2582.063877
422.344686	2583.735019
422.723444	2584.463466
423.102141	2583.067066
423.480777	2583.543455
423.859352	2586.200143
424.237866	2583.011613
424.616319	2584.143352
424.994712	2584.231573
425.373044	2584.186202
425.751314	2585.905236
426.129524	2586.621080
426.507673	2589.383632
426.885762	2586.152252
427.263789	2588.307346
427.641756	2584.559248
428.019662	2584.566809
428.397508	2586.484968
428.775292	2588.347675
429.153016	2583.790472
429.530679	2588.592171
429.908282	2588.572006
430.285824	2586.767273
430.663305	2584.261820
431.040726	2586.336254
431.418086	2586.878178
431.795385	2587.951944
432.172624	2585.534711
432.549802	2586.787438
432.926920	2584.776017
433.303977	2587.077304
433.680974	2586.358940
434.057910	2589.290371
434.434786	2583.016655
434.811601	2587.901533
435.188355	2590.044023
435.565050	2588.105699
435.941683	2587.523446
436.318257	2586.114444
436.694770	2583.689649
437.071222	2583.175451
437.447614	2583.228383
437.823946	2588.168714
438.200218	2588.267016
438.576429	2586.991604
438.952580	2588.118302
439.328670	2588.030082
439.704700	2587.538570
440.080670	2590.371698
440.456580	2587.861203
440.832429	2594.273551
441.208218	2588.829105
441.583947	2588.309866
441.959616	2588.471183
442.335224	2590.187696
442.710773	2590.182655
443.086261	2588.995463
443.461689	2587.843559
443.837057	2593.378746
444.212365	2589.988570
444.587612	2588.962696
444.962800	2590.674167
445.337927	2591.836153
445.712995	2588.579568
446.088002	2590.470001
446.462949	2593.618201
446.837837	2589.759198
447.212664	2591.450505
447.587431	2590.285998
447.962139	2592.708273
448.336786	2593.829930
448.711374	2589.673498
449.085901	2592.846905
449.460369	2592.705752
449.834776	2589.741554
450.209124	2591.999991
450.583412	2592.617532
450.957640	2591.659713
451.331808	2591.702563
451.705917	2591.717686
452.079965	2592.599888
452.453954	2593.310691
452.827883	2587.906574
453.201752	2591.755495
453.575562	2592.935125
453.949311	2594.732296
454.323001	2590.454877
454.696632	2592.985536
455.070202	2595.322111
455.443713	2591.957141
455.817164	2593.043510
456.190556	2591.148036
456.563888	2592.988057
456.937160	2589.345823
457.310373	2595.228850
457.683526	2592.715835
458.056619	2593.943356
458.429653	2593.371185
458.802628	2593.726586
459.175542	2594.633994
459.548398	2596.345465
459.921194	2595.062492
460.293930	2594.886051
460.666607	2592.741040
461.039224	2593.552666
461.411782	2594.780187
461.784280	2594.835640
462.156719	2595.458222
462.529099	2593.950917
462.901419	2594.591144
463.273680	2596.607605
463.645882	2596.970568
464.018024	2596.650455
464.390106	2596.259766
464.762130	2597.386464
465.134094	2596.121134
465.505999	2598.550970
465.877845	2596.899992
466.249631	2598.729931
466.621358	2598.656834
466.993026	2599.901999
467.364634	2598.815631
467.736184	2598.311515
468.107674	2597.792277
468.479105	2596.733634
468.850477	2596.103490
469.221790	2598.334201
469.593043	2596.955445
469.964238	2598.656834
470.335373	2598.624067
470.706449	2597.159612
471.077467	2599.453337
471.448425	2598.593820
471.819324	2599.869232
472.190164	2601.036259
472.560945	2598.140116
472.931667	2598.732452
473.302330	2599.944849
473.672934	2598.571135
474.043479	2599.352514
474.413965	2600.995930
474.784393	2593.966041
475.154761	2599.458378
475.525070	2597.101638
475.895321	2597.109200
476.265513	2598.177925
476.635645	2598.034252
477.005719	2600.600199
477.375734	2602.094901
477.745691	2600.398553
478.115588	2602.190683
478.485427	2600.864860
478.855207	2602.820827
479.224928	2601.971393
479.594591	2605.106991
479.964194	2605.457351
480.333739	2604.431476
480.703226	2606.805860
481.072653	2607.957763
481.442022	2603.637494
481.811333	2609.893566
482.180584	2606.447938
482.549777	2608.940788
482.918912	2606.883997
483.287988	2609.165120
483.657005	2606.188318
484.025964	2606.752928
484.394864	2607.839296
484.763706	2610.919441
485.132489	2609.197887
485.501213	2608.489605
485.869879	2607.042794
486.238487	2605.870726
486.607036	2608.590428
486.975527	2608.865171
487.343959	2608.179574
487.712333	2610.432970
488.080648	2608.424070
488.448905	2612.431787
488.817104	2610.959770
489.185244	2613.737446
489.553326	2612.953547
489.921350	2616.245420
490.289315	2615.620317
490.657222	2615.774072
491.025070	2617.452777
491.392861	2617.064608
491.760593	2617.533435
492.128267	2618.864300
492.495883	2616.474793
492.863440	2616.537807
493.230939	2616.459669
493.598380	2616.464710
493.965763	2614.236520
494.333088	2614.518825
494.700354	2614.735595
495.067563	2611.768876
495.434713	2613.868516
495.801805	2618.614762
496.168839	2617.470421
496.535815	2618.216511
496.902733	2618.246758
497.269593	2619.045781
497.636395	2617.944289
498.003139	2619.960751
498.369825	2618.826491
498.736453	2620.953858
499.103023	2621.382356
499.469535	2622.929990
499.835989	2620.744650
500.202385	2621.581482
500.568723	2620.558127
500.935003	2621.387397
501.301226	2622.196502
501.667390	2620.240535
502.033497	2623.913015
502.399546	2623.638272
502.765537	2623.774383
503.131470	2625.188427
503.497345	2624.943931
503.863163	2628.636576
504.228923	2620.290946
504.594625	2625.455608
504.960269	2627.146915
505.325856	2626.766308
505.691385	2625.251442
506.056856	2627.212450
506.422270	2629.019704
506.787625	2631.568007
507.152924	2629.470887
507.518164	2630.378295
507.883347	2631.212606
508.248472	2627.850156
508.613540	2628.949128
508.978550	2631.076495
509.343503	2631.482308
509.708398	2636.513379
510.073236	2634.965745
510.438016	2634.824593
510.802738	2634.391053
511.167403	2635.868112
511.532010	2637.294758
511.896561	2637.524131
512.261053	2641.748617
512.625488	2635.185035
512.989866	2636.324336
513.354186	2639.772485
513.718449	2637.156126
514.082655	2640.697537
514.446803	2643.011427
514.810894	2644.644760
515.174927	2646.610810
515.538904	2646.567961
515.902822	2647.157776
516.266684	2648.302117
516.630488	2650.187509
516.994235	2649.176758
517.357925	2652.834115
517.721558	2654.472490
518.085133	2655.122799
518.448651	2656.259579
518.812112	2656.027686
519.175516	2657.968530
519.538863	2658.911226
519.902152	2660.410969
520.265385	2661.509941
520.628560	2664.332987
520.991678	2665.535302
521.354739	2667.340035
521.717743	2668.307937
522.080690	2671.930006
522.443580	2671.940088
522.806413	2673.442352
523.169189	2673.323885
523.531908	2678.785975
523.894569	2677.208094
524.257174	2680.686490
524.619722	2684.243024
524.982213	2684.038857
525.344647	2688.825433
525.707025	2688.497758
526.069345	2692.069415
526.431608	2693.914477
526.793815	2697.896989
527.155964	2699.308512
527.518057	2701.393029
527.880093	2703.815304
528.242072	2706.547609
528.603995	2708.891746
528.965860	2711.780327
529.327669	2714.729402
529.689421	2717.900287
530.051117	2720.456152
530.412755	2723.243911
530.774337	2727.271792
531.135862	2730.548542
531.497331	2734.568863
531.858743	2733.560632
532.220098	2739.299986
532.581396	2743.937847
532.942638	2744.746952
533.303824	2754.705752
533.664953	2758.690784
534.026025	2763.308481
534.387040	2768.468102
534.747999	2772.395161
535.108902	2780.307252
535.469748	2783.410082
535.830537	2788.206740
536.191270	2793.913326
536.551947	2798.437761
536.912567	2806.743062
537.273131	2813.145328
537.633638	2818.383087
537.994089	2825.118068
538.354483	2829.554283
538.714821	2841.461489
539.075103	2848.342664
539.435328	2857.767101
539.795497	2865.137268
540.155609	2872.525079
540.515665	2883.245093
540.875665	2890.602657
541.235609	2898.718914
541.595496	2909.161664
541.955328	2922.336720
542.315102	2929.379212
542.674821	2936.953546
543.034483	2948.328909
543.394090	2957.695373
543.753640	2970.457054
544.113134	2986.964312
544.472571	2993.658965
544.831953	3013.092613
545.191278	3022.302801
545.550548	3033.663041
545.909761	3048.174002
546.268918	3063.972978
546.628019	3082.106009
546.987064	3091.568255
547.346053	3100.544029
547.704986	3119.972636
548.063863	3133.127527
548.422684	3149.944816
548.781449	3163.008966
549.140158	3186.997297
549.498811	3198.959955
549.857408	3208.981769
550.215949	3233.824575
550.574434	3250.470465
550.932864	3264.116868
551.291237	3294.938483
551.649555	3308.005154
552.007817	3333.281499
552.366022	3350.108871
552.724173	3372.075699
553.082267	3399.819689
553.440305	3426.540325
553.798288	3438.051800
554.156215	3463.691108
554.514086	3490.719254
554.871902	3509.510155
555.229661	3538.438817
555.587365	3554.424316
555.945014	3583.847010
556.302606	3608.410032
556.660143	3638.730052
557.017625	3668.568642
557.375050	3692.418340
557.732421	3729.720358
558.089735	3753.859923
558.446994	3781.303965
558.804197	3823.145542
559.161345	3850.236703
559.518437	3861.286912
559.875474	3900.582706
560.232455	3934.111420
560.589381	3967.592244
560.946251	3994.479238
561.303065	4047.151734
561.659825	4072.579314
562.016528	4096.355916
562.373177	4121.828866
562.729770	4171.766536
563.086307	4191.011141
563.442789	4243.824789
563.799216	4280.121097
564.155587	4317.097960
564.511904	4351.571891
564.868164	4389.357860
565.224370	4438.985499
565.580520	4468.113286
565.936615	4519.384341
566.292654	4545.764699
566.648638	4599.314356
567.004567	4636.268534
567.360441	4677.757230
567.716260	4716.317016
568.072023	4773.554277
568.427732	4807.483762
568.783385	4832.248431
569.138982	4892.664139
569.494525	4937.124595
569.850013	4965.501250
570.205445	5016.802553
570.560823	5061.174789
570.916145	5097.859265
571.271412	5142.037417
571.626625	5176.271893
571.981782	5220.565991
572.336884	5256.015385
572.691931	5321.547864
573.046923	5344.114589
573.401860	5384.658069
573.756743	5424.669707
574.111570	5484.586341
574.466342	5519.967680
574.821059	5582.084777
575.175722	5600.207725
575.530330	5644.113655
575.884882	5675.441905
576.239380	5725.034256
576.593823	5765.290390
576.948211	5809.352596
577.302544	5822.993958
577.656823	5877.612339
578.011047	5946.000632
578.365216	5977.288554
578.719330	6005.196381
579.073389	6044.451846
579.427394	6096.955464
579.781344	6142.156970
580.135239	6167.259395
580.489080	6221.671089
580.842866	6228.239713
581.196597	6313.034441
581.550273	6356.804259
581.903895	6393.055197
582.257463	6479.369833
582.610975	6475.583926
582.964434	6549.857766
583.317837	6570.854172
583.671186	6599.636640
584.024481	6664.922103
584.377721	6668.466034
584.730906	6754.205979
585.084037	6808.884854
585.437113	6820.761812
585.790135	6882.125258
586.143103	6892.875518
586.496016	6948.124044
586.848874	6995.289079
587.201679	7042.310442
587.554428	7039.898249
587.907124	7107.018692
588.259765	7128.395705
588.612352	7202.276335
588.964884	7192.562032
589.317362	7259.286744
589.669786	7306.431615
590.022155	7333.409350
590.374470	7423.890500
590.726731	7419.567710
591.078937	7407.242089
591.431090	7460.877445
591.783188	7478.022410
592.135232	7483.890313
592.487222	7563.366624
592.839157	7620.760160
593.191038	7627.374154
593.542866	7637.378324
593.894639	7608.598377
594.246358	7684.697114
594.598022	7730.362407
594.949633	7732.278045
595.301190	7769.149044
595.652692	7781.537680
596.004141	7880.112402
596.355535	7797.518138
596.706876	7821.304822
597.058162	7848.726178
597.409395	7950.812064
597.760573	8010.154007
598.111698	7983.927404
598.462768	8030.484980
598.813785	8074.108605
599.164748	8036.849437
599.515657	8126.463508
599.866511	8091.775329
600.217312	8211.971560
600.568060	8105.149510
600.918753	8249.896160
601.269392	8284.891850
601.619978	8262.226823
601.970510	8327.618150
602.320988	8387.859938
602.671412	8474.391344
603.021783	8464.487997
603.372100	8453.266389
603.722363	8496.867328
604.072572	8543.089668
604.422728	8582.748425
604.772830	8577.573681
605.122878	8629.182493
605.472872	8642.032394
605.822813	8718.068118
606.172701	8728.876352
606.522534	8790.696021
606.872314	8863.492803
607.222041	8849.266667
607.571714	8941.648332
607.921333	8880.206749
608.270899	8951.904560
608.620411	9027.768884
608.969870	9019.340075
609.319276	9043.749342
609.668627	9081.268129
610.017926	9178.491822
610.367171	9231.696160
610.716362	9256.690201
611.065500	9264.055326
611.414585	9308.714908
611.763616	9392.965192
612.112594	9397.265296
612.461518	9436.235936
612.810389	9509.935085
613.159207	9484.613369
613.507971	9511.006330
613.856682	9616.318554
614.205340	9610.914437
614.553945	9740.101566
614.902496	9669.752264
615.250994	9753.069935
615.599439	9770.837481
615.947830	9836.551442
616.296169	9825.322272
616.644454	9870.738027
616.992686	9901.516792
617.340864	9998.364919
617.688990	9933.313870
618.037063	10058.082428
618.385082	10048.557167
618.733048	10116.935378
619.080961	10123.362849
619.428821	10135.010435
619.776628	10165.927832
620.124382	10150.297734
620.472083	10194.049908
620.819731	10231.828315
621.167326	10183.518938
621.514868	10199.010404
621.862357	10146.219441
622.209793	10160.995063
622.557176	10115.077713
622.904506	10096.911915
623.251783	10045.829903
623.599007	10021.206387
623.946179	9989.880657
624.293297	10001.986988
624.640363	9898.850022
624.987376	9915.576570
625.334336	9880.384275
625.681243	9819.504781
626.028097	9814.992948
626.374899	9799.793869
626.721647	9792.539649
627.068343	9775.072051
627.414987	9741.487884
627.761577	9700.823416
628.108115	9749.528524
628.454600	9654.674173
628.801032	9683.754069
629.147412	9679.005302
629.493739	9670.536164
629.840014	9606.326987
630.186236	9661.242797
630.532405	9580.601979
630.878521	9627.086459
631.224585	9605.066699
631.570597	9546.102843
631.916556	9559.489627
632.262462	9561.024658
632.608316	9553.120129
632.954117	9538.069764
633.299866	9531.730513
633.645562	9526.840594
633.991206	9445.304972
634.336797	9362.047795
634.682336	9372.422490
635.027823	9332.990585
635.373257	9310.595259
635.718639	9264.012477
636.063968	9240.646728
636.409245	9144.632912
636.754470	9142.190473
637.099642	9101.140358
637.444762	9018.074745
637.789829	9035.761633
638.134845	8973.858785
638.479808	8954.702400
638.824719	8949.250392
639.169577	8868.370120
639.514383	8866.638483
639.859137	8815.322058
640.203839	8855.603398
640.548489	8793.914798
640.893086	8799.147516
641.237632	8744.536696
641.582125	8765.243236
641.926566	8754.046833
642.270955	8743.873784
642.615292	8737.516889
642.959576	8731.437258
643.303809	8723.792348
643.647990	8742.071572
643.992118	8723.734375
644.336195	8710.082930
644.680219	8718.224394
645.024192	8754.175382
645.368112	8823.375301
645.711981	8808.914751
646.055797	8946.933982
646.399562	8907.517200
646.743274	9064.481087
647.086935	9136.597313
647.430544	9115.560578
647.774101	9145.931009
648.117606	9162.115634
648.461059	9239.726718
648.804460	9183.011217
649.147810	9069.481911
649.491108	9039.436634
649.834354	8981.881781
650.177548	8850.158952
650.520690	8759.846680
650.863781	8757.883151
651.206820	8740.869257
651.549807	8653.785845
651.892742	8566.818379
652.235626	8531.525261
652.578458	8500.295313
652.921238	8398.418635
653.263967	8439.430942
653.606644	8376.330819
653.949269	8355.349537
654.291843	8285.393445
654.634365	8353.413734
654.976836	8280.916900
655.319255	8274.928010
655.661622	8265.480887
656.003938	8227.422696
656.346203	8195.411369
656.688416	8226.752223
657.030577	8191.073457
657.372687	8161.751585
657.714746	8196.631329
658.056753	8217.577323
658.398708	8122.997715
658.740612	8120.237683
659.082465	8153.511819
659.424266	8115.854400
659.766016	8131.940722
660.107715	8109.762166
660.449362	8126.324877
660.790958	8122.057540
661.132503	8117.530584
661.473996	8110.230993
661.815438	8128.674054
662.156829	8158.457191
662.498168	8106.341743
662.839456	8109.396682
663.180693	8130.307388
663.521879	8158.278230
663.863013	8136.066906
664.204097	8132.870815
664.545129	8206.143986
664.886110	8202.048048
665.227040	8212.039615
665.567918	8219.709731
665.908746	8233.260352
666.249522	8259.048375
666.590248	8259.156760
666.930922	8265.853933
667.271545	8260.951411
667.612118	8273.791229
667.952639	8245.195284
668.293109	8250.228876
668.633528	8225.519661
668.973896	8210.776806
669.314213	8216.548928
669.654480	8178.805809
669.994695	8171.889346
670.334859	8149.277250
670.674973	8137.808625
671.015035	8164.221751
671.355047	8150.852611
671.695008	8136.404664
672.034918	8110.777958
672.374777	8114.853731
672.714585	8091.750123
673.054342	8126.808827
673.394049	8090.257941
673.733705	8134.269735
674.073310	8081.105727
674.412864	8093.005370
674.752368	8032.244343
675.091820	8086.872807
675.431223	8015.963937
675.770574	7972.176474
676.109875	7935.973428
676.449125	7893.103456
676.788324	7885.241776
677.127473	7798.859084
677.466571	7789.263248
677.805619	7730.143116
678.144616	7735.481698
678.483562	7718.994605
678.822458	7669.951739
679.161303	7651.571692
679.500098	7627.096891
679.838842	7609.989735
680.177535	7620.455170
680.516179	7652.683267
680.854771	7670.206318
681.193314	7796.535112
681.531805	7948.916590
681.870247	8068.533089
682.208638	8225.844815
682.546978	8298.238305
682.885268	8330.116041
683.223508	8262.715814
683.561697	8207.641209
683.899836	8173.371445
684.237925	8085.063032
684.575963	8056.111686
684.913951	7976.065724
685.251889	7996.391657
685.589776	7987.642734
685.927614	7972.131104
686.265401	7995.315370
686.603137	8005.211155
686.940824	8076.440139
687.278460	8130.002398
687.616046	8143.815160
687.953582	8256.822706
688.291068	8235.168429
688.628504	8291.561297
688.965889	8294.044065
689.303224	8247.030264
689.640510	8205.904531
689.977745	8102.833100
690.314930	7981.424471
690.652065	7907.271618
690.989150	7793.021428
691.326185	7645.575240
691.663170	7531.743466
692.000105	7416.245590
692.336990	7299.862992
692.673825	7234.033084
693.010610	7135.571788
693.347345	7042.489402
693.684030	6927.475478
694.020665	6880.549897
694.357251	6767.368431
694.693786	6757.144971
695.030272	6710.201747
695.366707	6621.011132
695.703093	6567.400982
696.039429	6568.562968
696.375716	6521.531523
696.711952	6509.919225
697.048139	6479.377394
697.384276	6449.490914
697.720363	6465.761238
698.056400	6443.476817
698.392388	6414.916160
698.728326	6411.185706
699.064214	6385.561521
699.400053	6378.143463
699.735842	6320.265976
700.071581	6279.024297
700.407270	6239.116002
700.742910	6210.134409
701.078501	6168.305435
701.414042	6115.937928
701.749533	6067.487399
702.084974	6013.461353
702.420366	6048.273041
702.755709	5973.956351
703.091002	5922.110604
703.426246	5931.792140
703.761440	5915.126086
704.096584	5872.664447
704.431679	5859.663311
704.766725	5844.207133
705.101721	5832.410833
705.436668	5851.289954
705.771565	5792.404236
706.106413	5850.188462
706.441212	5847.504048
706.775961	5862.753538
707.110661	5868.102203
707.445311	5933.138128
707.779913	5891.523403
708.114465	5942.706238
708.448967	5982.609492
708.783421	6091.823569
709.117825	6136.352081
709.452180	6176.356157
709.786485	6231.816411
710.120742	6362.765424
710.454949	6367.728440
710.789107	6445.957065
711.123216	6569.873668
711.457275	6598.711588
711.791286	6702.088010
712.125247	6726.608182
712.459159	6691.446134
712.793023	6824.290620
713.126837	6654.726369
713.460602	6707.227466
713.794318	6665.070817
714.127985	6618.581296
714.461602	6465.277287
714.795171	6465.224355
715.128691	6305.233255
715.462162	6213.731272
715.795584	6146.731817
716.128957	6104.539880
716.462281	6032.632861
716.795556	5995.887891
717.128782	5911.443523
717.461960	5817.667979
717.795088	5803.885464
718.128167	5736.805351
718.461198	5652.582793
718.794180	5627.699658
719.127113	5570.298560
719.459997	5538.872007
719.792833	5470.314835
720.125619	5470.287108
720.458357	5413.715280
720.791046	5381.474581
721.123686	5354.950550
721.456278	5309.746523
721.788821	5303.349299
722.121315	5258.462865
722.453761	5269.991984
722.786158	5250.838120
723.118506	5257.447073
723.450805	5234.028392
723.783056	5256.627885
724.115259	5240.034927
724.447412	5223.729315
724.779518	5270.541470
725.111574	5274.992808
725.443582	5312.471267
725.775542	5299.797806
726.107453	5391.430859
726.439315	5365.524370
726.771129	5429.824287
727.102895	5492.765613
727.434612	5541.654723
727.766281	5565.927879
728.097901	5621.728411
728.429473	5642.155167
728.760996	5647.312267
729.092471	5673.816133
729.423897	5656.865253
729.755276	5629.522035
730.086606	5644.360671
730.417887	5729.460389
730.749120	5821.947918
731.080305	5863.313106
731.411442	5932.959167
731.742530	5962.288600
732.073570	5982.110417
732.404562	6045.495365
732.735506	6032.595052
733.066401	6017.244739
733.397249	5947.465088
733.728048	5850.853895
734.058798	5710.931628
734.389501	5586.387402
734.720156	5501.660729
735.050762	5398.312034
735.381320	5322.959387
735.711831	5263.332620
736.042293	5190.740004
736.372707	5184.128531
736.703073	5133.820336
737.033391	5169.400800
737.363661	5158.078368
737.693883	5163.570706
738.024056	5190.926527
738.354182	5221.712853
738.684260	5271.128764
739.014290	5306.358868
739.344272	5336.956151
739.674207	5391.496394
740.004093	5423.336322
740.333931	5430.525007
740.663722	5449.139468
740.993464	5458.064831
741.323159	5439.921718
741.652806	5395.597373
741.982405	5366.008321
742.311956	5308.897089
742.641460	5296.490809
742.970915	5246.210341
743.300323	5186.951577
743.629683	5154.113501
743.958996	5108.564155
744.288260	5059.216300
744.617477	4997.691538
744.946647	4983.682172
745.275768	4931.165952
745.604842	4898.247217
745.933869	4858.089385
746.262847	4857.615517
746.591778	4843.734700
746.920662	4817.377027
747.249498	4810.362261
747.578286	4831.396476
747.907027	4852.496225
748.235720	4893.014499
748.564365	4909.247015
748.892963	4894.592380
749.221514	4908.586623
749.550017	4885.694744
749.878473	4882.551584
750.206881	4843.858208
750.535242	4832.349254
750.863555	4814.044824
751.191821	4793.877688
751.520039	4801.575530
751.848210	4781.816728
752.176334	4787.914003
752.504411	4770.695942
752.832440	4742.740224
753.160421	4753.654322
753.488356	4731.944593
753.816243	4712.856264
754.144082	4681.941388
754.471875	4674.296478
754.799620	4661.471782
755.127318	4655.170340
755.454969	4652.790916
755.782572	4643.179956
756.110129	4642.229698
756.437638	4629.609170
756.765100	4626.786123
757.092515	4628.663953
757.419882	4629.906598
757.747203	4625.818222
758.074477	4641.050068
758.401703	4627.721257
758.728882	4662.515301
759.056014	4675.206406
759.383099	4691.509498
759.710138	4720.876739
760.037129	4742.039503
760.364073	4752.270525
760.690970	4753.344291
761.017820	4751.695833
761.344623	4787.152789
761.671379	4850.746945
761.998088	4936.186941
762.324751	5172.095297
762.651366	5630.721830
762.977935	6316.638866
763.304456	6863.399892
763.630931	7171.784916
763.957359	7107.931141
764.283740	6812.620349
764.610074	6490.077243
764.936362	6094.870947
765.262602	5775.922184
765.588796	5434.623466
765.914943	5184.814128
766.241044	4961.491013
766.567097	4793.550013
766.893104	4637.468328
767.219064	4542.974420
767.544978	4445.929688
767.870845	4362.027244
768.196665	4315.784740
768.522438	4264.843880
768.848165	4226.863827
769.173846	4187.237837
769.499479	4158.841018
769.825066	4125.899598
770.150607	4079.939398
770.476101	4071.021597
770.801548	4042.508831
771.126949	4008.228985
771.452303	3995.220287
771.777611	3958.613949
772.102872	3953.040953
772.428087	3927.089093
772.753256	3903.302409
773.078378	3882.764748
773.403453	3850.279553
773.728482	3825.600584
774.053465	3814.411743
774.378401	3794.204278
774.703291	3775.418418
775.028135	3748.775920
775.352932	3742.633274
775.677683	3721.508319
776.002388	3700.156512
776.327046	3703.758416
776.651658	3685.459027
776.976224	3663.865245
777.300743	3662.365502
777.625216	3645.946464
777.949643	3635.060092
778.274024	3640.010505
778.598359	3620.987711
778.922647	3624.055253
779.246889	3612.014457
779.571086	3611.588480
779.895236	3613.120990
780.219339	3612.306844
780.543397	3613.844396
780.867409	3627.274030
781.191374	3630.200420
781.515294	3625.408803
781.839167	3636.524547
782.162995	3634.762664
782.486776	3627.049698
782.810511	3617.239613
783.134201	3604.372068
783.457844	3606.393571
783.781441	3595.572734
784.104993	3586.271805
784.428498	3582.183429
784.751958	3579.859457
785.075372	3575.342583
785.398739	3562.792631
785.722061	3571.183632
786.045337	3568.552149
786.368568	3593.095007
786.691752	3587.484202
787.014891	3637.328611
787.337983	3680.647246
787.661030	3768.572531
787.984031	3868.528529
788.306987	3942.648614
788.629897	3986.105881
788.952760	3996.223477
789.275579	3980.409377
789.598351	3932.092438
789.921078	3880.939850
790.243759	3817.562464
790.566395	3773.487656
790.888984	3723.607959
791.211529	3686.069007
791.534027	3640.779281
791.856480	3607.237964
792.178888	3586.090323
792.501249	3566.563414
792.823566	3532.316335
793.145836	3529.624359
793.468062	3522.390303
793.790241	3503.155781
794.112375	3511.188860
794.434464	3533.553939
794.756507	3531.519833
795.078505	3548.097668
795.400457	3588.179882
795.722364	3636.096049
796.044226	3681.728574
796.366042	3729.347313
796.687812	3726.625090
797.009538	3750.056373
797.331218	3742.217379
797.652852	3732.707242
797.974442	3709.893500
798.295986	3702.178014
798.617484	3671.805062
798.938938	3646.463182
799.260346	3631.710245
799.581709	3596.565841
799.903026	3584.361208
800.224299	3568.385791
800.545526	3534.935215
800.866708	3518.974922
801.187845	3504.474043
801.508936	3484.664829
801.829983	3478.297851
802.150984	3446.921710
802.471940	3437.527520
802.792851	3429.070984
803.113717	3425.998401
803.434538	3414.912903
803.755314	3406.695823
804.076045	3400.999319
804.396731	3387.731002
804.717372	3391.670664
805.037967	3385.452400
805.358518	3391.479100
805.679024	3401.962179
805.999485	3402.045358
806.319901	3407.711615
806.640272	3406.756317
806.960598	3422.061260
807.280879	3416.649581
807.601115	3427.115016
807.921306	3422.996394
808.241453	3422.388935
808.561554	3428.821447
808.881611	3430.555604
809.201623	3429.922939
809.521590	3417.219231
809.841513	3416.828542
810.161390	3423.374480
810.481223	3403.207344
810.801011	3403.003178
811.120755	3398.912281
811.440453	3389.596229
811.760107	3383.307389
812.079716	3377.482336
812.399281	3365.975903
812.718801	3364.831561
813.038276	3358.096579
813.357707	3349.478727
813.677093	3360.564224
813.996434	3342.907583
814.315731	3351.298583
814.634983	3350.912935
814.954191	3347.918489
815.273354	3365.844832
815.592473	3375.901934
815.911547	3397.029410
816.230577	3408.417377
816.549562	3436.209258
816.868502	3452.353553
817.187399	3475.195021
817.506250	3499.788290
817.825058	3513.888398
818.143821	3552.090261
818.462539	3601.854012
818.781213	3653.485509
819.099843	3738.227305
819.418429	3892.332858
819.736970	4040.968758
820.055466	4225.376687
820.373919	4465.748984
820.692327	4802.276251
821.010691	5312.594775
821.329011	6384.938939
821.647286	8109.878112
821.965517	10266.566907
822.283704	11859.503466
822.601847	12928.250767
822.919945	12520.164322
823.237999	11849.564832
823.556010	10955.380086
823.873976	10006.546712
824.191897	9053.057832
824.509775	8289.234804
824.827609	7492.482959
825.145398	6945.295956
825.463144	6571.691004
825.780845	6442.536642
826.098502	6507.083576
826.416116	6887.196658
826.733685	7388.678040
827.051210	7663.307499
827.368692	7568.858961
827.686129	7137.731922
828.003522	6593.559529
828.320872	6033.567995
828.638177	5572.763684
828.955439	5207.088466
829.272656	4874.163104
829.589830	4591.939147
829.906960	4329.494158
830.224046	4123.237869
830.541088	3954.139925
830.858086	3840.348479
831.175041	3746.416660
831.491952	3698.306408
831.808819	3681.383255
832.125642	3720.185016
832.442421	3819.795695
832.759157	4038.191083
833.075849	4410.011467
833.392497	4867.239080
833.709101	5255.138224
834.025662	5359.522876
834.342179	5233.446139
834.658653	4966.113751
834.975083	4695.819684
835.291469	4455.268426
835.607811	4231.310125
835.924110	4079.147937
836.240366	3919.224893
836.556578	3756.493926
836.872746	3622.502578
837.188871	3511.708098
837.504952	3418.076228
837.820990	3345.614682
838.136984	3293.229532
838.452935	3261.374481
838.768842	3246.818149
839.084706	3280.074641
839.400526	3414.870054
839.716303	3637.948673
840.032037	3851.875078
840.347727	3915.184408
840.663373	3823.168227
840.978977	3673.937470
841.294537	3540.440155
841.610054	3437.366203
841.925527	3361.143957
842.240957	3295.724903
842.556344	3235.195769
842.871687	3174.245698
843.186987	3114.311420
843.502244	3064.673699
843.817458	3023.343799
844.132629	2993.270796
844.447756	2970.167188
844.762840	2948.054166
845.077881	2928.507092
845.392879	2917.540062
845.707833	2907.424987
846.022745	2894.622977
846.337613	2892.798079
846.652438	2884.001266
846.967221	2879.000441
847.281960	2871.042980
847.596656	2871.665562
847.911309	2863.884541
848.225919	2857.668798
848.540485	2855.165866
848.855009	2852.763756
849.169490	2848.214114
849.483928	2844.909638
849.798323	2842.169771
850.112675	2837.799091
850.426984	2837.015191
850.741251	2835.134841
851.055474	2832.732731
851.369654	2831.157370
851.683792	2832.120231
851.997887	2833.052844
852.311938	2831.946311
852.625947	2831.427072
852.939914	2830.439006
853.253837	2832.750375
853.567718	2834.255159
853.881555	2831.666527
854.195350	2831.361537
854.509103	2831.086794
854.822812	2831.084274
855.136479	2829.428255
855.450103	2830.335662
855.763685	2828.425065
856.077224	2828.190651
856.390720	2831.593430
856.704173	2834.275324
857.017584	2831.832885
857.330953	2835.346569
857.644278	2837.073164
857.957561	2841.985769
858.270802	2842.318485
858.584000	2841.587518
858.897155	2841.620285
859.210268	2840.516272
859.523339	2837.980572
859.836367	2833.519151
860.149352	2834.824810
860.462295	2835.749862
860.775195	2826.653099
861.088054	2826.582523
861.400869	2826.668223
861.713642	2824.737461
862.026373	2826.804334
862.339062	2830.381033
862.651708	2830.554952
862.964312	2838.545181
863.276873	2837.173987
863.589392	2846.182529
863.901869	2851.364836
864.214303	2858.432533
864.526696	2864.146681
864.839045	2871.547095
865.151353	2878.826521
865.463619	2882.685524
865.775842	2886.073180
866.088023	2890.156514
866.400162	2887.646020
866.712258	2891.389077
867.024313	2893.440826
867.336325	2891.235321
867.648296	2896.470560
867.960224	2894.312946
868.272110	2896.684809
868.583954	2897.826630
868.895755	2902.948442
869.207515	2897.985426
869.519233	2908.508835
869.830909	2907.697209
870.142542	2911.984711
870.454134	2914.643919
870.765684	2918.127357
871.077191	2926.480548
871.388657	2929.371650
871.700081	2935.652928
872.011463	2941.374638
872.322803	2947.247582
872.634101	2953.004579
872.945357	2958.539766
873.256571	2972.445789
873.567744	2976.415698
873.878874	2978.114567
874.189963	2986.414827
874.501010	2989.419354
874.812015	2990.649396
875.122979	2998.629542
875.433900	2998.437978
875.744780	3001.881087
876.055618	3010.168743
876.366415	3013.057325
876.677169	3017.165865
876.987882	3019.787265
877.298554	3030.071219
877.609183	3041.398692
877.919771	3062.206054
878.230317	3087.759663
878.540822	3121.237966
878.851285	3172.713187
879.161707	3238.780029
879.472087	3343.535206
879.782425	3504.055627
880.092722	3778.039818
880.402977	4196.100186
880.713191	4731.647165
881.023363	5322.293955
881.333494	5756.405357
881.643583	6035.937337
881.953631	6115.141426
882.263637	6060.041615
882.573602	5918.208751
882.883526	5756.871663
883.193408	5555.895983
883.503248	5334.796017
883.813048	5122.341629
884.122806	4906.756685
884.432522	4667.624511
884.742197	4445.352476
885.051831	4238.110641
885.361424	4042.322308
885.670975	3878.754510
885.980485	3732.664392
886.289954	3613.184005
886.599382	3512.073582
886.908768	3426.832712
887.218113	3347.926051
887.527417	3290.905560
887.836680	3228.826271
888.145901	3182.533355
888.455082	3147.704023
888.764221	3113.814867
889.073319	3087.210177
889.382376	3067.272414
889.691392	3047.604352
890.000366	3041.192004
890.309300	3031.775129
890.618193	3028.402597
890.927044	3026.905374
891.235855	3024.772966
891.544625	3030.134233
891.853353	3033.627753
892.162041	3049.078889
892.470687	3075.257601
892.779293	3107.679782
893.087858	3154.502019
893.396381	3231.901375
893.704864	3337.001871
894.013306	3493.002897
894.321707	3676.878984
894.630068	3826.376922
894.938387	3903.887183
895.246665	3913.152823
895.554903	3852.820294
895.863100	3764.113630
896.171256	3689.292825
896.479371	3619.200622
896.787446	3545.400650
897.095480	3473.836430
897.403473	3420.034716
897.711425	3361.824512
898.019336	3316.559992
898.327207	3261.462701
898.635038	3212.956719
898.942827	3164.511230
899.250576	3122.778038
899.558284	3082.184147
899.865952	3055.965106
900.173579	3028.261445
900.481165	3007.098681
900.788711	2985.197388
901.096216	2972.803711
901.403681	2959.157308
901.711105	2952.780248
902.018489	2944.790019
902.325832	2954.330403
902.633135	2962.930611
902.940397	3001.807990
903.247619	3090.683532
903.554800	3263.660644
903.861941	3534.799104
904.169041	3798.569917
904.476101	3966.498313
904.783121	3983.426508
905.090100	3918.153648
905.397039	3812.869150
905.703938	3709.525496
906.010796	3606.640587
906.317614	3522.516332
906.624391	3436.841923
906.931129	3368.882128
907.237826	3299.896458
907.544483	3239.349680
907.851099	3165.683298
908.157675	3091.850559
908.464211	3020.500588
908.770707	2963.679223
909.077163	2920.297573
909.383578	2883.270298
909.689954	2854.565968
909.996289	2833.476301
910.302584	2824.503047
910.608839	2816.376707
910.915054	2808.177271
911.221229	2799.095632
911.527363	2801.898513
911.833458	2800.943215
912.139513	2807.484112
912.445527	2807.035449
912.751502	2817.198415
913.057436	2834.083760
913.363331	2852.393231
913.669186	2880.038919
913.975000	2917.887902
914.280775	2977.648260
914.586510	3057.948800
914.892205	3164.551559
915.197859	3309.913231
915.503475	3491.054491
915.809050	3666.741223
916.114585	3794.088331
916.420081	3868.331924
916.725536	3899.430802
917.030952	3861.975029
917.336328	3825.925738
917.641665	3777.268521
917.946961	3715.789130
918.252218	3659.650840
918.557435	3581.790219
918.862612	3519.259747
919.167750	3459.023000
919.472848	3388.877864
919.777906	3321.780107
920.082925	3252.958274
920.387904	3182.593849
920.692843	3128.212402
920.997743	3076.860688
921.302603	3028.808410
921.607423	2994.858759
921.912204	2960.142853
922.216946	2932.489604
922.521647	2910.061510
922.826310	2887.802296
923.130932	2870.269163
923.435516	2848.882067
923.740059	2837.355469
924.044564	2821.191009
924.349028	2811.743887
924.653454	2796.461629
924.957840	2782.295987
925.262186	2774.088988
925.566493	2762.270003
925.870761	2751.058477
926.174989	2745.324164
926.479178	2735.942577
926.783328	2729.681464
927.087438	2723.453118
927.391509	2718.525391
927.695541	2712.226469
927.999533	2704.558874
928.303486	2699.860518
928.607400	2699.830272
928.911275	2694.221988
929.215110	2690.872141
929.518906	2690.211750
929.822663	2686.211594
930.126381	2685.775535
930.430060	2687.686132
930.733699	2686.700586
931.037299	2689.460618
931.340861	2687.882737
931.644383	2687.345854
931.947866	2687.381142
932.251309	2688.888447
932.554714	2688.228056
932.858080	2689.137984
933.161407	2685.833508
933.464694	2686.337623
933.767943	2684.149762
934.071153	2680.865451
934.374323	2680.293280
934.677455	2679.106088
934.980548	2679.078362
935.283602	2678.213804
935.586617	2673.739780
935.889593	2679.675738
936.192530	2679.106088
936.495428	2680.936027
936.798287	2681.833352
937.101108	2687.303004
937.403890	2692.873479
937.706632	2703.263297
938.009336	2712.644885
938.312002	2725.691391
938.614628	2736.789491
938.917216	2747.587642
939.219765	2753.901688
939.522275	2757.735485
939.824747	2762.486773
940.127179	2758.680702
940.429573	2760.745054
940.731929	2762.040631
941.034246	2761.438213
941.336524	2760.508120
941.638763	2762.156577
941.940964	2761.430651
942.243126	2755.930752
942.545250	2752.200298
942.847335	2743.184195
943.149381	2737.878380
943.451389	2734.094994
943.753359	2725.227605
944.055290	2724.068139
944.357182	2719.238714
944.659036	2715.301573
944.960851	2713.496840
945.262628	2707.994420
945.564367	2708.191025
945.866067	2707.386961
946.167729	2705.990562
946.469352	2707.384441
946.770937	2703.505273
947.072484	2701.418235
947.373992	2699.217771
947.675462	2700.515868
947.976893	2693.317101
948.278286	2696.366999
948.579641	2695.326001
948.880958	2692.444981
949.182236	2692.334076
949.483476	2692.749971
949.784678	2693.266689
950.085841	2692.543284
950.386967	2693.654858
950.688054	2693.047399
950.989103	2697.319777
951.290114	2696.961855
951.591087	2704.750438
951.892021	2708.019626
952.192917	2712.123125
952.493776	2717.978425
952.794596	2718.318703
953.095378	2719.909187
953.396122	2723.009497
953.696828	2720.937583
953.997496	2720.020093
954.298126	2719.692418
954.598718	2716.546738
954.899272	2710.419215
955.199788	2706.315716
955.500266	2700.979655
955.800706	2693.780887
956.101108	2690.156297
956.401472	2682.256809
956.701798	2674.879081
957.002087	2668.164264
957.302337	2666.616629
957.602550	2661.499858
957.902724	2654.575833
958.202861	2649.199443
958.502960	2647.863537
958.803022	2644.178454
959.103045	2635.807618
959.403031	2634.890128
959.702979	2629.473408
960.002889	2629.334776
960.302762	2626.398304
960.602596	2624.908643
960.902393	2620.391769
961.202153	2620.603498
961.501875	2619.990997
961.801559	2615.816922
962.101205	2615.955554
962.400814	2615.080914
962.700385	2612.787189
962.999918	2614.357508
963.299414	2608.013216
963.598873	2610.826180
963.898293	2606.999944
964.197677	2608.378700
964.497022	2610.906838
964.796331	2606.301744
965.095601	2608.701333
965.394835	2606.737804
965.694030	2603.899634
965.993189	2606.546240
966.292309	2606.130345
966.591393	2605.580859
966.890439	2605.764861
967.189447	2605.265787
967.488419	2604.779316
967.787353	2605.275869
968.086249	2604.333174
968.385108	2607.030191
968.683930	2604.910386
968.982714	2606.745366
969.281462	2605.767382
969.580172	2607.506580
969.878844	2608.439193
970.177480	2609.946498
970.476078	2610.604369
970.774639	2613.281222
971.073162	2612.255347
971.371649	2609.817949
971.670098	2613.182919
971.968510	2614.453290
972.266885	2615.504371
972.565223	2618.478651
972.863524	2616.134515
973.161788	2620.273302
973.460014	2620.205247
973.758204	2621.755401
974.056356	2622.100720
974.354471	2622.907305
974.652550	2622.791358
974.950591	2620.817747
975.248595	2622.743467
975.546563	2623.494599
975.844493	2622.617439
976.142386	2619.242386
976.440243	2619.207098
976.738062	2620.462345
977.035845	2619.053343
977.333590	2617.697272
977.631299	2615.799278
977.928971	2614.523866
978.226606	2616.184926
978.524204	2613.732405
978.821765	2611.473968
979.119290	2610.826180
979.416777	2610.372476
979.714228	2612.608228
980.011642	2613.760131
980.309020	2617.109978
980.606360	2617.288939
980.903664	2621.228601
981.200931	2625.117851
981.498162	2631.197482
981.795356	2643.371869
982.092513	2657.199754
982.389633	2674.135510
982.686717	2692.961699
982.983764	2710.126828
983.280775	2719.856255
983.577749	2724.978067
983.874686	2729.197513
984.171587	2721.371122
984.468451	2718.444732
984.765279	2714.081613
985.062070	2704.957125
985.358824	2697.581917
985.655543	2686.859383
985.952224	2679.995852
986.248869	2668.907834
986.545478	2652.771100
986.842050	2640.281642
987.138586	2633.158491
987.435086	2624.008797
987.731549	2614.929679
988.027975	2609.654112
988.324366	2607.493977
988.620719	2607.249481
988.917037	2600.562391
989.213318	2601.870570
989.509563	2597.651124
989.805772	2597.104159
990.101944	2596.249683
990.398080	2595.261617
990.694180	2595.677512
990.990244	2598.987030
991.286271	2594.633994
991.582262	2595.493510
991.878217	2593.540063
992.174136	2596.874787
992.470019	2597.043665
992.765865	2597.212544
993.061676	2599.591968
993.357450	2600.403594
993.653188	2603.229161
993.948890	2602.820827
994.244556	2608.141765
994.540186	2612.691407
994.835780	2615.935389
995.131337	2622.884620
995.426859	2630.022894
995.722345	2636.445324
996.017795	2645.254740
996.313208	2656.551966
996.608586	2660.771412
996.903928	2664.033038
997.199234	2667.556805
997.494504	2669.109480
997.789738	2666.828358
998.084936	2660.799138
998.380099	2657.320742
998.675225	2653.706234
998.970316	2646.134421
999.265371	2641.758700
999.560390	2635.187556
999.855373	2628.379477
1000.150320	2621.624331
1000.445232	2615.816922
1000.740108	2611.746190
1001.034948	2606.987341
1001.329752	2604.983483
1001.624521	2601.459716
1001.919254	2594.858325
1002.213951	2593.862697
1002.508613	2594.366812
1002.803239	2591.110227
1003.097829	2589.890268
1003.392384	2593.416555
1003.686903	2591.732810
1003.981386	2590.129723
1004.275834	2589.058478
1004.570246	2587.299115
1004.864623	2589.648293
1005.158964	2590.744743
1005.453270	2588.536718
1005.747540	2585.688466
1006.041775	2586.492530
1006.335974	2587.856162
1006.630138	2585.270050
1006.924266	2587.788107
1007.218359	2586.351378
1007.512416	2588.529156
1007.806438	2583.021696
1008.100425	2585.791810
1008.394376	2586.968919
1008.688292	2584.009762
1008.982172	2581.726119
1009.276017	2582.792323
1009.569827	2586.716862
1009.863602	2584.909608
1010.157341	2583.856007
1010.451045	2584.516398
1010.744714	2585.262489
1011.038347	2584.108064
1011.331945	2581.688311
1011.625508	2583.044381
1011.919036	2581.174113
1012.212528	2584.153435
1012.505986	2583.291397
1012.799408	2584.735688
1013.092795	2582.643609
1013.386147	2582.043712
1013.679464	2583.014134
1013.972745	2581.889957
1014.265992	2581.945409
1014.559204	2580.445666
1014.852380	2581.572364
1015.145521	2581.584967
1015.438628	2579.036664
1015.731699	2582.691500
1016.024736	2581.348033
1016.317737	2583.114957
1016.610703	2582.275605
1016.903635	2580.866602
1017.196531	2577.889801
1017.489393	2581.080852
1017.782219	2578.030953
1018.075011	2582.265523
1018.367768	2581.958012
1018.660490	2583.752663
1018.953177	2583.752663
1019.245829	2583.752663
