Dividing Wavelength (nm)	Counts (n)	Blue Motor Position (mm): 41.000000	Red Motor Position (mm): 0.000000	
326.493990	2154.488331
326.888308	2154.488331
327.282561	2154.488331
327.676750	2129.436317
328.070874	2129.456481
328.464933	2135.382358
328.858929	2142.921403
329.252859	2155.806593
329.646726	2169.039621
330.040528	2184.578978
330.434265	2204.690661
330.827938	2221.888558
331.221547	2243.426888
331.615091	2262.893303
332.008571	2282.992383
332.401986	2303.174643
332.795338	2322.719196
333.188625	2343.380365
333.581847	2362.385515
333.975006	2382.600542
334.368100	2401.545198
334.761129	2419.216963
335.154095	2434.267328
335.546996	2462.344034
335.939833	2490.985350
336.332606	2504.483039
336.725315	2511.848165
337.117960	2520.997859
337.510540	2531.470857
337.903056	2540.060983
338.295508	2547.090872
338.687896	2555.212171
339.080220	2564.273645
339.472480	2567.593244
339.864676	2569.881928
340.256807	2576.143041
340.648875	2576.735377
341.040879	2579.296283
341.432818	2580.503639
341.824694	2579.936510
342.216506	2578.653536
342.608253	2581.814339
342.999937	2579.840728
343.391557	2581.103537
343.783113	2577.839390
344.174605	2575.764955
344.566033	2571.464851
344.957397	2572.815880
345.348697	2568.840930
345.739934	2570.779254
346.131106	2566.695919
346.522215	2566.811866
346.913260	2562.700805
347.304241	2559.532439
347.695159	2559.671071
348.086012	2561.596792
348.476802	2558.153684
348.867528	2556.563200
349.258191	2555.570092
349.648789	2553.619166
350.039324	2553.339382
350.429796	2552.043805
350.820203	2553.442726
351.210548	2550.435677
351.600828	2549.336706
351.991045	2546.972405
352.381198	2548.991387
352.771288	2548.406613
353.161314	2548.328475
353.551276	2547.131201
353.941175	2549.319062
354.331010	2547.224462
354.720782	2547.854607
355.110490	2546.072559
355.500135	2549.016592
355.889717	2547.073228
356.279235	2549.535831
356.668689	2550.571788
357.058080	2551.204453
357.447408	2543.390665
357.836672	2547.247147
358.225873	2547.035419
358.615010	2546.128011
359.004084	2551.436346
359.393095	2554.579506
359.782043	2556.303580
360.170927	2553.324258
360.559748	2555.373488
360.948505	2554.345092
361.337199	2555.625545
361.725830	2553.893909
362.114398	2557.468087
362.502903	2556.439692
362.891344	2556.500185
363.279722	2557.420196
363.668037	2559.413972
364.056289	2557.203426
364.444478	2558.057902
364.832603	2558.340207
365.220665	2559.461863
365.608665	2560.691905
365.996601	2561.253993
366.384474	2560.646534
366.772284	2561.964796
367.160031	2562.035372
367.547715	2562.035372
367.935336	2563.328428
368.322893	2560.565876
368.710388	2561.594271
369.097820	2565.717935
369.485189	2564.770198
369.872495	2566.015363
370.259738	2562.864642
370.646918	2566.030487
371.034035	2565.233984
371.421090	2564.455126
371.808081	2563.958572
372.195010	2568.619119
372.581875	2561.695094
372.968678	2566.917730
373.355418	2564.571073
373.742096	2568.719942
374.128710	2567.749520
374.515262	2568.140210
374.901751	2567.338666
375.288177	2567.295816
375.674540	2565.886814
376.060841	2568.682134
376.447079	2568.581311
376.833254	2568.818245
377.219367	2564.220712
377.605417	2570.539799
377.991404	2568.548543
378.377329	2566.043090
378.763191	2565.912020
379.148991	2570.892680
379.534727	2570.489387
379.920402	2571.721949
380.306013	2573.060376
380.691563	2570.335632
381.077049	2572.846127
381.462474	2573.680438
381.847835	2571.089285
382.233134	2574.343349
382.618371	2572.904100
383.003545	2574.708833
383.388657	2573.987948
383.773706	2574.880232
384.158693	2576.135480
384.543618	2574.766806
384.928480	2575.212948
385.313280	2577.463824
385.698017	2578.514904
386.082692	2578.688824
386.467305	2577.131108
386.851856	2576.632033
387.236344	2577.652867
387.620770	2580.052456
388.005133	2577.617579
388.389435	2580.685121
388.773674	2579.931468
389.157851	2578.809812
389.541965	2582.285687
389.926018	2582.073959
390.310008	2583.704772
390.693936	2586.116964
391.077802	2585.028075
391.461606	2586.928590
391.845348	2590.167531
392.229027	2591.037130
392.612645	2594.616350
392.996200	2598.712287
393.379694	2600.509458
393.763125	2604.045828
394.146494	2611.340378
394.529801	2613.593773
394.913047	2619.287757
395.296230	2624.034003
395.679351	2627.920732
396.062410	2633.350055
396.445408	2635.684109
396.828343	2642.202321
397.211217	2647.251037
397.594028	2651.770431
397.976778	2658.833088
398.359466	2671.100736
398.742092	2671.443534
399.124656	2682.902077
399.507158	2695.378933
399.889598	2702.343287
400.271977	2714.593291
400.654294	2722.354147
401.036549	2732.290261
401.418742	2745.155286
401.800874	2761.050044
402.182944	2773.252157
402.564952	2791.972482
402.946898	2797.111938
403.328783	2811.620379
403.710606	2826.267451
404.092367	2846.059021
404.474067	2869.336549
404.855705	2875.504401
405.237282	2884.492778
405.618797	2913.628127
406.000250	2938.226437
406.381642	2966.018318
406.762972	2978.258240
407.144240	2984.970536
407.525447	3011.819721
407.906593	3024.742719
408.287677	3047.248951
408.668700	3070.846592
409.049661	3080.775144
409.430560	3101.829523
409.811399	3120.083541
410.192176	3141.475678
410.572891	3162.918226
410.953545	3201.430120
411.334138	3188.819674
411.714669	3237.101325
412.095139	3208.094526
412.475547	3258.629573
412.855894	3261.535798
413.236180	3297.045685
413.616405	3285.178809
413.996568	3319.559478
414.376670	3330.034996
414.756711	3332.701767
415.136691	3359.558514
415.516609	3392.825088
415.896466	3403.073754
416.276262	3436.922581
416.655997	3471.807366
417.035670	3485.196670
417.415283	3553.514387
417.794834	3580.524890
418.174324	3571.627253
418.553753	3577.137234
418.933121	3623.475520
419.312428	3618.305817
419.691674	3619.359418
420.070859	3661.372394
420.449983	3641.371617
420.829045	3692.423382
421.208047	3682.678831
421.586988	3730.161459
421.965867	3764.877365
422.344686	3776.524951
422.723444	3815.215807
423.102141	3723.703741
423.480777	3827.453208
423.859352	3796.193013
424.237866	3898.382242
424.616319	3881.973287
424.994712	3945.219603
425.373044	3933.559414
425.751314	3995.825226
426.129524	3933.415741
426.507673	4036.789642
426.885762	4009.562370
427.263789	4039.647976
427.641756	4039.171587
428.019662	4071.223243
428.397508	4073.416145
428.775292	4112.142289
429.153016	4119.220069
429.530679	4132.427892
429.908282	4140.138337
430.285824	4120.661839
430.663305	4190.635575
431.040726	4151.939678
431.418086	4142.469871
431.795385	4216.549626
432.172624	4251.116818
432.549802	4218.611458
432.926920	4238.430755
433.303977	4230.783324
433.680974	4270.210188
434.057910	4295.297491
434.434786	4301.770332
434.811601	4291.395638
435.188355	4399.697266
435.565050	4370.645097
435.941683	4366.982698
436.318257	4460.264209
436.694770	4463.450218
437.071222	4517.080533
437.447614	4454.303045
437.823946	4455.986790
438.200218	4473.114110
438.576429	4459.102223
438.952580	4481.800018
439.328670	4486.188343
439.704700	4530.449673
440.080670	4493.233355
440.456580	4552.945822
440.832429	4589.531997
441.208218	4491.998273
441.583947	4544.501890
441.959616	4558.274322
442.335224	4586.242644
442.710773	4606.770222
443.086261	4663.069828
443.461689	4617.573415
443.837057	4627.257471
444.212365	4703.169687
444.587612	4706.065829
444.962800	4671.468391
445.337927	4712.095049
445.712995	4600.776290
446.088002	4792.269560
446.462949	4813.366789
446.837837	4834.653061
447.212664	4824.341381
447.587431	5050.679106
447.962139	5349.833778
448.336786	5687.097053
448.711374	5667.872613
449.085901	5309.912881
449.460369	5248.315022
449.834776	5187.231361
450.209124	5422.408750
450.583412	5429.766314
450.957640	5550.905241
451.331808	5412.979272
451.705917	5271.070791
452.079965	5257.666363
452.453954	5296.304286
452.827883	5263.977887
453.201752	5266.180872
453.575562	5299.142456
453.949311	5432.917035
454.323001	5439.924239
454.696632	5434.131953
455.070202	5586.573925
455.443713	5615.462257
455.817164	5710.936670
456.190556	5783.206651
456.563888	5747.835395
456.937160	5832.367983
457.310373	5671.645917
457.683526	5733.541203
458.056619	5727.343105
458.429653	5708.539601
458.802628	5756.639770
459.175542	5788.872908
459.548398	5922.445841
459.921194	6109.233194
460.293930	6168.189488
460.666607	6425.058962
461.039224	6643.262785
461.411782	6764.452124
461.784280	6680.930287
462.156719	6684.101173
462.529099	6639.305480
462.901419	6507.088617
463.273680	6372.046188
463.645882	6364.028233
464.018024	6362.450352
464.390106	6431.642709
464.762130	6689.951432
465.134094	7085.971875
465.505999	7718.929070
465.877845	8429.729241
466.249631	8778.254454
466.621358	8695.796300
466.993026	8496.879931
467.364634	8286.373949
467.736184	8003.718974
468.107674	7847.750715
468.479105	7764.974969
468.850477	7702.242850
469.221790	7521.809872
469.593043	7304.082437
469.964238	7201.310954
470.335373	7179.883530
470.706449	7337.288518
471.077467	7528.567539
471.448425	8190.803755
471.819324	8770.947301
472.190164	8805.451479
472.560945	8316.245307
472.931667	7847.939758
473.302330	7656.917836
473.672934	7534.601800
474.043479	7610.826567
474.413965	7508.811257
474.784393	7465.694268
475.154761	7621.773432
475.525070	7635.901266
475.895321	7583.490910
476.265513	7687.689039
476.635645	7851.629883
477.005719	7836.861823
477.375734	7929.291378
477.745691	8035.468161
478.115588	8235.624654
478.485427	8473.302455
478.855207	8951.213922
479.224928	9394.013752
479.594591	9776.125652
479.964194	9779.813256
480.333739	9863.541780
480.703226	9862.853662
481.072653	9963.263365
481.442022	10077.420294
481.811333	10222.943282
482.180584	10068.104241
482.549777	10008.563173
482.918912	9938.907030
483.287988	9931.005021
483.657005	9835.878448
484.025964	9756.644113
484.394864	9820.669287
484.763706	9775.001474
485.132489	9689.886633
485.501213	9679.695940
485.869879	9740.681299
486.238487	9676.462040
486.607036	9755.746787
486.975527	9703.328870
487.343959	9756.243341
487.712333	9802.304364
488.080648	9842.933543
488.448905	9937.929046
488.817104	9953.869175
489.185244	10123.990473
489.553326	10332.825312
489.921350	10807.109669
490.289315	11440.520567
490.657222	11726.666542
491.025070	11898.506874
491.392861	11809.769963
491.760593	11658.192549
492.128267	11401.305432
492.495883	11163.267188
492.863440	10936.032137
493.230939	10694.901146
493.598380	10521.661894
493.965763	10498.152473
494.333088	10369.391322
494.700354	10299.319283
495.067563	10274.892372
495.434713	10277.107959
495.801805	10318.513476
496.168839	10279.310943
496.535815	10247.851623
496.902733	10294.608325
497.269593	10254.591646
497.636395	10260.933417
498.003139	10367.460560
498.369825	10301.993615
498.736453	10393.556092
499.103023	10332.986629
499.469535	10339.759419
499.835989	10384.978569
500.202385	10357.869764
500.568723	10381.918589
500.935003	10443.581983
501.301226	10410.832127
501.667390	10575.430841
502.033497	10675.656541
502.399546	10606.091139
502.765537	10513.580924
503.131470	10614.358631
503.497345	10707.526716
503.863163	10479.003650
504.228923	10615.618919
504.594625	10729.896836
504.960269	10633.351178
505.325856	10790.783892
505.691385	10668.029275
506.056856	10737.544266
506.422270	10837.447333
506.787625	10775.864597
507.152924	10826.031640
507.518164	10887.745445
507.883347	10749.154044
508.248472	10829.860396
508.613540	10934.943248
508.978550	11014.240598
509.343503	10998.986067
509.708398	11048.946422
510.073236	11171.030565
510.438016	11193.866992
510.802738	11103.952972
511.167403	11221.369007
511.532010	11286.500714
511.896561	11384.316743
512.261053	11577.695405
512.625488	11502.680515
512.989866	11491.695841
513.354186	11465.459155
513.718449	11468.536780
514.082655	11609.941145
514.446803	11578.126423
514.810894	11683.917557
515.174927	11679.556959
515.538904	11672.683346
515.902822	11821.210862
516.266684	11695.786954
516.630488	11793.781944
516.994235	11783.225768
517.357925	11896.003941
517.721558	11954.161212
518.085133	12023.691327
518.448651	12054.376830
518.812112	12006.553924
519.175516	12014.140861
519.538863	12107.936569
519.902152	12117.623146
520.265385	12224.089795
520.628560	12248.088208
520.991678	12195.385465
521.354739	12242.961354
521.717743	12322.717449
522.080690	12290.161678
522.443580	12420.765371
522.806413	12445.840070
523.169189	12437.088627
523.531908	12498.537772
523.894569	12455.473715
524.257174	12471.156745
524.619722	12582.488107
524.982213	12557.700753
525.344647	12550.378478
525.707025	12553.627501
526.069345	12665.951971
526.431608	12645.406748
526.793815	12722.370044
527.155964	12614.633024
527.518057	12651.806493
527.880093	12606.058022
528.242072	12723.116135
528.603995	12644.814413
528.965860	12652.960917
529.327669	12691.167822
529.689421	12636.055408
530.051117	12648.756595
530.412755	12682.209692
530.774337	12691.369468
531.135862	12647.516471
531.497331	12702.107126
531.858743	12658.150785
532.220098	12750.338365
532.581396	12683.744723
532.942638	12605.856376
533.303824	12670.814163
533.664953	12656.230105
534.026025	12603.149276
534.387040	12709.941079
534.747999	12679.510154
535.108902	12729.402453
535.469748	12604.212959
535.830537	12636.768731
536.191270	12674.945389
536.551947	12602.637599
536.912567	12666.045232
537.273131	12694.661342
537.633638	12572.952764
537.994089	12633.963329
538.354483	12556.243860
538.714821	12677.249196
539.075103	12762.346394
539.435328	12693.721167
539.795497	12674.925224
540.155609	12668.744770
540.515665	12767.667332
540.875665	12619.165022
541.235609	12731.428997
541.595496	12677.826408
541.955328	12864.873381
542.315102	12711.125750
542.674821	12645.114361
543.034483	12662.287052
543.394090	12661.271259
543.753640	12638.029019
544.113134	12868.061911
544.472571	12630.845375
544.831953	12908.436512
545.191278	12739.383938
545.550548	12665.347032
545.909761	12782.813478
546.268918	12814.045947
546.628019	12886.711659
546.987064	12780.141667
547.346053	12619.449847
547.704986	12828.350221
548.063863	12702.162579
548.422684	12756.657452
548.781449	12706.273640
549.140158	12812.800782
549.498811	12760.544181
549.857408	12631.162968
550.215949	12835.022188
550.574434	12803.184781
550.932864	12744.609094
551.291237	12937.065224
551.649555	12826.679079
552.007817	12887.286351
552.366022	12805.097899
552.724173	12847.194054
553.082267	12943.613683
553.440305	13031.029812
553.798288	12851.637831
554.156215	12933.385182
554.514086	12971.622334
554.871902	12920.290785
555.229661	12937.609669
555.587365	12894.338925
555.945014	12914.561514
556.302606	12888.075291
556.660143	12953.340590
557.017625	12985.346875
557.375050	12948.254065
557.732421	13041.104557
558.089735	13038.742777
558.446994	13016.634797
558.804197	13126.292496
559.161345	13119.643214
559.518437	12936.314092
559.875474	13027.705171
560.232455	13052.757185
560.589381	13096.733690
560.946251	13028.547043
561.303065	13215.271382
561.659825	13157.918174
562.016528	13082.242893
562.373177	13018.741999
562.729770	13145.980722
563.086307	13031.508721
563.442789	13148.355106
563.799216	13172.552644
564.155587	13118.352678
564.511904	13145.625321
564.868164	13154.853153
565.224370	13215.674674
565.580520	13171.705730
565.936615	13229.913413
566.292654	13170.727746
566.648638	13245.674581
567.004567	13241.442532
567.360441	13243.721133
567.716260	13209.267368
568.072023	13289.051189
568.427732	13274.940999
568.783385	13179.280064
569.138982	13289.099080
569.494525	13286.318883
569.850013	13227.002147
570.205445	13218.989233
570.560823	13224.131210
570.916145	13192.805480
571.271412	13189.911857
571.626625	13152.899706
571.981782	13157.472032
572.336884	13106.190895
572.691931	13194.615254
573.046923	13087.997371
573.401860	13063.502404
573.756743	13062.600038
574.111570	13074.308117
574.466342	13055.338255
574.821059	13105.870782
575.175722	12976.960916
575.530330	13002.970749
575.884882	12930.640274
576.239380	12935.777210
576.593823	12911.889702
576.948211	12915.988160
577.302544	12792.512658
577.656823	12811.046461
578.011047	12863.630736
578.365216	12809.788693
578.719330	12746.600350
579.073389	12717.470042
579.427394	12736.888567
579.781344	12720.232595
580.135239	12654.942091
580.489080	12672.361798
580.842866	12547.162221
581.196597	12648.411276
581.550273	12631.707413
581.903895	12589.432296
582.257463	12707.339844
582.610975	12542.131150
582.964434	12620.274076
583.317837	12543.857745
583.671186	12487.351452
584.024481	12546.920246
584.377721	12433.867330
584.730906	12496.922082
585.084037	12521.152388
585.437113	12437.963267
585.790135	12460.088892
586.143103	12368.733102
586.496016	12392.386195
586.848874	12397.324006
587.201679	12399.942885
587.554428	12276.885799
587.907124	12325.784991
588.259765	12263.680497
588.612352	12338.045078
588.964884	12191.100484
589.317362	12246.674164
589.669786	12234.693862
590.022155	12190.455216
590.374470	12291.492542
590.726731	12177.133967
591.078937	12064.058366
591.431090	12093.165988
591.783188	12015.806962
592.135232	11941.487751
592.487222	12003.927483
592.839157	12007.446208
593.191038	11945.571086
593.542866	11891.272818
593.894639	11735.206257
594.246358	11800.443828
594.598022	11813.497896
594.949633	11707.600898
595.301190	11702.683252
595.652692	11654.129379
596.004141	11743.080539
596.355535	11527.863599
596.706876	11511.489931
597.058162	11473.260341
597.409395	11569.526215
597.760573	11599.644588
598.111698	11488.872794
598.462768	11488.320788
598.813785	11503.439208
599.164748	11374.776359
599.515657	11446.978285
599.866511	11321.715695
600.217312	11451.767382
600.568060	11224.388658
600.918753	11382.824562
601.269392	11381.942360
601.619978	11292.091354
601.970510	11325.327681
602.320988	11364.479803
602.671412	11440.374374
603.021783	11365.969464
603.372100	11280.073243
603.722363	11295.557147
604.072572	11307.245062
604.422728	11316.553553
604.772830	11262.913156
605.122878	11275.233736
605.472872	11242.821637
605.822813	11301.903960
606.172701	11261.078176
606.522534	11298.712910
606.872314	11343.165804
607.222041	11288.928030
607.571714	11369.742767
607.921333	11238.887016
608.270899	11287.866867
608.620411	11343.553973
608.969870	11291.166302
609.319276	11273.507140
609.668627	11291.521704
610.017926	11369.480627
610.367171	11397.360729
610.716362	11393.169009
611.065500	11367.507016
611.414585	11382.496887
611.763616	11442.083325
612.112594	11399.735112
612.461518	11432.941192
612.810389	11477.336114
613.159207	11424.565315
613.507971	11416.592731
613.856682	11516.944460
614.205340	11461.718619
614.553945	11604.766401
614.902496	11490.027219
615.250994	11552.424100
615.599439	11552.023329
615.947830	11580.808317
616.296169	11544.786752
616.644454	11560.043804
616.992686	11573.256669
617.340864	11663.604228
617.688990	11551.133565
618.037063	11685.155161
618.385082	11658.789926
618.733048	11700.480268
619.080961	11686.249091
619.428821	11657.900162
619.776628	11684.613237
620.124382	11621.535799
620.472083	11643.648820
620.819731	11668.816781
621.167326	11591.336767
621.514868	11573.601988
621.862357	11472.915022
622.209793	11459.074534
622.557176	11379.399097
622.904506	11327.749956
623.251783	11245.843809
623.599007	11176.873262
623.946179	11128.432815
624.293297	11110.546801
624.640363	10970.584206
624.987376	10954.092071
625.334336	10895.468493
625.681243	10803.777466
626.028097	10785.367172
626.374899	10746.451985
626.721647	10714.387726
627.068343	10680.417911
627.414987	10618.452048
627.761577	10551.089630
628.108115	10595.844993
628.454600	10468.941507
628.801032	10492.287091
629.147412	10464.149890
629.493739	10434.611249
629.840014	10358.484785
630.186236	10409.793649
630.532405	10300.418255
630.878521	10344.624133
631.224585	10294.472214
631.570597	10220.994876
631.916556	10224.047294
632.262462	10213.796108
632.608316	10201.099962
632.954117	10163.876082
633.299866	10156.105143
633.645562	10128.174631
633.991206	10022.388538
634.336797	9918.228217
634.682336	9917.383824
635.027823	9859.539104
635.373257	9826.857303
635.718639	9752.442311
636.063968	9724.663033
636.409245	9603.279610
636.754470	9595.785935
637.099642	9542.914313
637.444762	9440.639384
637.789829	9444.049724
638.134845	9366.562149
638.479808	9348.318213
638.824719	9318.703955
639.169577	9237.254032
639.514383	9237.690092
639.859137	9169.785749
640.203839	9203.989978
640.548489	9128.632290
640.893086	9137.040935
641.237632	9066.575686
641.582125	9070.016274
641.926566	9054.547493
642.270955	9043.209938
642.615292	9029.608905
642.959576	9015.155917
643.303809	9005.234926
643.647990	9023.181434
643.992118	9002.782405
644.336195	8976.089495
644.680219	8975.824835
645.024192	9008.287345
645.368112	9078.324095
645.711981	9058.880365
646.055797	9191.800468
646.399562	9147.750866
646.743274	9313.594745
647.086935	9377.009940
647.430544	9359.776756
647.774101	9376.079847
648.117606	9415.390765
648.461059	9473.142223
648.804460	9405.278210
649.147810	9291.640520
649.491108	9252.841280
649.834354	9189.534470
650.177548	9049.397954
650.520690	8953.759704
650.863781	8955.609808
651.206820	8930.419162
651.549807	8831.983071
651.892742	8749.625741
652.235626	8701.122279
652.578458	8658.756422
652.921238	8554.701966
653.263967	8599.611085
653.606644	8521.974795
653.949269	8506.372424
654.291843	8420.209022
654.634365	8488.458684
654.976836	8419.170545
655.319255	8408.896673
655.661622	8405.259481
656.003938	8361.701391
656.346203	8330.123603
656.688416	8355.354578
657.030577	8312.547620
657.372687	8281.544524
657.714746	8309.898494
658.056753	8329.291813
658.398708	8230.339004
658.740612	8221.922798
659.082465	8260.129703
659.424266	8223.546049
659.766016	8231.730362
660.107715	8206.310344
660.449362	8225.567552
660.790958	8218.136891
661.132503	8215.119760
661.473996	8215.815440
661.815438	8234.813028
662.156829	8258.748426
662.498168	8208.823359
662.839456	8199.562760
663.180693	8228.735917
663.521879	8240.073472
663.863013	8227.581493
664.204097	8218.998928
664.545129	8296.042883
664.886110	8285.552241
665.227040	8295.697563
665.567918	8306.699882
665.908746	8314.049884
666.249522	8334.315323
666.590248	8336.306578
666.930922	8345.547013
667.271545	8342.774379
667.612118	8355.909105
667.952639	8324.074218
668.293109	8325.962131
668.633528	8299.702760
668.973896	8281.746170
669.314213	8289.668343
669.654480	8245.817867
669.994695	8237.603307
670.334859	8222.517654
670.674973	8201.178449
671.015035	8225.665854
671.355047	8210.728915
671.695008	8197.795835
672.034918	8177.298504
672.374777	8184.371243
672.714585	8157.421234
673.054342	8183.007610
673.394049	8157.590113
673.733705	8197.563942
674.073310	8142.940520
674.412864	8160.503900
674.752368	8089.847087
675.091820	8140.014130
675.431223	8069.105260
675.770574	8031.213427
676.109875	8001.034559
676.449125	7961.864794
676.788324	7948.883823
677.127473	7854.601643
677.466571	7845.948503
677.805619	7789.134699
678.144616	7784.237218
678.483562	7758.250070
678.822458	7707.715023
679.161303	7699.550874
679.500098	7672.825197
679.838842	7652.433730
680.177535	7668.764548
680.516179	7701.141358
680.854771	7720.277578
681.193314	7841.343408
681.531805	7992.315884
681.870247	8121.409752
682.208638	8266.037935
682.546978	8339.845468
682.885268	8374.044656
683.223508	8303.269377
683.561697	8251.063187
683.899836	8227.541163
684.237925	8142.292731
684.575963	8108.950540
684.913951	8026.207561
685.251889	8043.171044
685.589776	8037.358593
685.927614	8022.167076
686.265401	8045.933596
686.603137	8046.699852
686.940824	8116.749205
687.278460	8166.366762
687.616046	8176.837238
687.953582	8292.687995
688.291068	8267.678830
688.628504	8330.511772
688.965889	8330.841968
689.303224	8293.582799
689.640510	8250.425481
689.977745	8142.781723
690.314930	8014.711210
690.652065	7948.409954
690.989150	7836.546751
691.326185	7686.658123
691.663170	7570.454486
692.000105	7451.735313
692.336990	7338.815987
692.673825	7261.945953
693.010610	7172.495719
693.347345	7073.245482
693.684030	6966.889739
694.020665	6918.161946
694.357251	6801.998638
694.693786	6786.567666
695.030272	6748.496872
695.366707	6650.267469
695.703093	6607.536128
696.039429	6600.932217
696.375716	6551.768364
696.711952	6541.227311
697.048139	6516.203023
697.384276	6478.734647
697.720363	6503.022927
698.056400	6471.974460
698.392388	6442.725685
698.728326	6440.381549
699.064214	6411.818371
699.400053	6409.297794
699.735842	6348.715728
700.071581	6305.631507
700.407270	6263.477378
700.742910	6226.034208
701.078501	6182.216499
701.414042	6147.729965
701.749533	6092.342808
702.084974	6030.429877
702.420366	6072.881433
702.755709	5997.574157
703.091002	5947.044151
703.426246	5951.566066
703.761440	5941.418223
704.096584	5888.962497
704.431679	5881.914964
704.766725	5866.080700
705.101721	5850.261559
705.436668	5867.860227
705.771565	5809.733203
706.106413	5867.222521
706.441212	5868.971802
706.775961	5884.589296
707.110661	5893.479371
707.445311	5951.066992
707.779913	5914.095170
708.114465	5958.386747
708.448967	6006.340723
708.783421	6115.295181
709.117825	6157.174567
709.452180	6193.564136
709.786485	6253.846254
710.120742	6384.666717
710.454949	6389.072685
710.789107	6462.683613
711.123216	6591.028870
711.457275	6617.903261
711.791286	6724.432924
712.125247	6746.467808
712.459159	6718.048303
712.793023	6845.246697
713.126837	6672.418299
713.460602	6734.994141
713.794318	6687.077974
714.127985	6638.251878
714.461602	6486.369475
714.795171	6497.361711
715.128691	6328.810732
715.462162	6235.582153
715.795584	6165.868037
716.128957	6124.752386
716.462281	6053.745213
716.795556	6022.510224
717.128782	5936.508140
717.461960	5837.015927
717.795088	5822.525131
718.128167	5757.176653
718.461198	5671.567779
718.794180	5650.183204
719.127113	5587.743472
719.459997	5559.646602
719.792833	5493.362990
720.125619	5488.886446
720.458357	5424.846148
720.791046	5396.199791
721.123686	5369.859762
721.456278	5325.467361
721.788821	5318.724818
722.121315	5277.480618
722.453761	5286.426145
722.786158	5265.238176
723.118506	5271.350575
723.450805	5253.328450
723.783056	5273.135143
724.115259	5256.973204
724.447412	5244.607254
724.779518	5291.437052
725.111574	5293.299759
725.443582	5328.824770
725.775542	5318.273635
726.107453	5407.519702
726.439315	5379.208582
726.771129	5449.832627
727.102895	5512.199262
727.434612	5552.099994
727.766281	5579.075208
728.097901	5637.421523
728.429473	5654.853833
728.760996	5659.569832
729.092471	5688.208627
729.423897	5672.946534
729.755276	5646.079705
730.086606	5658.917003
730.417887	5748.785653
730.749120	5837.134394
731.080305	5876.657041
731.411442	5948.601868
731.742530	5973.832843
732.073570	5993.435369
732.404562	6059.603034
732.735506	6051.209513
733.066401	6031.284353
733.397249	5967.080217
733.728048	5874.993460
734.058798	5729.533486
734.389501	5602.652685
734.720156	5519.140930
735.050762	5411.902985
735.381320	5337.533363
735.711831	5279.101349
736.042293	5200.557651
736.372707	5198.858782
736.703073	5154.272297
737.033391	5181.791956
737.363661	5168.415254
737.693883	5176.473539
738.024056	5202.773238
738.354182	5231.898505
738.684260	5281.687461
739.014290	5317.739272
739.344272	5351.618347
739.674207	5408.900978
740.004093	5436.718065
740.333931	5449.870435
740.663722	5467.864834
740.993464	5478.783973
741.323159	5457.409481
741.652806	5414.085805
741.982405	5384.121186
742.311956	5326.485674
742.641460	5321.678934
742.970915	5268.101551
743.300323	5209.845977
743.629683	5172.554042
743.958996	5120.925065
744.288260	5076.570473
744.617477	5011.627808
744.946647	5003.687991
745.275768	4946.551553
745.604842	4915.815638
745.933869	4877.679309
746.262847	4867.755798
746.591778	4857.592832
746.920662	4830.715920
747.249498	4830.451259
747.578286	4844.715204
747.907027	4869.464749
748.235720	4911.855812
748.564365	4920.899642
748.892963	4907.840533
749.221514	4927.531280
749.550017	4904.533536
749.878473	4898.653030
750.206881	4860.657853
750.535242	4847.258466
750.863555	4830.995704
751.191821	4809.532992
751.520039	4816.693951
751.848210	4797.421619
752.176334	4800.020334
752.504411	4784.037356
752.832440	4753.944188
753.160421	4764.797792
753.488356	4741.641252
753.816243	4723.699786
754.144082	4691.882543
754.471875	4679.506510
754.799620	4669.073842
755.127318	4659.677132
755.454969	4659.230990
755.782572	4650.300586
756.110129	4651.545751
756.437638	4637.022186
756.765100	4633.498420
757.092515	4635.761898
757.419882	4641.009739
757.747203	4637.380108
758.074477	4653.625227
758.401703	4641.665089
758.728882	4671.707845
759.056014	4683.660421
759.383099	4706.688412
759.710138	4731.868975
760.037129	4753.785392
760.364073	4767.303246
760.690970	4763.552627
761.017820	4765.133029
761.344623	4797.459428
761.671379	4860.057956
761.998088	4947.292603
762.324751	5179.616698
762.651366	5644.398480
762.977935	6337.506722
763.304456	6895.491877
763.630931	7203.292128
763.957359	7137.744525
764.283740	6843.986408
764.610074	6526.136617
764.936362	6124.336491
765.262602	5807.220188
765.588796	5457.401919
765.914943	5205.679464
766.241044	4975.870904
766.567097	4807.594668
766.893104	4658.116895
767.219064	4557.256009
767.544978	4463.150270
767.870845	4377.405284
768.196665	4330.149508
768.522438	4280.796612
768.848165	4237.994695
769.173846	4201.889951
769.499479	4171.224612
769.825066	4135.341679
770.150607	4091.914659
770.476101	4079.551229
770.801548	4057.556675
771.126949	4025.547869
771.452303	4007.535826
771.777611	3967.062922
772.102872	3967.115855
772.428087	3940.964869
772.753256	3914.884460
773.078378	3897.454670
773.403453	3866.280175
773.728482	3839.723376
774.053465	3828.325328
774.378401	3800.805669
774.703291	3783.186836
775.028135	3757.983587
775.352932	3747.888677
775.677683	3728.225656
776.002388	3711.874674
776.327046	3711.541957
776.651658	3694.316335
776.976224	3673.493849
777.300743	3670.098632
777.625216	3656.157321
777.949643	3646.921927
778.274024	3651.297648
778.598359	3629.628249
778.922647	3630.598671
779.246889	3619.498050
779.571086	3619.248513
779.895236	3619.606435
780.219339	3621.224645
780.543397	3622.704224
780.867409	3633.313332
781.191374	3633.517499
781.515294	3630.175214
781.839167	3645.001247
782.162995	3643.073006
782.486776	3636.486738
782.810511	3627.863845
783.134201	3612.190897
783.457844	3611.563274
783.781441	3601.871656
784.104993	3596.845625
784.428498	3591.348247
784.751958	3583.526897
785.075372	3581.049170
785.398739	3571.231522
785.722061	3577.038932
786.045337	3579.138572
786.368568	3603.694033
786.691752	3599.998867
787.014891	3646.793377
787.337983	3690.606046
787.661030	3775.423459
787.984031	3873.022718
788.306987	3952.937609
788.629897	4000.947038
788.952760	4007.009026
789.275579	3989.178464
789.598351	3942.898152
789.921078	3888.123494
790.243759	3826.588650
790.566395	3780.714150
790.888984	3731.583065
791.211529	3693.930687
791.534027	3648.580467
791.856480	3612.001854
792.178888	3591.688525
792.501249	3571.896955
792.823566	3543.527862
793.145836	3535.502345
793.468062	3527.922970
793.790241	3513.157430
794.112375	3517.160106
794.434464	3539.169784
794.756507	3539.401677
795.078505	3557.333061
795.400457	3597.059874
795.722364	3645.906134
796.044226	3693.444215
796.366042	3740.147985
796.687812	3731.472159
797.009538	3759.621962
797.331218	3749.335488
797.652852	3740.914240
797.974442	3717.661918
798.295986	3709.331412
798.617484	3682.169675
798.938938	3656.495078
799.260346	3643.602327
799.581709	3608.641925
799.903026	3595.885285
800.224299	3574.669589
800.545526	3544.374775
800.866708	3523.012886
801.187845	3511.408150
801.508936	3489.043071
801.829983	3480.407574
802.150984	3453.991928
802.471940	3443.997841
802.792851	3438.676903
803.113717	3430.011159
803.434538	3425.201898
803.755314	3413.846699
804.076045	3406.284969
804.396731	3395.890109
804.717372	3397.072260
805.037967	3394.629821
805.358518	3399.081160
805.679024	3409.781009
805.999485	3408.755134
806.319901	3412.944333
806.640272	3416.452976
806.960598	3430.772373
807.280879	3426.724327
807.601115	3439.390226
807.921306	3430.532919
808.241453	3433.353444
808.561554	3439.070113
808.881611	3432.907302
809.201623	3437.943415
809.521590	3425.678288
809.841513	3424.319697
810.161390	3435.339659
810.481223	3412.107501
810.801011	3411.477357
811.120755	3411.729415
811.440453	3397.926736
811.760107	3389.618914
812.079716	3384.151783
812.399281	3374.200545
812.718801	3370.747355
813.038276	3365.343238
813.357707	3356.990046
813.677093	3364.508927
813.996434	3346.890094
814.315731	3354.582895
814.634983	3354.025847
814.954191	3353.453676
815.273354	3370.586038
815.592473	3383.806464
815.911547	3402.748599
816.230577	3416.760486
816.549562	3440.791667
816.868502	3462.105665
817.187399	3480.601659
817.506250	3509.646267
817.825058	3518.324613
818.143821	3565.903023
818.462539	3609.602265
818.781213	3665.735513
819.099843	3748.160899
819.418429	3901.578334
819.736970	4054.738670
820.055466	4235.537132
820.373919	4479.649966
820.692327	4815.610102
821.010691	5322.916537
821.329011	6401.657926
821.647286	8141.163513
821.965517	10326.869189
822.283704	11952.679113
822.601847	13047.068243
822.919945	12632.937454
823.237999	11948.847836
823.556010	11051.388861
823.873976	10092.740360
824.191897	9124.896795
824.509775	8356.803910
824.827609	7554.416055
825.145398	7004.431212
825.463144	6620.769157
825.780845	6488.234702
826.098502	6549.870369
826.416116	6930.011178
826.733685	7430.683454
827.051210	7718.296405
827.368692	7624.914071
827.686129	7184.158428
828.003522	6637.276415
828.320872	6067.857924
828.638177	5602.360298
828.955439	5231.278443
829.272656	4897.203698
829.589830	4613.784988
829.906960	4348.995861
830.224046	4138.247904
830.541088	3972.643480
830.858086	3854.723330
831.175041	3755.273967
831.491952	3713.613872
831.808819	3696.993187
832.125642	3731.124320
832.442421	3835.085515
832.759157	4046.546795
833.075849	4426.833797
833.392497	4890.214138
833.709101	5278.934991
834.025662	5390.331888
834.342179	5263.383031
834.658653	4994.485364
834.975083	4716.750555
835.291469	4472.052947
835.607811	4250.902569
835.924110	4093.774845
836.240366	3933.534208
836.556578	3771.246863
836.872746	3635.836430
837.188871	3522.289480
837.504952	3426.615942
837.820990	3352.858820
838.136984	3295.314049
838.452935	3268.361520
838.768842	3252.373501
839.084706	3284.052111
839.400526	3422.328441
839.716303	3647.350425
840.032037	3858.015203
840.347727	3924.200512
840.663373	3834.505782
840.978977	3685.968184
841.294537	3555.235941
841.610054	3444.794343
841.925527	3373.300699
842.240957	3304.037766
842.556344	3245.315885
842.871687	3183.266843
843.186987	3119.589508
843.502244	3070.607137
843.817458	3028.130375
844.132629	2995.138543
844.447756	2974.605924
844.762840	2951.527521
845.077881	2934.337187
845.392879	2923.831422
845.707833	2911.674680
846.022745	2899.717063
846.337613	2895.694222
846.652438	2887.741802
846.967221	2884.253323
847.281960	2871.017774
847.596656	2872.028525
847.911309	2865.228009
848.225919	2858.891278
848.540485	2856.337934
848.855009	2853.474558
849.169490	2851.304342
849.483928	2845.857375
849.798323	2846.232941
850.112675	2843.102384
850.426984	2841.257322
850.741251	2838.714060
851.055474	2837.045438
851.369654	2835.964111
851.683792	2834.260201
851.997887	2835.770026
852.311938	2835.971672
852.625947	2837.577280
852.939914	2835.883452
853.253837	2837.269769
853.567718	2834.839933
853.881555	2833.337669
854.195350	2836.243895
854.509103	2835.054182
854.822812	2833.168791
855.136479	2831.669047
855.450103	2832.470591
855.763685	2830.126454
856.077224	2831.243070
856.390720	2832.710046
856.704173	2835.137361
857.017584	2836.556446
857.330953	2838.136848
857.644278	2839.669359
857.957561	2845.723784
858.270802	2843.800584
858.584000	2841.726149
858.897155	2842.873012
859.210268	2839.790346
859.523339	2836.652228
859.836367	2836.271621
860.149352	2835.228102
860.462295	2836.415294
860.775195	2830.305415
861.088054	2831.502689
861.400869	2830.580158
861.713642	2826.733758
862.026373	2828.881289
862.339062	2834.613081
862.651708	2836.216168
862.964312	2842.663804
863.276873	2843.077179
863.589392	2851.337109
863.901869	2857.275588
864.214303	2864.522247
864.526696	2869.686909
864.839045	2876.011037
865.151353	2885.952192
865.463619	2886.705845
865.775842	2889.566699
866.088023	2893.196330
866.400162	2891.552914
866.712258	2895.293450
867.024313	2896.641959
867.336325	2895.104407
867.648296	2898.524830
867.960224	2900.669841
868.272110	2901.922567
868.583954	2902.507341
868.895755	2906.628485
869.207515	2901.995664
869.519233	2910.661408
869.830909	2911.246182
870.142542	2914.154927
870.454134	2918.966709
870.765684	2924.254879
871.077191	2929.923657
871.388657	2934.899275
871.700081	2939.262394
872.011463	2947.456790
872.322803	2952.472738
872.634101	2958.018007
872.945357	2963.351548
873.256571	2974.434524
873.567744	2980.839310
873.878874	2986.679487
874.189963	2993.298522
874.501010	2996.350941
874.812015	2998.564007
875.122979	3003.864781
875.433900	3003.549708
875.744780	3010.446007
876.055618	3016.145031
876.366415	3014.985566
876.677169	3025.115765
876.987882	3027.132226
877.298554	3038.376520
877.609183	3050.525701
877.919771	3068.101683
878.230317	3096.390118
878.540822	3129.986888
878.851285	3182.031760
879.161707	3246.855958
879.472087	3349.960157
879.782425	3516.814787
880.092722	3793.319555
880.402977	4214.485274
880.713191	4760.661526
881.023363	5365.552096
881.333494	5805.594415
881.643583	6094.722233
881.953631	6172.358522
882.263637	6121.069823
882.573602	5984.252908
882.883526	5813.690508
883.193408	5608.755002
883.503248	5387.208893
883.813048	5171.581099
884.122806	4953.155465
884.432522	4709.342579
884.742197	4482.251202
885.051831	4272.720683
885.361424	4072.670054
885.670975	3905.281062
885.980485	3758.591046
886.289954	3632.542036
886.599382	3526.095552
886.908768	3443.917182
887.218113	3363.026828
887.527417	3298.076601
887.836680	3241.908065
888.145901	3193.233204
888.455082	3157.698111
888.764221	3123.080507
889.073319	3094.119078
889.382376	3070.609658
889.691392	3057.096845
890.000366	3050.263561
890.309300	3039.125131
890.618193	3037.322919
890.927044	3033.148843
891.235855	3031.500386
891.544625	3035.739996
891.853353	3042.275852
892.162041	3057.389232
892.470687	3081.828745
892.779293	3113.136831
893.087858	3161.786487
893.396381	3240.055441
893.704864	3350.134077
894.013306	3505.784743
894.321707	3690.348947
894.630068	3846.687730
894.938387	3922.292435
895.246665	3933.277109
895.554903	3871.144888
895.863100	3786.859317
896.171256	3710.730332
896.479371	3634.586223
896.787446	3560.433371
897.095480	3491.359481
897.403473	3433.245059
897.711425	3377.053838
898.019336	3328.505006
898.327207	3270.962755
898.635038	3226.184706
898.942827	3173.015657
899.250576	3133.714821
899.558284	3090.844849
899.865952	3064.784604
900.173579	3036.609595
900.481165	3013.548837
900.788711	2993.129643
901.096216	2980.252016
901.403681	2966.976137
901.711105	2956.261165
902.018489	2951.842593
902.325832	2959.371557
902.633135	2970.134420
902.940397	3007.935512
903.247619	3100.322218
903.554800	3273.657252
903.861941	3552.188564
904.169041	3813.000220
904.476101	3983.945747
904.783121	4006.457019
905.090100	3940.133079
905.397039	3837.459898
905.703938	3731.119278
906.010796	3621.819501
906.317614	3540.276317
906.624391	3456.353709
906.931129	3386.715209
907.237826	3314.074703
907.544483	3250.591453
907.851099	3176.413394
908.157675	3101.552260
908.464211	3033.148843
908.770707	2974.863023
909.077163	2927.536670
909.383578	2888.021586
909.689954	2859.287009
909.996289	2843.084740
910.302584	2828.788028
910.608839	2819.981132
910.915054	2809.273722
911.221229	2806.889256
911.527363	2805.281128
911.833458	2806.032260
912.139513	2808.799853
912.445527	2810.115594
912.751502	2824.195537
913.057436	2838.802280
913.363331	2859.385311
913.669186	2890.038047
913.975000	2928.144129
914.280775	2982.374342
914.586510	3063.725962
914.892205	3177.310720
915.197859	3321.286074
915.503475	3501.650997
915.809050	3683.409798
916.114585	3813.242195
916.420081	3888.693145
916.725536	3922.554575
917.030952	3883.972104
917.336328	3845.548430
917.641665	3800.233498
917.946961	3739.028849
918.252218	3682.946012
918.557435	3609.864405
918.862612	3539.893190
919.167750	3481.526710
919.472848	3404.301275
919.777906	3337.528671
920.082925	3265.223402
920.387904	3193.843184
920.692843	3141.337046
920.997743	3088.231011
921.302603	3039.014226
921.607423	3001.651714
921.912204	2966.330870
922.216946	2944.200204
922.521647	2914.510329
922.826310	2892.901423
923.130932	2875.607744
923.435516	2854.112264
923.740059	2843.974504
924.044564	2829.103100
924.349028	2815.088692
924.653454	2799.861887
924.957840	2784.708179
925.262186	2778.956222
925.566493	2764.745210
925.870761	2749.102509
926.174989	2748.512694
926.479178	2741.634040
926.783328	2732.393605
927.087438	2726.860938
927.391509	2720.282233
927.695541	2715.127653
927.999533	2710.900645
928.303486	2705.194059
928.607400	2701.448482
928.911275	2697.768440
929.215110	2694.678212
929.518906	2689.137984
929.822663	2689.589167
930.126381	2688.936338
930.430060	2690.254600
930.733699	2689.072449
931.037299	2692.621422
931.340861	2689.039682
931.644383	2693.445650
931.947866	2689.997501
932.251309	2688.134795
932.554714	2689.521112
932.858080	2687.771832
933.161407	2686.544311
933.464694	2685.667150
933.767943	2688.512881
934.071153	2686.297294
934.374323	2681.470389
934.677455	2684.253106
934.980548	2678.672549
935.283602	2678.060049
935.586617	2679.806808
935.889593	2679.564833
936.192530	2682.755883
936.495428	2680.328568
936.798287	2684.938703
937.101108	2690.032789
937.403890	2696.056968
937.706632	2704.226158
938.009336	2713.597663
938.312002	2727.221381
938.614628	2738.624471
938.917216	2748.515215
939.219765	2756.807913
939.522275	2764.994747
939.824747	2765.488780
940.127179	2764.858636
940.429573	2763.384098
940.731929	2766.665889
941.034246	2761.788573
941.336524	2763.358892
941.638763	2766.093718
941.940964	2765.902154
942.243126	2759.119282
942.545250	2755.540063
942.847335	2750.304824
943.149381	2739.783936
943.451389	2736.751682
943.753359	2729.923439
944.055290	2726.941597
944.357182	2721.235011
944.659036	2719.740309
944.960851	2714.021120
945.262628	2711.402240
945.564367	2712.047508
945.866067	2710.109184
946.167729	2708.687579
946.469352	2708.808567
946.770937	2704.266487
947.072484	2705.110880
947.373992	2704.707588
947.675462	2702.592824
947.976893	2700.606609
948.278286	2698.496886
948.579641	2696.629139
948.880958	2694.305167
949.182236	2699.943697
949.483476	2696.311546
949.784678	2693.430527
950.085841	2694.547142
950.386967	2697.223995
950.688054	2695.699046
950.989103	2698.393543
951.290114	2702.829758
951.591087	2706.721529
951.892021	2712.082796
952.192917	2718.270812
952.493776	2722.772563
952.794596	2723.334651
953.095378	2723.253993
953.396122	2724.617625
953.696828	2723.480845
953.997496	2723.480845
954.298126	2720.514126
954.598718	2717.633106
954.899272	2715.064638
955.199788	2709.801674
955.500266	2705.793957
955.800706	2695.510003
956.101108	2691.028417
956.401472	2685.213446
956.701798	2676.048628
957.002087	2668.675941
957.302337	2670.894048
957.602550	2663.297030
957.902724	2658.074394
958.202861	2651.432674
958.502960	2648.009731
958.803022	2643.944040
959.103045	2637.672845
959.403031	2635.540437
959.702979	2631.510034
960.002889	2629.596916
960.302762	2626.415948
960.602596	2624.344034
960.902393	2623.850001
961.202153	2619.358333
961.501875	2618.392952
961.801559	2616.827673
962.101205	2615.206942
962.400814	2616.066459
962.700385	2618.294649
962.999918	2613.271139
963.299414	2610.438011
963.598873	2610.889194
963.898293	2610.438011
964.197677	2608.487084
964.497022	2607.657815
964.796331	2607.766199
965.095601	2605.391816
965.394835	2606.800818
965.694030	2604.827207
965.993189	2607.221755
966.292309	2605.437186
966.591393	2606.705037
966.890439	2605.601024
967.189447	2605.038935
967.488419	2605.122114
967.787353	2605.832917
968.086249	2604.791919
968.385108	2606.316868
968.683930	2605.023812
968.982714	2605.240581
969.281462	2608.025819
969.580172	2607.088164
969.878844	2607.735952
970.177480	2609.351642
970.476078	2613.147631
970.774639	2613.777775
971.073162	2615.708537
971.371649	2611.534462
971.670098	2615.159052
971.968510	2616.358846
972.266885	2613.177878
972.565223	2620.235493
972.863524	2620.338837
973.161788	2622.052829
973.460014	2621.785648
973.758204	2621.843622
974.056356	2622.055350
974.354471	2621.400000
974.652550	2622.710700
974.950591	2621.223560
975.248595	2620.898405
975.546563	2621.228601
975.844493	2620.346399
976.142386	2621.397479
976.440243	2618.400513
976.738062	2618.360184
977.035845	2619.363374
977.333590	2615.922786
977.631299	2613.601335
977.928971	2615.597632
978.226606	2617.795575
978.524204	2613.520677
978.821765	2612.416664
979.119290	2609.573453
979.416777	2614.097889
979.714228	2611.355501
980.011642	2611.657970
980.309020	2618.317334
980.606360	2617.117540
980.903664	2620.898405
981.200931	2627.766977
981.498162	2634.476753
981.795356	2645.050573
982.092513	2660.862152
982.389633	2675.668021
982.686717	2692.626463
982.983764	2710.935933
983.280775	2725.005794
983.577749	2733.220354
983.874686	2731.123234
984.171587	2727.546535
984.468451	2723.301884
984.765279	2713.292673
985.062070	2708.485933
985.358824	2702.436548
985.655543	2690.801565
985.952224	2682.672704
986.248869	2669.989161
986.545478	2654.986687
986.842050	2644.649802
987.138586	2631.194962
987.435086	2621.939403
987.731549	2613.326592
988.027975	2611.289966
988.324366	2609.956581
988.620719	2606.805860
988.917037	2604.865015
989.213318	2598.687081
989.509563	2596.451330
989.805772	2594.666761
990.101944	2595.712801
990.398080	2592.844384
990.694180	2595.291864
990.990244	2592.899837
991.286271	2594.056782
991.582262	2594.560897
991.878217	2594.646597
992.174136	2595.067533
992.470019	2593.872779
992.765865	2596.791607
993.061676	2594.729776
993.357450	2598.651793
993.653188	2601.701691
993.948890	2602.967021
994.244556	2605.164964
994.540186	2607.403236
994.835780	2618.113168
995.131337	2623.106431
995.426859	2628.656741
995.722345	2637.761065
996.017795	2648.854124
996.313208	2656.914929
996.608586	2663.029848
996.903928	2666.374654
997.199234	2667.340035
997.494504	2670.173163
997.789738	2664.872390
998.084936	2666.246105
998.380099	2658.560866
998.675225	2653.247489
998.970316	2648.559216
999.265371	2639.908596
999.560390	2636.059675
999.855373	2627.782101
1000.150320	2621.405041
1000.445232	2614.629730
1000.740108	2609.190325
1001.034948	2608.605552
1001.329752	2603.829058
1001.624521	2603.640015
1001.919254	2594.243304
1002.213951	2592.390680
1002.508613	2591.342120
1002.803239	2590.081832
1003.097829	2586.200143
1003.392384	2588.766091
1003.686903	2590.346492
1003.981386	2591.687439
1004.275834	2588.506471
1004.570246	2587.709969
1004.864623	2586.729464
1005.158964	2585.290215
1005.453270	2585.277612
1005.747540	2584.443301
1006.041775	2582.252920
1006.335974	2583.815677
1006.630138	2583.578743
1006.924266	2584.413054
1007.218359	2584.377766
1007.512416	2585.113775
1007.806438	2581.224524
1008.100425	2582.310893
1008.394376	2579.255954
1008.688292	2581.010275
1008.982172	2579.046746
1009.276017	2584.435739
1009.569827	2582.255440
1009.863602	2584.670153
1010.157341	2583.064546
1010.451045	2582.610842
1010.744714	2581.521952
1011.038347	2582.094123
1011.331945	2579.918866
1011.625508	2581.393403
1011.919036	2578.961046
1012.212528	2584.581933
1012.505986	2582.434401
1012.799408	2579.568505
1013.092795	2580.291911
1013.386147	2581.506829
1013.679464	2580.483475
1013.972745	2578.749318
1014.265992	2582.076479
1014.559204	2582.139494
1014.852380	2580.304514
1015.145521	2581.789134
1015.438628	2580.044894
1015.731699	2581.315265
1016.024736	2579.200501
1016.317737	2580.624627
1016.610703	2580.702765
1016.903635	2577.650346
1017.196531	2576.808474
1017.489393	2576.213617
1017.782219	2576.095150
1018.075011	2578.764441
1018.367768	2579.621438
1018.660490	2584.312231
1018.953177	2584.312231
1019.245829	2584.312231
