Dividing Wavelength (nm)	Counts (n)	Blue Motor Position (mm): 21.500000	Red Motor Position (mm): 0.000000	
326.493990	2156.073774
326.888308	2156.073774
327.282561	2156.073774
327.676750	2130.076543
328.070874	2133.466719
328.464933	2136.357821
328.858929	2147.891981
329.252859	2158.662406
329.646726	2173.606907
330.040528	2189.103414
330.434265	2207.485981
330.827938	2227.277551
331.221547	2243.124418
331.615091	2265.040835
332.008571	2283.887188
332.401986	2307.003399
332.795338	2326.668940
333.188625	2343.836590
333.581847	2365.924405
333.975006	2383.863351
334.368100	2403.470919
334.761129	2420.434402
335.154095	2435.270518
335.546996	2460.526698
335.939833	2485.901346
336.332606	2501.591938
336.725315	2511.391941
337.117960	2521.925432
337.510540	2526.449867
337.903056	2539.708102
338.295508	2547.894936
338.687896	2553.036913
339.080220	2561.642162
339.472480	2565.536454
339.864676	2570.933009
340.256807	2570.978379
340.648875	2573.708164
341.040879	2577.509194
341.432818	2578.046077
341.824694	2578.777044
342.216506	2578.348546
342.608253	2577.357959
342.999937	2577.685634
343.391557	2578.061200
343.783113	2574.187074
344.174605	2573.443503
344.566033	2571.469892
344.957397	2570.837227
345.348697	2567.661300
345.739934	2568.286403
346.131106	2564.036710
346.522215	2563.482183
346.913260	2562.496638
347.304241	2561.133006
347.695159	2559.741647
348.086012	2555.383570
348.476802	2557.195865
348.867528	2556.016235
349.258191	2551.529608
349.648789	2553.987170
350.039324	2549.830739
350.429796	2550.780996
350.820203	2547.322765
351.210548	2545.563402
351.600828	2548.028526
351.991045	2546.180943
352.381198	2547.431150
352.771288	2546.057435
353.161314	2546.682538
353.551276	2548.033567
353.941175	2546.528783
354.331010	2545.185316
354.720782	2546.317055
355.110490	2546.110367
355.500135	2544.035932
355.889717	2548.963660
356.279235	2546.170861
356.668689	2548.383928
357.058080	2547.784030
357.447408	2545.414688
357.836672	2545.573484
358.225873	2548.104144
358.615010	2544.930737
359.004084	2550.004659
359.393095	2550.859134
359.782043	2551.189330
360.170927	2550.521377
360.559748	2553.059598
360.948505	2553.059598
361.337199	2554.292160
361.725830	2552.943651
362.114398	2554.022458
362.502903	2554.249310
362.891344	2557.014383
363.279722	2555.227294
363.668037	2555.844835
364.056289	2554.932387
364.444478	2555.955741
364.832603	2554.947510
365.220665	2555.650751
365.608665	2555.391132
365.996601	2558.945145
366.384474	2559.865156
366.772284	2562.053016
367.160031	2558.738458
367.547715	2558.430947
367.935336	2558.045299
368.322893	2558.559497
368.710388	2561.811041
369.097820	2560.959086
369.485189	2561.022100
369.872495	2560.901113
370.259738	2560.487738
370.646918	2558.864487
371.034035	2561.886658
371.421090	2562.874724
371.808081	2562.665517
372.195010	2562.562173
372.581875	2562.342883
372.968678	2563.580486
373.355418	2562.539488
373.742096	2561.498489
374.128710	2562.781463
374.515262	2564.213151
374.901751	2563.830023
375.288177	2565.486042
375.674540	2566.814386
376.060841	2565.798594
376.447079	2566.033007
376.833254	2564.911351
377.219367	2563.399004
377.605417	2563.325908
377.991404	2563.439334
378.377329	2562.143757
378.763191	2563.298181
379.148991	2567.489901
379.534727	2568.354459
379.920402	2567.179870
380.306013	2566.627863
380.691563	2567.525189
381.077049	2566.650549
381.462474	2566.373285
381.847835	2568.389747
382.233134	2566.040569
382.618371	2568.112483
383.003545	2568.558625
383.388657	2566.660631
383.773706	2568.263718
384.158693	2567.933522
384.543618	2569.110632
384.928480	2573.506518
385.313280	2572.079871
385.698017	2569.506362
386.082692	2573.065417
386.467305	2571.008626
386.851856	2570.030642
387.236344	2569.826476
387.620770	2571.182546
388.005133	2571.815211
388.389435	2573.771178
388.773674	2572.662125
389.157851	2570.179356
389.541965	2573.130952
389.926018	2573.521641
390.310008	2573.551888
390.693936	2574.043401
391.077802	2570.146589
391.461606	2573.017526
391.845348	2571.487536
392.229027	2576.034657
392.612645	2575.127249
392.996200	2575.313772
393.379694	2576.201015
393.763125	2573.289748
394.146494	2574.625654
394.529801	2574.933164
394.913047	2574.857547
395.296230	2575.913669
395.679351	2574.570201
396.062410	2576.919379
396.445408	2577.259657
396.828343	2576.173288
397.211217	2574.151786
397.594028	2571.958884
397.976778	2573.125911
398.359466	2575.457444
398.742092	2573.972825
399.124656	2576.478278
399.507158	2575.966601
399.889598	2574.134142
400.271977	2576.982393
400.654294	2578.439287
401.036549	2575.971642
401.418742	2579.210583
401.800874	2580.062538
402.182944	2577.393248
402.564952	2580.811150
402.946898	2580.090265
403.328783	2579.739905
403.710606	2578.008268
404.092367	2579.255954
404.474067	2578.499781
404.855705	2579.276118
405.237282	2581.312745
405.618797	2583.102354
406.000250	2582.948599
406.381642	2579.197981
406.762972	2581.126222
407.144240	2581.411047
407.525447	2582.361305
407.906593	2580.249061
408.287677	2582.573033
408.668700	2583.571182
409.049661	2584.339957
409.430560	2580.009606
409.811399	2583.656881
410.192176	2582.361305
410.572891	2582.094123
410.953545	2582.575554
411.334138	2583.125039
411.714669	2583.210739
412.095139	2585.738878
412.475547	2584.007241
412.855894	2583.067066
413.236180	2585.312900
413.616405	2586.500092
413.996568	2583.898857
414.376670	2585.907756
414.756711	2585.670822
415.136691	2585.164186
415.516609	2584.387848
415.896466	2588.685432
416.276262	2585.733837
416.655997	2582.323496
417.035670	2582.875502
417.415283	2583.568661
417.794834	2584.264340
418.174324	2585.325503
418.553753	2587.349526
418.933121	2586.018662
419.312428	2585.176789
419.691674	2588.030082
420.070859	2589.673498
420.449983	2585.322982
420.829045	2587.568817
421.208047	2586.865576
421.586988	2587.964547
421.965867	2588.388004
422.344686	2586.817685
422.723444	2589.207192
423.102141	2588.705597
423.480777	2589.499578
423.859352	2589.018148
424.237866	2588.259455
424.616319	2590.245669
424.994712	2590.676688
425.373044	2591.800865
425.751314	2587.989753
426.129524	2591.072418
426.507673	2593.507296
426.885762	2587.992273
427.263789	2590.391863
427.641756	2587.168045
428.019662	2590.447315
428.397508	2590.860690
428.775292	2591.142995
429.153016	2590.762387
429.530679	2590.492686
429.908282	2588.572006
430.285824	2588.972778
430.663305	2591.437902
431.040726	2590.616194
431.418086	2588.819023
431.795385	2591.889085
432.172624	2593.716504
432.549802	2591.967223
432.926920	2591.188365
433.303977	2590.331369
433.680974	2594.709611
434.057910	2592.148705
434.434786	2593.787080
434.811601	2591.649631
435.188355	2591.614342
435.565050	2593.381267
435.941683	2592.521750
436.318257	2591.662233
436.694770	2590.038982
437.071222	2588.050247
437.447614	2591.211050
437.823946	2589.791965
438.200218	2591.107707
438.576429	2596.491659
438.952580	2594.457553
439.328670	2597.139447
439.704700	2594.765064
440.080670	2596.121134
440.456580	2596.572317
440.832429	2594.865887
441.208218	2592.947728
441.583947	2596.237081
441.959616	2594.223140
442.335224	2596.121134
442.710773	2594.749940
443.086261	2597.141968
443.461689	2594.313880
443.837057	2599.745724
444.212365	2594.949066
444.587612	2597.139447
444.962800	2596.027873
445.337927	2598.729931
445.712995	2598.218254
446.088002	2596.199272
446.462949	2597.331011
446.837837	2598.646752
447.212664	2594.775146
447.587431	2598.152719
447.962139	2599.634818
448.336786	2599.284458
448.711374	2598.803028
449.085901	2598.669437
449.460369	2600.985848
449.834776	2601.187494
450.209124	2598.082143
450.583412	2600.703543
450.957640	2600.403594
451.331808	2602.404932
451.705917	2602.488111
452.079965	2601.542895
452.453954	2601.583224
452.827883	2601.363934
453.201752	2601.127000
453.575562	2600.741352
453.949311	2602.162957
454.323001	2601.316043
454.696632	2605.018771
455.070202	2600.459047
455.443713	2605.653956
455.817164	2601.462237
456.190556	2602.873760
456.563888	2601.832761
456.937160	2598.124993
457.310373	2602.624222
457.683526	2605.336363
458.056619	2601.260590
458.429653	2605.018771
458.802628	2607.894749
459.175542	2603.329984
459.548398	2607.917434
459.921194	2606.347115
460.293930	2607.859461
460.666607	2607.506580
461.039224	2609.951540
461.411782	2609.853237
461.784280	2610.536313
462.156719	2610.443052
462.529099	2611.567229
462.901419	2610.604369
463.273680	2610.248968
463.645882	2610.352311
464.018024	2610.745521
464.390106	2610.995058
464.762130	2612.633433
465.134094	2614.120574
465.505999	2614.869185
465.877845	2618.874382
466.249631	2620.719444
466.621358	2620.835391
466.993026	2624.139867
467.364634	2625.102727
467.736184	2620.870679
468.107674	2619.499485
468.479105	2622.521657
468.850477	2621.276492
469.221790	2621.420165
469.593043	2619.224742
469.964238	2621.243724
470.335373	2621.604167
470.706449	2622.761112
471.077467	2623.681122
471.448425	2624.845629
471.819324	2628.059364
472.190164	2633.670168
472.560945	2629.128089
472.931667	2630.259828
473.302330	2627.824951
473.672934	2626.862090
474.043479	2628.966772
474.413965	2629.435599
474.784393	2627.310753
475.154761	2630.148922
475.525070	2629.599437
475.895321	2634.285189
476.265513	2634.756537
476.635645	2641.075623
477.005719	2640.024543
477.375734	2642.961015
477.745691	2648.087868
478.115588	2654.124650
478.485427	2655.294198
478.855207	2663.329797
479.224928	2668.834737
479.594591	2677.523166
479.964194	2680.704134
480.333739	2681.246058
480.703226	2688.742254
481.072653	2693.783407
481.442022	2700.896476
481.811333	2707.233206
482.180584	2708.110367
482.549777	2712.208825
482.918912	2719.475648
483.287988	2722.200392
483.657005	2728.869838
484.025964	2733.492576
484.394864	2742.478433
484.763706	2746.105543
485.132489	2751.050915
485.501213	2757.856473
485.869879	2768.757968
486.238487	2772.614451
486.607036	2785.739095
486.975527	2795.821402
487.343959	2805.018988
487.712333	2817.886533
488.080648	2829.410611
488.448905	2843.407374
488.817104	2855.483458
489.185244	2875.794267
489.553326	2902.051117
489.921350	2936.643515
490.289315	2984.801657
490.657222	3013.979856
491.025070	3042.545554
491.392861	3057.323697
491.760593	3066.518761
492.128267	3072.258115
492.495883	3075.907910
492.863440	3081.848910
493.230939	3088.967019
493.598380	3098.623349
493.965763	3114.003910
494.333088	3128.719038
494.700354	3148.084630
495.067563	3169.839730
495.434713	3192.245138
495.801805	3220.500805
496.168839	3244.022829
496.535815	3268.275820
496.902733	3300.786222
497.269593	3322.417813
497.636395	3348.883870
498.003139	3389.094634
498.369825	3411.522728
498.736453	3452.197277
499.103023	3475.409270
499.469535	3506.959332
499.835989	3544.208417
500.202385	3570.911409
500.568723	3613.073099
500.935003	3655.340654
501.301226	3686.714275
501.667390	3745.385744
502.033497	3799.550421
502.399546	3824.630162
502.765537	3848.787371
503.131470	3905.190321
503.497345	3961.371460
503.863163	3967.413283
504.228923	4026.210781
504.594625	4092.690997
504.960269	4118.597487
505.325856	4194.461811
505.691385	4216.531982
506.056856	4279.543885
506.422270	4344.473946
506.787625	4379.779667
507.152924	4444.755099
507.518164	4502.468749
507.883347	4527.021689
508.248472	4589.857151
508.613540	4677.225388
508.978550	4743.211572
509.343503	4796.514212
509.708398	4864.615159
510.073236	4952.764775
510.438016	5015.398591
510.802738	5049.469229
511.167403	5137.664216
511.532010	5224.127566
511.896561	5308.342562
512.261053	5426.028298
512.625488	5465.944154
512.989866	5527.544534
513.354186	5584.093677
513.718449	5647.161032
514.082655	5765.615545
514.446803	5815.190252
514.810894	5918.813690
515.174927	5981.931456
515.538904	6046.198606
515.902822	6174.879099
516.266684	6193.780906
516.630488	6299.768645
516.994235	6366.130394
517.357925	6485.343600
517.721558	6578.786428
518.085133	6678.719741
518.448651	6764.540344
518.812112	6816.023128
519.175516	6892.225209
519.538863	7003.942220
519.902152	7080.718993
520.265385	7198.334153
520.628560	7289.485776
520.991678	7336.776841
521.354739	7433.796367
521.717743	7546.302318
522.080690	7610.566947
522.443580	7759.384329
522.806413	7837.219745
523.169189	7912.756394
523.531908	8011.973863
523.894569	8072.838234
524.257174	8150.466962
524.619722	8287.157849
524.982213	8344.692538
525.344647	8421.577696
525.707025	8496.229622
526.069345	8621.978684
526.431608	8687.508643
526.793815	8803.598855
527.155964	8815.654774
527.518057	8899.847084
527.880093	8951.163510
528.242072	9085.137215
528.603995	9111.898180
528.965860	9183.265795
529.327669	9273.328529
529.689421	9320.518770
530.051117	9393.565089
530.412755	9483.186722
530.774337	9549.228358
531.135862	9591.327034
531.497331	9687.613072
531.858743	9728.857273
532.220098	9851.558957
532.581396	9865.601091
532.942638	9878.856805
533.303824	9982.661725
533.664953	10030.681236
534.026025	10056.247448
534.387040	10191.796513
534.747999	10227.029137
535.108902	10317.134721
535.469748	10287.986769
535.830537	10360.004693
536.191270	10451.000041
536.551947	10448.769330
536.912567	10553.799250
537.273131	10624.014961
537.633638	10587.196894
537.994089	10677.448671
538.354483	10655.814560
538.714821	10805.856942
539.075103	10922.917576
539.435328	10914.992882
539.795497	10939.180338
540.155609	10988.835703
540.515665	11112.553180
540.875665	11039.521985
541.235609	11166.450677
541.595496	11180.465084
541.955328	11352.887669
542.315102	11282.089705
542.674821	11267.220822
543.034483	11321.123359
543.394090	11360.830007
543.753640	11378.358099
544.113134	11611.428286
544.472571	11456.662342
544.831953	11727.455483
545.191278	11605.943510
545.550548	11585.728483
545.909761	11712.752957
546.268918	11773.952565
546.628019	11869.794982
546.987064	11812.356075
547.346053	11709.362781
547.704986	11906.176989
548.063863	11833.801143
548.422684	11904.193295
548.781449	11896.061914
549.140158	12013.911488
549.498811	11988.214206
549.857408	11903.623645
550.215949	12099.918614
550.574434	12102.754263
550.932864	12073.422309
551.291237	12264.237544
551.649555	12191.647449
552.007817	12262.541196
552.366022	12210.728217
552.724173	12267.736105
553.082267	12354.864887
553.440305	12471.242444
553.798288	12331.698265
554.156215	12415.809917
554.514086	12480.235863
554.871902	12445.429216
555.229661	12481.939773
555.587365	12449.855349
555.945014	12474.814102
556.302606	12471.537352
556.660143	12543.986294
557.017625	12593.634098
557.375050	12572.728433
557.732421	12687.056761
558.089735	12693.942977
558.446994	12680.573837
558.804197	12811.727016
559.161345	12812.614259
559.518437	12637.560192
559.875474	12750.020773
560.232455	12788.996454
560.589381	12847.574661
560.946251	12790.440744
561.303065	12974.606697
561.659825	12940.450359
562.016528	12863.635777
562.373177	12814.623159
562.729770	12941.294752
563.086307	12835.211232
563.442789	12951.240949
563.799216	12990.892145
564.155587	12945.388169
564.511904	12978.276657
564.868164	12996.729801
565.224370	13051.501937
565.580520	13005.468641
565.936615	13075.533118
566.292654	13004.664577
566.648638	13087.780601
567.004567	13101.406840
567.360441	13097.071448
567.716260	13080.929673
568.072023	13168.683558
568.427732	13156.307526
568.783385	13051.285168
569.138982	13165.941171
569.494525	13182.760981
569.850013	13123.658493
570.205445	13120.235549
570.560823	13131.885656
570.916145	13087.533584
571.271412	13107.466307
571.626625	13063.174729
571.981782	13059.318246
572.336884	13014.736802
572.691931	13107.040329
573.046923	12993.258966
573.401860	12973.011172
573.756743	12975.103251
574.111570	13006.837314
574.466342	12986.516423
574.821059	13042.702603
575.175722	12909.974064
575.530330	12926.536775
575.884882	12865.001930
576.239380	12873.466027
576.593823	12839.100482
576.948211	12848.040968
577.302544	12732.036456
577.656823	12743.782345
578.011047	12808.848518
578.365216	12743.764701
578.719330	12704.121067
579.073389	12670.078155
579.427394	12681.193899
579.781344	12674.912622
580.135239	12605.155655
580.489080	12622.603089
580.842866	12497.963080
581.196597	12598.156013
581.550273	12589.762492
581.903895	12547.817571
582.257463	12661.543482
582.610975	12510.447498
582.964434	12564.574367
583.317837	12492.180877
583.671186	12448.963065
584.024481	12495.371927
584.377721	12390.074826
584.730906	12456.567646
585.084037	12486.504538
585.437113	12396.182184
585.790135	12430.106629
586.143103	12338.105571
586.496016	12349.675019
586.848874	12364.001979
587.201679	12359.790095
587.554428	12230.156823
587.907124	12283.711521
588.259765	12230.063562
588.612352	12292.606637
588.964884	12153.397694
589.317362	12203.763863
589.669786	12194.452851
590.022155	12153.697643
590.374470	12259.675300
590.726731	12148.081798
591.078937	12032.684745
591.431090	12055.851367
591.783188	11984.095584
592.135232	11908.785786
592.487222	11969.032616
592.839157	11985.297899
593.191038	11918.938670
593.542866	11861.789630
593.894639	11724.612272
594.246358	11782.444389
594.598022	11788.808845
594.949633	11695.897859
595.301190	11677.220384
595.652692	11638.527008
596.004141	11724.123280
596.355535	11504.240752
596.706876	11486.037145
597.058162	11452.276538
597.409395	11550.339583
597.760573	11575.888151
598.111698	11479.352575
598.462768	11476.456432
598.813785	11479.372740
599.164748	11357.699451
599.515657	11431.549834
599.866511	11313.359982
600.217312	11436.220463
600.568060	11204.244207
600.918753	11369.606656
601.269392	11364.941068
601.619978	11280.017791
601.970510	11312.641618
602.320988	11353.994203
602.671412	11425.825604
603.021783	11345.424241
603.372100	11285.842844
603.722363	11297.941613
604.072572	11297.001438
604.422728	11309.243880
604.772830	11250.552246
605.122878	11252.185580
605.472872	11233.866027
605.822813	11288.005499
606.172701	11253.967628
606.522534	11295.282404
606.872314	11342.752430
607.222041	11273.365988
607.571714	11350.780467
607.921333	11213.063706
608.270899	11273.950762
608.620411	11336.488796
608.969870	11285.442072
609.319276	11258.630695
609.668627	11282.540888
610.017926	11359.264729
610.367171	11389.572146
610.716362	11371.784435
611.065500	11350.777947
611.414585	11365.513239
611.763616	11434.695514
612.112594	11390.517362
612.461518	11419.708164
612.810389	11468.745988
613.159207	11414.263717
613.507971	11405.154352
613.856682	11510.786690
614.205340	11462.308434
614.553945	11598.772469
614.902496	11473.504837
615.250994	11537.910618
615.599439	11528.569360
615.947830	11566.035216
616.296169	11529.683455
616.644454	11538.513036
616.992686	11555.463916
617.340864	11649.055458
617.688990	11542.911443
618.037063	11672.602688
618.385082	11639.444498
618.733048	11682.443020
619.080961	11657.484267
619.428821	11642.794345
619.776628	11659.084833
620.124382	11612.285282
620.472083	11622.619647
620.819731	11652.130562
621.167326	11568.475134
621.514868	11546.105014
621.862357	11456.518669
622.209793	11447.242946
622.557176	11372.185206
622.904506	11309.385032
623.251783	11230.753115
623.599007	11171.902685
623.946179	11117.841351
624.293297	11106.188724
624.640363	10961.237907
624.987376	10957.328492
625.334336	10886.681762
625.681243	10803.255707
626.028097	10776.310739
626.374899	10729.559079
626.721647	10707.037724
627.068343	10665.415437
627.414987	10602.123751
627.761577	10532.568430
628.108115	10588.041287
628.454600	10455.728643
628.801032	10477.531633
629.147412	10450.926944
629.493739	10421.148848
629.840014	10346.330563
630.186236	10392.842769
630.532405	10298.071597
630.878521	10322.929527
631.224585	10289.894846
631.570597	10212.485408
631.916556	10218.693589
632.262462	10194.236431
632.608316	10180.400984
632.954117	10158.792078
633.299866	10139.618050
633.645562	10124.124063
633.991206	10013.183391
634.336797	9915.937013
634.682336	9907.419983
635.027823	9858.233445
635.373257	9815.701230
635.718639	9747.910314
636.063968	9721.391324
636.409245	9601.237943
636.754470	9592.554555
637.099642	9540.774343
637.444762	9441.314898
637.789829	9449.032905
638.134845	9371.885607
638.479808	9350.508594
638.824719	9315.243203
639.169577	9229.271365
639.514383	9232.288495
639.859137	9162.718052
640.203839	9194.769708
640.548489	9117.539231
640.893086	9124.133060
641.237632	9059.419768
641.582125	9063.540912
641.926566	9052.762925
642.270955	9035.623002
642.615292	9022.707565
642.959576	9004.390533
643.303809	8997.035489
643.647990	9012.695834
643.992118	8990.512236
644.336195	8961.510478
644.680219	8962.715314
645.024192	8991.197833
645.368112	9072.635153
645.711981	9052.767966
646.055797	9190.552783
646.399562	9146.359508
646.743274	9304.508065
647.086935	9376.536072
647.430544	9353.180406
647.774101	9369.841419
648.117606	9396.143639
648.461059	9465.315832
648.804460	9396.841839
649.147810	9278.856154
649.491108	9244.087316
649.834354	9175.341101
650.177548	9040.981748
650.520690	8948.035474
650.863781	8938.931150
651.206820	8915.532635
651.549807	8820.723654
651.892742	8729.655210
652.235626	8692.428809
652.578458	8650.977922
652.921238	8546.013537
653.263967	8592.891227
653.606644	8515.383486
653.949269	8493.751895
654.291843	8420.032582
654.634365	8483.031882
654.976836	8411.550841
655.319255	8406.970952
655.661622	8394.431082
656.003938	8353.731327
656.346203	8320.560534
656.688416	8348.130605
657.030577	8300.398439
657.372687	8264.066844
657.714746	8296.294940
658.056753	8313.613824
658.398708	8216.864000
658.740612	8208.994758
659.082465	8248.086386
659.424266	8208.094913
659.766016	8227.881441
660.107715	8198.519241
660.449362	8217.935245
660.790958	8213.078093
661.132503	8203.971249
661.473996	8211.091878
661.815438	8222.421872
662.156829	8250.385152
662.498168	8203.741876
662.839456	8198.478912
663.180693	8216.201088
663.521879	8230.124755
663.863013	8218.552786
664.204097	8216.039771
664.545129	8290.548025
664.886110	8278.832383
665.227040	8288.037530
665.567918	8296.693191
665.908746	8309.694327
666.249522	8328.200403
666.590248	8319.615318
666.930922	8334.451434
667.271545	8323.607912
667.612118	8347.931479
667.952639	8309.661560
668.293109	8312.260274
668.633528	8295.140516
668.973896	8273.887011
669.314213	8274.391127
669.654480	8232.758758
669.994695	8226.729538
670.334859	8214.910552
670.674973	8196.265845
671.015035	8218.530101
671.355047	8202.658028
671.695008	8190.932304
672.034918	8173.671393
672.374777	8174.969491
672.714585	8150.628279
673.054342	8175.375303
673.394049	8141.992783
673.733705	8186.501130
674.073310	8138.237123
674.412864	8144.407495
674.752368	8083.777538
675.091820	8135.403995
675.431223	8061.714928
675.770574	8016.800768
676.109875	7986.987384
676.449125	7940.616331
676.788324	7933.334384
677.127473	7849.104265
677.466571	7834.600865
677.805619	7775.546268
678.144616	7773.116432
678.483562	7753.055161
678.822458	7709.403809
679.161303	7689.962600
679.500098	7666.422932
679.838842	7647.982391
680.177535	7657.185017
680.516179	7693.299843
680.854771	7709.126546
681.193314	7826.986202
681.531805	7983.388000
681.870247	8105.651105
682.208638	8259.865042
682.546978	8333.037390
682.885268	8360.020166
683.223508	8296.720918
683.561697	8243.461127
683.899836	8204.608955
684.237925	8118.964792
684.575963	8091.019156
684.913951	8017.163731
685.251889	8033.053448
685.589776	8023.140019
685.927614	8009.037391
686.265401	8033.550002
686.603137	8037.267853
686.940824	8110.409954
687.278460	8156.022314
687.616046	8170.636619
687.953582	8279.830532
688.291068	8261.296730
688.628504	8316.225142
688.965889	8324.210330
689.303224	8278.842466
689.640510	8234.538285
689.977745	8129.016853
690.314930	8012.770366
690.652065	7939.514838
690.989150	7826.189700
691.326185	7677.987339
691.663170	7565.007519
692.000105	7437.720905
692.336990	7325.351065
692.673825	7247.999601
693.010610	7158.957700
693.347345	7061.512197
693.684030	6948.542459
694.020665	6900.989255
694.357251	6785.998015
694.693786	6777.198681
695.030272	6739.886581
695.366707	6645.644731
695.703093	6591.515341
696.039429	6587.603406
696.375716	6537.895108
696.711952	6535.213214
697.048139	6505.392269
697.384276	6473.965716
697.720363	6490.248643
698.056400	6464.059848
698.392388	6429.754797
698.728326	6431.993069
699.064214	6405.395941
699.400053	6402.610704
699.735842	6342.903277
700.071581	6298.130270
700.407270	6248.124544
700.742910	6224.337860
701.078501	6183.391087
701.414042	6131.673890
701.749533	6082.646148
702.084974	6026.936357
702.420366	6064.727367
702.755709	5990.395554
703.091002	5942.403769
703.426246	5945.274706
703.761440	5934.325320
704.096584	5885.413525
704.431679	5873.554210
704.766725	5853.941601
705.101721	5843.481207
705.436668	5858.057703
705.771565	5806.658099
706.106413	5863.184557
706.441212	5857.336818
706.775961	5870.668150
707.110661	5883.573504
707.445311	5943.908553
707.779913	5904.259878
708.114465	5950.701508
708.448967	5999.353684
708.783421	6104.585250
709.117825	6150.671478
709.452180	6183.214647
709.786485	6247.249904
710.120742	6374.773452
710.454949	6380.812754
710.789107	6456.016688
711.123216	6576.525470
711.457275	6603.422547
711.791286	6713.884310
712.125247	6738.996818
712.459159	6706.720830
712.793023	6831.731363
713.126837	6666.252968
713.460602	6723.404529
713.794318	6679.307035
714.127985	6625.596062
714.461602	6480.612477
714.795171	6487.193703
715.128691	6315.020656
715.462162	6228.033025
715.795584	6158.654146
716.128957	6114.596982
716.462281	6053.147837
716.795556	6013.925139
717.128782	5924.132107
717.461960	5826.643753
717.795088	5816.256456
718.128167	5751.500314
718.461198	5668.132232
718.794180	5645.313449
719.127113	5580.489252
719.459997	5555.346497
719.792833	5484.724973
720.125619	5484.251105
720.458357	5419.411784
720.791046	5391.456065
721.123686	5365.925142
721.456278	5322.505683
721.788821	5311.717614
722.121315	5272.784783
722.453761	5279.600423
722.786158	5266.359832
723.118506	5266.879071
723.450805	5238.814968
723.783056	5267.443681
724.115259	5244.612295
724.447412	5231.260799
724.779518	5280.966576
725.111574	5286.819355
725.443582	5320.259849
725.775542	5311.140402
726.107453	5398.392693
726.439315	5372.463518
726.771129	5439.904074
727.102895	5504.115771
727.434612	5546.204365
727.766281	5576.640331
728.097901	5628.541531
728.429473	5644.247245
728.760996	5651.612371
729.092471	5678.630435
729.423897	5662.889432
729.755276	5639.392614
730.086606	5652.693699
730.417887	5739.547738
730.749120	5832.698179
731.080305	5870.781576
731.411442	5948.168328
731.742530	5969.303366
732.073570	5990.047714
732.404562	6057.442900
732.735506	6046.029728
733.066401	6026.601121
733.397249	5959.538651
733.728048	5864.578436
734.058798	5722.997630
734.389501	5594.107929
734.720156	5509.106514
735.050762	5406.304784
735.381320	5331.156303
735.711831	5275.459115
736.042293	5197.716961
736.372707	5187.821176
736.703073	5145.006657
737.033391	5174.048744
737.363661	5160.195653
737.693883	5170.502292
738.024056	5199.231828
738.354182	5226.741404
738.684260	5271.244711
739.014290	5308.118230
739.344272	5343.867573
739.674207	5403.035596
740.004093	5432.871665
740.333931	5438.477428
740.663722	5460.103978
740.993464	5470.347602
741.323159	5445.605619
741.652806	5410.037758
741.982405	5375.856215
742.311956	5326.515921
742.641460	5307.407428
742.970915	5262.914204
743.300323	5196.764183
743.629683	5163.477444
743.958996	5113.582624
744.288260	5068.204678
744.617477	5004.993650
744.946647	4991.410261
745.275768	4936.123926
745.604842	4901.667640
745.933869	4870.132702
746.262847	4860.022668
746.591778	4849.216955
746.920662	4821.445238
747.249498	4821.399868
747.578286	4835.820088
747.907027	4864.221949
748.235720	4906.187034
748.564365	4914.620885
748.892963	4899.131939
749.221514	4914.368827
749.550017	4894.413419
749.878473	4889.725146
750.206881	4856.284652
750.535242	4838.355789
750.863555	4822.408098
751.191821	4804.670799
751.520039	4812.482067
751.848210	4792.715702
752.176334	4794.197802
752.504411	4777.347745
752.832440	4748.502262
753.160421	4760.873254
753.488356	4735.397783
753.816243	4724.486206
754.144082	4689.190567
754.471875	4676.645656
754.799620	4667.742978
755.127318	4662.132174
755.454969	4654.139424
755.782572	4647.275893
756.110129	4649.945184
756.437638	4635.855159
756.765100	4630.574551
757.092515	4633.823574
757.419882	4635.754336
757.747203	4634.846928
758.074477	4649.826717
758.401703	4640.828257
758.728882	4672.587527
759.056014	4681.180173
759.383099	4703.978792
759.710138	4728.882092
760.037129	4750.140637
760.364073	4763.625724
760.690970	4757.803191
761.017820	4764.555817
761.344623	4796.715858
761.671379	4857.169375
761.998088	4945.316470
762.324751	5178.931101
762.651366	5637.877747
762.977935	6327.414332
763.304456	6876.695935
763.630931	7179.424785
763.957359	7118.346165
764.283740	6820.202244
764.610074	6496.897925
764.936362	6102.289004
765.262602	5786.410304
765.588796	5442.538077
765.914943	5188.761351
766.241044	4966.839677
766.567097	4794.777534
766.893104	4645.009895
767.219064	4550.223599
767.544978	4454.464362
767.870845	4371.577710
768.196665	4325.539373
768.522438	4273.658338
768.848165	4234.594437
769.173846	4189.566850
769.499479	4164.910567
769.825066	4127.883292
770.150607	4087.790995
770.476101	4072.758275
770.801548	4053.548958
771.126949	4022.790358
771.452303	3999.941328
771.777611	3964.544866
772.102872	3962.641831
772.428087	3935.520423
772.753256	3910.113007
773.078378	3891.246489
773.403453	3856.225593
773.728482	3834.329342
774.053465	3821.348371
774.378401	3799.210143
774.703291	3778.768265
775.028135	3753.612907
775.352932	3747.084613
775.677683	3727.313207
776.002388	3707.677913
776.327046	3709.666648
776.651658	3689.106302
776.976224	3670.675844
777.300743	3665.422962
777.625216	3653.465345
777.949643	3639.967655
778.274024	3644.376144
778.598359	3628.544401
778.922647	3627.233701
779.246889	3618.623410
779.571086	3619.074593
779.895236	3618.174747
780.219339	3616.112915
780.543397	3616.828759
780.867409	3630.044144
781.191374	3633.711583
781.515294	3625.900315
781.839167	3643.481339
782.162995	3639.776091
782.486776	3632.131182
782.810511	3623.092393
783.134201	3605.992799
783.457844	3607.401801
783.781441	3600.165225
784.104993	3591.686004
784.428498	3586.884305
784.751958	3583.726022
785.075372	3582.816094
785.398739	3566.742375
785.722061	3575.803849
786.045337	3574.873756
786.368568	3600.187910
786.691752	3595.187086
787.014891	3641.885814
787.337983	3687.200746
787.661030	3773.966566
787.984031	3873.010115
788.306987	3948.357721
788.629897	3995.036285
788.952760	4002.361082
789.275579	3986.851972
789.598351	3939.293727
789.921078	3886.711971
790.243759	3821.176971
790.566395	3777.339097
790.888984	3727.368660
791.211529	3695.327086
791.534027	3652.084068
791.856480	3609.153602
792.178888	3590.549224
792.501249	3571.917119
792.823566	3537.496121
793.145836	3535.646018
793.468062	3528.578320
793.790241	3509.878160
794.112375	3517.147503
794.434464	3535.877911
794.756507	3535.593085
795.078505	3549.307544
795.400457	3592.684153
795.722364	3646.780775
796.044226	3690.679142
796.366042	3734.355699
796.687812	3727.235069
797.009538	3753.421343
797.331218	3746.240219
797.652852	3737.796287
797.974442	3714.264181
798.295986	3704.756564
798.617484	3678.572811
798.938938	3653.142711
799.260346	3637.527737
799.581709	3604.780401
799.903026	3589.611569
800.224299	3572.106163
800.545526	3538.542160
800.866708	3525.175541
801.187845	3511.665249
801.508936	3485.519304
801.829983	3481.244406
802.150984	3451.645271
802.471940	3444.587656
802.792851	3438.318981
803.113717	3430.361519
803.434538	3418.739139
803.755314	3411.351328
804.076045	3408.324115
804.396731	3394.826426
804.717372	3394.239132
805.037967	3393.198133
805.358518	3392.373905
805.679024	3409.912079
805.999485	3407.822521
806.319901	3407.426790
806.640272	3411.086668
806.960598	3423.964295
807.280879	3425.975716
807.601115	3436.032818
807.921306	3426.003442
808.241453	3428.813885
808.561554	3435.818568
808.881611	3429.076025
809.201623	3430.001077
809.521590	3424.735592
809.841513	3423.245931
810.161390	3429.007970
810.481223	3409.546595
810.801011	3411.043818
811.120755	3402.090729
811.440453	3392.694018
811.760107	3385.696896
812.079716	3379.944940
812.399281	3369.555122
812.718801	3367.541181
813.038276	3362.862990
813.357707	3355.240765
813.677093	3362.162270
813.996434	3344.170392
814.315731	3355.495344
814.634983	3352.253882
814.954191	3352.243799
815.273354	3374.926471
815.592473	3382.037019
815.911547	3401.773136
816.230577	3413.892070
816.549562	3441.144548
816.868502	3458.339923
817.187399	3476.248622
817.506250	3500.244515
817.825058	3517.588604
818.143821	3558.311045
818.462539	3605.478601
818.781213	3660.744771
819.099843	3744.599324
819.418429	3898.798138
819.736970	4048.785067
820.055466	4234.198706
820.373919	4468.899706
820.692327	4805.096776
821.010691	5322.293955
821.329011	6391.172326
821.647286	8120.066284
821.965517	10282.227251
822.283704	11888.091850
822.601847	12956.345117
822.919945	12548.561142
823.237999	11874.571475
823.556010	10985.294293
823.873976	10032.864055
824.191897	9076.237057
824.509775	8315.834453
824.827609	7517.353492
825.145398	6968.102136
825.463144	6591.505259
825.780845	6463.381813
826.098502	6532.047370
826.416116	6904.076962
826.733685	7402.044659
827.051210	7683.628390
827.368692	7591.213958
827.686129	7150.601988
828.003522	6602.431960
828.320872	6043.662906
828.638177	5587.451086
828.955439	5218.957863
829.272656	4883.698447
829.589830	4604.557156
829.906960	4342.210468
830.224046	4133.363026
830.541088	3964.403714
830.858086	3849.949357
831.175041	3753.769183
831.491952	3712.918193
831.808819	3690.008669
832.125642	3726.814133
832.442421	3826.409689
832.759157	4045.442782
833.075849	4419.559412
833.392497	4880.300709
833.709101	5267.420995
834.025662	5370.295822
834.342179	5246.779991
834.658653	4976.168332
834.975083	4710.176890
835.291469	4465.854849
835.607811	4241.556270
835.924110	4086.959205
836.240366	3924.457611
836.556578	3765.883075
836.872746	3630.013897
837.188871	3517.656660
837.504952	3421.937751
837.820990	3350.867564
838.136984	3295.039306
838.452935	3262.793566
838.768842	3252.653285
839.084706	3281.680248
839.400526	3423.649223
839.716303	3643.647697
840.032037	3851.915407
840.347727	3920.472579
840.663373	3831.087880
840.978977	3678.771937
841.294537	3546.328223
841.610054	3443.380299
841.925527	3369.749206
842.240957	3300.282106
842.556344	3242.802870
842.871687	3183.241637
843.186987	3119.024899
843.502244	3067.103535
843.817458	3026.910415
844.132629	2994.647031
844.447756	2973.123824
844.762840	2947.010648
845.077881	2934.284255
845.392879	2920.093407
845.707833	2909.761562
846.022745	2901.133627
846.337613	2894.854870
846.652438	2885.120402
846.967221	2883.852552
847.281960	2875.849720
847.596656	2871.027856
847.911309	2864.398739
848.225919	2861.046372
848.540485	2855.548993
848.855009	2852.713344
849.169490	2848.965246
849.483928	2847.198322
849.798323	2843.735049
850.112675	2838.030984
850.426984	2842.585666
850.741251	2837.731035
851.055474	2835.560818
851.369654	2835.268431
851.683792	2833.408246
851.997887	2835.966631
852.311938	2833.100735
852.625947	2837.781447
852.939914	2833.587207
853.253837	2835.031497
853.567718	2833.244408
853.881555	2832.432782
854.195350	2834.323215
854.509103	2832.243739
854.822812	2832.095025
855.136479	2831.185097
855.450103	2833.262052
855.763685	2832.100066
856.077224	2831.129644
856.390720	2832.672237
856.704173	2837.342866
857.017584	2834.202227
857.330953	2840.564163
857.644278	2842.827642
857.957561	2844.178671
858.270802	2847.689834
858.584000	2845.537262
858.897155	2845.018023
859.210268	2842.812518
859.523339	2839.215655
859.836367	2838.628360
860.149352	2835.008812
860.462295	2837.438648
860.775195	2830.527226
861.088054	2828.488079
861.400869	2830.373471
861.713642	2827.961279
862.026373	2830.741475
862.339062	2832.715087
862.651708	2835.906137
862.964312	2840.528875
863.276873	2842.389061
863.589392	2852.582274
863.901869	2856.960516
864.214303	2862.072246
864.526696	2871.042980
864.839045	2874.924668
865.151353	2884.707027
865.463619	2882.846841
865.775842	2886.990670
866.088023	2893.534088
866.400162	2890.602657
866.712258	2894.582648
867.024313	2892.911505
867.336325	2896.372257
867.648296	2897.201527
867.960224	2898.272772
868.272110	2900.909296
868.583954	2899.238153
868.895755	2903.230747
869.207515	2901.166394
869.519233	2908.967580
869.830909	2907.608989
870.142542	2916.977973
870.454134	2914.497726
870.765684	2920.650454
871.077191	2927.022473
871.388657	2932.918102
871.700081	2938.904472
872.011463	2946.413271
872.322803	2950.186574
872.634101	2955.867955
872.945357	2963.064202
873.256571	2971.833289
873.567744	2978.152375
873.878874	2982.928869
874.189963	2992.875065
874.501010	2992.093686
874.812015	2993.797596
875.122979	3003.332939
875.433900	3005.495594
875.744780	3005.377127
876.055618	3011.640760
876.366415	3013.637057
876.677169	3019.492358
876.987882	3026.691125
877.298554	3030.776980
877.609183	3047.155689
877.919771	3066.238977
878.230317	3087.958788
878.540822	3126.619397
878.851285	3177.315761
879.161707	3243.243971
879.472087	3349.846731
879.782425	3510.977131
880.092722	3786.294707
880.402977	4204.571845
880.713191	4740.169235
881.023363	5334.150749
881.333494	5767.279126
881.643583	6057.400050
881.953631	6131.870495
882.263637	6078.661116
882.573602	5935.434374
882.883526	5768.819198
883.193408	5567.838477
883.503248	5349.072564
883.813048	5132.265140
884.122806	4921.335702
884.432522	4677.316129
884.742197	4454.232468
885.051831	4252.268722
885.361424	4052.240778
885.670975	3887.324472
885.980485	3741.662852
886.289954	3615.626444
886.599382	3515.299921
886.908768	3433.204730
887.218113	3353.352853
887.527417	3292.828760
887.836680	3234.737024
888.145901	3188.010569
888.455082	3151.525218
888.764221	3114.876029
889.073319	3089.541711
889.382376	3068.555387
889.691392	3051.866648
890.000366	3043.558826
890.309300	3037.905172
890.618193	3035.150181
890.927044	3029.617515
891.235855	3030.411497
891.544625	3033.063144
891.853353	3039.195707
892.162041	3054.609035
892.470687	3077.821028
892.779293	3113.192284
893.087858	3162.093997
893.396381	3238.590986
893.704864	3344.195597
894.013306	3500.307529
894.321707	3679.089530
894.630068	3833.487469
894.938387	3911.035539
895.246665	3918.166251
895.554903	3860.417313
895.863100	3774.992440
896.171256	3696.262220
896.479371	3626.969040
896.787446	3550.008265
897.095480	3480.130311
897.403473	3426.804985
897.711425	3365.648228
898.019336	3316.870023
898.327207	3264.913371
898.635038	3221.877040
898.942827	3168.617250
899.250576	3126.178296
899.558284	3084.593818
899.865952	3062.069943
900.173579	3033.239584
900.481165	3014.577233
900.788711	2989.492451
901.096216	2977.938126
901.403681	2965.511682
901.711105	2959.177472
902.018489	2948.389403
902.325832	2959.837863
902.633135	2967.603761
902.940397	3005.709843
903.247619	3096.369954
903.554800	3270.627519
903.861941	3542.612892
904.169041	3802.935556
904.476101	3972.383860
904.783121	3988.094616
905.090100	3926.615225
905.397039	3822.704441
905.703938	3714.622102
906.010796	3613.914972
906.317614	3530.559493
906.624391	3447.209056
906.931129	3375.339846
907.237826	3309.668735
907.544483	3240.710791
907.851099	3171.031963
908.157675	3101.232147
908.464211	3028.470653
908.770707	2968.979996
909.077163	2925.222781
909.383578	2884.812891
909.689954	2859.723069
909.996289	2840.153309
910.302584	2827.724345
910.608839	2817.757983
910.915054	2809.079637
911.221229	2804.527475
911.527363	2809.606438
911.833458	2803.824234
912.139513	2811.282621
912.445527	2812.822694
912.751502	2826.002791
913.057436	2838.285562
913.363331	2856.504292
913.669186	2887.293139
913.975000	2921.900660
914.280775	2983.306955
914.586510	3061.543142
914.892205	3169.055830
915.197859	3320.499654
915.503475	3499.652179
915.809050	3672.039476
916.114585	3801.962613
916.420081	3877.499263
916.725536	3907.680651
917.030952	3869.889641
917.336328	3829.681398
917.641665	3780.487298
917.946961	3722.960171
918.252218	3668.533353
918.557435	3592.505192
918.862612	3525.924152
919.167750	3468.616315
919.472848	3394.095459
919.777906	3328.293278
920.082925	3259.494130
920.387904	3184.880012
920.692843	3134.778505
920.997743	3080.979311
921.302603	3031.172711
921.607423	2997.371774
921.912204	2965.902372
922.216946	2936.378854
922.521647	2915.886564
922.826310	2891.119375
923.130932	2875.295193
923.435516	2850.679239
923.740059	2842.018536
924.044564	2827.353820
924.349028	2813.997283
924.653454	2798.334418
924.957840	2787.488375
925.262186	2777.537137
925.566493	2763.638676
925.870761	2751.345823
926.174989	2750.398086
926.479178	2738.412742
926.783328	2732.885117
927.087438	2726.853377
927.391509	2721.779455
927.695541	2710.540203
927.999533	2708.130531
928.303486	2702.658359
928.607400	2700.246167
928.911275	2696.573686
929.215110	2692.066895
929.518906	2690.667974
929.822663	2689.979857
930.126381	2690.615042
930.430060	2688.603622
930.733699	2687.292922
931.037299	2688.228056
931.340861	2687.996163
931.644383	2687.146728
931.947866	2690.078159
932.251309	2689.841225
932.554714	2688.964064
932.858080	2694.121165
933.161407	2688.654033
933.464694	2688.936338
933.767943	2688.354085
934.071153	2686.428364
934.374323	2682.319824
934.677455	2684.212777
934.980548	2679.065759
935.283602	2677.608865
935.586617	2680.424350
935.889593	2679.559792
936.192530	2680.441994
936.495428	2681.515760
936.798287	2684.772345
937.101108	2690.375587
937.403890	2696.815662
937.706632	2704.153061
938.009336	2716.403065
938.312002	2730.742627
938.614628	2741.082033
938.917216	2748.638723
939.219765	2754.549476
939.522275	2765.123296
939.824747	2765.009870
940.127179	2764.041969
940.429573	2762.275044
940.731929	2764.354520
941.034246	2762.186824
941.336524	2764.142792
941.638763	2762.373347
941.940964	2763.734458
942.243126	2755.940834
942.545250	2753.947058
942.847335	2748.492530
943.149381	2742.249061
943.451389	2737.719584
943.753359	2729.631052
944.055290	2727.667523
944.357182	2720.340206
944.659036	2717.433981
944.960851	2714.247972
945.262628	2711.805532
945.564367	2712.289483
945.866067	2706.804708
946.167729	2708.682538
946.469352	2710.101622
946.770937	2706.640870
947.072484	2702.365972
947.373992	2704.367310
947.675462	2702.250025
947.976893	2702.247505
948.278286	2699.305992
948.579641	2696.150229
948.880958	2695.751978
949.182236	2696.792976
949.483476	2695.391536
949.784678	2693.372553
950.085841	2696.392205
950.386967	2694.080836
950.688054	2696.843388
950.989103	2700.679706
951.290114	2703.558205
951.591087	2706.101467
951.892021	2712.574308
952.192917	2715.112529
952.493776	2720.173848
952.794596	2720.355329
953.095378	2724.350444
953.396122	2724.388252
953.696828	2722.666698
953.997496	2722.180227
954.298126	2718.114537
954.598718	2717.643189
954.899272	2714.449618
955.199788	2710.492312
955.500266	2704.536189
955.800706	2695.522606
956.101108	2688.696883
956.401472	2686.209074
956.701798	2678.080213
957.002087	2669.462361
957.302337	2668.325581
957.602550	2664.907678
957.902724	2656.793941
958.202861	2654.023827
958.502960	2649.123826
958.803022	2644.468320
959.103045	2640.810963
959.403031	2636.641929
959.702979	2632.064561
960.002889	2630.000208
960.302762	2627.971144
960.602596	2626.569703
960.902393	2622.753550
961.202153	2622.279681
961.501875	2622.239352
961.801559	2618.203908
962.101205	2614.952364
962.400814	2617.172992
962.700385	2615.953033
962.999918	2611.365583
963.299414	2613.056890
963.598873	2613.366921
963.898293	2612.378855
964.197677	2608.847527
964.497022	2608.348453
964.796331	2609.896087
965.095601	2610.299379
965.394835	2610.213680
965.694030	2608.827362
965.993189	2606.725201
966.292309	2607.952722
966.591393	2605.996754
966.890439	2607.672938
967.189447	2605.389295
967.488419	2605.180087
967.787353	2606.720160
968.086249	2606.699995
968.385108	2609.339039
968.683930	2606.072372
968.982714	2607.355345
969.281462	2607.267125
969.580172	2607.907352
969.878844	2610.049842
970.177480	2612.189812
970.476078	2613.787858
970.774639	2612.567898
971.073162	2617.672067
971.371649	2613.734926
971.670098	2616.499998
971.968510	2613.969339
972.266885	2616.666357
972.565223	2622.045268
972.863524	2620.485031
973.161788	2620.606018
973.460014	2623.013169
973.758204	2624.598612
974.056356	2624.626338
974.354471	2623.517285
974.652550	2624.102058
974.950591	2625.841257
975.248595	2622.052829
975.546563	2623.517285
975.844493	2623.204733
976.142386	2623.144239
976.440243	2620.359002
976.738062	2620.419496
977.035845	2618.977726
977.333590	2616.593260
977.631299	2618.362705
977.928971	2615.453959
978.226606	2617.800616
978.524204	2613.568568
978.821765	2615.065790
979.119290	2612.315841
979.416777	2615.983280
979.714228	2613.482868
980.011642	2614.302055
980.309020	2617.614093
980.606360	2616.356326
980.903664	2620.870679
981.200931	2625.944600
981.498162	2633.332411
981.795356	2646.215080
982.092513	2662.162770
982.389633	2674.952177
982.686717	2695.860363
982.983764	2712.405430
983.280775	2723.334651
983.577749	2727.740620
983.874686	2728.277503
984.171587	2727.057543
984.468451	2720.070504
984.765279	2712.551623
985.062070	2707.376879
985.358824	2702.330684
985.655543	2689.586647
985.952224	2682.811336
986.248869	2667.183759
986.545478	2654.570792
986.842050	2643.548309
987.138586	2632.682102
987.435086	2622.559465
987.731549	2614.874226
988.027975	2614.128136
988.324366	2609.213011
988.620719	2607.947681
988.917037	2602.888883
989.213318	2601.442072
989.509563	2598.339242
989.805772	2597.885538
990.101944	2595.770774
990.398080	2595.828747
990.694180	2597.411669
990.990244	2597.451999
991.286271	2595.657348
991.582262	2596.274889
991.878217	2595.417893
992.174136	2597.250353
992.470019	2598.074581
992.765865	2599.349993
993.061676	2597.207503
993.357450	2602.054572
993.653188	2605.323760
993.948890	2604.960797
994.244556	2606.916765
994.540186	2612.116715
994.835780	2619.103754
995.131337	2623.406379
995.426859	2629.917029
995.722345	2637.493884
996.017795	2648.541572
996.313208	2657.300577
996.608586	2663.307112
996.903928	2666.785508
997.199234	2668.403718
997.494504	2668.108811
997.789738	2667.425735
998.084936	2665.225271
998.380099	2660.889879
998.675225	2651.868734
998.970316	2648.849083
999.265371	2643.419760
999.560390	2635.331229
999.855373	2627.764457
1000.150320	2623.088787
1000.445232	2619.433950
1000.740108	2611.224431
1001.034948	2608.764348
1001.329752	2603.113214
1001.624521	2603.589603
1001.919254	2595.831268
1002.213951	2593.905547
1002.508613	2592.947728
1002.803239	2593.245156
1003.097829	2590.434712
1003.392384	2589.933118
1003.686903	2586.774835
1003.981386	2590.404466
1004.275834	2589.716348
1004.570246	2589.532346
1004.864623	2588.188878
1005.158964	2586.182499
1005.453270	2586.124526
1005.747540	2587.082345
1006.041775	2585.212077
1006.335974	2587.092427
1006.630138	2587.795668
1006.924266	2589.073601
1007.218359	2585.466655
1007.512416	2585.600246
1007.806438	2582.449525
1008.100425	2585.438929
1008.394376	2584.652509
1008.688292	2588.418251
1008.982172	2583.041860
1009.276017	2585.401120
1009.569827	2582.857858
1009.863602	2585.980853
1010.157341	2582.968764
1010.451045	2582.462128
1010.744714	2585.204515
1011.038347	2584.750812
1011.331945	2581.733681
1011.625508	2584.826429
1011.919036	2583.697210
1012.212528	2583.145204
1012.505986	2581.693352
1012.799408	2583.792992
1013.092795	2583.034299
1013.386147	2582.285687
1013.679464	2584.970102
1013.972745	2580.972467
1014.265992	2581.428691
1014.559204	2585.297777
1014.852380	2582.018506
1015.145521	2582.502457
1015.438628	2580.947261
1015.731699	2580.634709
1016.024736	2580.662436
1016.317737	2581.882395
1016.610703	2582.832652
1016.903635	2581.950451
1017.196531	2580.859041
1017.489393	2580.352405
1017.782219	2580.992631
1018.075011	2582.593198
1018.367768	2582.058835
1018.660490	2584.473548
1018.953177	2584.473548
1019.245829	2584.473548
