Dividing Wavelength (nm)	Counts (n)	Blue Motor Position (mm): 29.000000	Red Motor Position (mm): 0.000000	
326.493990	2158.720379
326.888308	2158.720379
327.282561	2158.720379
327.676750	2128.496142
328.070874	2131.997223
328.464933	2137.537451
328.858929	2146.566158
329.252859	2159.479073
329.646726	2171.943326
330.040528	2187.147446
330.434265	2207.503625
330.827938	2223.660523
331.221547	2243.482340
331.615091	2263.412542
332.008571	2283.819133
332.401986	2303.552729
332.795338	2324.546615
333.188625	2346.599142
333.581847	2364.863243
333.975006	2379.653988
334.368100	2401.832544
334.761129	2417.187899
335.154095	2435.210024
335.546996	2459.468056
335.939833	2488.573158
336.332606	2503.852895
336.725315	2516.576768
337.117960	2523.904085
337.510540	2530.268541
337.903056	2539.261960
338.295508	2548.106664
338.687896	2553.082283
339.080220	2560.197872
339.472480	2565.599468
339.864676	2574.643298
340.256807	2574.106415
340.648875	2575.860737
341.040879	2579.855851
341.432818	2578.651015
341.824694	2581.889957
342.216506	2583.782910
342.608253	2579.409709
342.999937	2579.288721
343.391557	2578.734194
343.783113	2580.538928
344.174605	2579.225707
344.566033	2574.242526
344.957397	2573.330077
345.348697	2571.928637
345.739934	2570.386044
346.131106	2567.978893
346.522215	2566.451423
346.913260	2563.346072
347.304241	2561.891699
347.695159	2562.201730
348.086012	2560.386915
348.476802	2556.076728
348.867528	2558.506565
349.258191	2555.756615
349.648789	2555.295350
350.039324	2552.661347
350.429796	2555.199568
350.820203	2552.326110
351.210548	2552.868034
351.600828	2551.781665
351.991045	2546.274205
352.381198	2546.468289
352.771288	2550.085317
353.161314	2546.841335
353.551276	2546.332178
353.941175	2549.016592
354.331010	2550.289484
354.720782	2549.984494
355.110490	2548.482230
355.500135	2551.310318
355.889717	2550.115564
356.279235	2549.069525
356.668689	2548.666232
357.058080	2549.651778
357.447408	2547.622713
357.836672	2544.388813
358.225873	2549.160265
358.615010	2546.864020
359.004084	2552.762170
359.393095	2553.394835
359.782043	2553.031872
360.170927	2553.793086
360.559748	2550.191181
360.948505	2555.065977
361.337199	2556.250648
361.725830	2554.335010
362.114398	2558.456153
362.502903	2557.195865
362.891344	2558.042778
363.279722	2556.865669
363.668037	2557.281564
364.056289	2557.873900
364.444478	2561.193500
364.832603	2560.631411
365.220665	2560.162584
365.608665	2560.311298
365.996601	2563.663665
366.384474	2558.937583
366.772284	2560.938921
367.160031	2565.561659
367.547715	2563.058727
367.935336	2563.693912
368.322893	2563.046124
368.710388	2563.761967
369.097820	2567.593244
369.485189	2561.710218
369.872495	2563.933367
370.259738	2564.354303
370.646918	2562.673078
371.034035	2563.812379
371.421090	2566.756413
371.808081	2564.286247
372.195010	2568.367062
372.581875	2565.017215
372.968678	2565.395301
373.355418	2563.777091
373.742096	2566.612740
374.128710	2566.607699
374.515262	2565.254149
374.901751	2564.616443
375.288177	2566.973182
375.674540	2566.953018
376.060841	2566.610219
376.447079	2567.401681
376.833254	2567.399160
377.219367	2563.797256
377.605417	2566.453944
377.991404	2565.251628
378.377329	2565.957390
378.763191	2565.803635
379.148991	2570.323029
379.534727	2570.277659
379.920402	2570.002916
380.306013	2570.242371
380.691563	2570.940571
381.077049	2570.756568
381.462474	2571.512742
381.847835	2572.291600
382.233134	2572.478122
382.618371	2571.979048
383.003545	2571.311095
383.388657	2572.969635
383.773706	2574.822259
384.158693	2573.735890
384.543618	2575.926272
384.928480	2574.260170
385.313280	2572.155489
385.698017	2571.855540
386.082692	2574.219841
386.467305	2573.272104
386.851856	2573.849316
387.236344	2575.908628
387.620770	2574.507187
388.005133	2576.679924
388.389435	2576.553895
388.773674	2577.436097
389.157851	2574.550037
389.541965	2577.741087
389.926018	2577.980542
390.310008	2577.032805
390.693936	2576.349729
391.077802	2576.773186
391.461606	2576.858885
391.845348	2579.051787
392.229027	2576.387537
392.612645	2577.683114
392.996200	2579.429874
393.379694	2580.937179
393.763125	2578.966088
394.146494	2578.517425
394.529801	2578.756880
394.913047	2581.521952
395.296230	2580.554051
395.679351	2580.622107
396.062410	2580.854000
396.445408	2580.125553
396.828343	2580.652353
397.211217	2577.915007
397.594028	2578.708989
397.976778	2577.927610
398.359466	2578.605645
398.742092	2577.952816
399.124656	2582.880543
399.507158	2580.296952
399.889598	2580.644792
400.271977	2583.732498
400.654294	2584.672674
401.036549	2584.526480
401.418742	2581.716037
401.800874	2583.669484
402.182944	2583.866089
402.564952	2584.549165
402.946898	2582.520101
403.328783	2585.683425
403.710606	2584.443301
404.092367	2585.491861
404.474067	2584.067735
404.855705	2583.228383
405.237282	2587.311718
405.618797	2586.167376
406.000250	2587.810792
406.381642	2583.679566
406.762972	2586.374063
407.144240	2586.167376
407.525447	2589.008066
407.906593	2585.015472
408.287677	2589.181986
408.668700	2588.461101
409.049661	2589.363467
409.430560	2590.033941
409.811399	2588.738364
410.192176	2590.780032
410.572891	2589.232397
410.953545	2589.802048
411.334138	2589.025710
411.714669	2588.226687
412.095139	2590.754826
412.475547	2590.137284
412.855894	2588.776173
413.236180	2588.506471
413.616405	2592.408324
413.996568	2594.896134
414.376670	2589.313056
414.756711	2590.853128
415.136691	2589.726430
415.516609	2594.555856
415.896466	2593.240115
416.276262	2591.649631
416.655997	2586.984043
417.035670	2586.311049
417.415283	2592.219281
417.794834	2589.630648
418.174324	2591.314394
418.553753	2592.952769
418.933121	2596.355548
419.312428	2594.127358
419.691674	2594.434868
420.070859	2591.916812
420.449983	2595.100300
420.829045	2596.232039
421.208047	2594.470156
421.586988	2596.305136
421.965867	2596.922677
422.344686	2597.741865
422.723444	2597.938470
423.102141	2595.425455
423.480777	2600.007864
423.859352	2598.049375
424.237866	2596.287492
424.616319	2598.213213
424.994712	2598.760178
425.373044	2600.285127
425.751314	2599.395363
426.129524	2600.338059
426.507673	2599.851588
426.885762	2599.302102
427.263789	2601.149685
427.641756	2604.159254
428.019662	2602.041969
428.397508	2603.859305
428.775292	2603.246805
429.153016	2604.403750
429.530679	2605.805191
429.908282	2605.394337
430.285824	2606.684872
430.663305	2607.123452
431.040726	2608.580346
431.418086	2610.374997
431.795385	2614.213835
432.172624	2613.445059
432.549802	2615.698455
432.926920	2614.004627
433.303977	2619.938065
433.680974	2618.304732
434.057910	2622.057871
434.434786	2622.458642
434.811601	2624.843108
435.188355	2629.891824
435.565050	2631.356279
435.941683	2635.089253
436.318257	2637.352731
436.694770	2639.540592
437.071222	2645.204328
437.447614	2647.671973
437.823946	2652.095586
438.200218	2662.082112
438.576429	2666.465395
438.952580	2671.758606
439.328670	2680.487364
439.704700	2689.062367
440.080670	2693.334745
440.456580	2703.414532
440.832429	2711.863506
441.208218	2718.202757
441.583947	2728.912688
441.959616	2738.037177
442.335224	2748.283322
442.710773	2758.766401
443.086261	2773.985645
443.461689	2783.135339
443.837057	2797.482463
444.212365	2817.291677
444.587612	2827.310970
444.962800	2838.146930
445.337927	2858.094776
445.712995	2859.523943
446.088002	2895.439644
446.462949	2913.897828
446.837837	2935.176539
447.212664	2949.621965
447.587431	3006.342508
447.962139	3080.097109
448.336786	3160.924449
448.711374	3178.371883
449.085901	3134.160963
449.460369	3141.173208
449.834776	3154.769200
450.209124	3235.019328
450.583412	3266.057713
450.957640	3315.158551
451.331808	3307.879125
451.705917	3298.343783
452.079965	3322.639623
452.453954	3360.324769
452.827883	3379.801267
453.201752	3409.042480
453.575562	3448.481947
453.949311	3517.162627
454.323001	3550.953481
454.696632	3582.614448
455.070202	3665.044875
455.443713	3711.705795
455.817164	3774.669807
456.190556	3841.311340
456.563888	3862.988301
456.937160	3931.767284
457.310373	3906.145619
457.683526	3963.526553
458.056619	3996.823374
458.429653	4025.457128
458.802628	4085.643464
459.175542	4141.242350
459.548398	4247.696395
459.921194	4380.003999
460.293930	4447.815080
460.666607	4625.694714
461.039224	4783.261018
461.411782	4896.757556
461.784280	4894.821753
462.156719	4941.041572
462.529099	4966.496878
462.901419	4927.730405
463.273680	4894.531887
463.645882	4932.325417
464.018024	4980.602027
464.390106	5063.619748
464.762130	5274.818889
465.134094	5568.781172
465.505999	6029.880391
465.877845	6552.080915
466.249631	6843.068918
466.621358	6862.500046
466.993026	6790.207379
467.364634	6701.145314
467.736184	6558.788170
468.107674	6494.258881
468.479105	6482.323949
468.850477	6483.601881
469.221790	6401.867133
469.593043	6276.435664
469.964238	6242.445684
470.335373	6259.235247
470.706449	6422.087202
471.077467	6620.814527
471.448425	7185.237235
471.819324	7706.928603
472.190164	7775.132894
472.560945	7404.953405
472.931667	7050.736730
473.302330	6928.266939
473.672934	6864.662701
474.043479	6965.548792
474.413965	6912.440236
474.784393	6900.394399
475.154761	7064.655356
475.525070	7097.042249
475.895321	7085.092194
476.265513	7199.995213
476.635645	7373.741101
477.005719	7385.993626
477.375734	7489.493555
477.745691	7616.888554
478.115588	7833.895104
478.485427	8072.356804
478.855207	8532.271352
479.224928	8956.290363
479.594591	9343.720681
479.964194	9374.270073
480.333739	9481.729829
480.703226	9505.592131
481.072653	9623.023289
481.442022	9754.398279
481.811333	9914.724615
482.180584	9780.607238
482.549777	9740.676258
482.918912	9700.505823
483.287988	9704.758037
483.657005	9626.814237
484.025964	9562.257220
484.394864	9638.091298
484.763706	9605.999312
485.132489	9529.363692
485.501213	9534.132623
485.869879	9595.057488
486.238487	9543.468840
486.607036	9632.127613
486.975527	9583.782947
487.343959	9644.128079
487.712333	9697.052633
488.080648	9744.147092
488.448905	9847.843627
488.817104	9866.843736
489.185244	10038.089211
489.553326	10252.015616
489.921350	10721.175640
490.289315	11348.229643
490.657222	11641.828964
491.025070	11813.918833
491.392861	11735.624672
491.760593	11576.861094
492.128267	11334.177427
492.495883	11100.577919
492.863440	10876.118024
493.230939	10646.100256
493.598380	10473.818823
493.965763	10454.664959
494.333088	10324.257871
494.700354	10257.265978
495.067563	10231.956865
495.434713	10237.340817
495.801805	10282.975862
496.168839	10243.906920
496.535815	10214.338032
496.902733	10256.822356
497.269593	10225.196678
497.636395	10226.088962
498.003139	10342.610192
498.369825	10265.447770
498.736453	10359.039312
499.103023	10303.964706
499.469535	10314.142796
499.835989	10367.543739
500.202385	10336.996867
500.568723	10355.611328
500.935003	10425.078427
501.301226	10394.965095
501.667390	10549.539475
502.033497	10648.240226
502.399546	10582.405277
502.765537	10491.780455
503.131470	10595.850035
503.497345	10688.408140
503.863163	10459.204518
504.228923	10599.593091
504.594625	10713.928981
504.960269	10622.341298
505.325856	10772.484504
505.691385	10658.143573
506.056856	10719.532224
506.422270	10824.801598
506.787625	10762.923955
507.152924	10808.364916
507.518164	10873.272293
507.883347	10743.888558
508.248472	10811.094701
508.613540	10919.567729
508.978550	10998.925573
509.343503	10978.735752
509.708398	11036.472087
510.073236	11160.993628
510.438016	11176.071719
510.802738	11086.694582
511.167403	11213.277955
511.532010	11271.044537
511.896561	11368.926100
512.261053	11573.317163
512.625488	11487.315078
512.989866	11480.002884
513.354186	11453.420880
513.718449	11468.236831
514.082655	11616.529933
514.446803	11563.116388
514.810894	11676.406238
515.174927	11666.921307
515.538904	11659.629278
515.902822	11808.585292
516.266684	11681.041579
516.630488	11782.797269
516.994235	11767.691452
517.357925	11886.332487
517.721558	11950.604678
518.085133	12010.806137
518.448651	12041.219418
518.812112	12003.211639
519.175516	12010.163390
519.538863	12102.340888
519.902152	12104.861465
520.265385	12216.041593
520.628560	12243.631828
520.991678	12189.031090
521.354739	12238.205026
521.717743	12314.901140
522.080690	12289.387861
522.443580	12428.374993
522.806413	12446.074484
523.169189	12423.454827
523.531908	12488.400012
523.894569	12449.058847
524.257174	12473.064822
524.619722	12575.846387
524.982213	12550.416286
525.344647	12540.192826
525.707025	12553.912326
526.069345	12647.992860
526.431608	12624.896814
526.793815	12709.240359
527.155964	12603.512239
527.518057	12639.581695
527.880093	12607.028444
528.242072	12715.103221
528.603995	12634.948874
528.965860	12650.470587
529.327669	12679.971419
529.689421	12627.724901
530.051117	12634.354018
530.412755	12664.646312
530.774337	12678.751460
531.135862	12641.825008
531.497331	12698.817773
531.858743	12656.950990
532.220098	12753.751227
532.581396	12687.689426
532.942638	12605.460645
533.303824	12663.005416
533.664953	12645.734423
534.026025	12594.097884
534.387040	12710.031820
534.747999	12669.740398
535.108902	12724.222668
535.469748	12604.442332
535.830537	12624.453192
536.191270	12667.224862
536.551947	12593.865991
536.912567	12654.054848
537.273131	12692.581866
537.633638	12558.618243
537.994089	12622.817338
538.354483	12538.781303
538.714821	12673.682580
539.075103	12755.006474
539.435328	12678.388497
539.795497	12658.334787
540.155609	12651.246925
540.515665	12759.354469
540.875665	12614.660751
541.235609	12714.329403
541.595496	12666.733349
541.955328	12855.103625
542.315102	12702.384389
542.674821	12645.260555
543.034483	12661.596414
543.394090	12661.435097
543.753640	12629.595169
544.113134	12867.396478
544.472571	12638.969195
544.831953	12920.230291
545.191278	12727.693502
545.550548	12661.009119
545.909761	12771.473403
546.268918	12820.601968
546.628019	12891.087381
546.987064	12776.118826
547.346053	12624.165846
547.704986	12811.807675
548.063863	12702.313813
548.422684	12753.978078
548.781449	12717.033983
549.140158	12813.824136
549.498811	12753.993202
549.857408	12625.826907
550.215949	12827.405005
550.574434	12800.323926
550.932864	12737.738001
551.291237	12941.050257
551.649555	12826.013646
552.007817	12887.009087
552.366022	12802.834421
552.724173	12845.991739
553.082267	12927.744131
553.440305	13023.145447
553.798288	12843.607273
554.156215	12913.409610
554.514086	12963.785860
554.871902	12914.243921
555.229661	12925.576435
555.587365	12892.198955
555.945014	12904.887539
556.302606	12888.206361
556.660143	12952.997791
557.017625	12975.073004
557.375050	12943.540587
557.732421	13043.423488
558.089735	13036.277653
558.446994	12999.832631
558.804197	13131.951191
559.161345	13114.796144
559.518437	12930.962908
559.875474	13025.613092
560.232455	13055.260118
560.589381	13097.573042
560.946251	13041.275957
561.303065	13221.451836
561.659825	13166.314216
562.016528	13084.428234
562.373177	13019.591433
562.729770	13155.037155
563.086307	13041.427191
563.442789	13151.702432
563.799216	13180.631093
564.155587	13128.959266
564.511904	13145.637924
564.868164	13155.110252
565.224370	13219.168194
565.580520	13162.182991
565.936615	13225.729255
566.292654	13162.722394
566.648638	13237.752407
567.004567	13231.841654
567.360441	13232.038259
567.716260	13203.225545
568.072023	13295.740800
568.427732	13280.324952
568.783385	13182.632431
569.138982	13294.919092
569.494525	13279.714972
569.850013	13240.066297
570.205445	13219.117782
570.560823	13230.110018
570.916145	13180.898274
571.271412	13192.303885
571.626625	13151.982216
571.981782	13150.336279
572.336884	13108.708951
572.691931	13179.479189
573.046923	13081.353130
573.401860	13045.593705
573.756743	13052.593347
574.111570	13080.866658
574.466342	13061.289337
574.821059	13108.852624
575.175722	12980.053664
575.530330	12988.265703
575.884882	12927.013164
576.239380	12934.922734
576.593823	12914.059919
576.948211	12902.172878
577.302544	12787.365640
577.656823	12801.657312
578.011047	12869.871685
578.365216	12805.039926
578.719330	12744.016758
579.073389	12704.615100
579.427394	12722.748130
579.781344	12714.442829
580.135239	12645.061429
580.489080	12665.755366
580.842866	12552.004250
581.196597	12644.378353
581.550273	12638.908701
581.903895	12594.700302
582.257463	12707.808671
582.610975	12543.308259
582.964434	12610.597581
583.317837	12522.354703
583.671186	12485.768529
584.024481	12545.806151
584.377721	12432.291969
584.730906	12497.305210
585.084037	12510.608815
585.437113	12427.638984
585.790135	12446.918877
586.143103	12359.028880
586.496016	12390.929302
586.848874	12391.909806
587.201679	12385.449568
587.554428	12270.433122
587.907124	12317.593116
588.259765	12256.418714
588.612352	12327.463696
588.964884	12183.327025
589.317362	12235.311403
589.669786	12227.583314
590.022155	12180.191427
590.374470	12284.167746
590.726731	12169.771362
591.078937	12053.429093
591.431090	12074.365005
591.783188	12010.924604
592.135232	11932.701020
592.487222	11999.793737
592.839157	12007.892350
593.191038	11941.011362
593.542866	11885.704863
593.894639	11740.854869
594.246358	11792.206583
594.598022	11806.568830
594.949633	11710.292874
595.301190	11695.136645
595.652692	11647.031435
596.004141	11739.282029
596.355535	11517.619974
596.706876	11503.141780
597.058162	11472.501647
597.409395	11565.894063
597.760573	11589.869791
598.111698	11487.446148
598.462768	11489.298772
598.813785	11501.969712
599.164748	11369.964578
599.515657	11446.968203
599.866511	11324.909266
600.217312	11452.430293
600.568060	11219.639891
600.918753	11383.563091
601.269392	11384.626774
601.619978	11288.915427
601.970510	11326.308186
602.320988	11368.265709
602.671412	11442.332862
603.021783	11365.460307
603.372100	11288.988524
603.722363	11301.341871
604.072572	11303.096193
604.422728	11312.399642
604.772830	11259.712023
605.122878	11266.893147
605.472872	11239.862480
605.822813	11297.742488
606.172701	11258.786971
606.522534	11294.374997
606.872314	11343.430465
607.222041	11279.647266
607.571714	11358.183402
607.921333	11230.705224
608.270899	11283.264294
608.620411	11342.097080
608.969870	11289.512804
609.319276	11270.144691
609.668627	11282.901331
610.017926	11364.799916
610.367171	11398.794937
610.716362	11386.229861
611.065500	11360.446880
611.414585	11375.988757
611.763616	11435.907912
612.112594	11403.342058
612.461518	11440.404621
612.810389	11480.408697
613.159207	11421.288565
613.507971	11415.284551
613.856682	11519.485201
614.205340	11478.568676
614.553945	11613.936260
614.902496	11484.716363
615.250994	11548.066023
615.599439	11537.920701
615.947830	11581.473749
616.296169	11540.990763
616.644454	11555.814276
616.992686	11573.947307
617.340864	11661.018116
617.688990	11551.851929
618.037063	11679.612412
618.385082	11653.630305
618.733048	11684.615757
619.080961	11678.281547
619.428821	11662.101964
619.776628	11673.825167
620.124382	11614.808379
620.472083	11633.700103
620.819731	11654.729277
621.167326	11571.550238
621.514868	11559.025491
621.862357	11468.138529
622.209793	11451.434665
622.557176	11365.810667
622.904506	11313.927112
623.251783	11248.387071
623.599007	11184.029180
623.946179	11132.256530
624.293297	11099.604977
624.640363	10966.027003
624.987376	10961.487444
625.334336	10897.048895
625.681243	10813.605196
626.028097	10785.193253
626.374899	10746.641028
626.721647	10717.336801
627.068343	10666.332927
627.414987	10606.060892
627.761577	10546.250122
628.108115	10592.815260
628.454600	10469.801024
628.801032	10482.136727
629.147412	10463.862545
629.493739	10439.672568
629.840014	10363.246155
630.186236	10414.804556
630.532405	10307.755654
630.878521	10342.653042
631.224585	10296.569334
631.570597	10221.526718
631.916556	10225.957892
632.262462	10207.250170
632.608316	10184.567498
632.954117	10164.773407
633.299866	10149.372682
633.645562	10122.571388
633.991206	10022.902735
634.336797	9925.318600
634.682336	9914.074306
635.027823	9857.454587
635.373257	9819.270367
635.718639	9752.321323
636.063968	9727.191171
636.409245	9611.025343
636.754470	9603.463612
637.099642	9550.670128
637.444762	9446.235065
637.789829	9455.634296
638.134845	9377.388027
638.479808	9354.909522
638.824719	9333.469494
639.169577	9244.659487
639.514383	9240.150175
639.859137	9171.799690
640.203839	9209.036173
640.548489	9124.065005
640.893086	9132.272003
641.237632	9062.159635
641.582125	9064.884379
641.926566	9050.393582
642.270955	9035.189462
642.615292	9031.527064
642.959576	9013.388992
643.303809	8999.656889
643.647990	9017.409313
643.992118	8991.845622
644.336195	8972.016243
644.680219	8972.074216
645.024192	9006.979165
645.368112	9081.802491
645.711981	9063.039317
646.055797	9200.161222
646.399562	9154.445518
646.743274	9316.465682
647.086935	9382.638388
647.430544	9363.897899
647.774101	9380.551351
648.117606	9404.748889
648.461059	9464.927663
648.804460	9402.500534
649.147810	9287.400910
649.491108	9248.410105
649.834354	9183.142287
650.177548	9035.900265
650.520690	8956.232390
650.863781	8948.907594
651.206820	8923.540508
651.549807	8827.758584
651.892742	8739.117456
652.235626	8696.060961
652.578458	8660.596443
652.921238	8551.011841
653.263967	8588.747398
653.606644	8521.213581
653.949269	8507.915017
654.291843	8433.121938
654.634365	8494.135023
654.976836	8417.499402
655.319255	8405.093123
655.661622	8396.818068
656.003938	8353.106223
656.346203	8317.334196
656.688416	8349.859720
657.030577	8313.558372
657.372687	8285.713558
657.714746	8313.626427
658.056753	8333.750713
658.398708	8226.999239
658.740612	8223.964465
659.082465	8263.686237
659.424266	8219.901295
659.766016	8232.635249
660.107715	8199.953449
660.449362	8220.286943
660.790958	8217.113537
661.132503	8213.773772
661.473996	8213.592291
661.815438	8231.337152
662.156829	8257.357068
662.498168	8210.696148
662.839456	8209.619862
663.180693	8225.839774
663.521879	8246.740398
663.863013	8227.221050
664.204097	8219.878610
664.545129	8299.387688
664.886110	8286.817571
665.227040	8282.189792
665.567918	8297.464488
665.908746	8315.257240
666.249522	8333.123090
666.590248	8333.861619
666.930922	8344.057352
667.271545	8338.643153
667.612118	8361.688788
667.952639	8317.790420
668.293109	8325.369795
668.633528	8302.374572
668.973896	8276.006817
669.314213	8284.458311
669.654480	8240.741425
669.994695	8238.528358
670.334859	8220.589412
670.674973	8199.199797
671.015035	8224.965134
671.355047	8210.796971
671.695008	8199.706433
672.034918	8178.190788
672.374777	8180.955861
672.714585	8156.775966
673.054342	8185.934000
673.394049	8149.914956
673.733705	8191.554887
674.073310	8133.342163
674.412864	8146.907908
674.752368	8081.650171
675.091820	8135.671176
675.431223	8063.862460
675.770574	8014.718772
676.109875	7993.369485
676.449125	7951.192671
676.788324	7937.682379
677.127473	7854.016869
677.466571	7840.488933
677.805619	7779.874099
678.144616	7786.629245
678.483562	7758.882734
678.822458	7715.720375
679.161303	7696.906789
679.500098	7667.602562
679.838842	7661.719535
680.177535	7667.559712
680.516179	7702.651184
680.854771	7719.405459
681.193314	7836.892070
681.531805	7997.142789
681.870247	8115.448587
682.208638	8268.739993
682.546978	8337.665169
682.885268	8366.145168
683.223508	8299.412894
683.561697	8242.246209
683.899836	8215.165131
684.237925	8136.076989
684.575963	8098.336390
684.913951	8020.364864
685.251889	8032.927419
685.589776	8029.471708
685.927614	8015.485027
686.265401	8040.836990
686.603137	8040.237092
686.940824	8111.287115
687.278460	8155.407293
687.616046	8172.832041
687.953582	8282.507384
688.291068	8266.867205
688.628504	8323.983478
688.965889	8325.205958
689.303224	8286.653733
689.640510	8244.028257
689.977745	8132.200341
690.314930	8017.819081
690.652065	7947.280736
690.989150	7823.860687
691.326185	7680.517998
691.663170	7568.165802
692.000105	7448.526618
692.336990	7332.852302
692.673825	7264.385871
693.010610	7168.659401
693.347345	7076.746563
693.684030	6960.946218
694.020665	6918.663541
694.357251	6800.808925
694.693786	6788.377440
695.030272	6750.183138
695.366707	6655.858108
695.703093	6609.174503
696.039429	6599.997083
696.375716	6554.921605
696.711952	6541.703700
697.048139	6513.632035
697.384276	6482.061809
697.720363	6505.553586
698.056400	6475.619214
698.392388	6439.073369
698.728326	6439.587567
699.064214	6413.865080
699.400053	6406.550365
699.735842	6348.146077
700.071581	6298.115146
700.407270	6258.287510
700.742910	6228.532100
701.078501	6186.793866
701.414042	6141.501620
701.749533	6090.827941
702.084974	6033.691503
702.420366	6070.305404
702.755709	5997.508622
703.091002	5947.926353
703.426246	5951.359379
703.761440	5940.372184
704.096584	5894.737139
704.431679	5884.271703
704.766725	5862.009968
705.101721	5850.183421
705.436668	5868.122367
705.771565	5811.540456
706.106413	5871.625969
706.441212	5867.343509
706.775961	5880.211054
707.110661	5886.837651
707.445311	5955.175532
707.779913	5919.728659
708.114465	5954.663855
708.448967	6000.745043
708.783421	6113.813082
709.117825	6152.698022
709.452180	6192.944074
709.786485	6251.489514
710.120742	6386.297530
710.454949	6389.586883
710.789107	6463.863243
711.123216	6585.410504
711.457275	6614.437468
711.791286	6724.808490
712.125247	6744.547128
712.459159	6710.405913
712.793023	6846.469176
713.126837	6674.470048
713.460602	6736.456076
713.794318	6683.120668
714.127985	6637.651981
714.461602	6491.597151
714.795171	6494.306772
715.128691	6327.973900
715.462162	6241.591209
715.795584	6170.223594
716.128957	6121.906655
716.462281	6063.144445
716.795556	6018.119379
717.128782	5936.651813
717.461960	5834.079455
717.795088	5819.233257
718.128167	5755.893680
718.461198	5672.520557
718.794180	5652.610520
719.127113	5591.042908
719.459997	5559.260953
719.792833	5491.409543
720.125619	5489.284697
720.458357	5430.562816
720.791046	5401.417385
721.123686	5375.407552
721.456278	5328.779399
721.788821	5316.426052
722.121315	5275.761584
722.453761	5285.473367
722.786158	5271.343013
723.118506	5269.414772
723.450805	5246.076750
723.783056	5275.592706
724.115259	5256.771558
724.447412	5248.246967
724.779518	5288.936640
725.111574	5290.557371
725.443582	5331.491540
725.775542	5322.314120
726.107453	5405.848559
726.439315	5373.295308
726.771129	5446.291216
727.102895	5509.456874
727.434612	5549.990271
727.766281	5579.128141
728.097901	5637.953365
728.429473	5655.849461
728.760996	5660.336088
729.092471	5684.437844
729.423897	5669.591646
729.755276	5642.218181
730.086606	5654.329553
730.417887	5747.379171
730.749120	5838.397203
731.080305	5878.665940
731.411442	5954.207631
731.742530	5976.839891
732.073570	5999.235217
732.404562	6060.233178
732.735506	6061.987500
733.066401	6033.913314
733.397249	5968.433767
733.728048	5868.994487
734.058798	5730.939968
734.389501	5604.807778
734.720156	5519.536661
735.050762	5414.050517
735.381320	5341.195761
735.711831	5281.657214
736.042293	5202.899267
736.372707	5197.903484
736.703073	5150.264580
737.033391	5176.423127
737.363661	5166.499616
737.693883	5178.593344
738.024056	5206.183579
738.354182	5233.569647
738.684260	5276.177480
739.014290	5321.399150
739.344272	5347.605588
739.674207	5410.035238
740.004093	5440.279640
740.333931	5444.930105
740.663722	5466.602025
740.993464	5477.377491
741.323159	5465.881140
741.652806	5421.012350
741.982405	5385.051279
742.311956	5330.755532
742.641460	5316.380682
742.970915	5266.979894
743.300323	5206.969999
743.629683	5174.641079
743.958996	5119.725270
744.288260	5071.814144
744.617477	5006.034648
744.946647	4992.277339
745.275768	4940.761788
745.604842	4908.130399
745.933869	4873.674112
746.262847	4867.244121
746.591778	4856.566957
746.920662	4830.821784
747.249498	4832.011497
747.578286	4844.392570
747.907027	4863.604408
748.235720	4912.024690
748.564365	4919.112553
748.892963	4906.255090
749.221514	4925.038429
749.550017	4900.452722
749.878473	4896.898708
750.206881	4857.295404
750.535242	4847.996995
750.863555	4829.463193
751.191821	4809.001150
751.520039	4811.748579
751.848210	4792.756032
752.176334	4801.625942
752.504411	4778.376140
752.832440	4753.742542
753.160421	4765.589253
753.488356	4743.693002
753.816243	4721.789188
754.144082	4692.842883
754.471875	4683.811656
754.799620	4666.318852
755.127318	4664.872041
755.454969	4654.401564
755.782572	4649.138600
756.110129	4651.858302
756.437638	4636.896157
756.765100	4634.360457
757.092515	4636.001353
757.419882	4640.089728
757.747203	4633.906753
758.074477	4651.754958
758.401703	4641.481087
758.728882	4666.170138
759.056014	4685.437428
759.383099	4706.229667
759.710138	4728.385538
760.037129	4757.039457
760.364073	4763.106485
760.690970	4764.369294
761.017820	4768.631590
761.344623	4803.990243
761.671379	4861.887895
761.998088	4946.448209
762.324751	5177.978323
762.651366	5639.316997
762.977935	6326.406102
763.304456	6887.065588
763.630931	7188.622370
763.957359	7130.467619
764.283740	6840.671849
764.610074	6516.616398
764.936362	6114.259224
765.262602	5796.691738
765.588796	5455.203976
765.914943	5200.691242
766.241044	4972.314370
766.567097	4799.954799
766.893104	4651.757479
767.219064	4552.250143
767.544978	4456.992500
767.870845	4377.652300
768.196665	4325.620031
768.522438	4282.243423
768.848165	4239.386053
769.173846	4198.242676
769.499479	4169.946680
769.825066	4131.384373
770.150607	4092.517077
770.476101	4080.158688
770.801548	4056.437539
771.126949	4024.723640
771.452303	4003.996936
771.777611	3967.125937
772.102872	3964.305411
772.428087	3936.579065
772.753256	3911.827000
773.078378	3890.888567
773.403453	3861.627190
773.728482	3833.757171
774.053465	3821.665963
774.378401	3805.335145
774.703291	3783.867392
775.028135	3756.589708
775.352932	3746.918255
775.677683	3728.641551
776.002388	3711.178994
776.327046	3709.732183
776.651658	3689.146632
776.976224	3671.623581
777.300743	3670.088549
777.625216	3654.861744
777.949643	3643.670383
778.274024	3647.239520
778.598359	3631.717807
778.922647	3629.265286
779.246889	3620.218935
779.571086	3620.700365
779.895236	3619.813122
780.219339	3617.156434
780.543397	3618.883029
780.867409	3631.322076
781.191374	3632.668064
781.515294	3627.657157
781.839167	3640.013026
782.162995	3640.625526
782.486776	3632.252169
782.810511	3628.330152
783.134201	3615.273563
783.457844	3611.041514
783.781441	3601.927108
784.104993	3594.733382
784.428498	3592.517795
784.751958	3583.599993
785.075372	3578.004313
785.398739	3567.929567
785.722061	3576.013057
786.045337	3577.694282
786.368568	3602.252263
786.691752	3598.090790
787.014891	3643.342708
787.337983	3691.195861
787.661030	3774.758027
787.984031	3870.728993
788.306987	3946.179943
788.629897	3995.999146
788.952760	4004.047348
789.275579	3989.223835
789.598351	3938.887914
789.921078	3888.415881
790.243759	3827.546469
790.566395	3780.847741
790.888984	3731.792273
791.211529	3695.369936
791.534027	3650.584325
791.856480	3609.181329
792.178888	3592.157352
792.501249	3575.153540
792.823566	3543.447203
793.145836	3537.380174
793.468062	3524.868031
793.790241	3514.982328
794.112375	3521.112371
794.434464	3537.768343
794.756507	3538.683313
795.078505	3557.199471
795.400457	3596.694391
795.722364	3648.943430
796.044226	3693.582847
796.366042	3738.118921
796.687812	3735.837798
797.009538	3760.436109
797.331218	3744.148141
797.652852	3742.910537
797.974442	3718.108060
798.295986	3704.953169
798.617484	3678.746731
798.938938	3656.938700
799.260346	3641.235505
799.581709	3606.688478
799.903026	3590.483689
800.224299	3575.503900
800.545526	3541.929816
800.866708	3527.726365
801.187845	3513.059128
801.508936	3489.446363
801.829983	3484.775734
802.150984	3451.993111
802.471940	3446.833490
802.792851	3434.462498
803.113717	3431.568876
803.434538	3419.550765
803.755314	3410.542223
804.076045	3406.824372
804.396731	3393.523288
804.717372	3396.240470
805.037967	3390.843914
805.358518	3395.418762
805.679024	3409.775968
805.999485	3404.119793
806.319901	3408.780340
806.640272	3411.646236
806.960598	3426.898247
807.280879	3422.399017
807.601115	3435.102725
807.921306	3425.312804
808.241453	3425.232145
808.561554	3438.364351
808.881611	3432.244390
809.201623	3431.037034
809.521590	3422.787186
809.841513	3423.571085
810.161390	3431.445368
810.481223	3409.453334
810.801011	3409.927202
811.120755	3410.559867
811.440453	3397.959503
811.760107	3388.517422
812.079716	3382.800753
812.399281	3369.749206
812.718801	3369.819782
813.038276	3363.772918
813.357707	3358.847711
813.677093	3366.482538
813.996434	3347.772296
814.315731	3356.150694
814.634983	3355.492823
814.954191	3357.466435
815.273354	3376.862274
815.592473	3384.171947
815.911547	3401.503434
816.230577	3417.743511
816.549562	3439.947273
816.868502	3459.927887
817.187399	3482.711382
817.506250	3506.530833
817.825058	3517.507946
818.143821	3559.669636
818.462539	3606.466667
818.781213	3664.218126
819.099843	3748.644850
819.418429	3898.919125
819.736970	4049.493350
820.055466	4234.959920
820.373919	4472.352896
820.692327	4807.582065
821.010691	5315.140558
821.329011	6394.260032
821.647286	8124.994012
821.965517	10290.078848
822.283704	11900.341854
822.601847	12979.610042
822.919945	12562.139489
823.237999	11891.056048
823.556010	10998.542445
823.873976	10052.753928
824.191897	9089.591074
824.509775	8331.106628
824.827609	7523.226436
825.145398	6977.077911
825.463144	6601.879953
825.780845	6474.447146
826.098502	6538.580705
826.416116	6914.315545
826.733685	7415.859942
827.051210	7706.855506
827.368692	7596.512210
827.686129	7167.225193
828.003522	6616.194310
828.320872	6056.454834
828.638177	5590.916879
828.955439	5222.862237
829.272656	4887.133993
829.589830	4607.987661
829.906960	4345.472095
830.224046	4137.698418
830.541088	3968.401349
830.858086	3855.358515
831.175041	3756.783793
831.491952	3709.694375
831.808819	3691.342054
832.125642	3727.396386
832.442421	3826.190399
832.759157	4045.715005
833.075849	4420.318106
833.392497	4881.979413
833.709101	5270.785966
834.025662	5381.353593
834.342179	5256.857258
834.658653	4987.097553
834.975083	4718.552767
835.291469	4472.783915
835.607811	4250.705964
835.924110	4089.930965
836.240366	3928.989608
836.556578	3769.986575
836.872746	3634.346769
837.188871	3520.683873
837.504952	3424.107968
837.820990	3353.993080
838.136984	3297.690953
838.452935	3265.664503
838.768842	3249.646236
839.084706	3283.916000
839.400526	3423.533277
839.716303	3647.027791
840.032037	3851.426415
840.347727	3924.830656
840.663373	3829.623425
840.978977	3682.658667
841.294537	3552.619582
841.610054	3445.454734
841.925527	3370.449927
842.240957	3301.575162
842.556344	3243.503590
842.871687	3182.732481
843.186987	3119.697893
843.502244	3067.441292
843.817458	3027.107020
844.132629	2998.198524
844.447756	2976.463589
844.762840	2953.581792
845.077881	2934.634615
845.392879	2923.965013
845.707833	2912.249371
846.022745	2898.640776
846.337613	2895.527864
846.652438	2888.044271
846.967221	2882.786348
847.281960	2874.097919
847.596656	2870.564070
847.911309	2866.803369
848.225919	2860.433871
848.540485	2857.615866
848.855009	2853.761904
849.169490	2847.238651
849.483928	2847.140349
849.798323	2846.205215
850.112675	2839.931499
850.426984	2840.443176
850.741251	2838.472085
851.055474	2836.952177
851.369654	2840.115501
851.683792	2836.284224
851.997887	2834.469408
852.311938	2835.306240
852.625947	2834.852536
852.939914	2833.304902
853.253837	2835.684327
853.567718	2835.117197
853.881555	2834.388750
854.195350	2834.247598
854.509103	2834.487052
854.822812	2833.544357
855.136479	2836.069975
855.450103	2835.827999
855.763685	2830.068481
856.077224	2833.539316
856.390720	2833.249449
856.704173	2834.681137
857.017584	2836.160716
857.330953	2839.593741
857.644278	2842.671366
857.957561	2843.719926
858.270802	2843.180522
858.584000	2847.112622
858.897155	2847.029443
859.210268	2843.861078
859.523339	2839.046776
859.836367	2837.791529
860.149352	2837.519307
860.462295	2836.468226
860.775195	2831.933708
861.088054	2828.959427
861.400869	2826.423727
861.713642	2829.602174
862.026373	2831.850529
862.339062	2832.337000
862.651708	2832.773060
862.964312	2841.108608
863.276873	2843.077179
863.589392	2849.073631
863.901869	2855.440608
864.214303	2862.041999
864.526696	2868.749255
864.839045	2877.125132
865.151353	2884.767521
865.463619	2888.177862
865.775842	2888.860938
866.088023	2893.224057
866.400162	2889.927142
866.712258	2893.609705
867.024313	2895.144736
867.336325	2897.410735
867.648296	2900.221178
867.960224	2897.529202
868.272110	2902.159502
868.583954	2900.626991
868.895755	2905.784091
869.207515	2902.736714
869.519233	2908.539082
869.830909	2909.156623
870.142542	2913.945719
870.454134	2915.256419
870.765684	2924.731268
871.077191	2929.429623
871.388657	2932.973555
871.700081	2942.004782
872.011463	2947.774382
872.322803	2953.496092
872.634101	2955.401648
872.945357	2961.020014
873.256571	2973.504432
873.567744	2979.760503
873.878874	2982.875937
874.189963	2989.855414
874.501010	2994.190806
874.812015	2995.277175
875.122979	3003.080881
875.433900	3003.582476
875.744780	3005.533403
876.055618	3013.952129
876.366415	3015.701410
876.677169	3021.350023
876.987882	3026.721372
877.298554	3034.459543
877.609183	3050.450083
877.919771	3066.556570
878.230317	3091.706886
878.540822	3129.974285
878.851285	3179.511183
879.161707	3246.941657
879.472087	3349.607276
879.782425	3511.957636
880.092722	3786.198925
880.402977	4206.172411
880.713191	4745.462447
881.023363	5336.053784
881.333494	5774.573675
881.643583	6060.318878
881.953631	6135.888295
882.263637	6086.522796
882.573602	5938.285146
882.883526	5774.523264
883.193408	5573.817285
883.503248	5352.966856
883.813048	5140.877952
884.122806	4921.774282
884.432522	4683.925082
884.742197	4462.353767
885.051831	4254.774175
885.361424	4063.447263
885.670975	3894.944176
885.980485	3746.013368
886.289954	3624.014924
886.599382	3517.936444
886.908768	3436.514248
887.218113	3354.587936
887.527417	3294.908236
887.836680	3234.744586
888.145901	3189.762370
888.455082	3153.718120
888.764221	3117.898201
889.073319	3089.544231
889.382376	3071.512024
889.691392	3051.793551
890.000366	3050.185423
890.309300	3040.274514
890.618193	3039.213351
890.927044	3031.155067
891.235855	3031.230684
891.544625	3034.618340
891.853353	3041.539844
892.162041	3056.514591
892.470687	3081.680031
892.779293	3114.013992
893.087858	3161.287412
893.396381	3238.986717
893.704864	3343.996472
894.013306	3501.361130
894.321707	3683.714788
894.630068	3837.555680
894.938387	3917.515942
895.246665	3922.267229
895.554903	3862.963096
895.863100	3780.991413
896.171256	3705.278324
896.479371	3631.299391
896.787446	3554.540262
897.095480	3484.674911
897.403473	3429.287754
897.711425	3370.273486
898.019336	3322.755570
898.327207	3263.388422
898.635038	3220.939386
898.942827	3169.093639
899.250576	3130.191055
899.558284	3087.739498
899.865952	3066.697722
900.173579	3034.525078
900.481165	3013.556399
900.788711	2991.826505
901.096216	2979.092551
901.403681	2965.322639
901.711105	2958.746454
902.018489	2952.608849
902.325832	2958.950620
902.633135	2968.427990
902.940397	3004.993999
903.247619	3099.001436
903.554800	3272.477622
903.861941	3545.607338
904.169041	3809.063079
904.476101	3975.572390
904.783121	3995.278261
905.090100	3928.924073
905.397039	3828.469000
905.703938	3722.637537
906.010796	3620.712968
906.317614	3536.709701
906.624391	3450.054787
906.931129	3380.481823
907.237826	3312.045639
907.544483	3250.510794
907.851099	3174.742252
908.157675	3101.065788
908.464211	3030.802186
908.770707	2971.419914
909.077163	2924.418717
909.383578	2887.041081
909.689954	2861.089221
909.996289	2839.014009
910.302584	2826.390959
910.608839	2817.163127
910.915054	2809.611479
911.221229	2805.049235
911.527363	2803.113432
911.833458	2804.381282
912.139513	2806.997641
912.445527	2811.370842
912.751502	2824.528253
913.057436	2839.437466
913.363331	2855.967409
913.669186	2886.690721
913.975000	2926.399890
914.280775	2982.139928
914.586510	3062.284192
914.892205	3175.309382
915.197859	3318.742812
915.503475	3498.931294
915.809050	3671.689116
916.114585	3802.978406
916.420081	3881.239799
916.725536	3911.721136
917.030952	3874.570352
917.336328	3838.715146
917.641665	3788.727064
917.946961	3730.295050
918.252218	3668.891275
918.557435	3594.723299
918.862612	3529.984802
919.167750	3469.085143
919.472848	3394.569327
919.777906	3327.862259
920.082925	3261.876076
920.387904	3188.645754
920.692843	3132.671303
920.997743	3083.207501
921.302603	3035.566077
921.607423	2999.625170
921.912204	2964.541260
922.216946	2937.966818
922.521647	2915.074938
922.826310	2892.001577
923.130932	2875.269987
923.435516	2853.920701
923.740059	2840.526355
924.044564	2824.777790
924.349028	2813.629278
924.653454	2797.873152
924.957840	2782.442180
925.262186	2774.600665
925.566493	2763.540374
925.870761	2751.184506
926.174989	2750.287180
926.479178	2741.694534
926.783328	2732.675909
927.087438	2726.031669
927.391509	2721.257696
927.695541	2714.908363
927.999533	2707.502908
928.303486	2703.757330
928.607400	2702.998637
928.911275	2697.534026
929.215110	2693.271730
929.518906	2690.390711
929.822663	2690.534384
930.126381	2686.844259
930.430060	2690.040351
930.733699	2690.030268
931.037299	2692.195444
931.340861	2687.408868
931.644383	2691.714014
931.947866	2692.918850
932.251309	2689.563962
932.554714	2688.913653
932.858080	2689.480783
933.161407	2688.459949
933.464694	2685.455421
933.767943	2688.323838
934.071153	2685.589012
934.374323	2684.386697
934.677455	2680.242868
934.980548	2679.774041
935.283602	2680.182374
935.586617	2678.286901
935.889593	2679.353105
936.192530	2679.776562
936.495428	2683.222190
936.798287	2683.567509
937.101108	2689.316945
937.403890	2696.745085
937.706632	2703.477546
938.009336	2714.273177
938.312002	2728.302708
938.614628	2736.547516
938.917216	2747.945564
939.219765	2754.806575
939.522275	2763.464757
939.824747	2766.600354
940.127179	2761.281937
940.429573	2764.288985
940.731929	2762.322935
941.034246	2763.222781
941.336524	2764.513317
941.638763	2763.648759
941.940964	2765.118255
942.243126	2757.072573
942.545250	2753.758015
942.847335	2745.692169
943.149381	2741.298803
943.451389	2735.960221
943.753359	2732.065930
944.055290	2725.542677
944.357182	2722.432285
944.659036	2719.987325
944.960851	2715.719988
945.262628	2710.779658
945.564367	2709.088351
945.866067	2706.910572
946.167729	2708.261601
946.469352	2707.495346
946.770937	2705.988041
947.072484	2703.774974
947.373992	2704.994934
947.675462	2703.343956
947.976893	2700.099973
948.278286	2697.899510
948.579641	2700.646938
948.880958	2697.188707
949.182236	2697.350024
949.483476	2693.894313
949.784678	2694.068233
950.085841	2693.818696
950.386967	2696.382122
950.688054	2693.460774
950.989103	2700.064685
951.290114	2702.396219
951.591087	2706.466951
951.892021	2709.899976
952.192917	2714.333671
952.493776	2718.737119
952.794596	2721.882799
953.095378	2722.228118
953.396122	2727.879252
953.696828	2725.635938
953.997496	2721.482027
954.298126	2718.480020
954.598718	2716.965153
954.899272	2715.465410
955.199788	2708.884184
955.500266	2704.410160
955.800706	2696.377081
956.101108	2688.868282
956.401472	2685.029444
956.701798	2678.307065
957.002087	2670.800787
957.302337	2670.039573
957.602550	2662.601350
957.902724	2657.247645
958.202861	2652.514002
958.502960	2647.664412
958.803022	2644.221303
959.103045	2639.946405
959.403031	2636.089922
959.702979	2633.644963
960.002889	2629.745630
960.302762	2627.744292
960.602596	2624.349075
960.902393	2621.064763
961.202153	2621.107613
961.501875	2618.065277
961.801559	2618.327417
962.101205	2616.310955
962.400814	2615.706017
962.700385	2614.712909
962.999918	2613.613938
963.299414	2612.716612
963.598873	2613.182919
963.898293	2609.500356
964.197677	2610.871550
964.497022	2609.389451
964.796331	2608.597990
965.095601	2606.906683
965.394835	2608.650922
965.694030	2607.219234
965.993189	2607.733432
966.292309	2605.293513
966.591393	2605.074223
966.890439	2603.783688
967.189447	2608.847527
967.488419	2604.718822
967.787353	2605.109511
968.086249	2606.455499
968.385108	2608.272835
968.683930	2605.744697
968.982714	2608.293000
969.281462	2608.711416
969.580172	2608.545058
969.878844	2610.647219
970.177480	2609.964142
970.476078	2607.793926
970.774639	2614.579319
971.073162	2615.751387
971.371649	2611.983125
971.670098	2616.210132
971.968510	2613.699637
972.266885	2615.998404
972.565223	2619.252468
972.863524	2618.884464
973.161788	2624.502830
973.460014	2620.444701
973.758204	2621.465535
974.056356	2623.545011
974.354471	2625.009466
974.652550	2624.926287
974.950591	2624.858232
975.248595	2624.868314
975.546563	2619.718775
975.844493	2622.413272
976.142386	2621.831019
976.440243	2620.361522
976.738062	2622.264558
977.035845	2621.848663
977.333590	2619.333127
977.631299	2615.169134
977.928971	2616.933538
978.226606	2616.583177
978.524204	2615.330451
978.821765	2614.491099
979.119290	2615.040584
979.416777	2614.430605
979.714228	2614.962447
980.011642	2614.153341
980.309020	2618.022427
980.606360	2616.157200
980.903664	2619.749022
981.200931	2627.058695
981.498162	2634.297792
981.795356	2645.960502
982.092513	2659.223777
982.389633	2677.734894
982.686717	2697.856660
982.983764	2710.998948
983.280775	2723.359857
983.577749	2728.033007
983.874686	2731.287072
984.171587	2726.147615
984.468451	2719.430278
984.765279	2714.406768
985.062070	2706.071220
985.358824	2701.566949
985.655543	2690.559590
985.952224	2682.027437
986.248869	2670.377330
986.545478	2653.547438
986.842050	2644.496046
987.138586	2632.152781
987.435086	2624.812861
987.731549	2617.041922
988.027975	2613.049329
988.324366	2608.512290
988.620719	2607.166302
988.917037	2603.521548
989.213318	2602.846033
989.509563	2598.404777
989.805772	2601.207658
990.101944	2596.254725
990.398080	2594.820516
990.694180	2596.360589
990.990244	2592.572162
991.286271	2595.062492
991.582262	2595.420414
991.878217	2595.017121
992.174136	2594.749940
992.470019	2594.860846
992.765865	2598.664396
993.061676	2599.294540
993.357450	2600.771598
993.653188	2602.820827
993.948890	2601.679006
994.244556	2604.023143
994.540186	2610.150665
994.835780	2615.378342
995.131337	2624.838067
995.426859	2630.826958
995.722345	2638.116466
996.017795	2648.022333
996.313208	2656.980464
996.608586	2663.244097
996.903928	2666.780467
997.199234	2668.093687
997.494504	2667.594613
997.789738	2665.767195
998.084936	2662.810558
998.380099	2657.096410
998.675225	2651.404948
998.970316	2649.237252
999.265371	2642.187198
999.560390	2634.207051
999.855373	2629.554066
1000.150320	2622.420834
1000.445232	2615.975718
1000.740108	2611.453803
1001.034948	2607.375510
1001.329752	2604.297886
1001.624521	2603.892073
1001.919254	2594.986874
1002.213951	2594.533171
1002.508613	2591.546287
1002.803239	2592.514188
1003.097829	2583.488003
1003.392384	2592.100814
1003.686903	2588.761049
1003.981386	2590.185175
1004.275834	2589.161821
1004.570246	2589.857500
1004.864623	2586.220308
1005.158964	2588.657706
1005.453270	2587.667119
1005.747540	2587.410020
1006.041775	2588.009917
1006.335974	2583.956830
1006.630138	2587.231059
1006.924266	2586.810123
1007.218359	2587.324321
1007.512416	2585.620411
1007.806438	2583.911459
1008.100425	2585.597725
1008.394376	2584.334916
1008.688292	2583.853486
1008.982172	2584.841552
1009.276017	2585.282653
1009.569827	2583.470358
1009.863602	2582.920873
1010.157341	2582.706624
1010.451045	2584.385328
1010.744714	2582.320975
1011.038347	2584.002200
1011.331945	2584.234093
1011.625508	2584.176120
1011.919036	2583.472879
1012.212528	2580.733012
1012.505986	2579.974318
1012.799408	2582.779720
1013.092795	2583.059504
1013.386147	2581.710996
1013.679464	2580.642271
1013.972745	2582.061356
1014.265992	2580.964905
1014.559204	2583.871130
1014.852380	2581.443815
1015.145521	2579.898701
1015.438628	2579.785275
1015.731699	2582.618403
1016.024736	2578.252764
1016.317737	2580.233938
1016.610703	2583.177972
1016.903635	2577.166396
1017.196531	2575.555747
1017.489393	2577.340315
1017.782219	2578.807291
1018.075011	2581.625296
1018.367768	2582.063877
1018.660490	2584.491192
1018.953177	2584.491192
1019.245829	2584.491192
