Dividing Wavelength (nm)	Counts (n)	Blue Motor Position (mm): 0.500000	Red Motor Position (mm): 0.000000	
326.493990	2159.158960
326.888308	2159.158960
327.282561	2159.158960
327.676750	2137.693727
328.070874	2135.992337
328.464933	2142.452576
328.858929	2151.299801
329.252859	2163.267500
329.646726	2176.369459
330.040528	2191.482838
330.434265	2208.605117
330.827938	2227.524568
331.221547	2246.136508
331.615091	2268.045362
332.008571	2285.651592
332.401986	2309.337453
332.795338	2329.809579
333.188625	2347.831704
333.581847	2367.706453
333.975006	2386.890564
334.368100	2407.176167
334.761129	2425.815834
335.154095	2439.066507
335.546996	2456.455967
335.939833	2468.461475
336.332606	2484.477220
336.725315	2493.301760
337.117960	2504.800632
337.510540	2510.454286
337.903056	2518.704134
338.295508	2528.083201
338.687896	2532.685775
339.080220	2542.533669
339.472480	2547.090872
339.864676	2549.621531
340.256807	2553.339382
340.648875	2556.210319
341.040879	2557.790721
341.432818	2558.471277
341.824694	2558.856925
342.216506	2561.806000
342.608253	2558.209137
342.999937	2558.375495
343.391557	2557.992367
343.783113	2554.120761
344.174605	2555.433981
344.566033	2553.341902
344.957397	2552.905843
345.348697	2551.201933
345.739934	2547.085831
346.131106	2546.901828
346.522215	2546.795964
346.913260	2543.032743
347.304241	2538.291538
347.695159	2539.743390
348.086012	2537.749614
348.476802	2536.383461
348.867528	2534.614016
349.258191	2535.397915
349.648789	2533.888090
350.039324	2534.248532
350.429796	2532.499252
350.820203	2530.112266
351.210548	2528.546987
351.600828	2531.009591
351.991045	2528.352903
352.381198	2527.034641
352.771288	2528.347862
353.161314	2527.561442
353.551276	2527.987419
353.941175	2529.683767
354.331010	2529.484642
354.720782	2529.116638
355.110490	2527.937008
355.500135	2528.708304
355.889717	2526.762419
356.279235	2527.473222
356.668689	2530.366844
357.058080	2528.287368
357.447408	2526.039013
357.836672	2526.775022
358.225873	2528.335259
358.615010	2526.528005
359.004084	2534.319108
359.393095	2531.566638
359.782043	2532.443799
360.170927	2531.044879
360.559748	2533.719211
360.948505	2532.796680
361.337199	2537.001002
361.725830	2534.823224
362.114398	2534.243491
362.502903	2535.065199
362.891344	2536.998482
363.279722	2537.369007
363.668037	2536.418749
364.056289	2537.363965
364.444478	2536.693492
364.832603	2537.116949
365.220665	2537.938657
365.608665	2538.339429
365.996601	2542.594162
366.384474	2537.679037
366.772284	2543.557023
367.160031	2541.412012
367.547715	2540.209697
367.935336	2542.989893
368.322893	2541.676672
368.710388	2541.328833
369.097820	2544.003165
369.485189	2541.351518
369.872495	2542.100129
370.259738	2540.973432
370.646918	2542.939482
371.034035	2539.975283
371.421090	2541.893442
371.808081	2541.482588
372.195010	2544.091385
372.581875	2545.608773
372.968678	2543.373021
373.355418	2543.219266
373.742096	2543.604914
374.128710	2543.415871
374.515262	2545.492826
374.901751	2544.560213
375.288177	2545.379400
375.674540	2545.190357
376.060841	2544.547610
376.447079	2549.117416
376.833254	2543.894780
377.219367	2543.201622
377.605417	2543.478885
377.991404	2544.565254
378.377329	2541.956457
378.763191	2541.941333
379.148991	2549.729916
379.534727	2547.922662
379.920402	2548.835111
380.306013	2548.323434
380.691563	2546.516180
381.077049	2547.763866
381.462474	2549.245965
381.847835	2548.731767
382.233134	2549.656819
382.618371	2551.753939
383.003545	2551.080945
383.388657	2550.201264
383.773706	2548.850234
384.158693	2553.001625
384.543618	2548.920811
384.928480	2554.582026
385.313280	2550.440718
385.698017	2550.758311
386.082692	2551.007848
386.467305	2551.912735
386.851856	2550.566747
387.236344	2551.055739
387.620770	2552.878116
388.005133	2551.965667
388.389435	2554.511450
388.773674	2554.095555
389.157851	2550.097920
389.541965	2550.256716
389.926018	2554.866852
390.310008	2552.681511
390.693936	2553.084804
391.077802	2556.411965
391.461606	2552.376522
391.845348	2554.302242
392.229027	2554.549259
392.612645	2553.026830
392.996200	2556.263251
393.379694	2558.067984
393.763125	2557.543704
394.146494	2556.568241
394.529801	2557.034548
394.913047	2560.704508
395.296230	2558.788869
395.679351	2556.149825
396.062410	2558.020093
396.445408	2557.546225
396.828343	2556.285936
397.211217	2552.888199
397.594028	2554.400545
397.976778	2554.690411
398.359466	2556.505227
398.742092	2552.862993
399.124656	2558.400700
399.507158	2555.620504
399.889598	2560.570917
400.271977	2558.740978
400.654294	2560.480176
401.036549	2558.335165
401.418742	2559.156873
401.800874	2559.429096
402.182944	2560.049158
402.564952	2557.969682
402.946898	2558.899775
403.328783	2560.235680
403.710606	2560.651576
404.092367	2564.190466
404.474067	2563.071329
404.855705	2560.359189
405.237282	2562.312636
405.618797	2562.746175
406.000250	2562.892368
406.381642	2560.631411
406.762972	2563.036041
407.144240	2560.155022
407.525447	2562.075702
407.906593	2559.945814
408.287677	2562.489076
408.668700	2563.368757
409.049661	2561.934549
409.430560	2558.221739
409.811399	2562.466391
410.192176	2562.718449
410.572891	2563.058727
410.953545	2562.350444
411.334138	2563.577965
411.714669	2562.559652
412.095139	2562.302553
412.475547	2561.926988
412.855894	2563.908161
413.236180	2564.530743
413.616405	2566.751372
413.996568	2564.477811
414.376670	2565.934705
414.756711	2563.797256
415.136691	2565.360013
415.516609	2564.303892
415.896466	2566.217009
416.276262	2563.512430
416.655997	2563.169632
417.035670	2561.705177
417.415283	2565.697771
417.794834	2563.893037
418.174324	2564.409756
418.553753	2563.041082
418.933121	2565.274314
419.312428	2568.437638
419.691674	2565.531412
420.070859	2565.745662
420.449983	2564.341700
420.829045	2563.545198
421.208047	2565.627194
421.586988	2568.669531
421.965867	2568.200703
422.344686	2569.440827
422.723444	2566.186763
423.102141	2568.044428
423.480777	2569.753379
423.859352	2565.919581
424.237866	2568.200703
424.616319	2568.122566
424.994712	2569.460992
425.373044	2567.056362
425.751314	2567.845302
426.129524	2568.132648
426.507673	2567.300857
426.885762	2569.501321
427.263789	2567.444530
427.641756	2568.609037
428.019662	2567.484860
428.397508	2568.520817
428.775292	2570.128945
429.153016	2572.273956
429.530679	2569.760941
429.908282	2567.447051
430.285824	2570.123904
430.663305	2569.181208
431.040726	2570.194480
431.418086	2570.479305
431.795385	2569.092988
432.172624	2569.929819
432.549802	2573.141034
432.926920	2569.886969
433.303977	2571.313616
433.680974	2572.001733
434.057910	2567.973852
434.434786	2569.266907
434.811601	2570.975859
435.188355	2568.001578
435.565050	2572.347052
435.941683	2570.804459
436.318257	2568.694737
436.694770	2565.163408
437.071222	2569.095508
437.447614	2568.755230
437.823946	2569.460992
438.200218	2573.176322
438.576429	2572.699933
438.952580	2572.989800
439.328670	2571.462330
439.704700	2571.404357
440.080670	2572.780592
440.456580	2572.311764
440.832429	2572.213462
441.208218	2573.062896
441.583947	2572.654563
441.959616	2572.510890
442.335224	2572.503328
442.710773	2571.663976
443.086261	2573.466189
443.461689	2570.789336
443.837057	2575.162537
444.212365	2573.675397
444.587612	2573.466189
444.962800	2572.485684
445.337927	2575.318813
445.712995	2573.478792
446.088002	2574.131621
446.462949	2574.277814
446.837837	2575.512897
447.212664	2574.920562
447.587431	2575.107084
447.962139	2576.009451
448.336786	2575.427197
448.711374	2574.847465
449.085901	2575.598597
449.460369	2573.877043
449.834776	2575.505335
450.209124	2572.001733
450.583412	2574.240006
450.957640	2573.420818
451.331808	2574.126580
451.705917	2573.206569
452.079965	2577.496591
452.453954	2575.659091
452.827883	2575.550706
453.201752	2574.124059
453.575562	2574.350911
453.949311	2574.882753
454.323001	2575.139852
454.696632	2577.317630
455.070202	2574.711354
455.443713	2575.805284
455.817164	2571.999213
456.190556	2571.752196
456.563888	2574.313102
456.937160	2572.291600
457.310373	2576.258988
457.683526	2576.753021
458.056619	2577.443659
458.429653	2577.967939
458.802628	2575.475088
459.175542	2576.168247
459.548398	2579.591191
459.921194	2574.960891
460.293930	2577.705799
460.666607	2578.267888
461.039224	2576.286714
461.411782	2577.884760
461.784280	2579.263516
462.156719	2579.308886
462.529099	2577.352918
462.901419	2577.635223
463.273680	2576.468196
463.645882	2577.385686
464.018024	2575.893504
464.390106	2578.288052
464.762130	2577.128587
465.134094	2577.531879
465.505999	2577.446180
465.877845	2578.020871
466.249631	2580.798547
466.621358	2577.063052
466.993026	2580.780903
467.364634	2581.660584
467.736184	2577.894842
468.107674	2579.704617
468.479105	2576.160685
468.850477	2578.376272
469.221790	2578.232600
469.593043	2579.747466
469.964238	2578.416602
470.335373	2577.201684
470.706449	2578.522466
471.077467	2578.283011
471.448425	2578.930799
471.819324	2576.697568
472.190164	2579.303845
472.560945	2579.170254
472.931667	2581.388362
473.302330	2578.812332
473.672934	2578.656057
474.043479	2580.309555
474.413965	2576.710171
474.784393	2575.601117
475.154761	2575.971642
475.525070	2575.868298
475.895321	2575.041549
476.265513	2572.120201
476.635645	2581.605132
477.005719	2580.972467
477.375734	2579.003896
477.745691	2579.717219
478.115588	2580.249061
478.485427	2580.327199
478.855207	2580.738053
479.224928	2580.181006
479.594591	2582.038671
479.964194	2580.924576
480.333739	2580.780903
480.703226	2581.748804
481.072653	2580.362487
481.442022	2578.966087
481.811333	2578.963567
482.180584	2579.775193
482.549777	2581.544638
482.918912	2579.553382
483.287988	2579.742425
483.657005	2581.045563
484.025964	2583.490523
484.394864	2579.775193
484.763706	2580.521283
485.132489	2583.382138
485.501213	2584.395410
485.869879	2580.468351
486.238487	2580.019689
486.607036	2580.846438
486.975527	2584.970102
487.343959	2579.465162
487.712333	2582.222673
488.080648	2581.141345
488.448905	2583.394741
488.817104	2580.407858
489.185244	2580.609504
489.553326	2580.359967
489.921350	2581.905080
490.289315	2580.906932
490.657222	2582.283167
491.025070	2580.339802
491.392861	2583.629155
491.760593	2582.109247
492.128267	2583.883733
492.495883	2581.158989
492.863440	2583.606470
493.230939	2582.303331
493.598380	2583.099834
493.965763	2580.261664
494.333088	2576.926941
494.700354	2579.422312
495.067563	2578.766962
495.434713	2577.531879
495.801805	2581.947930
496.168839	2581.910121
496.535815	2584.279464
496.902733	2581.655543
497.269593	2583.397262
497.636395	2580.450707
498.003139	2583.293918
498.369825	2582.421798
498.736453	2582.131932
499.103023	2581.647981
499.469535	2583.228383
499.835989	2581.980697
500.202385	2583.354412
500.568723	2583.707293
500.935003	2581.388362
501.301226	2581.814339
501.667390	2586.016141
502.033497	2583.246027
502.399546	2583.724937
502.765537	2581.521952
503.131470	2583.649319
503.497345	2584.559248
503.863163	2583.268712
504.228923	2583.089751
504.594625	2583.407344
504.960269	2584.513877
505.325856	2582.648650
505.691385	2582.116809
506.056856	2582.759556
506.422270	2584.713003
506.787625	2582.999011
507.152924	2581.748804
507.518164	2584.050091
507.883347	2582.900708
508.248472	2583.528332
508.613540	2581.342992
508.978550	2584.723085
509.343503	2583.185533
509.708398	2585.335585
510.073236	2586.608477
510.438016	2582.820050
510.802738	2585.711151
511.167403	2583.162848
511.532010	2586.734506
511.896561	2581.784092
512.261053	2583.520770
512.625488	2579.702096
512.989866	2580.561613
513.354186	2582.136973
513.718449	2577.032805
514.082655	2580.833835
514.446803	2582.620924
514.810894	2583.450194
515.174927	2586.311049
515.538904	2584.642427
515.902822	2584.702921
516.266684	2583.414906
516.630488	2583.001531
516.994235	2584.713003
517.357925	2583.929103
517.721558	2585.839701
518.085133	2583.288877
518.448651	2584.183682
518.812112	2582.686459
519.175516	2583.578743
519.538863	2582.257961
519.902152	2584.730647
520.265385	2585.955647
520.628560	2582.724268
520.991678	2584.632344
521.354739	2584.954978
521.717743	2585.131419
522.080690	2582.174782
522.443580	2584.776017
522.806413	2586.424475
523.169189	2584.556727
523.531908	2584.317272
523.894569	2585.524629
524.257174	2581.879874
524.619722	2585.075966
524.982213	2584.634865
525.344647	2582.557910
525.707025	2584.947417
526.069345	2585.479258
526.431608	2585.312900
526.793815	2583.427509
527.155964	2584.647468
527.518057	2585.703590
527.880093	2586.185020
528.242072	2585.368353
528.603995	2586.260637
528.965860	2586.926069
529.327669	2587.369691
529.689421	2583.442632
530.051117	2586.628641
530.412755	2582.136973
530.774337	2586.840370
531.135862	2585.817016
531.497331	2581.383321
531.858743	2578.376272
532.220098	2582.038671
532.581396	2581.879874
532.942638	2580.876685
533.303824	2583.044381
533.664953	2583.845924
534.026025	2584.914649
534.387040	2587.359609
534.747999	2586.300966
535.108902	2583.203177
535.469748	2584.854155
535.830537	2587.185689
536.191270	2583.354412
536.551947	2586.154773
536.912567	2583.399782
537.273131	2584.483630
537.633638	2585.819536
537.994089	2585.754001
538.354483	2585.199474
538.714821	2587.533528
539.075103	2585.950606
539.435328	2587.359609
539.795497	2583.248548
540.155609	2585.443970
540.515665	2584.496233
540.875665	2585.118816
541.235609	2585.015472
541.595496	2585.970771
541.955328	2585.002869
542.315102	2587.881368
542.674821	2582.951120
543.034483	2585.751481
543.394090	2582.628486
543.753640	2587.001687
544.113134	2586.726944
544.472571	2586.540421
544.831953	2585.985894
545.191278	2585.537232
545.550548	2585.287694
545.909761	2583.843404
546.268918	2586.696697
546.628019	2586.338775
546.987064	2587.034454
547.346053	2585.030596
547.704986	2584.549165
548.063863	2584.944896
548.422684	2588.975298
548.781449	2587.447829
549.140158	2586.550503
549.498811	2588.750967
549.857408	2586.540421
550.215949	2585.776686
550.574434	2583.787951
550.932864	2580.659915
551.291237	2580.990111
551.649555	2586.255596
552.007817	2585.640575
552.366022	2584.392890
552.724173	2585.106213
553.082267	2586.696697
553.440305	2582.741912
553.798288	2585.380956
554.156215	2583.475400
554.514086	2585.398600
554.871902	2584.957499
555.229661	2587.788107
555.587365	2586.696697
555.945014	2589.124012
556.302606	2587.520926
556.660143	2583.722416
557.017625	2585.242324
557.375050	2585.373394
557.732421	2586.530339
558.089735	2586.593353
558.446994	2586.104361
558.804197	2587.036975
559.161345	2588.307346
559.518437	2588.897161
559.875474	2588.541759
560.232455	2586.096800
560.589381	2586.656368
560.946251	2587.294074
561.303065	2585.706110
561.659825	2587.657037
562.016528	2584.614700
562.373177	2587.689804
562.729770	2586.338775
563.086307	2588.115782
563.442789	2585.998497
563.799216	2587.929259
564.155587	2585.527149
564.511904	2588.118302
564.868164	2585.774166
565.224370	2586.237952
565.580520	2586.626121
565.936615	2585.012952
566.292654	2585.028075
566.648638	2585.282653
567.004567	2584.740729
567.360441	2584.236614
567.716260	2586.971440
568.072023	2586.668971
568.427732	2584.445822
568.783385	2585.973291
569.138982	2583.654361
569.494525	2585.292736
569.850013	2581.980698
570.205445	2584.798702
570.560823	2585.070925
570.916145	2587.813312
571.271412	2586.447160
571.626625	2588.211564
571.981782	2586.689135
572.336884	2586.356419
572.691931	2582.878023
573.046923	2585.678384
573.401860	2585.713672
573.756743	2588.042685
574.111570	2586.701738
574.466342	2585.272571
574.821059	2588.496389
575.175722	2585.708631
575.530330	2585.759042
575.884882	2586.789958
576.239380	2586.174938
576.593823	2587.982191
576.948211	2587.165524
577.302544	2584.589495
577.656823	2588.763570
578.011047	2589.887747
578.365216	2587.150401
578.719330	2586.948755
579.073389	2585.960688
579.427394	2583.586305
579.781344	2586.253075
580.135239	2585.930442
580.489080	2587.825915
580.842866	2588.892119
581.196597	2585.196954
581.550273	2586.573189
581.903895	2585.451532
582.257463	2584.077817
582.610975	2587.367170
582.964434	2587.049578
583.317837	2588.382963
583.671186	2588.730802
584.024481	2582.943558
584.377721	2587.941862
584.730906	2587.410020
585.084037	2589.108889
585.437113	2587.493199
585.790135	2587.019331
586.143103	2587.508323
586.496016	2589.197109
586.848874	2584.513877
587.201679	2583.515729
587.554428	2584.009762
587.907124	2586.565627
588.259765	2580.153279
588.612352	2587.178127
588.964884	2587.289032
589.317362	2585.116295
589.669786	2586.149732
590.022155	2585.703590
590.374470	2585.282653
590.726731	2586.459763
591.078937	2587.120154
591.431090	2586.734506
591.783188	2588.221646
592.135232	2585.640575
592.487222	2587.039495
592.839157	2588.163673
593.191038	2586.248034
593.542866	2585.872468
593.894639	2586.210226
594.246358	2585.708631
594.598022	2585.612849
594.949633	2584.826429
595.301190	2587.145360
595.652692	2586.726944
596.004141	2587.256265
596.355535	2588.166193
596.706876	2584.380287
597.058162	2585.161666
597.409395	2584.246696
597.760573	2588.589650
598.111698	2583.853486
598.462768	2588.453539
598.813785	2588.193920
599.164748	2587.926738
599.515657	2585.161666
599.866511	2586.547983
600.217312	2586.064032
600.568060	2584.395410
600.918753	2588.080494
601.269392	2584.259299
601.619978	2586.684094
601.970510	2586.026223
602.320988	2585.408682
602.671412	2586.699217
603.021783	2584.589495
603.372100	2588.743405
603.722363	2586.530339
604.072572	2587.082345
604.422728	2586.966399
604.772830	2581.794175
605.122878	2585.186871
605.472872	2583.828280
605.822813	2581.511870
606.172701	2583.513208
606.522534	2589.219794
606.872314	2584.498754
607.222041	2588.819023
607.571714	2586.805082
607.921333	2586.225349
608.270899	2585.461614
608.620411	2585.396079
608.969870	2585.038157
609.319276	2586.288363
609.668627	2589.789445
610.017926	2589.539908
610.367171	2584.549165
610.716362	2587.583940
611.065500	2586.593353
611.414585	2585.650657
611.763616	2588.176276
612.112594	2587.258786
612.461518	2588.317428
612.810389	2585.421285
613.159207	2586.447160
613.507971	2587.140318
613.856682	2585.728795
614.205340	2585.872468
614.553945	2585.282653
614.902496	2583.185533
615.250994	2586.656368
615.599439	2587.581419
615.947830	2587.462952
616.296169	2587.561255
616.644454	2587.899012
616.992686	2587.513364
617.340864	2586.452201
617.688990	2586.147211
618.037063	2585.396079
618.385082	2585.096131
618.733048	2588.337593
619.080961	2584.713003
619.428821	2586.779876
619.776628	2586.127047
620.124382	2588.037644
620.472083	2586.532859
620.819731	2586.358940
621.167326	2585.010431
621.514868	2584.579412
621.862357	2585.033116
622.209793	2583.805595
622.557176	2588.992942
622.904506	2585.171748
623.251783	2585.048240
623.599007	2582.711665
623.946179	2583.956830
624.293297	2582.976325
624.640363	2584.947417
624.987376	2588.415730
625.334336	2586.260637
625.681243	2587.059660
626.028097	2585.678384
626.374899	2586.195102
626.721647	2585.428847
627.068343	2587.019331
627.414987	2586.588312
627.761577	2586.734506
628.108115	2589.519743
628.454600	2586.883220
628.801032	2587.646954
629.147412	2587.132757
629.493739	2584.408013
629.840014	2587.548652
630.186236	2587.203333
630.532405	2584.445822
630.878521	2584.864237
631.224585	2587.115113
631.570597	2586.984043
631.916556	2585.491861
632.262462	2584.970102
632.608316	2586.361460
632.954117	2588.715679
633.299866	2587.488158
633.645562	2587.906574
633.991206	2589.202150
634.336797	2586.416913
634.682336	2586.510174
635.027823	2584.609659
635.373257	2585.915318
635.718639	2585.794330
636.063968	2585.887592
636.409245	2587.956985
636.754470	2584.753332
637.099642	2583.545976
637.444762	2587.107551
637.789829	2587.946903
638.134845	2586.482448
638.479808	2587.616707
638.824719	2587.001687
639.169577	2587.571337
639.514383	2585.998497
639.859137	2583.629155
640.203839	2586.306007
640.548489	2586.679053
640.893086	2582.721747
641.237632	2581.189236
641.582125	2583.714854
641.926566	2581.199319
642.270955	2587.886409
642.615292	2582.704103
642.959576	2586.003538
643.303809	2586.782397
643.647990	2587.566296
643.992118	2583.480441
644.336195	2584.828949
644.680219	2584.410534
645.024192	2589.628128
645.368112	2588.140988
645.711981	2586.774835
646.055797	2586.651327
646.399562	2585.302818
646.743274	2585.259968
647.086935	2586.923549
647.430544	2586.031265
647.774101	2587.669640
648.117606	2585.164186
648.461059	2589.373550
648.804460	2587.820874
649.147810	2587.049578
649.491108	2585.350709
649.834354	2585.963209
650.177548	2585.675863
650.520690	2589.035792
650.863781	2585.708631
651.206820	2588.347675
651.549807	2589.486976
651.892742	2585.005390
652.235626	2583.959350
652.578458	2586.759711
652.921238	2589.272727
653.263967	2587.871286
653.606644	2584.360122
653.949269	2585.290215
654.291843	2584.592015
654.634365	2585.900195
654.976836	2585.585122
655.319255	2586.414392
655.661622	2586.696697
656.003938	2585.602767
656.346203	2585.547314
656.688416	2586.484968
657.030577	2584.871799
657.372687	2584.481110
657.714746	2584.607139
658.056753	2585.728795
658.398708	2580.221335
658.740612	2584.216449
659.082465	2582.394072
659.424266	2584.037488
659.766016	2582.973805
660.107715	2586.888261
660.449362	2583.145204
660.790958	2589.837336
661.132503	2585.789289
661.473996	2584.529001
661.815438	2587.359609
662.156829	2583.669484
662.498168	2584.773497
662.839456	2586.603436
663.180693	2586.338775
663.521879	2584.909608
663.863013	2584.967581
664.204097	2583.908939
664.545129	2582.835173
664.886110	2585.388517
665.227040	2583.891295
665.567918	2586.192582
665.908746	2583.122519
666.249522	2587.339444
666.590248	2586.971440
666.930922	2587.014290
667.271545	2585.222159
667.612118	2585.186871
667.952639	2587.568817
668.293109	2586.306007
668.633528	2587.054619
668.973896	2583.820719
669.314213	2584.768456
669.654480	2585.438929
669.994695	2587.662078
670.334859	2582.668815
670.674973	2584.672674
671.015035	2583.929103
671.355047	2585.186871
671.695008	2587.009248
672.034918	2584.062694
672.374777	2586.401789
672.714585	2585.837180
673.054342	2587.266347
673.394049	2587.243662
673.733705	2586.994125
674.073310	2586.517736
674.412864	2586.777355
674.752368	2585.839701
675.091820	2587.578899
675.431223	2587.321800
675.770574	2585.496902
676.109875	2580.710327
676.449125	2580.982549
676.788324	2582.845255
677.127473	2583.881212
677.466571	2581.151428
677.805619	2585.696028
678.144616	2584.448342
678.483562	2585.378435
678.822458	2586.482448
679.161303	2587.062181
679.500098	2584.602097
679.838842	2585.920359
680.177535	2583.966912
680.516179	2587.324321
680.854771	2584.649988
681.193314	2587.278950
681.531805	2584.208887
681.870247	2586.018662
682.208638	2584.952458
682.546978	2585.010431
682.885268	2585.451532
683.223508	2585.058322
683.561697	2586.114444
683.899836	2588.967737
684.237925	2585.229721
684.575963	2586.434557
684.913951	2584.511357
685.251889	2587.646954
685.589776	2585.181830
685.927614	2582.212591
686.265401	2584.730647
686.603137	2585.111254
686.940824	2585.935483
687.278460	2587.823395
687.616046	2584.160997
687.953582	2586.419433
688.291068	2583.510688
688.628504	2584.145873
688.965889	2584.060173
689.303224	2584.778538
689.640510	2584.445822
689.977745	2585.612849
690.314930	2585.050760
690.652065	2585.819536
690.989150	2584.186202
691.326185	2586.729464
691.663170	2584.685277
692.000105	2586.064032
692.336990	2585.164186
692.673825	2586.850452
693.010610	2586.295925
693.347345	2579.870975
693.684030	2581.053125
694.020665	2581.907601
694.357251	2579.525656
694.693786	2582.252920
695.030272	2584.965061
695.366707	2585.486820
695.703093	2586.542942
696.039429	2582.653692
696.375716	2584.690318
696.711952	2585.423806
697.048139	2584.163517
697.384276	2587.125195
697.720363	2586.298446
698.056400	2582.353743
698.392388	2586.590833
698.728326	2585.164186
699.064214	2585.491861
699.400053	2585.101172
699.735842	2585.050760
700.071581	2582.928434
700.407270	2584.781058
700.742910	2584.050091
701.078501	2584.816347
701.414042	2586.195102
701.749533	2583.109916
702.084974	2585.431367
702.420366	2583.225863
702.755709	2584.647468
703.091002	2585.869948
703.426246	2585.575040
703.761440	2585.960688
704.096584	2584.428178
704.431679	2586.764752
704.766725	2586.167376
705.101721	2585.852304
705.436668	2585.693507
705.771565	2581.857189
706.106413	2585.718713
706.441212	2583.795513
706.775961	2584.763414
707.110661	2583.246027
707.445311	2583.558579
707.779913	2584.410534
708.114465	2583.906418
708.448967	2585.524629
708.783421	2584.788620
709.117825	2583.119998
709.452180	2583.051943
709.786485	2582.754515
710.120742	2585.496902
710.454949	2586.444639
710.789107	2582.073959
711.123216	2579.097157
711.457275	2582.391552
711.791286	2580.128073
712.125247	2580.879205
712.459159	2584.622262
712.793023	2582.288208
713.126837	2582.336099
713.460602	2586.931111
713.794318	2584.894484
714.127985	2585.045719
714.461602	2584.032447
714.795171	2584.246696
715.128691	2581.781572
715.462162	2583.470358
715.795584	2585.451532
716.128957	2585.748960
716.462281	2581.786613
716.795556	2584.561768
717.128782	2584.894484
717.461960	2583.906418
717.795088	2583.979515
718.128167	2585.829618
718.461198	2582.993969
718.794180	2586.459763
719.127113	2583.752663
719.459997	2586.749629
719.792833	2583.044381
720.125619	2584.395410
720.458357	2581.867272
720.791046	2583.682087
721.123686	2582.320975
721.456278	2584.082859
721.788821	2584.871799
722.121315	2585.454053
722.453761	2582.923393
722.786158	2585.030596
723.118506	2586.308528
723.450805	2585.098651
723.783056	2584.397931
724.115259	2584.123188
724.447412	2585.811974
724.779518	2585.892633
725.111574	2585.524629
725.443582	2582.600759
725.775542	2584.019844
726.107453	2586.152252
726.439315	2581.736202
726.771129	2589.791965
727.102895	2585.423806
727.434612	2585.373394
727.766281	2586.714341
728.097901	2579.021540
728.429473	2581.532035
728.760996	2580.801067
729.092471	2578.565316
729.423897	2585.610328
729.755276	2584.181161
730.086606	2584.229052
730.417887	2583.553537
730.749120	2585.771645
731.080305	2583.760225
731.411442	2582.520101
731.742530	2584.138311
732.073570	2583.835842
732.404562	2583.913980
732.735506	2587.553693
733.066401	2582.162179
733.397249	2584.123188
733.728048	2583.190574
734.058798	2583.520770
734.389501	2585.938003
734.720156	2586.149732
735.050762	2582.620924
735.381320	2583.767787
735.711831	2583.465317
736.042293	2583.455235
736.372707	2582.439442
736.703073	2585.880030
737.033391	2584.808785
737.363661	2581.738722
737.693883	2585.617890
738.024056	2586.164855
738.354182	2584.216449
738.684260	2582.482292
739.014290	2581.766448
739.344272	2583.298959
739.674207	2583.679566
740.004093	2584.511357
740.333931	2583.490523
740.663722	2582.565471
740.993464	2582.036150
741.323159	2584.637386
741.652806	2586.056470
741.982405	2584.004721
742.311956	2583.145204
742.641460	2583.316603
742.970915	2582.797364
743.300323	2584.536562
743.629683	2585.343147
743.958996	2582.830132
744.288260	2582.182344
744.617477	2583.944227
744.946647	2578.545151
745.275768	2581.857189
745.604842	2578.386355
745.933869	2578.948443
746.262847	2580.044894
746.591778	2583.046902
746.920662	2583.689649
747.249498	2585.428847
747.578286	2581.922724
747.907027	2584.397931
748.235720	2583.112437
748.564365	2585.524629
748.892963	2584.753332
749.221514	2583.946747
749.550017	2581.897518
749.878473	2583.155286
750.206881	2584.244176
750.535242	2583.208218
750.863555	2584.997828
751.191821	2583.891295
751.520039	2581.796695
751.848210	2584.944896
752.176334	2584.730647
752.504411	2583.568661
752.832440	2584.612180
753.160421	2584.534042
753.488356	2580.554051
753.816243	2584.002200
754.144082	2581.637899
754.471875	2581.025399
754.799620	2581.408527
755.127318	2580.831314
755.454969	2584.455904
755.782572	2584.087900
756.110129	2582.721747
756.437638	2582.202508
756.765100	2582.212591
757.092515	2584.720565
757.419882	2582.815008
757.747203	2582.930955
758.074477	2582.162179
758.401703	2583.414906
758.728882	2585.012952
759.056014	2582.913311
759.383099	2580.145717
759.710138	2586.613518
760.037129	2585.718713
760.364073	2584.705441
760.690970	2581.700913
761.017820	2583.006572
761.344623	2586.079156
761.671379	2581.763928
761.998088	2580.790985
762.324751	2580.435584
762.651366	2581.794175
762.977935	2581.728640
763.304456	2578.101530
763.630931	2580.002045
763.957359	2584.846593
764.283740	2583.533373
764.610074	2581.698393
764.936362	2586.275761
765.262602	2583.508167
765.588796	2583.737540
765.914943	2583.046902
766.241044	2585.179310
766.567097	2583.835842
766.893104	2582.106726
767.219064	2582.217632
767.544978	2583.961871
767.870845	2580.397775
768.196665	2580.430543
768.522438	2582.746953
768.848165	2583.926583
769.173846	2581.975656
769.499479	2584.002200
769.825066	2578.671180
770.150607	2581.932807
770.476101	2581.191757
770.801548	2585.186871
771.126949	2583.815678
771.452303	2582.636048
771.777611	2582.131932
772.102872	2584.632344
772.428087	2582.094123
772.753256	2582.237796
773.078378	2581.768969
773.403453	2580.841397
773.728482	2583.155286
774.053465	2582.504977
774.378401	2581.703434
774.703291	2582.391552
775.028135	2581.030440
775.352932	2582.015986
775.677683	2584.438260
776.002388	2582.562951
776.327046	2579.959195
776.651658	2581.902560
776.976224	2582.963722
777.300743	2583.261151
777.625216	2581.285018
777.949643	2584.284505
778.274024	2583.286356
778.598359	2577.831828
778.922647	2580.213773
779.246889	2579.684452
779.571086	2579.117322
779.895236	2579.341653
780.219339	2582.099165
780.543397	2581.002714
780.867409	2580.783423
781.191374	2581.756366
781.515294	2581.242168
781.839167	2581.602611
782.162995	2583.286356
782.486776	2582.169741
782.810511	2581.937848
783.134201	2584.634865
783.457844	2579.608835
783.781441	2582.371387
784.104993	2584.284505
784.428498	2584.070256
784.751958	2583.402303
785.075372	2585.043198
785.398739	2583.984556
785.722061	2580.985070
786.045337	2585.166707
786.368568	2582.187385
786.691752	2581.055646
787.014891	2584.130750
787.337983	2580.985070
787.661030	2580.354925
787.984031	2580.637230
788.306987	2581.544638
788.629897	2581.738722
788.952760	2582.348702
789.275579	2583.266192
789.598351	2580.692683
789.921078	2582.746953
790.243759	2584.203846
790.566395	2581.181675
790.888984	2581.317786
791.211529	2581.678228
791.534027	2581.786613
791.856480	2581.537076
792.178888	2583.608990
792.501249	2579.981880
792.823566	2585.307859
793.145836	2581.758887
793.468062	2582.620924
793.790241	2582.084041
794.112375	2582.242837
794.434464	2583.336768
794.756507	2582.361305
795.078505	2582.562951
795.400457	2579.684452
795.722364	2577.559606
796.044226	2579.439956
796.366042	2579.313927
796.687812	2580.508681
797.009538	2582.063877
797.331218	2582.804926
797.652852	2584.095462
797.974442	2583.054463
798.295986	2581.736202
798.617484	2581.695872
798.938938	2581.688311
799.260346	2586.374063
799.581709	2581.438773
799.903026	2582.613362
800.224299	2581.615214
800.545526	2579.248392
800.866708	2581.274936
801.187845	2581.438773
801.508936	2581.453897
801.829983	2582.104206
802.150984	2580.715368
802.471940	2581.557241
802.792851	2582.394072
803.113717	2581.436253
803.434538	2583.079669
803.755314	2582.820050
804.076045	2582.358784
804.396731	2580.342322
804.717372	2579.984401
805.037967	2582.439443
805.358518	2581.484144
805.679024	2581.746284
805.999485	2581.620255
806.319901	2584.065215
806.640272	2581.065728
806.960598	2582.121850
807.280879	2583.188054
807.601115	2582.545307
807.921306	2580.392734
808.241453	2582.109247
808.561554	2580.559092
808.881611	2583.316603
809.201623	2585.645616
809.521590	2583.074628
809.841513	2582.923393
810.161390	2579.412230
810.481223	2580.702765
810.801011	2579.717219
811.120755	2580.828794
811.440453	2582.547827
811.760107	2582.681418
812.079716	2581.660584
812.399281	2580.659915
812.718801	2577.549523
813.038276	2580.009606
813.357707	2579.775193
813.677093	2579.810481
813.996434	2580.594380
814.315731	2580.869123
814.634983	2581.335430
814.954191	2581.993300
815.273354	2583.354412
815.592473	2581.973136
815.911547	2581.232086
816.230577	2579.641602
816.549562	2580.909452
816.868502	2580.924576
817.187399	2583.321644
817.506250	2581.476582
817.825058	2583.581264
818.143821	2579.775193
818.462539	2579.901222
818.781213	2582.754515
819.099843	2578.973649
819.418429	2579.001376
819.736970	2579.034143
820.055466	2579.898701
820.373919	2580.760738
820.692327	2580.725450
821.010691	2581.337950
821.329011	2579.623958
821.647286	2586.190061
821.965517	2582.116809
822.283704	2584.105544
822.601847	2582.535224
822.919945	2580.334761
823.237999	2582.903229
823.556010	2582.951120
823.873976	2578.827456
824.191897	2581.403485
824.509775	2580.347364
824.827609	2581.302662
825.145398	2580.710327
825.463144	2581.647981
825.780845	2583.011613
826.098502	2583.177972
826.416116	2580.594380
826.733685	2577.652867
827.051210	2579.157651
827.368692	2579.870975
827.686129	2580.816191
828.003522	2579.354256
828.320872	2578.693865
828.638177	2578.131777
828.955439	2579.208063
829.272656	2576.523648
829.589830	2575.399471
829.906960	2581.799216
830.224046	2579.576067
830.541088	2581.068249
830.858086	2579.734863
831.175041	2581.032961
831.491952	2581.315265
831.808819	2578.535069
832.125642	2579.157651
832.442421	2580.354925
832.759157	2581.186716
833.075849	2579.833166
833.392497	2580.894329
833.709101	2580.934658
834.025662	2583.246027
834.342179	2580.967426
834.658653	2581.471541
834.975083	2581.907601
835.291469	2587.122674
835.607811	2580.634709
835.924110	2578.998855
836.240366	2582.459607
836.556578	2578.025912
836.872746	2582.184864
837.188871	2579.455079
837.504952	2580.226376
837.820990	2580.937179
838.136984	2577.420974
838.452935	2581.322827
838.768842	2580.380131
839.084706	2580.440625
839.400526	2581.395924
839.716303	2578.691345
840.032037	2580.183526
840.347727	2580.107909
840.663373	2580.430543
840.978977	2579.513053
841.294537	2579.495409
841.610054	2579.555903
841.925527	2582.172261
842.240957	2581.020358
842.556344	2581.282498
842.871687	2582.331058
843.186987	2580.586818
843.502244	2578.436766
843.817458	2580.581777
844.132629	2579.749987
844.447756	2579.928948
844.762840	2576.637074
845.077881	2576.334605
845.392879	2574.056004
845.707833	2576.092630
846.022745	2574.744121
846.337613	2581.032961
846.652438	2580.450707
846.967221	2583.354412
847.281960	2579.480285
847.596656	2581.388362
847.911309	2579.528176
848.225919	2579.238310
848.540485	2580.140676
848.855009	2579.208063
849.169490	2578.401478
849.483928	2579.142528
849.798323	2579.263516
850.112675	2579.921386
850.426984	2579.818043
850.741251	2579.719740
851.055474	2579.145048
851.369654	2579.417271
851.683792	2580.438104
851.997887	2580.014647
852.311938	2579.533217
852.625947	2579.719740
852.939914	2580.100347
853.253837	2581.388362
853.567718	2579.434915
853.881555	2579.452559
854.195350	2580.249061
854.509103	2579.316448
854.822812	2579.739905
855.136479	2579.891139
855.450103	2580.584298
855.763685	2579.626479
856.077224	2581.201839
856.390720	2579.467682
856.704173	2580.289390
857.017584	2580.972467
857.330953	2580.773341
857.644278	2581.189236
857.957561	2581.600090
858.270802	2578.043556
858.584000	2579.702096
858.897155	2580.690162
859.210268	2578.807291
859.523339	2580.498598
859.836367	2580.470872
860.149352	2577.194122
860.462295	2581.058166
860.775195	2575.119687
861.088054	2575.117167
861.400869	2576.611869
861.713642	2576.261508
862.026373	2576.090109
862.339062	2578.764441
862.651708	2581.355594
862.964312	2576.664801
863.276873	2578.663618
863.589392	2579.984401
863.901869	2576.889132
864.214303	2578.439287
864.526696	2579.939030
864.839045	2579.228227
865.151353	2580.458269
865.463619	2581.690831
865.775842	2579.263516
866.088023	2576.067424
866.400162	2580.077662
866.712258	2580.528845
867.024313	2580.037333
867.336325	2580.743094
867.648296	2578.784606
867.960224	2580.672518
868.272110	2578.439287
868.583954	2579.263516
868.895755	2577.844431
869.207515	2578.822415
869.519233	2578.855182
869.830909	2579.155131
870.142542	2577.758731
870.454134	2580.309555
870.765684	2581.083372
871.077191	2579.041705
871.388657	2579.528176
871.700081	2578.615727
872.011463	2579.661767
872.322803	2578.406519
872.634101	2582.124370
872.945357	2578.716550
873.256571	2577.834348
873.567744	2579.225707
873.878874	2580.700244
874.189963	2578.993814
874.501010	2579.266036
874.812015	2581.257292
875.122979	2578.187229
875.433900	2581.373238
875.744780	2577.975501
876.055618	2579.634040
876.366415	2580.092785
876.677169	2582.109247
876.987882	2576.684965
877.298554	2573.672876
877.609183	2577.665470
877.919771	2575.275963
878.230317	2576.296797
878.540822	2582.933476
878.851285	2579.563464
879.161707	2580.201170
879.472087	2580.395255
879.782425	2578.542631
880.092722	2578.598083
880.402977	2579.175295
880.713191	2579.878536
881.023363	2577.965418
881.333494	2581.106057
881.643583	2580.049936
881.953631	2578.348546
882.263637	2579.951633
882.573602	2580.642271
882.883526	2581.796695
883.193408	2580.284349
883.503248	2579.482806
883.813048	2580.692683
884.122806	2578.421643
884.432522	2580.115471
884.742197	2578.406519
885.051831	2579.550861
885.361424	2578.363670
885.670975	2580.100347
885.980485	2580.266705
886.289954	2580.609504
886.599382	2578.048597
886.908768	2580.022209
887.218113	2581.373238
887.527417	2581.080852
887.836680	2577.781416
888.145901	2580.521283
888.455082	2578.101530
888.764221	2579.266036
889.073319	2577.980542
889.382376	2578.945923
889.691392	2578.313258
890.000366	2579.240830
890.309300	2577.728484
890.618193	2575.712023
890.927044	2578.245203
891.235855	2579.868454
891.544625	2577.589852
891.853353	2580.198650
892.162041	2578.149421
892.470687	2578.847620
892.779293	2578.212435
893.087858	2577.438618
893.396381	2578.217476
893.704864	2573.854357
894.013306	2574.323185
894.321707	2578.673701
894.630068	2579.692014
894.938387	2578.882908
895.246665	2577.839390
895.554903	2580.175964
895.863100	2580.218814
896.171256	2577.615058
896.479371	2578.565316
896.787446	2582.900708
897.095480	2581.219483
897.403473	2578.348546
897.711425	2578.930799
898.019336	2578.668659
898.327207	2578.335943
898.635038	2579.480285
898.942827	2579.129925
899.250576	2580.528845
899.558284	2581.474062
899.865952	2579.225707
900.173579	2579.644123
900.481165	2576.329564
900.788711	2577.516756
901.096216	2581.345512
901.403681	2578.162023
901.711105	2579.565985
902.018489	2577.226889
902.325832	2581.978177
902.633135	2577.703278
902.940397	2579.843248
903.247619	2577.489029
903.554800	2577.889801
903.861941	2578.701427
904.169041	2579.467682
904.476101	2579.203022
904.783121	2578.499781
905.090100	2577.589853
905.397039	2579.311407
905.703938	2578.567836
906.010796	2579.422312
906.317614	2577.620099
906.624391	2579.553382
906.931129	2577.690676
907.237826	2580.624627
907.544483	2577.909966
907.851099	2577.519276
908.157675	2578.663618
908.464211	2576.258988
908.770707	2574.507187
909.077163	2577.582291
909.383578	2571.026270
909.689954	2575.646488
909.996289	2573.733370
910.302584	2579.165213
910.608839	2577.897363
910.915054	2577.620099
911.221229	2578.703947
911.527363	2578.005748
911.833458	2578.204873
912.139513	2579.404668
912.445527	2579.823084
912.751502	2576.379976
913.057436	2578.683783
913.363331	2575.165057
913.669186	2576.964749
913.975000	2576.664801
914.280775	2578.197312
914.586510	2580.894329
914.892205	2576.130438
915.197859	2576.753021
915.503475	2578.966087
915.809050	2578.900552
916.114585	2578.207394
916.420081	2580.153279
916.725536	2576.198494
917.030952	2578.708989
917.336328	2576.611869
917.641665	2580.788465
917.946961	2579.283680
918.252218	2578.950964
918.557435	2577.955336
918.862612	2578.136818
919.167750	2580.085224
919.472848	2579.437435
919.777906	2574.653380
920.082925	2577.950295
920.387904	2575.848134
920.692843	2579.379462
920.997743	2578.885429
921.302603	2576.954667
921.607423	2577.597414
921.912204	2577.559606
922.216946	2576.450552
922.521647	2580.473392
922.826310	2577.100861
923.130932	2578.598083
923.435516	2579.311407
923.740059	2579.364339
924.044564	2578.890470
924.349028	2579.782754
924.653454	2573.453586
924.957840	2571.996692
925.262186	2577.456262
925.566493	2574.595407
925.870761	2571.144737
926.174989	2579.296283
926.479178	2577.708320
926.783328	2578.421643
927.087438	2580.057497
927.391509	2578.356108
927.695541	2579.253433
927.999533	2579.051787
928.303486	2576.889132
928.607400	2577.390727
928.911275	2577.521797
929.215110	2578.935841
929.518906	2577.592373
929.822663	2578.146900
930.126381	2575.643967
930.430060	2577.385686
930.733699	2577.557085
931.037299	2579.500450
931.340861	2579.712178
931.644383	2576.879050
931.947866	2576.001889
932.251309	2579.097157
932.554714	2577.446180
932.858080	2577.899883
933.161407	2580.201170
933.464694	2579.490367
933.767943	2576.654718
934.071153	2577.584811
934.374323	2576.226220
934.677455	2578.436766
934.980548	2576.574060
935.283602	2578.905594
935.586617	2577.161354
935.889593	2577.526838
936.192530	2578.414081
936.495428	2576.155644
936.798287	2577.214287
937.101108	2578.756880
937.403890	2577.370562
937.706632	2578.071283
938.009336	2576.818556
938.312002	2577.307548
938.614628	2577.627661
938.917216	2578.388875
939.219765	2577.625141
939.522275	2578.819894
939.824747	2578.328382
940.127179	2572.311764
940.429573	2573.201528
940.731929	2574.860068
941.034246	2574.479461
941.336524	2574.121539
941.638763	2577.927610
941.940964	2576.969791
942.243126	2576.503484
942.545250	2575.626323
942.847335	2579.686973
943.149381	2577.504153
943.451389	2578.474575
943.753359	2577.426015
944.055290	2575.923751
944.357182	2577.607497
944.659036	2574.832341
944.960851	2577.216807
945.262628	2578.852662
945.564367	2578.935841
945.866067	2579.336612
946.167729	2579.480285
946.469352	2578.651015
946.770937	2576.775706
947.072484	2576.480799
947.373992	2578.504822
947.675462	2576.306879
947.976893	2575.281004
948.278286	2576.324523
948.579641	2579.260995
948.880958	2577.065572
949.182236	2575.341498
949.483476	2576.201015
949.784678	2577.257136
950.085841	2578.162023
950.386967	2575.401992
950.688054	2576.788309
950.989103	2579.936510
951.290114	2577.791499
951.591087	2576.707651
951.892021	2577.133628
952.192917	2579.538258
952.493776	2576.258988
952.794596	2577.821746
953.095378	2577.468865
953.396122	2579.366859
953.696828	2577.617579
953.997496	2576.574060
954.298126	2579.477765
954.598718	2578.817373
954.899272	2576.097671
955.199788	2575.712023
955.500266	2578.474575
955.800706	2575.157496
956.101108	2573.357804
956.401472	2574.139183
956.701798	2573.128431
957.002087	2572.921744
957.302337	2575.762434
957.602550	2576.397620
957.902724	2576.629513
958.202861	2578.777044
958.502960	2579.749987
958.803022	2579.031623
959.103045	2574.562640
959.403031	2576.087589
959.702979	2579.016499
960.002889	2573.899728
960.302762	2576.420305
960.602596	2575.623802
960.902393	2578.459452
961.202153	2577.244533
961.501875	2576.611869
961.801559	2578.257805
962.101205	2577.264698
962.400814	2575.447362
962.700385	2577.506673
962.999918	2576.422825
963.299414	2578.129256
963.598873	2576.228741
963.898293	2575.349060
964.197677	2578.159503
964.497022	2578.119174
964.796331	2575.706982
965.095601	2577.194122
965.394835	2576.390058
965.694030	2576.311920
965.993189	2575.936354
966.292309	2576.085068
966.591393	2578.779565
966.890439	2573.110787
967.189447	2575.308730
967.488419	2575.941395
967.787353	2579.071952
968.086249	2575.344018
968.385108	2575.636405
968.683930	2579.704617
968.982714	2574.890315
969.281462	2578.353587
969.580172	2577.360480
969.878844	2576.347208
970.177480	2577.574729
970.476078	2574.950808
970.774639	2576.674883
971.073162	2576.387537
971.371649	2569.960066
971.670098	2574.403843
971.968510	2573.035170
972.266885	2572.248750
972.565223	2575.850654
972.863524	2572.841086
973.161788	2579.208063
973.460014	2574.318144
973.758204	2578.227558
974.056356	2578.293093
974.354471	2579.434915
974.652550	2576.004410
974.950591	2577.287383
975.248595	2576.737897
975.546563	2574.834862
975.844493	2575.772517
976.142386	2577.990624
976.440243	2578.056159
976.738062	2578.083886
977.035845	2572.894018
977.333590	2574.416446
977.631299	2575.376786
977.928971	2577.209245
978.226606	2577.912486
978.524204	2578.701427
978.821765	2578.701427
979.119290	2576.765624
979.416777	2575.371745
979.714228	2574.272773
980.011642	2577.436097
980.309020	2578.623289
980.606360	2574.918041
980.903664	2575.722105
981.200931	2576.901735
981.498162	2574.045921
981.795356	2576.548854
982.092513	2576.508525
982.389633	2576.727815
982.686717	2577.680593
982.983764	2574.799574
983.280775	2573.884604
983.577749	2575.470047
983.874686	2576.221179
984.171587	2575.782599
984.468451	2578.545151
984.765279	2577.715881
985.062070	2576.652198
985.358824	2576.720253
985.655543	2573.304872
985.952224	2576.601786
986.248869	2575.805284
986.545478	2575.197825
986.842050	2574.310582
987.138586	2567.646177
987.435086	2571.669017
987.731549	2572.205900
988.027975	2577.849472
988.324366	2576.271591
988.620719	2577.138669
988.917037	2574.219841
989.213318	2577.216807
989.509563	2576.977352
989.805772	2574.996179
990.101944	2574.303020
990.398080	2577.002558
990.694180	2576.374934
990.990244	2576.674883
991.286271	2578.275449
991.582262	2576.546334
991.878217	2579.911304
992.174136	2575.757393
992.470019	2573.982907
992.765865	2576.158165
993.061676	2577.862075
993.357450	2574.786971
993.653188	2577.544482
993.948890	2577.063052
994.244556	2575.099522
994.540186	2575.797722
994.835780	2575.006261
995.131337	2576.924420
995.426859	2577.027764
995.722345	2575.028946
996.017795	2578.086406
996.313208	2575.414595
996.608586	2575.142372
996.903928	2577.254616
997.199234	2573.617423
997.494504	2574.232444
997.789738	2577.413412
998.084936	2574.129100
998.380099	2574.159347
998.675225	2573.582135
998.970316	2576.379976
999.265371	2575.270922
999.560390	2575.099522
999.855373	2575.744790
1000.150320	2573.559450
1000.445232	2577.045408
1000.740108	2577.541962
1001.034948	2576.949626
1001.329752	2574.809656
1001.624521	2577.577250
1001.919254	2571.437124
1002.213951	2574.318144
1002.508613	2575.684296
1002.803239	2574.895356
1003.097829	2571.822772
1003.392384	2575.273442
1003.686903	2577.020202
1003.981386	2575.548185
1004.275834	2575.699420
1004.570246	2576.919379
1004.864623	2576.228741
1005.158964	2574.522310
1005.453270	2577.166396
1005.747540	2574.015674
1006.041775	2571.059038
1006.335974	2574.784450
1006.630138	2576.480799
1006.924266	2576.004410
1007.218359	2574.126580
1007.512416	2575.250757
1007.806438	2576.027095
1008.100425	2576.019533
1008.394376	2578.673701
1008.688292	2576.395099
1008.982172	2575.749831
1009.276017	2577.143710
1009.569827	2575.051632
1009.863602	2574.907959
1010.157341	2573.415777
1010.451045	2574.814697
1010.744714	2576.072465
1011.038347	2575.787640
1011.331945	2574.229923
1011.625508	2575.265881
1011.919036	2576.140521
1012.212528	2574.542475
1012.505986	2577.935172
1012.799408	2573.677917
1013.092795	2576.034657
1013.386147	2578.015830
1013.679464	2574.620613
1013.972745	2574.880232
1014.265992	2577.509194
1014.559204	2573.214131
1014.852380	2573.740932
1015.145521	2575.505335
1015.438628	2575.301169
1015.731699	2575.200346
1016.024736	2573.914851
1016.317737	2575.026426
1016.610703	2575.487691
1016.903635	2572.233627
1017.196531	2570.464182
1017.489393	2571.409398
1017.782219	2571.714388
1018.075011	2571.835375
1018.367768	2572.788153
1018.660490	2576.977352
1018.953177	2576.977352
1019.245829	2576.977352
