Dividing Wavelength (nm)	Counts (n)	Blue Motor Position (mm): 8.000000	Red Motor Position (mm): 0.000000	
326.493990	2159.375729
326.888308	2159.375729
327.282561	2159.375729
327.676750	2133.567542
328.070874	2137.426546
328.464933	2139.720271
328.858929	2152.118988
329.252859	2160.613333
329.646726	2177.176044
330.040528	2190.623322
330.434265	2210.929089
330.827938	2227.242263
331.221547	2248.558782
331.615091	2270.119797
332.008571	2288.963630
332.401986	2308.959367
332.795338	2329.844867
333.188625	2349.013855
333.581847	2369.168388
333.975006	2386.767056
334.368100	2406.019222
334.761129	2422.972623
335.154095	2439.973914
335.546996	2457.406224
335.939833	2477.177630
336.332606	2493.881493
336.725315	2506.980931
337.117960	2511.495284
337.510540	2522.719413
337.903056	2525.474404
338.295508	2534.989582
338.687896	2541.502753
339.080220	2552.149670
339.472480	2556.875751
339.864676	2561.674930
340.256807	2563.313305
340.648875	2563.388922
341.040879	2566.307750
341.432818	2568.460323
341.824694	2570.146589
342.216506	2570.396126
342.608253	2570.244891
342.999937	2566.965621
343.391557	2567.772205
343.783113	2565.768347
344.174605	2563.792214
344.566033	2561.614436
344.957397	2559.421534
345.348697	2557.911708
345.739934	2557.843653
346.131106	2555.736451
346.522215	2553.578837
346.913260	2553.387273
347.304241	2553.767880
347.695159	2550.685214
348.086012	2547.252189
348.476802	2546.143135
348.867528	2545.951571
349.258191	2544.023330
349.648789	2542.717671
350.039324	2543.342774
350.429796	2540.436549
350.820203	2540.832279
351.210548	2540.066024
351.600828	2538.841023
351.991045	2538.919161
352.381198	2538.604089
352.771288	2537.900848
353.161314	2535.027391
353.551276	2538.785571
353.941175	2536.237268
354.331010	2538.336908
354.720782	2537.323636
355.110490	2537.507638
355.500135	2537.938657
355.889717	2535.692823
356.279235	2536.375899
356.668689	2535.917154
357.058080	2538.677186
357.447408	2534.021680
357.836672	2536.534696
358.225873	2536.675848
358.615010	2534.921526
359.004084	2543.042825
359.393095	2540.333205
359.782043	2541.563247
360.170927	2539.650129
360.559748	2541.656508
360.948505	2543.882177
361.337199	2546.153217
361.725830	2544.653474
362.114398	2543.347815
362.502903	2546.659853
362.891344	2543.486447
363.279722	2545.439894
363.668037	2544.119112
364.056289	2546.503577
364.444478	2545.906201
364.832603	2544.272867
365.220665	2547.385779
365.608665	2548.923331
365.996601	2549.447611
366.384474	2549.480379
366.772284	2549.387117
367.160031	2546.012065
367.547715	2547.658002
367.935336	2549.913918
368.322893	2550.876778
368.710388	2547.975594
369.097820	2555.781821
369.485189	2548.429298
369.872495	2552.542880
370.259738	2551.426264
370.646918	2551.025492
371.034035	2552.222766
371.421090	2553.089845
371.808081	2553.036913
372.195010	2550.813764
372.581875	2553.170503
372.968678	2551.239741
373.355418	2555.398693
373.742096	2554.539177
374.128710	2553.941800
374.515262	2553.835936
374.901751	2555.081101
375.288177	2552.704197
375.674540	2553.533466
376.060841	2555.620504
376.447079	2552.500030
376.833254	2553.606563
377.219367	2549.457693
377.605417	2552.497509
377.991404	2551.461552
378.377329	2551.721172
378.763191	2552.124464
379.148991	2555.859959
379.534727	2557.984805
379.920402	2557.004301
380.306013	2556.238045
380.691563	2558.433468
381.077049	2553.016748
381.462474	2555.640669
381.847835	2556.195196
382.233134	2558.050340
382.618371	2557.679815
383.003545	2559.182079
383.388657	2556.205278
383.773706	2558.887172
384.158693	2559.706359
384.543618	2562.186607
384.928480	2558.877089
385.313280	2558.428427
385.698017	2559.245094
386.082692	2561.614436
386.467305	2558.130999
386.851856	2559.645865
387.236344	2558.491441
387.620770	2562.300033
388.005133	2562.879766
388.389435	2562.100907
388.773674	2563.719118
389.157851	2556.353992
389.541965	2562.675599
389.926018	2563.610733
390.310008	2562.438665
390.693936	2561.473284
391.077802	2563.600651
391.461606	2562.284909
391.845348	2563.668706
392.229027	2562.536967
392.612645	2562.584858
392.996200	2563.751885
393.379694	2563.835064
393.763125	2565.617112
394.146494	2564.865980
394.529801	2564.555949
394.913047	2563.900599
395.296230	2567.734397
395.679351	2565.082750
396.062410	2566.481670
396.445408	2566.660631
396.828343	2566.229612
397.211217	2561.937070
397.594028	2562.844478
397.976778	2564.727348
398.359466	2564.291289
398.742092	2563.830023
399.124656	2567.931002
399.507158	2565.826320
399.889598	2566.569890
400.271977	2565.985116
400.654294	2568.644325
401.036549	2566.358162
401.418742	2568.752710
401.800874	2567.941084
402.182944	2567.840261
402.564952	2565.433110
402.946898	2567.273131
403.328783	2569.251784
403.710606	2567.474777
404.092367	2568.001578
404.474067	2568.331773
404.855705	2568.074675
405.237282	2569.241702
405.618797	2569.705488
406.000250	2568.856053
406.381642	2571.986610
406.762972	2571.926116
407.144240	2570.254974
407.525447	2572.226065
407.906593	2568.893862
408.287677	2572.372258
408.668700	2571.951322
409.049661	2571.910993
409.430560	2573.332598
409.811399	2571.764799
410.192176	2571.172464
410.572891	2570.156671
410.953545	2573.425859
411.334138	2572.508369
411.714669	2573.851837
412.095139	2573.967783
412.475547	2572.447876
412.855894	2571.938719
413.236180	2571.059038
413.616405	2572.334450
413.996568	2573.098184
414.376670	2573.887125
414.756711	2573.461148
415.136691	2574.696230
415.516609	2573.849316
415.896466	2573.748493
416.276262	2575.996848
416.655997	2570.388564
417.035670	2569.070302
417.415283	2570.789336
417.794834	2570.728842
418.174324	2572.299162
418.553753	2575.835531
418.933121	2574.113977
419.312428	2574.665983
419.691674	2572.949470
420.070859	2574.613051
420.449983	2574.953329
420.829045	2574.350911
421.208047	2576.425346
421.586988	2573.932495
421.965867	2575.245716
422.344686	2575.676735
422.723444	2575.742270
423.102141	2575.462486
423.480777	2576.160685
423.859352	2578.204873
424.237866	2578.030953
424.616319	2578.782085
424.994712	2577.993145
425.373044	2577.340315
425.751314	2576.901735
426.129524	2576.536251
426.507673	2578.537589
426.885762	2576.281673
427.263789	2574.217321
427.641756	2579.036664
428.019662	2578.905594
428.397508	2577.400809
428.775292	2577.385686
429.153016	2576.029615
429.530679	2578.426684
429.908282	2578.542631
430.285824	2579.661767
430.663305	2577.312589
431.040726	2579.820563
431.418086	2577.047928
431.795385	2581.101016
432.172624	2576.349729
432.549802	2582.701582
432.926920	2580.672518
433.303977	2580.289390
433.680974	2580.390213
434.057910	2579.165213
434.434786	2578.887950
434.811601	2581.375759
435.188355	2578.918197
435.565050	2580.329720
435.941683	2583.989597
436.318257	2576.833679
436.694770	2576.369893
437.071222	2576.405181
437.447614	2579.324009
437.823946	2579.097157
438.200218	2579.127404
438.576429	2581.400965
438.952580	2580.128073
439.328670	2580.886767
439.704700	2581.441294
440.080670	2580.165882
440.456580	2580.574216
440.832429	2579.359298
441.208218	2580.460790
441.583947	2580.972467
441.959616	2583.014134
442.335224	2582.527663
442.710773	2581.499267
443.086261	2580.428022
443.461689	2582.754515
443.837057	2581.700913
444.212365	2581.350553
444.587612	2580.392734
444.962800	2581.733681
445.337927	2581.970615
445.712995	2582.023547
446.088002	2582.331058
446.462949	2579.573547
446.837837	2583.374577
447.212664	2581.980698
447.587431	2581.267374
447.962139	2582.285687
448.336786	2581.693352
448.711374	2579.684452
449.085901	2584.246696
449.460369	2582.101685
449.834776	2582.073959
450.209124	2582.250399
450.583412	2585.794330
450.957640	2586.401789
451.331808	2581.408527
451.705917	2581.998342
452.079965	2581.348033
452.453954	2586.152252
452.827883	2583.901377
453.201752	2583.745101
453.575562	2585.002869
453.949311	2584.344999
454.323001	2584.607139
454.696632	2584.264340
455.070202	2584.176120
455.443713	2584.455904
455.817164	2579.195460
456.190556	2580.768300
456.563888	2585.184351
456.937160	2580.319637
457.310373	2588.335072
457.683526	2585.496902
458.056619	2586.217787
458.429653	2583.122519
458.802628	2582.953640
459.175542	2585.438929
459.548398	2584.599577
459.921194	2583.651840
460.293930	2585.111254
460.666607	2586.026223
461.039224	2584.904567
461.411782	2586.089238
461.784280	2587.599063
462.156719	2585.184351
462.529099	2587.024372
462.901419	2584.355081
463.273680	2584.092941
463.645882	2586.651327
464.018024	2583.140163
464.390106	2584.065215
464.762130	2587.263827
465.134094	2586.787438
465.505999	2586.187540
465.877845	2586.610997
466.249631	2586.056470
466.621358	2585.597725
466.993026	2590.313725
467.364634	2590.212902
467.736184	2583.470358
468.107674	2585.575040
468.479105	2583.324165
468.850477	2586.343816
469.221790	2588.312387
469.593043	2587.720051
469.964238	2583.913980
470.335373	2584.561768
470.706449	2588.423292
471.077467	2585.766604
471.448425	2586.926069
471.819324	2586.253075
472.190164	2588.350195
472.560945	2586.759711
472.931667	2587.112592
473.302330	2588.055288
473.672934	2588.471183
474.043479	2587.329362
474.413965	2587.024372
474.784393	2584.382807
475.154761	2582.958681
475.525070	2585.333065
475.895321	2585.128898
476.265513	2582.744432
476.635645	2587.173086
477.005719	2588.239290
477.375734	2587.946903
477.745691	2587.997315
478.115588	2589.207192
478.485427	2588.304825
478.855207	2589.426482
479.224928	2586.270719
479.594591	2591.974785
479.964194	2588.635021
480.333739	2589.552511
480.703226	2590.054105
481.072653	2590.878334
481.442022	2588.750967
481.811333	2589.910433
482.180584	2590.351533
482.549777	2588.393045
482.918912	2589.232397
483.287988	2592.378077
483.657005	2588.337593
484.025964	2587.402458
484.394864	2587.823395
484.763706	2586.590833
485.132489	2593.144333
485.501213	2591.838674
485.869879	2589.587799
486.238487	2587.962027
486.607036	2590.331369
486.975527	2589.764239
487.343959	2590.142326
487.712333	2591.082501
488.080648	2590.190217
488.448905	2589.560072
488.817104	2589.620566
489.185244	2591.853797
489.553326	2589.499578
489.921350	2592.718355
490.289315	2591.407655
490.657222	2591.395052
491.025070	2593.580392
491.392861	2589.736513
491.760593	2587.513364
492.128267	2591.773139
492.495883	2591.967223
492.863440	2588.030082
493.230939	2589.232397
493.598380	2589.618046
493.965763	2587.147880
494.333088	2588.234249
494.700354	2588.486307
495.067563	2589.207192
495.434713	2585.186871
495.801805	2592.191555
496.168839	2593.101483
496.535815	2590.192737
496.902733	2590.003694
497.269593	2593.562748
497.636395	2590.260793
498.003139	2591.276585
498.369825	2591.352202
498.736453	2592.095773
499.103023	2590.477562
499.469535	2591.624425
499.835989	2591.258941
500.202385	2593.318253
500.568723	2593.842533
500.935003	2592.027717
501.301226	2591.420258
501.667390	2590.714497
502.033497	2594.989395
502.399546	2593.129209
502.765537	2592.541915
503.131470	2596.060640
503.497345	2591.478231
503.863163	2592.453695
504.228923	2591.856318
504.594625	2591.122830
504.960269	2589.030751
505.325856	2592.995619
505.691385	2590.399424
506.056856	2592.511668
506.422270	2593.192224
506.787625	2589.000504
507.152924	2590.782552
507.518164	2592.705752
507.883347	2590.971595
508.248472	2591.276585
508.613540	2590.356575
508.978550	2591.155597
509.343503	2591.584096
509.708398	2593.419076
510.073236	2590.439754
510.438016	2596.577358
510.802738	2594.518047
511.167403	2595.183479
511.532010	2591.478231
511.896561	2592.930084
512.261053	2594.429827
512.625488	2588.635021
512.989866	2590.512850
513.354186	2588.975298
513.718449	2585.696028
514.082655	2589.461770
514.446803	2593.018304
514.810894	2595.838829
515.174927	2592.231884
515.538904	2593.802203
515.902822	2592.751123
516.266684	2590.694332
516.630488	2592.196596
516.994235	2589.093766
517.357925	2594.172728
517.721558	2591.568972
518.085133	2593.426637
518.448651	2594.265989
518.812112	2592.408324
519.175516	2590.991760
519.538863	2592.436051
519.902152	2594.510485
520.265385	2595.284302
520.628560	2593.512337
520.991678	2592.592326
521.354739	2592.715835
521.717743	2595.080136
522.080690	2597.139447
522.443580	2593.512337
522.806413	2595.811103
523.169189	2592.698191
523.531908	2595.692636
523.894569	2594.013932
524.257174	2597.646083
524.619722	2593.353541
524.982213	2593.731627
525.344647	2595.569128
525.707025	2593.242635
526.069345	2594.336566
526.431608	2596.085846
526.793815	2595.758171
527.155964	2596.022832
527.518057	2595.574169
527.880093	2597.303285
528.242072	2594.729776
528.603995	2597.250352
528.965860	2597.255394
529.327669	2599.715477
529.689421	2596.587441
530.051117	2594.722214
530.412755	2597.262955
530.774337	2594.596185
531.135862	2601.981475
531.497331	2592.572162
531.858743	2594.185331
532.220098	2594.840681
532.581396	2594.601226
532.942638	2594.197934
533.303824	2594.964189
533.664953	2600.086002
534.026025	2598.019128
534.387040	2599.186156
534.747999	2597.978799
535.108902	2600.421238
535.469748	2597.124324
535.830537	2598.571135
536.191270	2599.876794
536.551947	2597.063830
536.912567	2598.188007
537.273131	2597.842688
537.633638	2599.337390
537.994089	2599.014756
538.354483	2600.224633
538.714821	2602.082298
539.075103	2600.615323
539.435328	2599.619695
539.795497	2598.787904
540.155609	2600.038111
540.515665	2600.789242
540.875665	2602.946856
541.235609	2600.607761
541.595496	2602.006681
541.955328	2598.901330
542.315102	2601.363934
542.674821	2600.196907
543.034483	2601.177411
543.394090	2600.201948
543.753640	2602.382247
544.113134	2601.900817
544.472571	2602.682196
544.831953	2601.900817
545.191278	2599.745724
545.550548	2603.272011
545.909761	2597.893100
546.268918	2601.399222
546.628019	2602.795622
546.987064	2599.155909
547.346053	2603.821497
547.704986	2598.561052
548.063863	2603.612289
548.422684	2603.009871
548.781449	2600.685899
549.140158	2602.364603
549.498811	2603.824017
549.857408	2603.879470
550.215949	2599.591968
550.574434	2597.152050
550.932864	2598.757658
551.291237	2599.599530
551.649555	2599.297061
552.007817	2601.999119
552.366022	2601.381578
552.724173	2601.787391
553.082267	2601.444592
553.440305	2604.093719
553.798288	2603.468616
554.156215	2603.367793
554.514086	2601.968873
554.871902	2603.410642
555.229661	2602.215889
555.587365	2602.717484
555.945014	2604.522217
556.302606	2600.731269
556.660143	2603.829058
557.017625	2602.815786
557.375050	2602.472988
557.732421	2603.264449
558.089735	2602.813266
558.446994	2601.343769
558.804197	2604.149172
559.161345	2600.970724
559.518437	2603.950046
559.875474	2604.431476
560.232455	2603.133379
560.589381	2605.797629
560.946251	2604.340735
561.303065	2602.707402
561.659825	2605.079264
562.016528	2605.971549
562.373177	2602.442741
562.729770	2603.198914
563.086307	2606.238730
563.442789	2605.104470
563.799216	2601.590786
564.155587	2604.585231
564.511904	2605.769902
564.868164	2604.907865
565.224370	2603.032556
565.580520	2605.888370
565.936615	2604.922989
566.292654	2603.816455
566.648638	2605.230499
567.004567	2603.864346
567.360441	2607.763679
567.716260	2604.144130
568.072023	2605.273349
568.427732	2601.817638
568.783385	2600.408635
569.138982	2603.214037
569.494525	2600.869901
569.850013	2601.747062
570.205445	2603.733276
570.560823	2608.696292
570.916145	2604.648246
571.271412	2601.447113
571.626625	2604.204624
571.981782	2605.429625
572.336884	2607.047835
572.691931	2605.671600
573.046923	2606.170674
573.401860	2604.973400
573.756743	2604.068513
574.111570	2603.098091
574.466342	2606.652104
574.821059	2604.789398
575.175722	2605.217896
575.530330	2603.914758
575.884882	2605.926178
576.239380	2606.717639
576.593823	2610.107815
576.948211	2604.645725
577.302544	2605.323760
577.656823	2604.126486
578.011047	2606.614296
578.365216	2603.410642
578.719330	2605.270828
579.073389	2603.607247
579.427394	2604.557505
579.781344	2606.115222
580.135239	2607.234358
580.489080	2606.881477
580.842866	2605.782505
581.196597	2605.951384
581.550273	2607.214193
581.903895	2606.515993
582.257463	2607.491457
582.610975	2605.520365
582.964434	2604.136569
583.317837	2605.152361
583.671186	2605.785026
584.024481	2605.880808
584.377721	2605.941302
584.730906	2607.254522
585.084037	2606.037084
585.437113	2606.168154
585.790135	2607.186467
586.143103	2605.391816
586.496016	2603.045159
586.848874	2601.414346
587.201679	2602.674634
587.554428	2602.014243
587.907124	2606.077413
588.259765	2601.467278
588.612352	2605.943822
588.964884	2605.437186
589.317362	2605.117073
589.669786	2604.398709
590.022155	2608.633278
590.374470	2608.010695
590.726731	2607.567074
591.078937	2604.481888
591.431090	2608.759307
591.783188	2604.779316
592.135232	2608.028339
592.487222	2606.208483
592.839157	2606.936930
593.191038	2607.451127
593.542866	2605.250664
593.894639	2605.036415
594.246358	2607.418360
594.598022	2606.256374
594.949633	2605.626230
595.301190	2606.238730
595.652692	2605.827876
596.004141	2605.573298
596.355535	2605.411981
596.706876	2606.629419
597.058162	2606.669748
597.409395	2603.985334
597.760573	2607.657815
598.111698	2607.425922
598.462768	2606.687393
598.813785	2607.972887
599.164748	2607.206631
599.515657	2606.674790
599.866511	2607.257043
600.217312	2609.780140
600.568060	2606.977259
600.918753	2609.092023
601.269392	2607.027670
601.619978	2608.923144
601.970510	2611.133690
602.320988	2607.756117
602.671412	2607.778802
603.021783	2609.649070
603.372100	2606.992382
603.722363	2607.730911
604.072572	2608.711416
604.422728	2610.228803
604.772830	2607.509101
605.122878	2604.713781
605.472872	2605.994234
605.822813	2605.424583
606.172701	2607.556992
606.522534	2612.630913
606.872314	2608.603031
607.222041	2612.686366
607.571714	2612.255347
607.921333	2612.257867
608.270899	2611.252157
608.620411	2608.862650
608.969870	2614.024792
609.319276	2610.017075
609.668627	2613.470265
610.017926	2611.481530
610.367171	2614.685183
610.716362	2613.649226
611.065500	2616.139556
611.414585	2612.686366
611.763616	2616.031171
612.112594	2615.597632
612.461518	2614.962447
612.810389	2613.601335
613.159207	2618.677777
613.507971	2620.626183
613.856682	2617.669546
614.205340	2617.137704
614.553945	2618.771038
614.902496	2618.604680
615.250994	2620.515277
615.599439	2623.628190
615.947830	2620.928652
616.296169	2621.899074
616.644454	2622.420834
616.992686	2621.984774
617.340864	2622.952675
617.688990	2623.776904
618.037063	2626.289919
618.385082	2625.349744
618.733048	2626.773870
619.080961	2627.809827
619.428821	2628.908799
619.776628	2631.172277
620.124382	2630.179169
620.472083	2630.090949
620.819731	2631.724283
621.167326	2630.552215
621.514868	2631.699077
621.862357	2632.654376
622.209793	2631.361320
622.557176	2633.153450
622.904506	2631.089098
623.251783	2630.027935
623.599007	2631.174797
623.946179	2630.829478
624.293297	2630.647997
624.640363	2633.571866
624.987376	2634.507000
625.334336	2637.582104
625.681243	2635.999182
626.028097	2636.621764
626.374899	2638.199645
626.721647	2635.916002
627.068343	2636.311733
627.414987	2638.033287
627.761577	2637.526651
628.108115	2639.908596
628.454600	2643.119811
628.801032	2642.381282
629.147412	2644.644760
629.493739	2642.116622
629.840014	2642.343474
630.186236	2643.618886
630.532405	2647.309010
630.878521	2647.233393
631.224585	2652.123312
631.570597	2648.241624
631.916556	2651.646923
632.262462	2651.725061
632.608316	2653.882675
632.954117	2655.112716
633.299866	2655.894095
633.645562	2656.957779
633.991206	2656.120947
634.336797	2657.693787
634.682336	2658.460042
635.027823	2655.190854
635.373257	2658.364261
635.718639	2657.421565
636.063968	2658.008859
636.409245	2659.637152
636.754470	2660.501710
637.099642	2659.193530
637.444762	2661.136895
637.789829	2663.173521
638.134845	2659.460712
638.479808	2663.922133
638.824719	2664.753923
639.169577	2664.370795
639.514383	2663.859118
639.859137	2667.808862
640.203839	2669.477484
640.548489	2667.135868
640.893086	2665.242915
641.237632	2665.252997
641.582125	2668.111332
641.926566	2666.871208
642.270955	2673.399502
642.615292	2672.993689
642.959576	2675.481498
643.303809	2678.007117
643.647990	2681.803105
643.992118	2683.317972
644.336195	2683.310410
644.680219	2686.375432
645.024192	2683.650688
645.368112	2689.536235
645.711981	2692.475228
646.055797	2698.254911
646.399562	2699.525282
646.743274	2706.378730
647.086935	2709.058104
647.430544	2714.686552
647.774101	2717.484392
648.117606	2717.570092
648.461059	2723.614435
648.804460	2721.376163
649.147810	2723.521174
649.491108	2721.804661
649.834354	2723.503530
650.177548	2724.539487
650.520690	2723.483365
650.863781	2724.617625
651.206820	2727.564179
651.549807	2728.305229
651.892742	2726.865980
652.235626	2728.539643
652.578458	2725.772049
652.921238	2728.766495
653.263967	2732.975858
653.606644	2733.469891
653.949269	2732.620457
654.291843	2735.975345
654.634365	2742.392733
654.976836	2740.167064
655.319255	2744.610841
655.661622	2747.169227
656.003938	2749.485637
656.346203	2748.008579
656.688416	2750.698034
657.030577	2753.195926
657.372687	2754.773807
657.714746	2757.153232
658.056753	2762.703542
658.398708	2758.650455
658.740612	2761.957452
659.082465	2767.182607
659.424266	2765.445930
659.766016	2770.635798
660.107715	2775.732404
660.449362	2782.490071
660.790958	2780.851696
661.132503	2787.153138
661.473996	2788.960392
661.815438	2793.363840
662.156829	2797.064047
662.498168	2800.234933
662.839456	2799.534212
663.180693	2805.626447
663.521879	2810.133238
663.863013	2813.936789
664.204097	2815.302942
664.545129	2822.552121
664.886110	2823.454487
665.227040	2832.510920
665.567918	2832.901610
665.908746	2842.212621
666.249522	2848.514063
666.590248	2850.028930
666.930922	2852.627645
667.271545	2857.510002
667.612118	2863.128368
667.952639	2865.371682
668.293109	2871.514327
668.633528	2871.882332
668.973896	2873.782847
669.314213	2880.721995
669.654480	2882.713251
669.994695	2884.848179
670.334859	2889.181051
670.674973	2887.872872
671.015035	2893.639952
671.355047	2898.345869
671.695008	2903.591189
672.034918	2907.603948
672.374777	2911.215935
672.714585	2915.775658
673.054342	2923.279416
673.394049	2931.451126
673.733705	2936.232661
674.073310	2937.659307
674.412864	2942.642488
674.752368	2941.959411
675.091820	2948.548199
675.431223	2950.728498
675.770574	2949.075000
676.109875	2951.401493
676.449125	2948.170113
676.788324	2952.898715
677.127473	2951.845114
677.466571	2953.506174
677.805619	2955.663788
678.144616	2961.418265
678.483562	2964.621918
678.822458	2961.445992
679.161303	2967.560911
679.500098	2969.244657
679.838842	2975.087354
680.177535	2979.372335
680.516179	2986.119919
680.854771	2997.328925
681.193314	3014.206708
681.531805	3034.222609
681.870247	3055.801268
682.208638	3076.888415
682.546978	3090.247472
682.885268	3096.947166
683.223508	3097.705859
683.561697	3097.476487
683.899836	3100.765840
684.237925	3101.698453
684.575963	3104.922271
684.913951	3103.009153
685.251889	3115.833849
685.589776	3122.702421
685.927614	3130.783390
686.265401	3137.397384
686.603137	3146.942809
686.940824	3165.164060
687.278460	3181.532686
687.616046	3194.160777
687.953582	3220.704972
688.291068	3225.698235
688.628504	3242.984352
688.965889	3250.354518
689.303224	3248.867378
689.640510	3253.303593
689.977745	3244.690782
690.314930	3232.508834
690.652065	3228.574213
690.989150	3215.923438
691.326185	3201.110007
691.663170	3191.176413
692.000105	3181.325999
692.336990	3170.210255
692.673825	3162.638442
693.010610	3157.027637
693.347345	3142.410812
693.684030	3136.920995
694.020665	3133.190541
694.357251	3125.243162
694.693786	3126.105200
695.030272	3127.917494
695.366707	3122.478089
695.703093	3119.138325
696.039429	3123.377935
696.375716	3125.432206
696.711952	3129.180303
697.048139	3132.421765
697.384276	3131.874800
697.720363	3141.359731
698.056400	3142.400729
698.392388	3145.702685
698.728326	3153.587050
699.064214	3149.559168
699.400053	3158.328255
699.735842	3149.579332
700.071581	3148.472799
700.407270	3143.860143
700.742910	3144.150010
701.078501	3143.358549
701.414042	3142.647746
701.749533	3136.341263
702.084974	3129.530664
702.420366	3143.340905
702.755709	3134.838999
703.091002	3127.990591
703.426246	3135.675830
703.761440	3138.985348
704.096584	3131.872280
704.431679	3136.984010
704.766725	3136.253042
705.101721	3140.981645
705.436668	3147.497336
705.771565	3140.951398
706.106413	3162.424193
706.441212	3164.685150
706.775961	3174.911131
707.110661	3180.060669
707.445311	3197.419882
707.779913	3194.669933
708.114465	3210.872202
708.448967	3221.627503
708.783421	3251.486257
709.117825	3267.449071
709.452180	3280.903911
709.786485	3299.362096
710.120742	3334.708146
710.454949	3346.496884
710.789107	3362.099255
711.123216	3395.895151
711.457275	3409.171029
711.791286	3437.756892
712.125247	3452.847586
712.459159	3453.260961
712.793023	3487.402175
713.126837	3458.886888
713.460602	3475.585711
713.794318	3470.700833
714.127985	3465.589103
714.461602	3434.127261
714.795171	3443.423149
715.128691	3407.888056
715.462162	3392.257958
715.795584	3383.259498
716.128957	3374.475288
716.462281	3363.493134
716.795556	3361.917774
717.128782	3347.921010
717.461960	3327.675736
717.795088	3327.884944
718.128167	3317.840445
718.461198	3302.200265
718.794180	3300.657672
719.127113	3295.266158
719.459997	3290.156949
719.792833	3277.168416
720.125619	3283.943727
720.458357	3269.314298
720.791046	3269.286572
721.123686	3266.360182
721.456278	3260.978750
721.788821	3262.211312
722.121315	3258.405241
722.453761	3266.224071
722.786158	3263.166611
723.118506	3268.167436
723.450805	3265.604009
723.783056	3278.529527
724.115259	3277.760751
724.447412	3277.745628
724.779518	3295.301446
725.111574	3302.606078
725.443582	3312.562357
725.775542	3313.925989
726.107453	3343.197449
726.439315	3340.318950
726.771129	3369.512272
727.102895	3388.943399
727.434612	3403.756830
727.766281	3417.814088
728.097901	3433.925615
728.429473	3441.918365
728.760996	3450.712658
729.092471	3461.651961
729.423897	3465.274030
729.755276	3463.794452
730.086606	3470.665544
730.417887	3501.013291
730.749120	3535.784649
731.080305	3548.092626
731.411442	3576.643201
731.742530	3589.732557
732.073570	3602.262345
732.404562	3623.830922
732.735506	3627.218577
733.066401	3623.609111
733.397249	3611.991772
733.728048	3587.703493
734.058798	3548.369890
734.389501	3515.466279
734.720156	3491.815705
735.050762	3466.925008
735.381320	3447.297276
735.711831	3434.664144
736.042293	3415.215373
736.372707	3415.724529
736.703073	3405.208682
737.033391	3417.635127
737.363661	3417.695620
737.693883	3428.309770
738.024056	3439.798559
738.354182	3451.330199
738.684260	3471.704022
739.014290	3487.276146
739.344272	3499.858866
739.674207	3522.463400
740.004093	3537.740617
740.333931	3542.542316
740.663722	3551.550858
740.993464	3562.429668
741.323159	3560.088052
741.652806	3548.379972
741.982405	3543.316133
742.311956	3530.859442
742.641460	3532.570914
742.970915	3519.799150
743.300323	3500.927591
743.629683	3494.235459
743.958996	3481.385558
744.288260	3468.233188
744.617477	3450.684931
744.946647	3449.306176
745.275768	3435.145574
745.604842	3427.873710
745.933869	3418.255188
746.262847	3418.764345
746.591778	3420.344747
746.920662	3417.080600
747.249498	3418.832401
747.578286	3427.949327
747.907027	3436.841923
748.235720	3456.570478
748.564365	3461.677167
748.892963	3462.002322
749.221514	3472.329125
749.550017	3465.107672
749.878473	3467.446768
750.206881	3455.524439
750.535242	3456.157104
750.863555	3452.426650
751.191821	3448.381124
751.520039	3455.784058
751.848210	3455.947896
752.176334	3459.327989
752.504411	3453.530663
752.832440	3441.510031
753.160421	3450.924386
753.488356	3444.320474
753.816243	3439.682613
754.144082	3432.476283
754.471875	3427.861107
754.799620	3425.446394
755.127318	3429.113834
755.454969	3429.643155
755.782572	3427.412444
756.110129	3432.793876
756.437638	3427.914039
756.765100	3429.040737
757.092515	3432.849329
757.419882	3435.135492
757.747203	3441.260494
758.074477	3442.828293
758.401703	3443.203859
758.728882	3457.419913
759.056014	3459.257413
759.383099	3476.039414
759.710138	3490.409223
760.037129	3500.602437
760.364073	3506.843385
760.690970	3508.718694
761.017820	3512.325640
761.344623	3530.715769
761.671379	3561.197106
761.998088	3602.968107
762.324751	3700.010318
762.651366	3895.110534
762.977935	4176.701826
763.304456	4410.848298
763.630931	4546.611613
763.957359	4536.030231
764.283740	4429.470321
764.610074	4303.010456
764.936362	4137.743789
765.262602	4000.813447
765.588796	3861.561655
765.914943	3753.736415
766.241044	3657.982218
766.567097	3585.548399
766.893104	3525.026827
767.219064	3480.768017
767.544978	3442.979528
767.870845	3404.392015
768.196665	3385.722102
768.522438	3368.672920
768.848165	3348.924200
769.173846	3334.559432
769.499479	3324.512412
769.825066	3311.435659
770.150607	3291.586116
770.476101	3286.670991
770.801548	3284.284004
771.126949	3268.931170
771.452303	3265.573762
771.777611	3249.061462
772.102872	3249.245465
772.428087	3239.160636
772.753256	3228.969944
773.078378	3224.233780
773.403453	3209.160730
773.728482	3197.553473
774.053465	3193.568441
774.378401	3183.975125
774.703291	3177.151923
775.028135	3168.173628
775.352932	3161.151301
775.677683	3159.543173
776.002388	3149.259219
776.327046	3154.633089
776.651658	3143.764362
776.976224	3136.421921
777.300743	3138.700522
777.625216	3129.858339
777.949643	3125.066722
778.274024	3133.102321
778.598359	3119.420630
778.922647	3123.982874
779.246889	3119.077831
779.571086	3117.739405
779.895236	3120.083541
780.219339	3121.837863
780.543397	3122.934314
780.867409	3128.620735
781.191374	3130.909419
781.515294	3129.024028
781.839167	3139.081130
782.162995	3136.961324
782.486776	3137.843526
782.810511	3132.446971
783.134201	3129.553349
783.457844	3128.247690
783.781441	3128.348513
784.104993	3127.519243
784.428498	3124.620580
784.751958	3127.473873
785.075372	3124.217287
785.398739	3120.058336
785.722061	3123.330044
786.045337	3126.029582
786.368568	3141.163126
786.691752	3140.656490
787.014891	3160.851352
787.337983	3184.151566
787.661030	3226.502299
787.984031	3275.250257
788.306987	3315.408088
788.629897	3342.905062
788.952760	3350.723892
789.275579	3348.982173
789.598351	3326.836384
789.921078	3303.871408
790.243759	3275.910648
790.566395	3254.006834
790.888984	3229.872310
791.211529	3210.985627
791.534027	3190.644572
791.856480	3173.731501
792.178888	3162.910664
792.501249	3151.280722
792.823566	3135.784215
793.145836	3135.539719
793.468062	3130.206178
793.790241	3121.507667
794.112375	3127.761219
794.434464	3137.571304
794.756507	3136.106849
795.078505	3146.950371
795.400457	3167.024245
795.722364	3189.177596
796.044226	3217.105588
796.366042	3239.420256
796.687812	3236.503948
797.009538	3256.202257
797.331218	3251.529107
797.652852	3249.013572
797.974442	3239.314392
798.295986	3238.457395
798.617484	3227.986919
798.938938	3212.003941
799.260346	3203.242415
799.581709	3184.479241
799.903026	3183.138294
800.224299	3172.934998
800.545526	3157.136022
800.866708	3145.861482
801.187845	3140.013743
801.508936	3125.908595
801.829983	3125.364150
802.150984	3108.025101
802.471940	3105.862446
802.792851	3099.641663
803.113717	3093.592278
803.434538	3091.109510
803.755314	3086.834611
804.076045	3081.407809
804.396731	3073.727611
804.717372	3078.110894
805.037967	3076.979155
805.358518	3077.095102
805.679024	3084.036771
805.999485	3083.630958
806.319901	3084.175403
806.640272	3084.588777
806.960598	3093.065477
807.280879	3093.695622
807.601115	3104.397991
807.921306	3091.883327
808.241453	3096.057402
808.561554	3106.921089
808.881611	3103.062085
809.201623	3105.181891
809.521590	3098.789708
809.841513	3101.567383
810.161390	3108.793877
810.481223	3094.938266
810.801011	3097.862135
811.120755	3098.424224
811.440453	3092.495827
811.760107	3091.787545
812.079716	3088.455342
812.399281	3080.548292
812.718801	3080.369331
813.038276	3078.655339
813.357707	3075.353383
813.677093	3083.373859
813.996434	3076.094433
814.315731	3080.928899
814.634983	3081.977459
814.954191	3083.303283
815.273354	3096.032196
815.592473	3100.826334
815.911547	3114.119856
816.230577	3121.764766
816.549562	3144.006337
816.868502	3152.997235
817.187399	3169.461643
817.506250	3190.173224
817.825058	3197.699667
818.143821	3232.791138
818.462539	3260.444388
818.781213	3298.542908
819.099843	3353.302442
819.418429	3449.419602
819.736970	3545.015002
820.055466	3665.180986
820.373919	3820.405675
820.692327	4036.794683
821.010691	4355.723281
821.329011	4962.431188
821.647286	5826.752138
821.965517	6854.966041
822.283704	7644.572050
822.601847	8245.336437
822.919945	8194.259466
823.237999	7973.620765
823.556010	7574.628561
823.873976	7089.067143
824.191897	6570.894501
824.509775	6150.858001
824.827609	5694.676428
825.145398	5386.994644
825.463144	5172.140667
825.780845	5099.853042
826.098502	5130.122650
826.416116	5332.676211
826.733685	5615.991578
827.051210	5783.189007
827.368692	5762.444659
827.686129	5519.322412
828.003522	5200.464390
828.320872	4853.343139
828.638177	4567.633224
828.955439	4330.013397
829.272656	4120.739977
829.589830	3943.729942
829.906960	3778.052421
830.224046	3645.543171
830.541088	3532.192827
830.858086	3454.919500
831.175041	3394.924728
831.491952	3370.860781
831.808819	3359.981971
832.125642	3385.613717
832.442421	3454.528811
832.759157	3595.121551
833.075849	3825.676201
833.392497	4111.756641
833.709101	4352.869988
834.025662	4426.314558
834.342179	4364.762070
834.658653	4206.404304
834.975083	4034.821071
835.291469	3882.021178
835.607811	3731.557859
835.924110	3622.663895
836.240366	3520.401568
836.556578	3413.617327
836.872746	3322.432936
837.188871	3245.562902
837.504952	3182.487985
837.820990	3132.850263
838.136984	3093.410796
838.452935	3074.423290
838.768842	3062.614387
839.084706	3085.307142
839.400526	3169.948115
839.716303	3313.641164
840.032037	3452.156948
840.347727	3500.841891
840.663373	3452.245168
840.978977	3356.561548
841.294537	3269.137858
841.610054	3195.068184
841.925527	3140.565749
842.240957	3096.553956
842.556344	3054.747667
842.871687	3011.703775
843.186987	2971.278762
843.502244	2936.320881
843.817458	2909.325502
844.132629	2883.479506
844.447756	2870.465768
844.762840	2854.039168
845.077881	2840.221365
845.392879	2829.425734
845.707833	2822.191678
846.022745	2813.157931
846.337613	2812.353867
846.652438	2806.906900
846.967221	2802.972279
847.281960	2796.995991
847.596656	2793.447019
847.911309	2789.114147
848.225919	2785.224897
848.540485	2785.058539
848.855009	2783.702469
849.169490	2778.981428
849.483928	2777.489247
849.798323	2775.402209
850.112675	2772.374996
850.426984	2774.106632
850.741251	2773.695778
851.055474	2768.805859
851.369654	2769.617485
851.683792	2768.430293
851.997887	2771.394492
852.311938	2772.296858
852.625947	2771.422218
852.939914	2769.567073
853.253837	2771.543206
853.567718	2769.246960
853.881555	2768.936929
854.195350	2768.417690
854.509103	2771.434821
854.822812	2770.708895
855.136479	2770.562701
855.450103	2770.386261
855.763685	2769.894748
856.077224	2764.692277
856.390720	2771.049172
856.704173	2773.675614
857.017584	2772.455654
857.330953	2772.120418
857.644278	2777.164092
857.957561	2781.330606
858.270802	2779.775410
858.584000	2778.111829
858.897155	2778.736932
859.210268	2777.360697
859.523339	2775.021602
859.836367	2775.868516
860.149352	2776.654936
860.462295	2775.631581
860.775195	2771.273504
861.088054	2771.712084
861.400869	2769.660335
861.713642	2768.972217
862.026373	2772.823659
862.339062	2773.879780
862.651708	2777.698454
862.964312	2778.817591
863.276873	2780.823970
863.589392	2784.657767
863.901869	2788.539456
864.214303	2793.633542
864.526696	2798.525982
864.839045	2805.833134
865.151353	2808.227682
865.463619	2809.787919
865.775842	2816.490133
866.088023	2818.952737
866.400162	2816.911070
866.712258	2817.505926
867.024313	2822.370639
867.336325	2823.247800
867.648296	2823.325938
867.960224	2825.997749
868.272110	2825.796103
868.583954	2827.116886
868.895755	2829.284582
869.207515	2828.631752
869.519233	2836.616940
869.830909	2836.894203
870.142542	2839.855881
870.454134	2839.739935
870.765684	2846.106912
871.077191	2850.596060
871.388657	2855.269209
871.700081	2856.153932
872.011463	2864.212216
872.322803	2867.262114
872.634101	2870.145654
872.945357	2874.549102
873.256571	2883.338354
873.567744	2886.022768
873.878874	2890.879920
874.189963	2895.800086
874.501010	2898.580283
874.812015	2901.937691
875.122979	2908.798701
875.433900	2910.545461
875.744780	2913.716347
876.055618	2918.215577
876.366415	2917.156934
876.677169	2923.841504
876.987882	2929.432144
877.298554	2939.217024
877.609183	2952.944086
877.919771	2967.603761
878.230317	2985.449446
878.540822	3020.271216
878.851285	3059.587175
879.161707	3114.918879
879.472087	3202.425748
879.782425	3324.784634
880.092722	3527.885161
880.402977	3810.671207
880.713191	4126.444043
881.023363	4447.835244
881.333494	4678.785625
881.643583	4861.827401
881.953631	4956.686793
882.263637	4974.653465
882.573602	4919.266308
882.883526	4835.812527
883.193408	4718.734249
883.503248	4582.981017
883.813048	4443.882980
884.122806	4297.361843
884.432522	4138.454592
884.742197	3981.523472
885.051831	3842.932071
885.361424	3705.845454
885.670975	3591.260027
885.980485	3482.839931
886.289954	3392.643606
886.599382	3317.696772
886.908768	3252.930548
887.218113	3192.966023
887.527417	3150.080927
887.836680	3101.796756
888.145901	3070.176118
888.455082	3038.978938
888.764221	3012.389372
889.073319	2985.121771
889.382376	2973.282621
889.691392	2961.882051
890.000366	2955.759570
890.309300	2948.465020
890.618193	2945.263888
890.927044	2941.329267
891.235855	2941.601489
891.544625	2944.457303
891.853353	2948.318827
892.162041	2959.099334
892.470687	2979.510966
892.779293	3004.983917
893.087858	3038.424411
893.396381	3099.124944
893.704864	3178.823066
894.013306	3292.304480
894.321707	3430.840429
894.630068	3546.965928
894.938387	3610.371041
895.246665	3623.425109
895.554903	3581.802822
895.863100	3522.818802
896.171256	3467.628249
896.479371	3410.859816
896.787446	3353.710775
897.095480	3299.621715
897.403473	3255.428440
897.711425	3212.825649
898.019336	3172.173784
898.327207	3131.448823
898.635038	3095.160077
898.942827	3054.893860
899.250576	3023.550486
899.558284	2992.880106
899.865952	2969.665593
900.173579	2947.560133
900.481165	2930.760488
900.788711	2914.419588
901.096216	2902.240160
901.403681	2893.846639
901.711105	2885.818602
902.018489	2880.648898
902.325832	2888.997049
902.633135	2895.192627
902.940397	2927.186310
903.247619	2996.968482
903.554800	3126.001856
903.861941	3323.017710
904.169041	3516.776979
904.476101	3644.965959
904.783121	3670.446471
905.090100	3632.128661
905.397039	3555.757701
905.703938	3475.081595
906.010796	3398.193917
906.317614	3333.266376
906.624391	3267.476797
906.931129	3215.318499
907.237826	3159.833039
907.544483	3107.417642
907.851099	3056.910322
908.157675	2997.749861
908.464211	2944.101902
908.770707	2897.251938
909.077163	2861.610981
909.383578	2830.731393
909.689954	2805.485294
909.996289	2789.925773
910.302584	2781.643157
910.608839	2774.449431
910.915054	2768.470622
911.221229	2763.492483
911.527363	2763.729417
911.833458	2763.111876
912.139513	2765.582041
912.445527	2770.547578
912.751502	2779.566202
913.057436	2792.476597
913.363331	2806.496046
913.669186	2829.753409
913.975000	2862.183152
914.280775	2911.042015
914.586510	2976.403095
914.892205	3056.628017
915.197859	3168.488701
915.503475	3306.744865
915.809050	3437.106583
916.114585	3537.785987
916.420081	3597.949638
916.725536	3625.764204
917.030952	3600.036676
917.336328	3572.995926
917.641665	3541.047614
917.946961	3494.979029
918.252218	3449.109571
918.557435	3394.929770
918.862612	3343.749455
919.167750	3295.223308
919.472848	3237.343300
919.777906	3183.912111
920.082925	3131.065695
920.387904	3072.046386
920.692843	3030.693801
920.997743	2988.842142
921.302603	2952.414764
921.607423	2922.077101
921.912204	2894.595250
922.216946	2875.529607
922.521647	2855.594364
922.826310	2837.254646
923.130932	2822.751246
923.435516	2804.351035
923.740059	2795.221505
924.044564	2781.940585
924.349028	2771.792743
924.653454	2759.714138
924.957840	2747.267529
925.262186	2742.211252
925.566493	2731.589541
925.870761	2720.065463
926.174989	2718.941286
926.479178	2710.898125
926.783328	2704.843699
927.087438	2700.190714
927.391509	2695.270548
927.695541	2689.851307
927.999533	2685.906605
928.303486	2679.635409
928.607400	2681.175482
928.911275	2679.849658
929.215110	2672.955880
929.518906	2669.167453
929.822663	2670.568894
930.126381	2669.532937
930.430060	2669.129645
930.733699	2669.384223
931.037299	2672.237516
931.340861	2668.875066
931.644383	2669.956394
931.947866	2670.752896
932.251309	2668.968328
932.554714	2669.275838
932.858080	2668.731393
933.161407	2668.638132
933.464694	2667.488749
933.767943	2668.280210
934.071153	2666.084788
934.374323	2663.881803
934.677455	2665.855415
934.980548	2662.306443
935.283602	2662.303922
935.586617	2658.913746
935.889593	2660.473983
936.192530	2664.033038
936.495428	2660.489107
936.798287	2668.459171
937.101108	2669.762309
937.403890	2673.888494
937.706632	2684.502643
938.009336	2691.403983
938.312002	2699.691640
938.614628	2712.526417
938.917216	2718.409444
939.219765	2726.170300
939.522275	2733.817731
939.824747	2734.994840
940.127179	2731.854201
940.429573	2730.321691
940.731929	2734.268914
941.034246	2731.355127
941.336524	2733.570714
941.638763	2735.347721
941.940964	2734.951990
942.243126	2728.942935
942.545250	2724.710886
942.847335	2718.472458
943.149381	2712.289483
943.451389	2709.494163
943.753359	2705.917465
944.055290	2701.382947
944.357182	2697.150898
944.659036	2693.301977
944.960851	2691.913139
945.262628	2688.104548
945.564367	2687.509692
945.866067	2688.928776
946.167729	2689.629497
946.469352	2687.877696
946.770937	2685.354598
947.072484	2682.662622
947.373992	2684.646316
947.675462	2684.152283
947.976893	2680.197498
948.278286	2679.796726
948.579641	2676.522497
948.880958	2681.833352
949.182236	2677.200532
949.483476	2676.565347
949.784678	2673.770027
950.085841	2674.753052
950.386967	2677.898732
950.688054	2677.208094
950.989103	2680.893177
951.290114	2682.521470
951.591087	2683.685976
951.892021	2687.411389
952.192917	2691.920701
952.493776	2694.819365
952.794596	2698.789273
953.095378	2697.032431
953.396122	2700.248687
953.696828	2699.542926
953.997496	2699.179963
954.298126	2693.859025
954.598718	2694.577389
954.899272	2690.962882
955.199788	2686.488858
955.500266	2683.948116
955.800706	2676.192301
956.101108	2670.528565
956.401472	2664.499345
956.701798	2661.928356
957.002087	2653.116419
957.302337	2653.658343
957.602550	2646.237765
957.902724	2643.097126
958.202861	2640.445479
958.502960	2636.795684
958.803022	2632.039355
959.103045	2629.433079
959.403031	2624.399487
959.702979	2624.036523
960.002889	2620.860597
960.302762	2617.213322
960.602596	2617.079731
960.902393	2612.802312
961.202153	2612.930862
961.501875	2612.260388
961.801559	2611.781478
962.101205	2606.168154
962.400814	2609.472630
962.700385	2605.222937
962.999918	2606.800818
963.299414	2606.037084
963.598873	2605.222937
963.898293	2600.390991
964.197677	2603.854264
964.497022	2598.853439
964.796331	2601.195055
965.095601	2599.455857
965.394835	2601.222782
965.694030	2600.436362
965.993189	2602.001640
966.292309	2599.196238
966.591393	2596.579879
966.890439	2599.503748
967.189447	2600.680858
967.488419	2598.349324
967.787353	2599.977617
968.086249	2597.716659
968.385108	2599.014756
968.683930	2598.697164
968.982714	2601.502566
969.281462	2598.563573
969.580172	2600.748913
969.878844	2600.582555
970.177480	2603.428287
970.476078	2602.866198
970.774639	2609.966663
971.073162	2608.971035
971.371649	2605.396857
971.670098	2606.672269
971.968510	2607.269646
972.266885	2606.163112
972.565223	2612.083948
972.863524	2611.468927
973.161788	2610.400202
973.460014	2615.196860
973.758204	2612.802312
974.056356	2613.813063
974.354471	2616.731892
974.652550	2615.980760
974.950591	2613.344236
975.248595	2615.280039
975.546563	2616.510081
975.844493	2614.617127
976.142386	2613.485388
976.440243	2611.617641
976.738062	2614.060080
977.035845	2610.929523
977.333590	2613.160234
977.631299	2609.364245
977.928971	2608.101436
978.226606	2608.774430
978.524204	2609.893566
978.821765	2607.899790
979.119290	2605.084306
979.416777	2605.646394
979.714228	2609.192846
980.011642	2608.255191
980.309020	2609.475151
980.606360	2610.193515
980.903664	2615.217025
981.200931	2618.544186
981.498162	2624.611215
981.795356	2634.814510
982.092513	2648.586943
982.389633	2660.642862
982.686717	2673.964111
982.983764	2689.432892
983.280775	2698.512010
983.577749	2702.925540
983.874686	2705.925027
984.171587	2698.733821
984.468451	2696.447657
984.765279	2690.791483
985.062070	2682.639937
985.358824	2677.780265
985.655543	2670.969666
985.952224	2661.293171
986.248869	2655.566420
986.545478	2640.314409
986.842050	2630.743779
987.138586	2619.270112
987.435086	2614.861623
987.731549	2608.434152
988.027975	2608.106477
988.324366	2601.106835
988.620719	2600.668255
988.917037	2595.818665
989.213318	2594.334045
989.509563	2593.872779
989.805772	2595.377564
990.101944	2592.670464
990.398080	2591.140474
990.694180	2593.729107
990.990244	2592.428489
991.286271	2589.706266
991.582262	2591.498396
991.878217	2593.245156
992.174136	2592.801534
992.470019	2591.669795
992.765865	2593.061154
993.061676	2592.529312
993.357450	2596.284972
993.653188	2595.755650
993.948890	2594.888572
994.244556	2604.161774
994.540186	2603.183791
994.835780	2610.347270
995.131337	2616.815071
995.426859	2622.153652
995.722345	2628.828140
996.017795	2636.891466
996.313208	2643.528145
996.608586	2647.296407
996.903928	2652.241779
997.199234	2654.293529
997.494504	2654.636327
997.789738	2651.785555
998.084936	2650.157262
998.380099	2644.957312
998.675225	2640.863895
998.970316	2635.832823
999.265371	2630.557256
999.560390	2624.379322
999.855373	2620.721965
1000.150320	2614.944802
1000.445232	2612.598145
1000.740108	2605.159923
1001.034948	2602.901486
1001.329752	2601.671444
1001.624521	2598.271186
1001.919254	2589.408838
1002.213951	2590.648962
1002.508613	2590.137284
1002.803239	2588.879517
1003.097829	2586.553024
1003.392384	2588.088055
1003.686903	2586.084197
1003.981386	2589.434043
1004.275834	2585.091089
1004.570246	2588.735844
1004.864623	2585.582602
1005.158964	2585.065884
1005.453270	2587.243662
1005.747540	2587.500761
1006.041775	2583.929103
1006.335974	2583.614031
1006.630138	2583.571182
1006.924266	2586.610997
1007.218359	2581.458938
1007.512416	2584.564289
1007.806438	2582.741912
1008.100425	2582.257961
1008.394376	2581.043043
1008.688292	2581.552199
1008.982172	2581.844586
1009.276017	2582.023547
1009.569827	2581.406006
1009.863602	2585.610328
1010.157341	2580.962384
1010.451045	2582.318455
1010.744714	2583.341809
1011.038347	2581.438773
1011.331945	2583.798033
1011.625508	2582.361305
1011.919036	2579.739905
1012.212528	2582.459607
1012.505986	2581.063207
1012.799408	2579.921386
1013.092795	2578.058680
1013.386147	2583.213260
1013.679464	2577.988104
1013.972745	2581.247210
1014.265992	2581.083372
1014.559204	2580.826273
1014.852380	2582.278126
1015.145521	2580.879205
1015.438628	2579.563464
1015.731699	2580.639751
1016.024736	2583.455235
1016.317737	2580.722930
1016.610703	2580.024730
1016.903635	2578.580439
1017.196531	2576.644636
1017.489393	2580.044894
1017.782219	2576.001889
1018.075011	2580.584298
1018.367768	2583.369535
1018.660490	2582.494895
1018.953177	2582.494895
1019.245829	2582.494895
