Dividing Wavelength (nm)	Counts (n)	Blue Motor Position (mm): 40.500000	Red Motor Position (mm): 0.000000	
326.493990	2152.353402
326.888308	2152.353402
327.282561	2152.353402
327.676750	2127.361882
328.070874	2128.077726
328.464933	2136.040228
328.858929	2145.494912
329.252859	2156.837508
329.646726	2170.090702
330.040528	2183.873217
330.434265	2203.785774
330.827938	2221.142467
331.221547	2243.376476
331.615091	2263.205855
332.008571	2281.948865
332.401986	2302.940229
332.795338	2322.172231
333.188625	2343.851713
333.581847	2363.595392
333.975006	2380.730274
334.368100	2398.003788
334.761129	2417.974319
335.154095	2432.702050
335.546996	2458.195165
335.939833	2488.356388
336.332606	2500.888697
336.725315	2516.433095
337.117960	2522.820237
337.510540	2528.370547
337.903056	2540.262629
338.295508	2547.277394
338.687896	2552.840308
339.080220	2561.667368
339.472480	2569.622309
339.864676	2570.693554
340.256807	2575.117167
340.648875	2577.400809
341.040879	2576.742939
341.432818	2578.605645
341.824694	2579.555902
342.216506	2581.297621
342.608253	2577.022723
342.999937	2579.094637
343.391557	2578.010789
343.783113	2579.061869
344.174605	2573.589697
344.566033	2575.548185
344.957397	2572.475602
345.348697	2567.295816
345.739934	2570.955694
346.131106	2566.282544
346.522215	2567.777247
346.913260	2564.845816
347.304241	2563.320867
347.695159	2560.805331
348.086012	2558.947666
348.476802	2562.037893
348.867528	2557.342058
349.258191	2555.169321
349.648789	2555.280226
350.039324	2550.203784
350.429796	2551.632951
350.820203	2549.692107
351.210548	2550.571788
351.600828	2548.507436
351.991045	2549.795451
352.381198	2548.759494
352.771288	2549.719833
353.161314	2545.855789
353.551276	2550.221428
353.941175	2546.944678
354.331010	2548.656150
354.720782	2546.541386
355.110490	2545.790254
355.500135	2549.387117
355.889717	2550.372663
356.279235	2550.435677
356.668689	2548.252858
357.058080	2551.406099
357.447408	2546.070038
357.836672	2547.121119
358.225873	2548.633465
358.615010	2547.526932
359.004084	2551.849721
359.393095	2552.666388
359.782043	2554.075390
360.170927	2556.701832
360.559748	2554.360216
360.948505	2553.104968
361.337199	2555.640669
361.725830	2554.239228
362.114398	2556.273333
362.502903	2554.813919
362.891344	2555.605381
363.279722	2555.844835
363.668037	2558.708211
364.056289	2559.131668
364.444478	2560.099569
364.832603	2558.982954
365.220665	2558.476318
365.608665	2560.699467
365.996601	2560.018911
366.384474	2559.739127
366.772284	2560.729713
367.160031	2561.087635
367.547715	2561.974878
367.935336	2562.751216
368.322893	2562.761298
368.710388	2562.405897
369.097820	2564.646690
369.485189	2560.928839
369.872495	2565.692729
370.259738	2562.857080
370.646918	2563.746844
371.034035	2565.806155
371.421090	2565.448233
371.808081	2563.971175
372.195010	2562.965465
372.581875	2565.697771
372.968678	2566.411094
373.355418	2566.297668
373.742096	2569.430745
374.128710	2569.617268
374.515262	2567.689026
374.901751	2566.474108
375.288177	2563.507389
375.674540	2566.285065
376.060841	2566.963100
376.447079	2569.622309
376.833254	2570.423852
377.219367	2566.010322
377.605417	2565.296999
377.991404	2565.274314
378.377329	2565.281875
378.763191	2566.753892
379.148991	2568.271280
379.534727	2570.381002
379.920402	2573.670355
380.306013	2570.063410
380.691563	2573.188925
381.077049	2573.798905
381.462474	2574.532393
381.847835	2572.273956
382.233134	2572.599110
382.618371	2574.970973
383.003545	2572.384861
383.388657	2573.667835
383.773706	2571.527865
384.158693	2574.681107
384.543618	2574.381158
384.928480	2575.575912
385.313280	2575.908628
385.698017	2577.592373
386.082692	2575.444842
386.467305	2576.364852
386.851856	2578.693865
387.236344	2578.076324
387.620770	2578.678742
388.005133	2579.767631
388.389435	2578.656057
388.773674	2579.213104
389.157851	2576.185891
389.541965	2580.564133
389.926018	2580.811150
390.310008	2582.363825
390.693936	2583.293918
391.077802	2580.133115
391.461606	2583.752663
391.845348	2583.273753
392.229027	2586.837849
392.612645	2588.393045
392.996200	2587.984712
393.379694	2593.824888
393.763125	2596.670620
394.146494	2596.537029
394.529801	2601.074068
394.913047	2603.884511
395.296230	2608.729060
395.679351	2609.568412
396.062410	2616.394134
396.445408	2619.252468
396.828343	2624.026441
397.211217	2627.887965
397.594028	2629.201186
397.976778	2637.256949
398.359466	2646.278094
398.742092	2649.355719
399.124656	2660.627739
399.507158	2669.081754
399.889598	2676.875377
400.271977	2684.868127
400.654294	2692.359282
401.036549	2703.190201
401.418742	2711.009030
401.800874	2724.058057
402.182944	2733.550550
402.564952	2751.721389
402.946898	2756.583582
403.328783	2766.060951
403.710606	2785.366049
404.092367	2804.288020
404.474067	2822.025320
404.855705	2827.116886
405.237282	2840.216324
405.618797	2863.859335
406.000250	2884.762480
406.381642	2911.440266
406.762972	2924.660692
407.144240	2934.143102
407.525447	2955.961216
407.906593	2967.336580
408.287677	2993.911022
408.668700	3014.920031
409.049661	3023.711803
409.430560	3047.906821
409.811399	3066.148236
410.192176	3086.436360
410.572891	3105.373454
410.953545	3143.708909
411.334138	3134.206334
411.714669	3181.643592
412.095139	3154.204591
412.475547	3202.564380
412.855894	3210.662994
413.236180	3244.053076
413.616405	3238.406984
413.996568	3269.679782
414.376670	3282.809467
414.756711	3288.327010
415.136691	3321.248265
415.516609	3344.319106
415.896466	3362.956251
416.276262	3398.148546
416.655997	3432.244390
417.035670	3446.074796
417.415283	3513.573325
417.794834	3540.427552
418.174324	3534.539484
418.553753	3542.275135
418.933121	3590.639965
419.312428	3588.139552
419.691674	3591.388576
420.070859	3632.542036
420.449983	3623.006693
420.829045	3670.564938
421.208047	3659.355933
421.586988	3712.310733
421.965867	3746.267946
422.344686	3757.050974
422.723444	3797.773415
423.102141	3711.688151
423.480777	3813.211948
423.859352	3782.022329
424.237866	3881.149058
424.616319	3870.933160
424.994712	3931.215277
425.373044	3927.179834
425.751314	3992.460256
426.129524	3926.968105
426.507673	4027.844114
426.885762	4006.988861
427.263789	4029.306049
427.641756	4034.085063
428.019662	4066.671081
428.397508	4066.708890
428.775292	4103.950414
429.153016	4112.195221
429.530679	4127.953868
429.908282	4137.043068
430.285824	4113.576497
430.663305	4189.513918
431.040726	4150.392044
431.418086	4136.470898
431.795385	4212.708267
432.172624	4245.420314
432.549802	4211.568966
432.926920	4232.840115
433.303977	4228.277871
433.680974	4268.808748
434.057910	4287.859268
434.434786	4298.538953
434.811601	4291.980411
435.188355	4397.716093
435.565050	4370.839181
435.941683	4364.570506
436.318257	4455.613745
436.694770	4464.463490
437.071222	4516.894011
437.447614	4449.334988
437.823946	4455.220535
438.200218	4472.231908
438.576429	4452.019402
438.952580	4480.070903
439.328670	4486.536182
439.704700	4526.323489
440.080670	4493.709744
440.456580	4554.674938
440.832429	4586.003189
441.208218	4491.423581
441.583947	4541.194893
441.959616	4558.607038
442.335224	4580.750307
442.710773	4606.019090
443.086261	4658.820136
443.461689	4612.933033
443.837057	4625.480465
444.212365	4698.700704
444.587612	4699.696332
444.962800	4670.321528
445.337927	4710.469277
445.712995	4599.798306
446.088002	4790.011123
446.462949	4813.860822
446.837837	4827.734077
447.212664	4822.264426
447.587431	5047.029311
447.962139	5347.829920
448.336786	5683.162432
448.711374	5663.547303
449.085901	5308.745854
449.460369	5245.746554
449.834776	5181.761709
450.209124	5423.169964
450.583412	5429.244554
450.957640	5553.813987
451.331808	5409.178242
451.705917	5265.056694
452.079965	5254.492956
452.453954	5295.056601
452.827883	5261.588380
453.201752	5269.533239
453.575562	5298.154390
453.949311	5434.028609
454.323001	5434.381490
454.696632	5427.490233
455.070202	5584.595272
455.443713	5613.465960
455.817164	5709.479776
456.190556	5779.844202
456.563888	5753.852012
456.937160	5831.873950
457.310373	5675.346123
457.683526	5726.639864
458.056619	5728.679011
458.429653	5704.398293
458.802628	5749.219192
459.175542	5782.107680
459.548398	5928.596049
459.921194	6110.682526
460.293930	6168.756618
460.666607	6420.156440
461.039224	6638.176261
461.411782	6764.005982
461.784280	6675.780748
462.156719	6683.145874
462.529099	6633.460262
462.901419	6498.213666
463.273680	6372.666250
463.645882	6356.474064
464.018024	6366.954622
464.390106	6430.984838
464.762130	6688.955804
465.134094	7077.936276
465.505999	7724.156746
465.877845	8426.903675
466.249631	8772.915872
466.621358	8700.371147
466.993026	8495.760795
467.364634	8281.489071
467.736184	7996.492480
468.107674	7845.953544
468.479105	7762.608147
468.850477	7697.400822
469.221790	7525.860439
469.593043	7299.772251
469.964238	7200.867333
470.335373	7181.721031
470.706449	7331.299627
471.077467	7524.917743
471.448425	8185.281171
471.819324	8768.774564
472.190164	8797.254562
472.560945	8306.805746
472.931667	7839.495826
473.302330	7654.883731
473.672934	7533.323867
474.043479	7612.424612
474.413965	7505.952923
474.784393	7461.094215
475.154761	7618.721013
475.525070	7631.253322
475.895321	7584.005108
476.265513	7679.887854
476.635645	7846.918925
477.005719	7836.196390
477.375734	7924.335924
477.745691	8029.970782
478.115588	8230.989313
478.485427	8477.658012
478.855207	8953.366494
479.224928	9389.632989
479.594591	9768.100135
479.964194	9775.971897
480.333739	9851.322023
480.703226	9861.638744
481.072653	9957.576943
481.442022	10072.764788
481.811333	10230.116844
482.180584	10061.807840
482.549777	9999.446247
482.918912	9939.758985
483.287988	9929.661554
483.657005	9833.115896
484.025964	9752.180171
484.394864	9816.429677
484.763706	9771.208006
485.132489	9688.132311
485.501213	9666.883848
485.869879	9738.206093
486.238487	9677.240898
486.607036	9752.767465
486.975527	9698.154125
487.343959	9754.355429
487.712333	9798.619280
488.080648	9838.104118
488.448905	9942.834089
488.817104	9944.119583
489.185244	10120.365883
489.553326	10328.855403
489.921350	10802.350820
490.289315	11440.278592
490.657222	11718.903165
491.025070	11895.673745
491.392861	11809.923718
491.760593	11650.673668
492.128267	11401.706203
492.495883	11161.827939
492.863440	10925.483523
493.230939	10699.279388
493.598380	10519.032932
493.965763	10493.446556
494.333088	10364.670281
494.700354	10295.072111
495.067563	10265.921639
495.434713	10270.630077
495.801805	10311.833947
496.168839	10279.061406
496.535815	10243.105377
496.902733	10291.906266
497.269593	10250.669628
497.636395	10259.605073
498.003139	10364.990394
498.369825	10293.766452
498.736453	10384.202232
499.103023	10329.553603
499.469535	10338.995684
499.835989	10386.427901
500.202385	10355.235762
500.568723	10379.856757
500.935003	10432.501527
501.301226	10403.119161
501.667390	10577.981665
502.033497	10670.428865
502.399546	10598.594943
502.765537	10512.492035
503.131470	10605.244225
503.497345	10698.364419
503.863163	10477.367796
504.228923	10606.806983
504.594625	10718.022398
504.960269	10631.783379
505.325856	10785.437748
505.691385	10662.756228
506.056856	10737.019986
506.422270	10830.757722
506.787625	10768.922928
507.152924	10821.020733
507.518164	10878.895700
507.883347	10742.630791
508.248472	10822.976701
508.613540	10931.875706
508.978550	11005.859680
509.343503	10988.760086
509.708398	11042.448374
510.073236	11176.091883
510.438016	11182.826865
510.802738	11099.809143
511.167403	11225.154913
511.532010	11282.324118
511.896561	11378.779036
512.261053	11575.336145
512.625488	11487.768782
512.989866	11477.910805
513.354186	11450.368461
513.718449	11460.478495
514.082655	11610.248656
514.446803	11563.696120
514.810894	11681.023935
515.174927	11680.746672
515.538904	11659.145327
515.902822	11818.327322
516.266684	11691.277642
516.630488	11790.187601
516.994235	11785.688371
517.357925	11896.739949
517.721558	11951.547374
518.085133	12019.050944
518.448651	12047.059595
518.812112	12008.363698
519.175516	12012.739420
519.538863	12104.012031
519.902152	12109.247269
520.265385	12217.117879
520.628560	12240.503792
520.991678	12192.527131
521.354739	12246.976633
521.717743	12318.258549
522.080690	12288.183025
522.443580	12422.509610
522.806413	12436.400510
523.169189	12426.189652
523.531908	12489.539312
523.894569	12458.518572
524.257174	12472.409472
524.619722	12577.464597
524.982213	12557.194118
525.344647	12537.137887
525.707025	12563.162844
526.069345	12654.281699
526.431608	12638.477682
526.793815	12713.868138
527.155964	12609.231428
527.518057	12645.918425
527.880093	12591.279879
528.242072	12716.870145
528.603995	12636.012558
528.965860	12655.136175
529.327669	12689.925178
529.689421	12626.925878
530.051117	12639.629586
530.412755	12691.679499
530.774337	12679.623580
531.135862	12640.526911
531.497331	12703.579143
531.858743	12661.525838
532.220098	12753.446237
532.581396	12673.483454
532.942638	12601.352105
533.303824	12672.976818
533.664953	12652.529898
534.026025	12596.961260
534.387040	12703.962271
534.747999	12675.184844
535.108902	12730.004871
535.469748	12595.731218
535.830537	12628.339922
536.191270	12675.043692
536.551947	12598.035025
536.912567	12663.111280
537.273131	12690.131865
537.633638	12570.659039
537.994089	12627.631640
538.354483	12542.335317
538.714821	12674.219463
539.075103	12751.790218
539.435328	12686.721524
539.795497	12669.337105
540.155609	12654.125424
540.515665	12773.532714
540.875665	12616.140329
541.235609	12724.157133
541.595496	12681.650124
541.955328	12864.041590
542.315102	12716.650855
542.674821	12644.232159
543.034483	12658.637256
543.394090	12652.033345
543.753640	12634.454841
544.113134	12871.051315
544.472571	12633.615489
544.831953	12908.023137
545.191278	12728.626116
545.550548	12662.488698
545.909761	12777.580761
546.268918	12818.756905
546.628019	12880.163200
546.987064	12765.159358
547.346053	12625.900003
547.704986	12818.920743
548.063863	12707.410420
548.422684	12765.655911
548.781449	12711.932335
549.140158	12806.441367
549.498811	12758.315991
549.857408	12624.155764
550.215949	12832.005058
550.574434	12788.875466
550.932864	12739.704051
551.291237	12935.192436
551.649555	12822.822596
552.007817	12881.302501
552.366022	12793.306640
552.724173	12847.824198
553.082267	12938.945575
553.440305	13031.954863
553.798288	12857.430117
554.156215	12931.144389
554.514086	12976.839928
554.871902	12919.388418
555.229661	12940.256275
555.587365	12890.278276
555.945014	12908.365936
556.302606	12885.557235
556.660143	12945.627624
557.017625	12987.023059
557.375050	12936.447683
557.732421	13045.245865
558.089735	13037.301007
558.446994	13013.612625
558.804197	13123.474491
559.161345	13120.318728
559.518437	12940.702417
559.875474	13027.090150
560.232455	13054.952607
560.589381	13089.716404
560.946251	13039.168754
561.303065	13209.335423
561.659825	13160.095953
562.016528	13075.258375
562.373177	13014.076411
562.729770	13151.717555
563.086307	13029.232640
563.442789	13139.863282
563.799216	13171.836800
564.155587	13118.546763
564.511904	13131.739463
564.868164	13148.085404
565.224370	13221.842526
565.580520	13164.403619
565.936615	13233.722005
566.292654	13161.636025
566.648638	13240.197367
567.004567	13242.869178
567.360441	13238.780803
567.716260	13204.745453
568.072023	13289.295685
568.427732	13275.190536
568.783385	13174.667408
569.138982	13290.359368
569.494525	13285.668575
569.850013	13234.153023
570.205445	13219.352196
570.560823	13227.095408
570.916145	13191.333463
571.271412	13195.391592
571.626625	13154.039007
571.981782	13159.720387
572.336884	13104.587808
572.691931	13189.843802
573.046923	13081.383377
573.401860	13058.249522
573.756743	13056.318760
574.111570	13072.589084
574.466342	13047.403479
574.821059	13110.052419
575.175722	12979.957882
575.530330	12993.062361
575.884882	12927.124069
576.239380	12927.774378
576.593823	12910.654619
576.948211	12919.297678
577.302544	12796.548102
577.656823	12810.307932
578.011047	12876.510884
578.365216	12800.850727
578.719330	12741.183630
579.073389	12706.883619
579.427394	12730.193915
579.781344	12723.055641
580.135239	12659.721104
580.489080	12664.646312
580.842866	12541.062425
581.196597	12650.503355
581.550273	12635.823515
581.903895	12596.011002
582.257463	12707.843959
582.610975	12551.858056
582.964434	12611.177313
583.317837	12528.540199
583.671186	12486.549908
584.024481	12542.705841
584.377721	12438.754728
584.730906	12503.410047
585.084037	12513.681398
585.437113	12443.027106
585.790135	12452.625463
586.143103	12366.210004
586.496016	12379.601829
586.848874	12383.390256
587.201679	12400.688976
587.554428	12278.642641
587.907124	12331.294973
588.259765	12263.183943
588.612352	12327.115856
588.964884	12193.258098
589.317362	12241.154101
589.669786	12229.274622
590.022155	12188.206862
590.374470	12285.528857
590.726731	12174.797392
591.078937	12065.064076
591.431090	12087.456882
591.783188	12021.707632
592.135232	11938.750405
592.487222	12004.073676
592.839157	12009.109789
593.191038	11940.560179
593.542866	11889.284083
593.894639	11746.536250
594.246358	11808.643265
594.598022	11807.435909
594.949633	11715.886034
595.301190	11693.672190
595.652692	11657.224648
596.004141	11747.988102
596.355535	11529.161696
596.706876	11497.112560
597.058162	11475.077677
597.409395	11569.425392
597.760573	11595.495719
598.111698	11482.188224
598.462768	11483.241826
598.813785	11498.919814
599.164748	11373.785773
599.515657	11445.768408
599.866511	11325.569657
600.217312	11451.633791
600.568060	11218.669469
600.918753	11382.905220
601.269392	11380.669468
601.619978	11286.362083
601.970510	11322.154275
602.320988	11364.933507
602.671412	11433.861203
603.021783	11360.187260
603.372100	11281.114242
603.722363	11300.028651
604.072572	11304.351440
604.422728	11320.102525
604.772830	11257.680438
605.122878	11264.700245
605.472872	11240.865669
605.822813	11299.542179
606.172701	11252.979562
606.522534	11287.781167
606.872314	11341.671102
607.222041	11284.655652
607.571714	11363.849658
607.921333	11234.637324
608.270899	11284.537185
608.620411	11333.680873
608.969870	11289.613627
609.319276	11275.291709
609.668627	11286.634305
610.017926	11370.572037
610.367171	11404.254507
610.716362	11392.632126
611.065500	11369.026923
611.414585	11379.169725
611.763616	11435.292891
612.112594	11402.112016
612.461518	11429.175451
612.810389	11476.547173
613.159207	11423.632702
613.507971	11415.965107
613.856682	11517.861950
614.205340	11462.215173
614.553945	11615.070519
614.902496	11492.235244
615.250994	11551.821682
615.599439	11544.857328
615.947830	11579.840416
616.296169	11538.946576
616.644454	11554.246477
616.992686	11565.279043
617.340864	11663.019454
617.688990	11553.510469
618.037063	11683.418483
618.385082	11652.382619
618.733048	11700.384486
619.080961	11685.374451
619.428821	11664.627582
619.776628	11681.502845
620.124382	11623.244750
620.472083	11639.537759
620.819731	11664.988025
621.167326	11588.042373
621.514868	11570.105948
621.862357	11471.223715
622.209793	11462.066459
622.557176	11382.575024
622.904506	11322.991107
623.251783	11244.308777
623.599007	11177.609271
623.946179	11136.019752
624.293297	11104.091604
624.640363	10964.623041
624.987376	10949.552512
625.334336	10897.709286
625.681243	10814.873046
626.028097	10784.152254
626.374899	10747.830741
626.721647	10715.330422
627.068343	10677.955307
627.414987	10615.840730
627.761577	10553.612727
628.108115	10594.766187
628.454600	10474.504420
628.801032	10487.732408
629.147412	10463.534870
629.493739	10441.895717
629.840014	10352.536224
630.186236	10405.052444
630.532405	10299.926742
630.878521	10342.103556
631.224585	10300.849273
631.570597	10222.860103
631.916556	10226.527542
632.262462	10210.269821
632.608316	10193.455052
632.954117	10165.141412
633.299866	10154.832252
633.645562	10122.541141
633.991206	10015.754379
634.336797	9923.274412
634.682336	9910.177494
635.027823	9860.378456
635.373257	9822.645419
635.718639	9752.530531
636.063968	9720.299914
636.409245	9610.004509
636.754470	9597.530174
637.099642	9542.987410
637.444762	9442.113921
637.789829	9444.752965
638.134845	9361.619297
638.479808	9345.308644
638.824719	9321.257299
639.169577	9233.884021
639.514383	9231.489473
639.859137	9167.726438
640.203839	9202.036531
640.548489	9129.035582
640.893086	9130.124472
641.237632	9060.778359
641.582125	9068.982837
641.926566	9054.494561
642.270955	9043.512407
642.615292	9031.658134
642.959576	9020.053398
643.303809	9005.371037
643.647990	9021.603553
643.992118	8996.513730
644.336195	8974.211665
644.680219	8967.073392
645.024192	9011.042335
645.368112	9075.806039
645.711981	9055.628821
646.055797	9195.407414
646.399562	9154.884099
646.743274	9313.549375
647.086935	9377.892142
647.430544	9356.389100
647.774101	9376.664621
648.117606	9414.125435
648.461059	9477.490218
648.804460	9404.645545
649.147810	9293.450294
649.491108	9256.317155
649.834354	9194.343730
650.177548	9047.227738
650.520690	8953.336247
650.863781	8951.864230
651.206820	8921.579499
651.549807	8834.664965
651.892742	8740.251715
652.235626	8695.244294
652.578458	8659.265579
652.921238	8549.973363
653.263967	8590.668078
653.606644	8526.491669
653.949269	8508.719081
654.291843	8425.845032
654.634365	8487.120257
654.976836	8418.459742
655.319255	8412.702744
655.661622	8400.934171
656.003938	8360.912450
656.346203	8325.362233
656.688416	8354.321142
657.030577	8311.741036
657.372687	8277.493957
657.714746	8308.302969
658.056753	8325.538674
658.398708	8230.187769
658.740612	8216.564051
659.082465	8264.510465
659.424266	8220.528918
659.766016	8234.061896
660.107715	8205.493677
660.449362	8224.839105
660.790958	8220.990184
661.132503	8214.403917
661.473996	8213.766211
661.815438	8231.274138
662.156829	8260.066688
662.498168	8210.514666
662.839456	8198.045372
663.180693	8224.569403
663.521879	8243.433401
663.863013	8233.401505
664.204097	8221.917756
664.545129	8294.296123
664.886110	8289.726317
665.227040	8295.780743
665.567918	8303.435735
665.908746	8314.909401
666.249522	8338.002927
666.590248	8334.186773
666.930922	8346.376283
667.271545	8333.712905
667.612118	8356.241821
667.952639	8318.413003
668.293109	8320.202612
668.633528	8305.590828
668.973896	8284.659957
669.314213	8285.872355
669.654480	8243.546827
669.994695	8239.181188
670.334859	8219.467756
670.674973	8200.145013
671.015035	8220.735606
671.355047	8212.284111
671.695008	8194.355248
672.034918	8178.170623
672.374777	8183.930142
672.714585	8152.594329
673.054342	8185.538270
673.394049	8152.097776
673.733705	8194.297274
674.073310	8145.400603
674.412864	8154.923342
674.752368	8086.444308
675.091820	8139.552864
675.431223	8073.019716
675.770574	8025.668158
676.109875	7998.972727
676.449125	7959.389587
676.788324	7945.660005
677.127473	7851.176179
677.466571	7841.194694
677.805619	7785.742002
678.144616	7783.755787
678.483562	7756.253773
678.822458	7711.382462
679.161303	7696.256480
679.500098	7673.631782
679.838842	7653.462125
680.177535	7666.511152
680.516179	7701.963066
680.854771	7716.789100
681.193314	7831.888724
681.531805	7992.966193
681.870247	8112.469265
682.208638	8261.929394
682.546978	8343.921241
682.885268	8377.031540
683.223508	8304.438924
683.561697	8254.070236
683.899836	8220.975061
684.237925	8134.521793
684.575963	8109.341229
684.913951	8028.465998
685.251889	8044.670787
685.589776	8039.758183
685.927614	8024.339814
686.265401	8042.840848
686.603137	8044.552320
686.940824	8114.042105
687.278460	8168.789036
687.616046	8183.912498
687.953582	8291.941904
688.291068	8271.515148
688.628504	8331.981268
688.965889	8339.588369
689.303224	8295.989950
689.640510	8251.884895
689.977745	8139.038667
690.314930	8018.265223
690.652065	7944.664377
690.989150	7832.498704
691.326185	7685.896909
691.663170	7572.513797
692.000105	7452.088194
692.336990	7338.480751
692.673825	7263.639781
693.010610	7173.909763
693.347345	7076.179434
693.684030	6968.129863
694.020665	6913.887047
694.357251	6800.052752
694.693786	6795.792977
695.030272	6751.226657
695.366707	6652.692264
695.703093	6598.872905
696.039429	6600.382731
696.375716	6550.351799
696.711952	6537.448966
697.048139	6513.626994
697.384276	6476.483772
697.720363	6502.289439
698.056400	6476.962682
698.392388	6436.265447
698.728326	6438.843997
699.064214	6410.701756
699.400053	6405.063225
699.735842	6346.001067
700.071581	6300.688655
700.407270	6259.058807
700.742910	6230.472944
701.078501	6183.733886
701.414042	6140.710158
701.749533	6085.118834
702.084974	6028.126070
702.420366	6067.177368
702.755709	5997.019630
703.091002	5943.225477
703.426246	5950.630932
703.761440	5937.778510
704.096584	5892.148506
704.431679	5879.470004
704.766725	5864.434763
705.101721	5849.560839
705.436668	5862.004927
705.771565	5811.311084
706.106413	5868.475248
706.441212	5863.885277
706.775961	5878.466815
707.110661	5894.419546
707.445311	5954.197548
707.779913	5918.740593
708.114465	5957.640657
708.448967	5997.934599
708.783421	6118.032528
709.117825	6160.549619
709.452180	6196.785433
709.786485	6256.785246
710.120742	6387.686368
710.454949	6392.261215
710.789107	6467.432380
711.123216	6592.183294
711.457275	6619.942408
711.791286	6723.598613
712.125247	6750.573827
712.459159	6718.718776
712.793023	6847.547983
713.126837	6669.633061
713.460602	6730.600776
713.794318	6690.740372
714.127985	6633.777854
714.461602	6487.231512
714.795171	6492.300392
715.128691	6320.603733
715.462162	6237.212967
715.795584	6170.170662
716.128957	6124.775071
716.462281	6059.479526
716.795556	6019.457806
717.128782	5932.384476
717.461960	5835.526266
717.795088	5821.882383
718.128167	5753.063072
718.461198	5671.890412
718.794180	5647.970137
719.127113	5588.633236
719.459997	5556.558895
719.792833	5490.078678
720.125619	5486.970807
720.458357	5426.464358
720.791046	5394.931941
721.123686	5370.106779
721.456278	5322.498122
721.788821	5316.579807
722.121315	5277.503303
722.453761	5286.665600
722.786158	5266.425368
723.118506	5267.743629
723.450805	5247.770578
723.783056	5274.793683
724.115259	5259.110653
724.447412	5241.393518
724.779518	5287.015960
725.111574	5291.278256
725.443582	5329.843083
725.775542	5318.941588
726.107453	5402.274381
726.439315	5371.654413
726.771129	5445.141833
727.102895	5512.474004
727.434612	5554.194594
727.766281	5582.793059
728.097901	5636.776255
728.429473	5649.540457
728.760996	5659.872302
729.092471	5687.185273
729.423897	5671.063663
729.755276	5645.346217
730.086606	5657.681920
730.417887	5747.943780
730.749120	5840.789231
731.080305	5878.297936
731.411442	5956.917251
731.742530	5974.306711
732.073570	5992.190204
732.404562	6060.888528
732.735506	6052.694133
733.066401	6033.031112
733.397249	5964.269774
733.728048	5870.700917
734.058798	5729.472992
734.389501	5606.030258
734.720156	5518.818297
735.050762	5412.452471
735.381320	5336.799875
735.711831	5282.118479
736.042293	5203.826840
736.372707	5199.090676
736.703073	5152.671731
737.033391	5178.890772
737.363661	5166.121529
737.693883	5179.329353
738.024056	5199.962795
738.354182	5232.289194
738.684260	5282.083191
739.014290	5320.834541
739.344272	5351.898131
739.674207	5402.733126
740.004093	5442.134785
740.333931	5448.652997
740.663722	5465.775276
740.993464	5480.528212
741.323159	5462.100275
741.652806	5413.438017
741.982405	5384.380806
742.311956	5331.985573
742.641460	5322.780426
742.970915	5267.867138
743.300323	5205.855904
743.629683	5173.947921
743.958996	5125.104181
744.288260	5076.817489
744.617477	5018.453530
744.946647	5001.651365
745.275768	4947.756389
745.604842	4913.554681
745.933869	4877.618815
746.262847	4865.736816
746.591778	4851.976986
746.920662	4825.281556
747.249498	4828.956557
747.578286	4841.423331
747.907027	4867.055077
748.235720	4906.983537
748.564365	4919.785547
748.892963	4905.380450
749.221514	4927.070014
749.550017	4900.422475
749.878473	4898.915170
750.206881	4860.879664
750.535242	4844.236295
750.863555	4828.691897
751.191821	4802.276251
751.520039	4813.933919
751.848210	4795.417761
752.176334	4798.351712
752.504411	4780.246408
752.832440	4749.641563
753.160421	4764.601187
753.488356	4743.670317
753.816243	4725.154158
754.144082	4687.678221
754.471875	4680.711346
754.799620	4667.122916
755.127318	4662.439684
755.454969	4656.594466
755.782572	4651.525586
756.110129	4656.203777
756.437638	4635.686281
756.765100	4636.349192
757.092515	4634.133605
757.419882	4637.009583
757.747203	4638.055623
758.074477	4652.480885
758.401703	4641.264317
758.728882	4672.211961
759.056014	4682.135472
759.383099	4707.366447
759.710138	4730.591043
760.037129	4748.734156
760.364073	4765.735447
760.690970	4760.515332
761.017820	4762.098254
761.344623	4794.651505
761.671379	4858.512842
761.998088	4950.828972
762.324751	5179.999826
762.651366	5643.833871
762.977935	6337.930179
763.304456	6891.973152
763.630931	7203.060235
763.957359	7137.147148
764.283740	6846.033117
764.610074	6521.879362
764.936362	6121.762982
765.262602	5799.492099
765.588796	5454.105005
765.914943	5196.938103
766.241044	4974.613136
766.567097	4803.339934
766.893104	4650.391326
767.219064	4552.262746
767.544978	4457.814208
767.870845	4375.983678
768.196665	4326.408972
768.522438	4277.454327
768.848165	4236.119386
769.173846	4196.664795
769.499479	4167.519364
769.825066	4130.907984
770.150607	4090.460286
770.476101	4075.341866
770.801548	4053.231365
771.126949	4022.616438
771.452303	4006.951052
771.777611	3967.216678
772.102872	3966.616780
772.428087	3939.240794
772.753256	3912.699119
773.078378	3896.408631
773.403453	3867.532902
773.728482	3837.132223
774.053465	3826.029082
774.378401	3802.993529
774.703291	3779.025363
775.028135	3756.256992
775.352932	3751.077207
775.677683	3728.757498
776.002388	3708.371072
776.327046	3709.805280
776.651658	3692.677960
776.976224	3669.629804
777.300743	3667.986388
777.625216	3653.924090
777.949643	3645.275990
778.274024	3649.271105
778.598359	3625.323103
778.922647	3627.798310
779.246889	3616.465796
779.571086	3619.142649
779.895236	3618.542751
780.219339	3620.213894
780.543397	3619.087196
780.867409	3634.107314
781.191374	3634.258548
781.515294	3625.575161
781.839167	3642.286586
782.162995	3642.831031
782.486776	3630.364257
782.810511	3625.691107
783.134201	3612.379941
783.457844	3612.783233
783.781441	3604.979527
784.104993	3593.531067
784.428498	3590.503854
784.751958	3587.736260
785.075372	3579.415836
785.398739	3565.555183
785.722061	3577.633788
786.045337	3577.293510
786.368568	3599.754371
786.691752	3595.270265
787.014891	3645.797750
787.337983	3690.595963
787.661030	3775.783902
787.984031	3872.536247
788.306987	3952.773772
788.629897	3998.396214
788.952760	4006.439375
789.275579	3990.121160
789.598351	3940.659879
789.921078	3889.618197
790.243759	3826.389524
790.566395	3780.610806
790.888984	3729.952251
791.211529	3695.473280
791.534027	3649.006444
791.856480	3611.379272
792.178888	3592.744647
792.501249	3575.418201
792.823566	3540.084753
793.145836	3533.092673
793.468062	3524.099255
793.790241	3511.821524
794.112375	3519.048018
794.434464	3539.878066
794.756507	3536.031666
795.078505	3557.161662
795.400457	3596.855707
795.722364	3648.136845
796.044226	3695.770708
796.366042	3740.906679
796.687812	3736.851070
797.009538	3758.848145
797.331218	3750.820108
797.652852	3742.837441
797.974442	3719.320458
798.295986	3711.103377
798.617484	3679.941485
798.938938	3656.227897
799.260346	3640.655773
799.581709	3604.195627
799.903026	3590.589553
800.224299	3572.721183
800.545526	3541.420659
800.866708	3522.765869
801.187845	3511.138448
801.508936	3488.856548
801.829983	3482.209787
802.150984	3452.860189
802.471940	3443.735701
802.792851	3436.317643
803.113717	3430.825306
803.434538	3425.796755
803.755314	3411.968870
804.076045	3405.594331
804.396731	3400.502765
804.717372	3394.181158
805.037967	3392.479769
805.358518	3396.232908
805.679024	3409.455854
805.999485	3406.169022
806.319901	3414.239909
806.640272	3415.288469
806.960598	3430.422013
807.280879	3424.728030
807.601115	3438.634053
807.921306	3429.955707
808.241453	3431.150460
808.561554	3437.073816
808.881611	3434.643980
809.201623	3437.474588
809.521590	3424.115530
809.841513	3423.273657
810.161390	3431.715069
810.481223	3411.825197
810.801011	3412.936771
811.120755	3407.613313
811.440453	3394.826426
811.760107	3389.296280
812.079716	3378.805639
812.399281	3371.367417
812.718801	3367.949514
813.038276	3364.639997
813.357707	3357.453832
813.677093	3364.299719
813.996434	3350.214735
814.315731	3352.021989
814.634983	3354.116588
814.954191	3353.897298
815.273354	3372.264742
815.592473	3382.944426
815.911547	3403.555184
816.230577	3416.266453
816.549562	3444.068417
816.868502	3458.440746
817.187399	3482.502174
817.506250	3511.299765
817.825058	3518.112884
818.143821	3561.192065
818.462539	3606.567490
818.781213	3664.800379
819.099843	3746.472113
819.418429	3895.881830
819.736970	4051.295562
820.055466	4237.336824
820.373919	4473.076302
820.692327	4814.523734
821.010691	5325.633719
821.329011	6408.161014
821.647286	8153.688260
821.965517	10328.837759
822.283704	11961.511214
822.601847	13056.374213
822.919945	12635.780665
823.237999	11947.461519
823.556010	11044.452233
823.873976	10095.422254
824.191897	9124.417885
824.509775	8352.922221
824.827609	7546.945065
825.145398	7000.249574
825.463144	6616.675740
825.780845	6485.938456
826.098502	6543.420213
826.416116	6924.591938
826.733685	7437.562109
827.051210	7722.173052
827.368692	7629.355328
827.686129	7186.500044
828.003522	6632.205014
828.320872	6060.553292
828.638177	5603.550010
828.955439	5233.751129
829.272656	4898.514398
829.589830	4611.135861
829.906960	4349.855378
830.224046	4141.272597
830.541088	3967.844301
830.858086	3854.415819
831.175041	3760.647837
831.491952	3710.816031
831.808819	3698.999567
832.125642	3729.201119
832.442421	3830.145184
832.759157	4046.055283
833.075849	4428.199950
833.392497	4895.285539
833.709101	5282.977996
834.025662	5391.327516
834.342179	5266.095172
834.658653	4998.422506
834.975083	4718.373807
835.291469	4475.198627
835.607811	4249.412908
835.924110	4093.737036
836.240366	3935.827933
836.556578	3771.274589
836.872746	3635.654948
837.188871	3521.835777
837.504952	3427.969492
837.820990	3353.879654
838.136984	3295.404790
838.452935	3265.785490
838.768842	3252.393665
839.084706	3287.044036
839.400526	3421.375663
839.716303	3646.606855
840.032037	3855.149307
840.347727	3924.578598
840.663373	3833.227850
840.978977	3683.747556
841.294537	3550.814849
841.610054	3447.148562
841.925527	3368.635111
842.240957	3305.096408
842.556344	3242.187849
842.871687	3181.918334
843.186987	3121.979015
843.502244	3068.767116
843.817458	3027.694315
844.132629	2996.736589
844.447756	2975.856130
844.762840	2951.126750
845.077881	2938.289451
845.392879	2923.047523
845.707833	2909.922879
846.022745	2896.120199
846.337613	2894.711197
846.652438	2887.426730
846.967221	2887.343551
847.281960	2874.818804
847.596656	2872.265459
847.911309	2865.747248
848.225919	2860.161649
848.540485	2854.470186
848.855009	2854.341637
849.169490	2850.790144
849.483928	2846.021212
849.798323	2841.695902
850.112675	2842.804956
850.426984	2838.582990
850.741251	2838.497290
851.055474	2839.051817
851.369654	2835.898576
851.683792	2833.584686
851.997887	2837.695747
852.311938	2834.320694
852.625947	2836.543843
852.939914	2831.817762
853.253837	2834.550067
853.567718	2833.473781
853.881555	2830.839778
854.195350	2833.985458
854.509103	2834.653411
854.822812	2835.830520
855.136479	2831.200220
855.450103	2835.442351
855.763685	2831.648883
856.077224	2833.183914
856.390720	2834.328256
856.704173	2835.454954
857.017584	2836.863957
857.330953	2838.671210
857.644278	2843.525841
857.957561	2845.249916
858.270802	2846.076665
858.584000	2843.787981
858.897155	2845.544823
859.210268	2840.675069
859.523339	2835.840602
859.836367	2838.653566
860.149352	2837.461333
860.462295	2836.702640
860.775195	2829.796259
861.088054	2831.152329
861.400869	2827.008501
861.713642	2826.801813
862.026373	2828.417503
862.339062	2832.778101
862.651708	2836.478308
862.964312	2839.876046
863.276873	2841.945440
863.589392	2850.923735
863.901869	2856.227028
864.214303	2863.050230
864.526696	2866.974768
864.839045	2875.834596
865.151353	2881.846172
865.463619	2885.304404
865.775842	2885.740464
866.088023	2893.110631
866.400162	2891.789848
866.712258	2891.782287
867.024313	2896.911661
867.336325	2898.093811
867.648296	2897.932494
867.960224	2898.852505
868.272110	2902.640932
868.583954	2902.792167
868.895755	2904.745614
869.207515	2903.939029
869.519233	2908.697878
869.830909	2913.912952
870.142542	2917.010741
870.454134	2916.879671
870.765684	2925.212698
871.077191	2928.353337
871.388657	2932.902978
871.700081	2938.344904
872.011463	2942.871860
872.322803	2954.252265
872.634101	2954.796710
872.945357	2964.800879
873.256571	2974.666418
873.567744	2979.536172
873.878874	2981.676142
874.189963	2991.972699
874.501010	2995.166270
874.812015	2996.416476
875.122979	3003.358145
875.433900	3003.398474
875.744780	3008.817714
876.055618	3014.914990
876.366415	3013.700072
876.677169	3020.031761
876.987882	3026.930580
877.298554	3034.280582
877.609183	3053.323541
877.919771	3070.103022
878.230317	3091.288471
878.540822	3128.046044
878.851285	3179.228879
879.161707	3246.699682
879.472087	3355.334027
879.782425	3513.139786
880.092722	3792.543217
880.402977	4214.074420
880.713191	4762.052884
881.023363	5368.138208
881.333494	5812.518440
881.643583	6098.671977
881.953631	6178.193658
882.263637	6125.485874
882.573602	5984.772147
882.883526	5812.331918
883.193408	5611.557883
883.503248	5388.950612
883.813048	5169.206716
884.122806	4949.977017
884.432522	4709.340059
884.742197	4481.822703
885.051831	4275.783184
885.361424	4074.081577
885.670975	3903.572110
885.980485	3755.888988
886.289954	3629.996253
886.599382	3524.225283
886.908768	3442.394754
887.218113	3359.409800
887.527417	3297.688433
887.836680	3240.743559
888.145901	3190.889068
888.455082	3157.987977
888.764221	3121.621093
889.073319	3091.515322
889.382376	3074.705595
889.691392	3058.810837
890.000366	3046.523024
890.309300	3037.857281
890.618193	3038.767209
890.927044	3030.958462
891.235855	3033.819317
891.544625	3035.598844
891.853353	3042.376675
892.162041	3056.010476
892.470687	3081.667428
892.779293	3115.342336
893.087858	3165.204389
893.396381	3241.280442
893.704864	3349.458562
894.013306	3507.203828
894.321707	3692.587219
894.630068	3843.577338
894.938387	3925.359977
895.246665	3929.886933
895.554903	3872.619426
895.863100	3784.653812
896.171256	3713.276114
896.479371	3640.305412
896.787446	3562.250707
897.095480	3489.937876
897.403473	3430.691715
897.711425	3376.128786
898.019336	3326.939728
898.327207	3272.442334
898.635038	3223.641444
898.942827	3173.532375
899.250576	3131.063174
899.558284	3093.408276
899.865952	3066.249059
900.173579	3037.199410
900.481165	3015.179650
900.788711	2993.021259
901.096216	2980.806543
901.403681	2964.495890
901.711105	2958.459108
902.018489	2953.443160
902.325832	2958.779221
902.633135	2970.809935
902.940397	3008.129597
903.247619	3095.649069
903.554800	3272.996861
903.861941	3553.680745
904.169041	3817.123884
904.476101	3986.874657
904.783121	4008.622195
905.090100	3943.233388
905.397039	3837.303623
905.703938	3729.601891
906.010796	3625.769245
906.317614	3537.937222
906.624391	3454.579223
906.931129	3383.110784
907.237826	3316.353305
907.544483	3250.621700
907.851099	3177.461954
908.157675	3101.660645
908.464211	3032.390150
908.770707	2971.639205
909.077163	2926.707400
909.383578	2892.331772
909.689954	2860.280116
909.996289	2839.190449
910.302584	2826.806855
910.608839	2820.134887
910.915054	2808.285655
911.221229	2802.649645
911.527363	2807.799184
911.833458	2804.555202
912.139513	2811.824545
912.445527	2813.505770
912.751502	2823.840136
913.057436	2839.714729
913.363331	2856.441278
913.669186	2886.693242
913.975000	2925.235383
914.280775	2983.624548
914.586510	3065.349213
914.892205	3175.740400
915.197859	3323.058039
915.503475	3502.510513
915.809050	3679.200435
916.114585	3814.580622
916.420081	3893.484762
916.725536	3924.530707
917.030952	3884.118298
917.336328	3845.984489
917.641665	3800.765339
917.946961	3742.668562
918.252218	3681.973070
918.557435	3606.078498
918.862612	3539.903272
919.167750	3482.610558
919.472848	3407.772109
919.777906	3337.503466
920.082925	3265.815737
920.387904	3192.219932
920.692843	3140.222951
920.997743	3087.983994
921.302603	3038.598331
921.607423	3004.073988
921.912204	2967.462609
922.216946	2940.608382
922.521647	2919.306987
922.826310	2895.613563
923.130932	2876.817621
923.435516	2855.095289
923.740059	2844.370235
924.044564	2827.278202
924.349028	2815.479382
924.653454	2800.991106
924.957840	2784.272119
925.262186	2774.673762
925.566493	2765.829058
925.870761	2752.217942
926.174989	2749.916656
926.479178	2739.451220
926.783328	2731.181207
927.087438	2727.191134
927.391509	2721.214846
927.695541	2710.915769
927.999533	2707.233206
928.303486	2701.990406
928.607400	2702.398739
928.911275	2699.033769
929.215110	2693.493541
929.518906	2689.140505
929.822663	2689.657223
930.126381	2688.107068
930.430060	2688.316276
930.733699	2687.575227
931.037299	2689.816019
931.340861	2689.304342
931.644383	2690.559590
931.947866	2688.333920
932.251309	2690.302491
932.554714	2687.970957
932.858080	2689.722758
933.161407	2688.712007
933.464694	2685.856193
933.767943	2685.503312
934.071153	2682.581964
934.374323	2683.154135
934.677455	2683.078517
934.980548	2679.844617
935.283602	2681.079700
935.586617	2678.024761
935.889593	2677.828156
936.192530	2677.513083
936.495428	2680.245389
936.798287	2684.553055
937.101108	2689.810978
937.403890	2696.130065
937.706632	2705.183977
938.009336	2718.028837
938.312002	2730.036865
938.614628	2737.487691
938.917216	2749.510843
939.219765	2758.511823
939.522275	2763.779829
939.824747	2768.750406
940.127179	2764.546084
940.429573	2763.454674
940.731929	2765.340066
941.034246	2764.815786
941.336524	2764.130189
941.638763	2764.029366
941.940964	2766.592792
942.243126	2757.942172
942.545250	2753.442943
942.847335	2752.704414
943.149381	2741.276118
943.451389	2738.269070
943.753359	2729.762122
944.055290	2726.523181
944.357182	2721.721482
944.659036	2718.580843
944.960851	2716.511450
945.262628	2711.394678
945.564367	2710.174719
945.866067	2708.962322
946.167729	2707.107177
946.469352	2705.549461
946.770937	2707.981817
947.072484	2703.442258
947.373992	2703.648946
947.675462	2704.354707
947.976893	2700.077288
948.278286	2698.907740
948.579641	2699.142154
948.880958	2698.658203
949.182236	2695.787266
949.483476	2693.554035
949.784678	2697.153419
950.085841	2691.456915
950.386967	2697.329859
950.688054	2695.235260
950.989103	2699.389171
951.290114	2702.250025
951.591087	2706.928216
951.892021	2707.671786
952.192917	2714.709237
952.493776	2722.240721
952.794596	2723.531256
953.095378	2726.298850
953.396122	2725.588047
953.696828	2725.081411
953.997496	2721.870196
954.298126	2720.909856
954.598718	2718.323744
954.899272	2713.453990
955.199788	2710.472147
955.500266	2704.601724
955.800706	2696.830785
956.101108	2690.904909
956.401472	2686.120854
956.701798	2678.813701
957.002087	2670.773061
957.302337	2667.448420
957.602550	2661.283089
957.902724	2655.790752
958.202861	2651.820843
958.502960	2646.872950
958.803022	2644.264153
959.103045	2639.545633
959.403031	2634.532206
959.702979	2629.329735
960.002889	2629.727986
960.302762	2627.709004
960.602596	2624.270937
960.902393	2624.369240
961.202153	2621.750360
961.501875	2617.011676
961.801559	2616.673918
962.101205	2615.199381
962.400814	2613.881119
962.700385	2615.423712
962.999918	2613.485388
963.299414	2609.911210
963.598873	2609.439862
963.898293	2611.322733
964.197677	2608.572784
964.497022	2603.503904
964.796331	2605.822835
965.095601	2605.275869
965.394835	2605.159923
965.694030	2604.557505
965.993189	2605.767382
966.292309	2604.842330
966.591393	2602.593976
966.890439	2605.401898
967.189447	2603.929881
967.488419	2603.534151
967.787353	2604.890221
968.086249	2604.068513
968.385108	2604.449120
968.683930	2606.127824
968.982714	2607.677979
969.281462	2606.518514
969.580172	2607.199070
969.878844	2606.778133
970.177480	2609.306272
970.476078	2609.845675
970.774639	2612.585542
971.073162	2614.032354
971.371649	2612.542693
971.670098	2613.097220
971.968510	2616.184926
972.266885	2613.964298
972.565223	2618.811367
972.863524	2618.461007
973.161788	2621.231121
973.460014	2622.803961
973.758204	2620.462345
974.056356	2621.730196
974.354471	2621.825977
974.652550	2623.630711
974.950591	2625.057357
975.248595	2624.023921
975.546563	2623.759260
975.844493	2620.631224
976.142386	2623.696246
976.440243	2619.038219
976.738062	2618.773559
977.035845	2617.911522
977.333590	2616.424381
977.631299	2613.679473
977.928971	2612.124277
978.226606	2615.090996
978.524204	2615.844648
978.821765	2611.534462
979.119290	2613.624020
979.416777	2611.078237
979.714228	2609.883484
980.011642	2615.310286
980.309020	2616.535287
980.606360	2615.758949
980.903664	2617.815740
981.200931	2626.156329
981.498162	2632.414921
981.795356	2642.063690
982.092513	2661.585558
982.389633	2676.015861
982.686717	2696.356917
982.983764	2712.445759
983.280775	2726.172821
983.577749	2730.997205
983.874686	2731.183728
984.171587	2727.347410
984.468451	2723.206102
984.765279	2715.193188
985.062070	2709.658001
985.358824	2699.850436
985.655543	2691.935825
985.952224	2680.651202
986.248869	2669.565704
986.545478	2654.618683
986.842050	2644.148207
987.138586	2632.160343
987.435086	2624.535598
987.731549	2615.343054
988.027975	2611.383227
988.324366	2608.882815
988.620719	2607.768720
988.917037	2599.334870
989.213318	2597.953593
989.509563	2596.673140
989.805772	2597.099118
990.101944	2595.284302
990.398080	2595.281782
990.694180	2594.041658
990.990244	2596.660537
991.286271	2596.990733
991.582262	2596.733634
991.878217	2597.278079
992.174136	2597.618357
992.470019	2597.358737
992.765865	2599.886876
993.061676	2596.675661
993.357450	2600.282607
993.653188	2598.523244
993.948890	2604.222268
994.244556	2606.337032
994.540186	2612.903135
994.835780	2614.891870
995.131337	2620.646347
995.426859	2630.136320
995.722345	2635.253091
996.017795	2647.457724
996.313208	2659.120434
996.608586	2663.203768
996.903928	2665.923471
997.199234	2667.221568
997.494504	2669.386743
997.789738	2665.510096
998.084936	2662.434992
998.380099	2657.477017
998.675225	2653.912922
998.970316	2649.509474
999.265371	2641.809111
999.560390	2635.313585
999.855373	2627.116668
1000.150320	2622.526698
1000.445232	2615.960595
1000.740108	2611.111005
1001.034948	2605.185129
1001.329752	2602.185642
1001.624521	2600.290168
1001.919254	2594.901175
1002.213951	2594.087028
1002.508613	2589.144177
1002.803239	2589.043354
1003.097829	2587.052098
1003.392384	2590.714497
1003.686903	2589.192068
1003.981386	2588.297263
1004.275834	2586.404310
1004.570246	2588.645103
1004.864623	2587.294074
1005.158964	2586.381625
1005.453270	2585.401120
1005.747540	2585.123857
1006.041775	2583.961871
1006.335974	2585.149063
1006.630138	2584.297108
1006.924266	2587.261306
1007.218359	2584.463466
1007.512416	2585.138980
1007.806438	2586.280802
1008.100425	2583.805595
1008.394376	2583.364494
1008.688292	2581.199319
1008.982172	2579.608835
1009.276017	2583.495564
1009.569827	2582.499936
1009.863602	2585.050760
1010.157341	2585.247365
1010.451045	2583.062025
1010.744714	2580.178485
1011.038347	2581.960533
1011.331945	2581.322827
1011.625508	2584.224011
1011.919036	2581.300142
1012.212528	2580.170923
1012.505986	2581.665625
1012.799408	2580.228897
1013.092795	2578.182188
1013.386147	2580.740574
1013.679464	2579.780234
1013.972745	2580.163362
1014.265992	2578.643454
1014.559204	2580.549010
1014.852380	2577.930130
1015.145521	2582.068918
1015.438628	2579.888619
1015.731699	2581.156469
1016.024736	2581.907601
1016.317737	2581.532035
1016.610703	2578.840059
1016.903635	2578.300655
1017.196531	2578.189750
1017.489393	2576.679924
1017.782219	2575.197825
1018.075011	2579.707137
1018.367768	2581.146387
1018.660490	2582.394072
1018.953177	2582.394072
1019.245829	2582.394072
