Dividing Wavelength (nm)	Counts (n)	Blue Motor Position (mm): 39.500000	Red Motor Position (mm): 0.000000	
326.493990	2155.178969
326.888308	2155.178969
327.282561	2155.178969
327.676750	2127.929012
328.070874	2131.293982
328.464933	2138.402009
328.858929	2144.002731
329.252859	2156.446819
329.646726	2171.484581
330.040528	2184.279029
330.434265	2204.481453
330.827938	2222.254041
331.221547	2242.428739
331.615091	2263.886410
332.008571	2281.459873
332.401986	2302.030301
332.795338	2323.369505
333.188625	2342.427587
333.581847	2362.607326
333.975006	2382.580378
334.368100	2402.666855
334.761129	2416.845100
335.154095	2434.519386
335.546996	2459.936883
335.939833	2488.963847
336.332606	2503.913389
336.725315	2517.728671
337.117960	2522.318642
337.510540	2532.128727
337.903056	2538.636857
338.295508	2550.816284
338.687896	2555.489434
339.080220	2562.133675
339.472480	2567.585683
339.864676	2569.274469
340.256807	2573.856878
340.648875	2576.415264
341.040879	2581.247210
341.432818	2577.524317
341.824694	2580.672518
342.216506	2580.261664
342.608253	2582.323496
342.999937	2580.130594
343.391557	2579.160172
343.783113	2577.552044
344.174605	2578.204873
344.566033	2575.827969
344.957397	2573.637588
345.348697	2569.597103
345.739934	2571.631209
346.131106	2568.382185
346.522215	2565.702812
346.913260	2564.082081
347.304241	2563.104097
347.695159	2560.422203
348.086012	2558.398180
348.476802	2560.686864
348.867528	2556.371636
349.258191	2553.846018
349.648789	2556.893395
350.039324	2552.928528
350.429796	2553.099927
350.820203	2549.424926
351.210548	2549.971891
351.600828	2548.880481
351.991045	2552.489948
352.381198	2548.583053
352.771288	2548.257899
353.161314	2548.454504
353.551276	2548.593136
353.941175	2548.819988
354.331010	2547.226983
354.720782	2548.557848
355.110490	2550.544062
355.500135	2550.428116
355.889717	2551.544731
356.279235	2550.453321
356.668689	2549.440049
357.058080	2551.138918
357.447408	2549.177909
357.836672	2546.690100
358.225873	2548.235214
358.615010	2546.443083
359.004084	2553.319217
359.393095	2552.852911
359.782043	2553.326779
360.170927	2553.258723
360.559748	2554.191337
360.948505	2555.418858
361.337199	2557.621842
361.725830	2559.003118
362.114398	2557.841132
362.502903	2555.953220
362.891344	2561.145609
363.279722	2558.814075
363.668037	2557.231153
364.056289	2561.012018
364.444478	2558.826678
364.832603	2559.635783
365.220665	2559.792059
365.608665	2560.545711
365.996601	2561.107800
366.384474	2561.075032
366.772284	2561.526216
367.160031	2561.286761
367.547715	2562.746175
367.935336	2561.001936
368.322893	2563.918243
368.710388	2563.714077
369.097820	2567.613409
369.485189	2563.492266
369.872495	2564.266083
370.259738	2565.672565
370.646918	2563.404046
371.034035	2563.063768
371.421090	2565.065106
371.808081	2566.441341
372.195010	2565.707853
372.581875	2567.336146
372.968678	2566.287586
373.355418	2567.656259
373.742096	2568.866136
374.128710	2567.565518
374.515262	2569.571897
374.901751	2564.689540
375.288177	2568.450241
375.674540	2565.274314
376.060841	2569.564336
376.447079	2567.278172
376.833254	2567.258008
377.219367	2564.389591
377.605417	2567.008471
377.991404	2567.946125
378.377329	2568.546023
378.763191	2567.968810
379.148991	2572.841086
379.534727	2572.462999
379.920402	2573.259501
380.306013	2571.560633
380.691563	2571.399316
381.077049	2572.573904
381.462474	2572.089954
381.847835	2573.032649
382.233134	2571.202711
382.618371	2575.275963
383.003545	2576.664801
383.388657	2572.982238
383.773706	2573.541806
384.158693	2573.859399
384.543618	2576.448031
384.928480	2576.536251
385.313280	2577.584811
385.698017	2576.460634
386.082692	2575.896025
386.467305	2576.944585
386.851856	2579.092116
387.236344	2575.674214
387.620770	2577.269739
388.005133	2577.375603
388.389435	2579.132446
388.773674	2576.836200
389.157851	2576.206056
389.541965	2578.388875
389.926018	2579.881057
390.310008	2580.032292
390.693936	2580.874164
391.077802	2582.300811
391.461606	2581.355594
391.845348	2583.006572
392.229027	2583.636717
392.612645	2583.850966
392.996200	2586.815164
393.379694	2585.144022
393.763125	2587.251224
394.146494	2586.542942
394.529801	2586.323652
394.913047	2591.510999
395.296230	2591.808427
395.679351	2590.926225
396.062410	2597.699015
396.445408	2600.506938
396.828343	2598.366968
397.211217	2599.450816
397.594028	2604.416353
397.976778	2606.727722
398.359466	2610.591766
398.742092	2614.049998
399.124656	2622.635083
399.507158	2625.448047
399.889598	2630.441309
400.271977	2636.951960
400.654294	2643.288690
401.036549	2651.546100
401.418742	2656.378046
401.800874	2665.782318
402.182944	2672.837413
402.564952	2688.482634
402.946898	2693.599405
403.328783	2699.144675
403.710606	2713.600183
404.092367	2724.829353
404.474067	2738.049779
404.855705	2746.443301
405.237282	2753.972264
405.618797	2770.933226
406.000250	2788.804116
406.381642	2807.542085
406.762972	2821.826195
407.144240	2830.189469
407.525447	2851.798375
407.906593	2859.947400
408.287677	2879.716285
408.668700	2900.558935
409.049661	2913.681059
409.430560	2935.995726
409.811399	2946.985442
410.192176	2968.826241
410.572891	2986.130001
410.953545	3020.631658
411.334138	3015.028416
411.714669	3060.345868
412.095139	3040.624874
412.475547	3082.796647
412.855894	3090.249993
413.236180	3122.682256
413.616405	3124.335755
413.996568	3154.849859
414.376670	3171.979700
414.756711	3176.942716
415.136691	3209.896738
415.516609	3238.616192
415.896466	3259.872217
416.276262	3290.724078
416.655997	3324.749346
417.035670	3342.514373
417.415283	3405.596851
417.794834	3433.202210
418.174324	3435.770678
418.553753	3446.006740
418.933121	3494.658916
419.312428	3499.513547
419.691674	3505.290710
420.070859	3545.730846
420.449983	3541.682799
420.829045	3597.448043
421.208047	3589.921600
421.586988	3639.176194
421.965867	3677.577183
422.344686	3697.154504
422.723444	3737.052717
423.102141	3660.172600
423.480777	3758.495264
423.859352	3738.154209
424.237866	3840.091381
424.616319	3832.161646
424.994712	3891.004514
425.373044	3886.580901
425.751314	3956.121098
426.129524	3898.377201
426.507673	3996.510823
426.885762	3977.672031
427.263789	4006.068850
427.641756	4013.985982
428.019662	4047.658370
428.397508	4051.676169
428.775292	4091.163527
429.153016	4099.355402
429.530679	4116.858288
429.908282	4127.764825
430.285824	4106.483594
430.663305	4183.726674
431.040726	4141.925426
431.418086	4135.271103
431.795385	4206.303481
432.172624	4237.147781
432.549802	4212.473853
432.926920	4227.642685
433.303977	4224.247468
433.680974	4267.916463
434.057910	4288.754073
434.434786	4296.199857
434.811601	4291.854383
435.188355	4397.806833
435.565050	4371.625601
435.941683	4366.927246
436.318257	4456.223724
436.694770	4458.819918
437.071222	4516.901573
437.447614	4451.908497
437.823946	4454.081234
438.200218	4467.931804
438.576429	4451.172488
438.952580	4480.151561
439.328670	4483.970235
439.704700	4529.262482
440.080670	4493.424919
440.456580	4555.443714
440.832429	4590.502419
441.208218	4493.583715
441.583947	4541.867887
441.959616	4560.530238
442.335224	4585.501594
442.710773	4606.555973
443.086261	4660.166124
443.461689	4615.839258
443.837057	4623.095999
444.212365	4705.206313
444.587612	4704.999625
444.962800	4673.817568
445.337927	4713.695616
445.712995	4599.705045
446.088002	4791.939365
446.462949	4811.665400
446.837837	4832.596270
447.212664	4819.068334
447.587431	5045.471594
447.962139	5346.433520
448.336786	5681.198903
448.711374	5668.958982
449.085901	5311.788190
449.460369	5244.587089
449.834776	5185.754303
450.209124	5418.884983
450.583412	5433.988280
450.957640	5556.470675
451.331808	5413.526237
451.705917	5271.035503
452.079965	5255.639819
452.453954	5297.307476
452.827883	5259.816415
453.201752	5267.121047
453.575562	5296.679852
453.949311	5431.092137
454.323001	5438.122026
454.696632	5430.199853
455.070202	5586.258853
455.443713	5617.062823
455.817164	5709.925918
456.190556	5779.493841
456.563888	5754.217496
456.937160	5833.832439
457.310373	5675.273027
457.683526	5726.894442
458.056619	5731.307972
458.429653	5707.007090
458.802628	5755.888638
459.175542	5780.444099
459.548398	5926.123363
459.921194	6114.871724
460.293930	6170.533625
460.666607	6425.540392
461.039224	6640.689276
461.411782	6768.245592
461.784280	6682.364495
462.156719	6686.967069
462.529099	6643.933259
462.901419	6503.804305
463.273680	6374.165993
463.645882	6363.690475
464.018024	6365.250712
464.390106	6430.644560
464.762130	6692.192225
465.134094	7083.048006
465.505999	7722.266313
465.877845	8428.975589
466.249631	8775.436449
466.621358	8702.054893
466.993026	8500.260025
467.364634	8283.250955
467.736184	8009.760797
468.107674	7849.094182
468.479105	7765.408508
468.850477	7695.568363
469.221790	7531.972838
469.593043	7305.088147
469.964238	7206.352108
470.335373	7187.273862
470.706449	7339.257088
471.077467	7527.458485
471.448425	8188.535236
471.819324	8772.913351
472.190164	8804.654976
472.560945	8316.741860
472.931667	7850.568720
473.302330	7656.048237
473.672934	7541.785444
474.043479	7611.623069
474.413965	7511.578850
474.784393	7468.424053
475.154761	7620.245963
475.525070	7630.555122
475.895321	7589.510048
476.265513	7683.031013
476.635645	7848.401024
477.005719	7841.275353
477.375734	7925.139988
477.745691	8039.105353
478.115588	8240.070951
478.485427	8475.354204
478.855207	8952.252399
479.224928	9391.412517
479.594591	9771.805383
479.964194	9776.700343
480.333739	9866.435402
480.703226	9865.739723
481.072653	9965.055495
481.442022	10074.796373
481.811333	10229.277492
482.180584	10062.218694
482.549777	10006.438327
482.918912	9939.574983
483.287988	9933.742368
483.657005	9848.705664
484.025964	9757.624617
484.394864	9821.168361
484.763706	9777.355693
485.132489	9683.068472
485.501213	9678.115539
485.869879	9744.925951
486.238487	9681.198204
486.607036	9753.717723
486.975527	9701.793838
487.343959	9760.956820
487.712333	9805.555908
488.080648	9841.574952
488.448905	9947.960942
488.817104	9950.695768
489.185244	10118.293969
489.553326	10332.782462
489.921350	10812.044958
490.289315	11444.301433
490.657222	11724.040101
491.025070	11902.600291
491.392861	11816.230202
491.760593	11656.009730
492.128267	11403.962120
492.495883	11169.684577
492.863440	10932.808319
493.230939	10702.447753
493.598380	10521.603921
493.965763	10504.242187
494.333088	10372.955417
494.700354	10303.054778
495.067563	10272.142423
495.434713	10279.121900
495.801805	10324.620834
496.168839	10278.680799
496.535815	10256.577860
496.902733	10304.279778
497.269593	10261.142625
497.636395	10267.761660
498.003139	10371.884172
498.369825	10299.311721
498.736453	10388.184743
499.103023	10337.266569
499.469535	10341.460809
499.835989	10386.768179
500.202385	10362.517708
500.568723	10385.036543
500.935003	10437.651065
501.301226	10410.509493
501.667390	10579.320091
502.033497	10679.858343
502.399546	10604.160377
502.765537	10513.170070
503.131470	10615.540782
503.497345	10709.974196
503.863163	10481.612447
504.228923	10607.096849
504.594625	10729.813657
504.960269	10641.936263
505.325856	10793.110385
505.691385	10669.463484
506.056856	10743.029042
506.422270	10839.612508
506.787625	10777.941553
507.152924	10823.836217
507.518164	10886.104550
507.883347	10751.309137
508.248472	10828.408544
508.613540	10936.954668
508.978550	11006.041161
509.343503	10999.167548
509.708398	11051.119159
510.073236	11183.477174
510.438016	11190.595283
510.802738	11104.774680
511.167403	11227.625079
511.532010	11297.699638
511.896561	11387.623740
512.261053	11583.522978
512.625488	11493.419915
512.989866	11482.034469
513.354186	11465.615431
513.718449	11475.997687
514.082655	11616.882814
514.446803	11573.710372
514.810894	11687.222034
515.174927	11680.476970
515.538904	11666.598673
515.902822	11831.774600
516.266684	11691.640605
516.630488	11793.799588
516.994235	11780.881631
517.357925	11903.631207
517.721558	11959.807304
518.085133	12021.495904
518.448651	12054.099567
518.812112	12014.241684
519.175516	12019.726459
519.538863	12112.773556
519.902152	12123.440638
520.265385	12227.991648
520.628560	12251.780853
520.991678	12196.118953
521.354739	12256.224630
521.717743	12326.836072
522.080690	12291.222841
522.443580	12432.586877
522.806413	12451.367695
523.169189	12440.872013
523.531908	12494.862771
523.894569	12457.898510
524.257174	12467.466620
524.619722	12587.138571
524.982213	12556.422821
525.344647	12545.838918
525.707025	12563.268708
526.069345	12661.145230
526.431608	12646.556131
526.793815	12726.231568
527.155964	12608.989453
527.518057	12644.025472
527.880093	12600.598452
528.242072	12723.675703
528.603995	12648.212150
528.965860	12667.048422
529.327669	12695.846013
529.689421	12634.595994
530.051117	12650.828509
530.412755	12690.361238
530.774337	12687.586082
531.135862	12646.321718
531.497331	12709.089124
531.858743	12671.850121
532.220098	12759.692226
532.581396	12680.863704
532.942638	12608.641613
533.303824	12678.186851
533.664953	12649.434630
534.026025	12605.367384
534.387040	12715.146070
534.747999	12683.283457
535.108902	12734.186508
535.469748	12605.894184
535.830537	12639.506078
536.191270	12670.662929
536.551947	12603.431581
536.912567	12669.677383
537.273131	12702.414636
537.633638	12575.385121
537.994089	12633.915438
538.354483	12553.178838
538.714821	12679.613498
539.075103	12761.948143
539.435328	12699.130325
539.795497	12680.793127
540.155609	12670.178978
540.515665	12772.514401
540.875665	12629.091054
541.235609	12722.264180
541.595496	12682.376050
541.955328	12859.900282
542.315102	12715.002397
542.674821	12658.788491
543.034483	12672.555882
543.394090	12663.701095
543.753640	12642.906336
544.113134	12881.877193
544.472571	12636.436015
544.831953	12915.920105
545.191278	12735.661046
545.550548	12676.311542
545.909761	12789.921505
546.268918	12833.156961
546.628019	12892.612330
546.987064	12772.779062
547.346053	12626.966207
547.704986	12828.077999
548.063863	12709.207591
548.422684	12762.290941
548.781449	12718.846277
549.140158	12825.728821
549.498811	12766.775047
549.857408	12640.768887
550.215949	12842.614166
550.574434	12814.169455
550.932864	12738.683218
551.291237	12947.238273
551.649555	12838.238444
552.007817	12891.548646
552.366022	12818.013335
552.724173	12855.985827
553.082267	12946.517388
553.440305	13031.014688
553.798288	12851.131195
554.156215	12935.696551
554.514086	12985.593892
554.871902	12926.801435
555.229661	12946.945886
555.587365	12896.327660
555.945014	12922.057709
556.302606	12892.897155
556.660143	12955.044500
557.017625	12986.400477
557.375050	12950.726751
557.732421	13042.074980
558.089735	13037.086758
558.446994	13015.550949
558.804197	13130.678300
559.161345	13124.644038
559.518437	12945.262141
559.875474	13044.502295
560.232455	13066.932909
560.589381	13104.597890
560.946251	13039.519115
561.303065	13217.187020
561.659825	13165.280780
562.016528	13083.167945
562.373177	13027.153164
562.729770	13152.060354
563.086307	13041.528014
563.442789	13148.062719
563.799216	13177.616483
564.155587	13120.845529
564.511904	13144.987615
564.868164	13165.111901
565.224370	13224.773957
565.580520	13173.674301
565.936615	13239.811719
566.292654	13178.917101
566.648638	13247.562493
567.004567	13245.951844
567.360441	13247.280188
567.716260	13213.133932
568.072023	13292.327939
568.427732	13280.496351
568.783385	13184.676619
569.138982	13300.179536
569.494525	13290.561014
569.850013	13235.904824
570.205445	13225.535171
570.560823	13237.785175
570.916145	13200.891490
571.271412	13201.680431
571.626625	13159.259121
571.981782	13172.363601
572.336884	13114.017286
572.691931	13203.429711
573.046923	13089.466867
573.401860	13070.428949
573.756743	13059.598030
574.111570	13089.550046
574.466342	13056.734655
574.821059	13114.723048
575.175722	12978.153149
575.530330	12997.216272
575.884882	12935.492384
576.239380	12937.884412
576.593823	12928.583483
576.948211	12927.597937
577.302544	12802.118577
577.656823	12815.707007
578.011047	12878.605484
578.365216	12805.599494
578.719330	12748.551276
579.073389	12713.754712
579.427394	12740.009041
579.781344	12726.171074
580.135239	12659.751351
580.489080	12673.652333
580.842866	12548.893858
581.196597	12651.186431
581.550273	12635.478196
581.903895	12595.884973
582.257463	12719.811658
582.610975	12555.250753
582.964434	12625.471505
583.317837	12532.401723
583.671186	12493.826814
584.024481	12550.471739
584.377721	12437.996035
584.730906	12506.709482
585.084037	12527.920137
585.437113	12447.188579
585.790135	12461.644088
586.143103	12365.584901
586.496016	12385.502500
586.848874	12399.640416
587.201679	12400.865416
587.554428	12281.085080
587.907124	12336.351250
588.259765	12268.535128
588.612352	12337.034326
588.964884	12206.120602
589.317362	12252.224474
589.669786	12239.515726
590.022155	12195.085516
590.374470	12298.930765
590.726731	12188.058148
591.078937	12069.061711
591.431090	12102.406423
591.783188	12021.621933
592.135232	11943.083277
592.487222	12003.478820
592.839157	12019.343331
593.191038	11952.623660
593.542866	11901.340002
593.894639	11747.794018
594.246358	11814.415386
594.598022	11816.850264
594.949633	11716.001981
595.301190	11708.326824
595.652692	11665.550113
596.004141	11753.908937
596.355535	11523.409739
596.706876	11509.022286
597.058162	11483.120838
597.409395	11572.853376
597.760573	11602.956627
598.111698	11490.695172
598.462768	11499.171872
598.813785	11500.843014
599.164748	11374.002542
599.515657	11456.841303
599.866511	11330.704072
600.217312	11456.465737
600.568060	11220.166692
600.918753	11384.843544
601.269392	11386.131558
601.619978	11292.716457
601.970510	11326.444297
602.320988	11366.975174
602.671412	11441.087697
603.021783	11368.696728
603.372100	11296.807353
603.722363	11305.379836
604.072572	11317.024901
604.422728	11320.505818
604.772830	11266.381469
605.122878	11279.864035
605.472872	11254.217165
605.822813	11313.395270
606.172701	11266.585636
606.522534	11310.347893
606.872314	11357.633916
607.222041	11289.074223
607.571714	11371.960875
607.921333	11240.376677
608.270899	11286.898966
608.620411	11349.938594
608.969870	11298.627210
609.319276	11282.719849
609.668627	11293.891046
610.017926	11380.908923
610.367171	11409.572924
610.716362	11404.599826
611.065500	11371.633200
611.414585	11388.536189
611.763616	11445.581886
612.112594	11403.936914
612.461518	11431.098651
612.810389	11479.097997
613.159207	11427.728639
613.507971	11422.876529
613.856682	11520.926971
614.205340	11473.265382
614.553945	11612.497010
614.902496	11491.642908
615.250994	11557.001468
615.599439	11556.451982
615.947830	11584.841240
616.296169	11550.072402
616.644454	11562.864330
616.992686	11581.017525
617.340864	11672.000270
617.688990	11557.586242
618.037063	11692.197653
618.385082	11661.096254
618.733048	11700.291225
619.080961	11687.693382
619.428821	11666.180258
619.776628	11685.787825
620.124382	11631.484516
620.472083	11652.906899
620.819731	11673.323572
621.167326	11606.344282
621.514868	11574.380846
621.862357	11475.677574
622.209793	11470.971657
622.557176	11384.896476
622.904506	11327.288690
623.251783	11243.887841
623.599007	11190.436487
623.946179	11144.320011
624.293297	11116.702050
624.640363	10978.415638
624.987376	10959.360077
625.334336	10898.485623
625.681243	10815.288941
626.028097	10788.966556
626.374899	10750.986503
626.721647	10730.491692
627.068343	10686.154744
627.414987	10625.391196
627.761577	10558.973994
628.108115	10603.699111
628.454600	10472.394697
628.801032	10501.071301
629.147412	10472.487959
629.493739	10438.845819
629.840014	10361.917811
630.186236	10417.587273
630.532405	10311.728083
630.878521	10349.251912
631.224585	10308.224481
631.570597	10226.136853
631.916556	10232.652544
632.262462	10210.968021
632.608316	10196.414210
632.954117	10170.759778
633.299866	10158.106482
633.645562	10131.895002
633.991206	10028.977326
634.336797	9929.918653
634.682336	9917.605634
635.027823	9867.368016
635.373257	9826.012910
635.718639	9757.528835
636.063968	9728.022962
636.409245	9615.506928
636.754470	9603.660217
637.099642	9545.076968
637.444762	9446.645919
637.789829	9448.556516
638.134845	9382.303152
638.479808	9352.018420
638.824719	9328.871962
639.169577	9246.370959
639.514383	9244.788036
639.859137	9177.770937
640.203839	9209.426863
640.548489	9133.040779
640.893086	9139.415318
641.237632	9071.271521
641.582125	9071.531140
641.926566	9063.303977
642.270955	9045.322182
642.615292	9039.358497
642.959576	9021.323769
643.303809	9011.566615
643.647990	9025.049181
643.992118	9003.619236
644.336195	8980.828180
644.680219	8977.929516
645.024192	9013.328499
645.368112	9087.942617
645.711981	9060.153256
646.055797	9198.865645
646.399562	9155.836877
646.743274	9318.802257
647.086935	9388.050067
647.430544	9357.780459
647.774101	9382.386331
648.117606	9420.741950
648.461059	9475.597265
648.804460	9409.043952
649.147810	9301.425400
649.491108	9269.109083
649.834354	9200.420841
650.177548	9048.936689
650.520690	8965.699677
650.863781	8960.040982
651.206820	8931.802959
651.549807	8840.298455
651.892742	8744.614834
652.235626	8699.861991
652.578458	8662.441506
652.921238	8555.992501
653.263967	8596.374664
653.606644	8534.539871
653.949269	8505.409563
654.291843	8433.086650
654.634365	8500.307916
654.976836	8426.243283
655.319255	8414.714165
655.661622	8409.804081
656.003938	8360.320115
656.346203	8329.876587
656.688416	8365.313378
657.030577	8315.905029
657.372687	8284.017210
657.714746	8315.995769
658.056753	8329.863984
658.398708	8233.169612
658.740612	8229.444199
659.082465	8268.987010
659.424266	8229.519816
659.766016	8233.870332
660.107715	8210.365952
660.449362	8232.352945
660.790958	8224.135864
661.132503	8214.577836
661.473996	8220.236532
661.815438	8239.559274
662.156829	8263.492152
662.498168	8207.699182
662.839456	8209.551806
663.180693	8224.375319
663.521879	8251.385821
663.863013	8232.804128
664.204097	8235.281855
664.545129	8297.590517
664.886110	8293.635732
665.227040	8297.678737
665.567918	8316.411665
665.908746	8324.182603
666.249522	8344.198505
666.590248	8334.942946
666.930922	8348.165893
667.271545	8342.731529
667.612118	8363.261628
667.952639	8324.255700
668.293109	8323.459198
668.633528	8303.624778
668.973896	8290.195144
669.314213	8287.861090
669.654480	8252.928414
669.994695	8248.547652
670.334859	8224.710556
670.674973	8199.262811
671.015035	8222.555462
671.355047	8218.746871
671.695008	8204.359418
672.034918	8177.414450
672.374777	8188.825102
672.714585	8164.327615
673.054342	8190.460956
673.394049	8153.907550
673.733705	8197.858850
674.073310	8150.734143
674.412864	8160.556832
674.752368	8097.534847
675.091820	8146.300449
675.431223	8082.355933
675.770574	8029.086060
676.109875	8006.557143
676.449125	7965.282696
676.788324	7949.332486
677.127473	7864.469702
677.466571	7851.317331
677.805619	7789.243083
678.144616	7787.380377
678.483562	7762.898013
678.822458	7712.032771
679.161303	7702.278138
679.500098	7676.716968
679.838842	7662.420256
680.177535	7674.824015
680.516179	7714.376908
680.854771	7723.629946
681.193314	7848.413627
681.531805	8005.299376
681.870247	8126.924774
682.208638	8267.905682
682.546978	8345.123556
682.885268	8377.699493
683.223508	8312.197260
683.561697	8256.167356
683.899836	8227.105104
684.237925	8138.738718
684.575963	8115.670398
684.913951	8033.189559
685.251889	8046.783031
685.589776	8045.232876
685.927614	8024.163373
686.265401	8047.662712
686.603137	8051.214205
686.940824	8123.247252
687.278460	8176.557454
687.616046	8184.010800
687.953582	8295.987430
688.291068	8270.053214
688.628504	8328.034045
688.965889	8341.307403
689.303224	8298.296278
689.640510	8247.899863
689.977745	8147.144842
690.314930	8023.785287
690.652065	7948.457845
690.989150	7840.486412
691.326185	7688.858587
691.663170	7575.828356
692.000105	7462.319215
692.336990	7345.992070
692.673825	7267.362673
693.010610	7178.454363
693.347345	7077.500216
693.684030	6974.353167
694.020665	6923.155209
694.357251	6803.153062
694.693786	6799.924203
695.030272	6752.542398
695.366707	6653.269476
695.703093	6610.275995
696.039429	6604.715603
696.375716	6555.032511
696.711952	6544.065481
697.048139	6519.487335
697.384276	6485.457026
697.720363	6505.109964
698.056400	6474.537887
698.392388	6441.127640
698.728326	6444.895902
699.064214	6413.333238
699.400053	6414.016314
699.735842	6348.503999
700.071581	6310.992774
700.407270	6261.992758
700.742910	6231.309775
701.078501	6184.822775
701.414042	6144.032279
701.749533	6092.675524
702.084974	6034.019178
702.420366	6077.211785
702.755709	6004.669581
703.091002	5951.545902
703.426246	5953.295182
703.761440	5938.564930
704.096584	5889.171705
704.431679	5886.215068
704.766725	5869.538931
705.101721	5857.596438
705.436668	5869.710331
705.771565	5811.510209
706.106413	5869.624631
706.441212	5867.167068
706.775961	5885.048041
707.110661	5897.792078
707.445311	5956.965142
707.779913	5919.385861
708.114465	5965.703982
708.448967	6005.188820
708.783421	6118.274503
709.117825	6163.186143
709.452180	6196.745104
709.786485	6257.206183
710.120742	6390.658128
710.454949	6395.222893
710.789107	6471.102340
711.123216	6594.913079
711.457275	6631.058152
711.791286	6731.924079
712.125247	6750.389825
712.459159	6717.869342
712.793023	6850.706266
713.126837	6680.658065
713.460602	6735.425160
713.794318	6690.818510
714.127985	6637.079810
714.461602	6493.144786
714.795171	6496.338357
715.128691	6331.414488
715.462162	6240.925776
715.795584	6169.671587
716.128957	6125.768178
716.462281	6063.661163
716.795556	6024.786305
717.128782	5939.106854
717.461960	5840.191854
717.795088	5830.928734
718.128167	5762.563126
718.461198	5675.792266
718.794180	5653.039018
719.127113	5592.754379
719.459997	5557.330191
719.792833	5492.944574
720.125619	5494.421632
720.458357	5432.082724
720.791046	5402.672632
721.123686	5375.495772
721.456278	5324.232279
721.788821	5316.302544
722.121315	5278.085556
722.453761	5285.170898
722.786158	5275.194455
723.118506	5274.791162
723.450805	5252.829376
723.783056	5274.440802
724.115259	5259.251806
724.447412	5247.188324
724.779518	5293.261950
725.111574	5301.781500
725.443582	5336.835163
725.775542	5323.884439
726.107453	5410.017594
726.439315	5383.405342
726.771129	5453.822700
727.102895	5515.382750
727.434612	5556.349687
727.766281	5588.582825
728.097901	5642.750023
728.429473	5653.109594
728.760996	5666.609804
729.092471	5692.773392
729.423897	5674.912584
729.755276	5649.542977
730.086606	5662.619731
730.417887	5752.790849
730.749120	5845.749726
731.080305	5882.807248
731.411442	5956.226613
731.742530	5978.793338
732.073570	5998.410988
732.404562	6066.083438
732.735506	6059.199742
733.066401	6038.735178
733.397249	5973.356454
733.728048	5878.121496
734.058798	5734.047839
734.389501	5608.843222
734.720156	5522.032032
735.050762	5415.610754
735.381320	5340.207695
735.711831	5284.213079
736.042293	5206.468404
736.372707	5202.460687
736.703073	5155.794726
737.033391	5179.767933
737.363661	5170.109082
737.693883	5182.318757
738.024056	5205.480338
738.354182	5233.604935
738.684260	5286.259787
739.014290	5323.022402
739.344272	5355.893245
739.674207	5415.343573
740.004093	5440.529177
740.333931	5451.831444
740.663722	5472.021265
740.993464	5482.264890
741.323159	5461.213032
741.652806	5420.462864
741.982405	5392.933123
742.311956	5334.637220
742.641460	5326.526004
742.970915	5269.742447
743.300323	5208.358837
743.629683	5179.788098
743.958996	5126.818173
744.288260	5082.715639
744.617477	5016.449672
744.946647	5006.548846
745.275768	4950.440803
745.604842	4914.411677
745.933869	4883.287593
746.262847	4876.098907
746.591778	4861.295559
746.920662	4836.619111
747.249498	4833.496116
747.578286	4853.874981
747.907027	4875.249473
748.235720	4915.588786
748.564365	4925.832411
748.892963	4907.575872
749.221514	4930.931538
749.550017	4908.745420
749.878473	4901.408020
750.206881	4865.283112
750.535242	4848.060010
750.863555	4839.885779
751.191821	4811.486439
751.520039	4819.325433
751.848210	4799.501095
752.176334	4807.503927
752.504411	4789.151607
752.832440	4757.044498
753.160421	4767.288122
753.488356	4747.320112
753.816243	4730.384356
754.144082	4692.792471
754.471875	4686.281821
754.799620	4675.947456
755.127318	4668.083256
755.454969	4661.623017
755.782572	4656.302079
756.110129	4656.511287
756.437638	4640.112414
756.765100	4635.761898
757.092515	4638.569821
757.419882	4643.152229
757.747203	4642.232219
758.074477	4653.877284
758.401703	4639.174759
758.728882	4675.115665
759.056014	4689.457748
759.383099	4712.243763
759.710138	4740.254935
760.037129	4756.621041
760.364073	4767.043626
760.690970	4765.140591
761.017820	4765.788379
761.344623	4803.042506
761.671379	4861.734140
761.998088	4950.148416
762.324751	5183.251370
762.651366	5649.679089
762.977935	6346.500141
763.304456	6902.461272
763.630931	7211.058025
763.957359	7147.496637
764.283740	6848.982192
764.610074	6526.529827
764.936362	6132.666998
765.262602	5813.133461
765.588796	5462.140604
765.914943	5207.668199
766.241044	4982.126976
766.567097	4809.117096
766.893104	4655.921472
767.219064	4558.412954
767.544978	4465.043223
767.870845	4379.762023
768.196665	4331.281247
768.522438	4281.552785
768.848165	4241.112648
769.173846	4203.742575
769.499479	4173.566228
769.825066	4134.862769
770.150607	4097.210391
770.476101	4083.173298
770.801548	4062.063467
771.126949	4027.965102
771.452303	4013.038246
771.777611	3971.012667
772.102872	3973.140033
772.428087	3942.779684
772.753256	3915.207093
773.078378	3903.367944
773.403453	3865.801265
773.728482	3839.451154
774.053465	3829.878003
774.378401	3805.647697
774.703291	3781.974438
775.028135	3758.064246
775.352932	3752.007299
775.677683	3733.581882
776.002388	3712.111608
776.327046	3712.202349
776.651658	3692.751057
776.976224	3673.884538
777.300743	3671.510155
777.625216	3657.014317
777.949643	3646.387565
778.274024	3646.458141
778.598359	3629.401397
778.922647	3633.293167
779.246889	3623.352012
779.571086	3621.065849
779.895236	3620.959985
780.219339	3621.759007
780.543397	3623.742702
780.867409	3638.299033
781.191374	3632.887355
781.515294	3629.845018
781.839167	3645.820435
782.162995	3642.710043
782.486776	3637.774753
782.810511	3630.288640
783.134201	3614.348511
783.457844	3615.651650
783.781441	3604.684619
784.104993	3599.691357
784.428498	3593.052157
784.751958	3588.862958
785.075372	3585.825663
785.398739	3571.478539
785.722061	3579.539344
786.045337	3581.454983
786.368568	3606.081019
786.691752	3599.673712
787.014891	3645.618789
787.337983	3693.038402
787.661030	3779.005199
787.984031	3879.160323
788.306987	3953.890387
788.629897	4002.285464
788.952760	4010.590765
789.275579	3996.684742
789.598351	3943.926547
789.921078	3893.328486
790.243759	3829.376408
790.566395	3782.889408
790.888984	3732.838312
791.211529	3693.988660
791.534027	3647.839417
791.856480	3612.115280
792.178888	3596.326386
792.501249	3577.502718
792.823566	3544.362173
793.145836	3541.047614
793.468062	3532.200389
793.790241	3513.291021
794.112375	3520.923328
794.434464	3542.159188
794.756507	3540.546019
795.078505	3561.711303
795.400457	3599.325873
795.722364	3648.648522
796.044226	3695.112837
796.366042	3744.609406
796.687812	3737.206472
797.009538	3763.821243
797.331218	3751.704830
797.652852	3743.926330
797.974442	3723.391190
798.295986	3710.619426
798.617484	3684.123122
798.938938	3660.349040
799.260346	3643.080568
799.581709	3609.554374
799.903026	3597.569031
800.224299	3578.112698
800.545526	3544.871329
800.866708	3527.287784
801.187845	3514.586597
801.508936	3494.490037
801.829983	3485.496619
802.150984	3453.124850
802.471940	3448.572688
802.792851	3441.333591
803.113717	3435.044751
803.434538	3425.385901
803.755314	3419.409613
804.076045	3408.981986
804.396731	3399.605440
804.717372	3401.059813
805.037967	3396.991602
805.358518	3397.142836
805.679024	3415.099426
805.999485	3410.756472
806.319901	3414.980959
806.640272	3416.763007
806.960598	3430.033844
807.280879	3429.847322
807.601115	3440.617747
807.921306	3431.470573
808.241453	3433.668516
808.561554	3440.441307
808.881611	3434.649021
809.201623	3439.609516
809.521590	3427.251128
809.841513	3429.575099
810.161390	3435.503496
810.481223	3417.410795
810.801011	3411.394178
811.120755	3410.270001
811.440453	3399.209709
811.760107	3393.170407
812.079716	3382.999879
812.399281	3375.130638
812.718801	3373.288096
813.038276	3366.318701
813.357707	3356.811085
813.677093	3371.009495
813.996434	3349.967718
814.315731	3358.572968
814.634983	3357.307638
814.954191	3357.504243
815.273354	3375.627192
815.592473	3383.909807
815.911547	3405.458219
816.230577	3417.531783
816.549562	3444.446503
816.868502	3462.907209
817.187399	3480.737770
817.506250	3511.274559
817.825058	3523.179244
818.143821	3566.160122
818.462539	3609.972790
818.781213	3664.697035
819.099843	3749.587546
819.418429	3905.651586
819.736970	4057.080286
820.055466	4243.250098
820.373919	4480.743897
820.692327	4818.581863
821.010691	5334.057487
821.329011	6411.896509
821.647286	8156.768405
821.965517	10336.139871
822.283704	11968.652009
822.601847	13057.485787
822.919945	12646.170483
823.237999	11966.259981
823.556010	11059.008565
823.873976	10108.496487
824.191897	9135.523547
824.509775	8364.239612
824.827609	7561.231695
825.145398	7010.021851
825.463144	6633.067052
825.780845	6494.163099
826.098502	6558.258849
826.416116	6943.433250
826.733685	7442.688962
827.051210	7734.468426
827.368692	7639.926627
827.686129	7194.487753
828.003522	6642.181458
828.320872	6076.795889
828.638177	5610.471515
828.955439	5240.886882
829.272656	4901.924739
829.589830	4614.359679
829.906960	4352.539792
830.224046	4142.827793
830.541088	3976.595744
830.858086	3857.634596
831.175041	3760.340327
831.491952	3719.902711
831.808819	3697.651058
832.125642	3732.097262
832.442421	3839.730938
832.759157	4054.955440
833.075849	4431.617852
833.392497	4898.254779
833.709101	5284.830620
834.025662	5397.036622
834.342179	5272.762098
834.658653	5000.239842
834.975083	4724.665167
835.291469	4481.248012
835.607811	4260.294239
835.924110	4101.099642
836.240366	3937.272224
836.556578	3778.581742
836.872746	3638.679640
837.188871	3524.260572
837.504952	3427.840942
837.820990	3355.407123
838.136984	3296.934780
838.452935	3267.577621
838.768842	3256.219901
839.084706	3286.088738
839.400526	3424.798606
839.716303	3649.863440
840.032037	3862.527036
840.347727	3927.938527
840.663373	3837.170032
840.978977	3685.927855
841.294537	3554.578071
841.610054	3452.325827
841.925527	3372.221892
842.240957	3305.013229
842.556344	3243.372520
842.871687	3185.651309
843.186987	3123.473717
843.502244	3071.595203
843.817458	3033.902496
844.132629	2999.305057
844.447756	2976.541727
844.762840	2953.874178
845.077881	2936.356169
845.392879	2920.718510
845.707833	2913.285328
846.022745	2899.885941
846.337613	2895.661454
846.652438	2888.445043
846.967221	2884.369270
847.281960	2874.871736
847.596656	2871.519369
847.911309	2866.251363
848.225919	2863.009901
848.540485	2858.069570
848.855009	2855.511185
849.169490	2847.200842
849.483928	2846.832838
849.798323	2845.088599
850.112675	2844.594566
850.426984	2841.153978
850.741251	2836.359841
851.055474	2837.045438
851.369654	2836.674913
851.683792	2834.015705
851.997887	2836.480829
852.311938	2836.301868
852.625947	2835.117197
852.939914	2835.707012
853.253837	2837.421004
853.567718	2834.895386
853.881555	2832.483194
854.195350	2834.141733
854.509103	2835.792711
854.822812	2833.098215
855.136479	2830.784325
855.450103	2834.222392
855.763685	2830.696105
856.077224	2830.683502
856.390720	2833.410766
856.704173	2838.283041
857.017584	2839.898731
857.330953	2840.233968
857.644278	2840.672548
857.957561	2846.444669
858.270802	2846.192612
858.584000	2845.564988
858.897155	2846.608507
859.210268	2841.587518
859.523339	2839.865964
859.836367	2840.445696
860.149352	2838.093998
860.462295	2836.223730
860.775195	2831.084274
861.088054	2830.423882
861.400869	2830.330621
861.713642	2830.461691
862.026373	2830.688543
862.339062	2833.579645
862.651708	2835.717094
862.964312	2842.031139
863.276873	2843.891325
863.589392	2851.276615
863.901869	2858.868593
864.214303	2864.476877
864.526696	2871.123638
864.839045	2879.368445
865.151353	2883.565206
865.463619	2885.493447
865.775842	2889.682646
866.088023	2895.263203
866.400162	2893.947462
866.712258	2895.510220
867.024313	2896.657082
867.336325	2897.627504
867.648296	2899.394429
867.960224	2900.909296
868.272110	2901.950294
868.583954	2899.926271
868.895755	2905.058165
869.207515	2905.083371
869.519233	2910.250554
869.830909	2913.620565
870.142542	2919.531318
870.454134	2920.257244
870.765684	2924.333017
871.077191	2931.534305
871.388657	2935.373144
871.700081	2942.392951
872.011463	2947.781944
872.322803	2955.116823
872.634101	2958.950620
872.945357	2967.810448
873.256571	2977.466778
873.567744	2982.018940
873.878874	2987.052533
874.189963	2992.549911
874.501010	2997.729696
874.812015	2999.166425
875.122979	3005.150275
875.433900	3005.901407
875.744780	3009.089937
876.055618	3016.785258
876.366415	3015.265350
876.677169	3024.926721
876.987882	3028.437885
877.298554	3038.016077
877.609183	3055.397976
877.919771	3070.350038
878.230317	3093.430961
878.540822	3131.617701
878.851285	3178.654187
879.161707	3249.994076
879.472087	3354.189685
879.782425	3517.455014
880.092722	3798.254845
880.402977	4218.235892
880.713191	4766.350468
881.023363	5368.934710
881.333494	5811.444674
881.643583	6094.150062
881.953631	6173.807854
882.263637	6126.841944
882.573602	5987.627960
882.883526	5818.610675
883.193408	5611.386484
883.503248	5390.064707
883.813048	5175.009084
884.122806	4956.654025
884.432522	4712.337025
884.742197	4489.187829
885.051831	4277.487094
885.361424	4079.077361
885.670975	3907.791556
885.980485	3758.346550
886.289954	3637.928508
886.599382	3529.725182
886.908768	3445.442131
887.218113	3363.364585
887.527417	3300.655152
887.836680	3243.289341
888.145901	3195.721014
888.455082	3159.780107
888.764221	3126.505971
889.073319	3094.413986
889.382376	3075.681058
889.691392	3058.934345
890.000366	3050.455124
890.309300	3042.764844
890.618193	3037.600182
890.927044	3032.518699
891.235855	3034.174718
891.544625	3039.152857
891.853353	3043.326933
892.162041	3059.022565
892.470687	3081.586770
892.779293	3117.411730
893.087858	3163.901251
893.396381	3240.877149
893.704864	3349.025023
894.013306	3507.571832
894.321707	3697.182231
894.630068	3849.800643
894.938387	3927.598250
895.246665	3937.544446
895.554903	3878.179818
895.863100	3787.524749
896.171256	3713.336608
896.479371	3640.020587
896.787446	3563.057292
897.095480	3493.476766
897.403473	3435.193465
897.711425	3377.265567
898.019336	3327.978205
898.327207	3274.476440
898.635038	3225.027762
898.942827	3176.078158
899.250576	3134.309677
899.558284	3093.252000
899.865952	3065.664286
900.173579	3036.786036
900.481165	3015.449352
900.788711	2996.265241
901.096216	2979.700010
901.403681	2969.237095
901.711105	2959.976495
902.018489	2954.383335
902.325832	2962.083698
902.633135	2969.758854
902.940397	3009.344515
903.247619	3096.619491
903.554800	3274.607510
903.861941	3553.932803
904.169041	3818.139676
904.476101	3985.485819
904.783121	4008.037421
905.090100	3944.531485
905.397039	3839.549457
905.703938	3733.402921
906.010796	3629.703866
906.317614	3541.324877
906.624391	3454.180971
906.931129	3385.938872
907.237826	3318.866320
907.544483	3254.248810
907.851099	3180.287521
908.157675	3104.544185
908.464211	3032.669934
908.770707	2975.394864
909.077163	2927.236722
909.383578	2889.223901
909.689954	2862.742720
909.996289	2841.433762
910.302584	2830.103769
910.608839	2822.146308
910.915054	2808.502425
911.221229	2803.063020
911.527363	2807.773978
911.833458	2805.765078
912.139513	2813.115081
912.445527	2816.086841
912.751502	2825.619663
913.057436	2840.034842
913.363331	2859.173583
913.669186	2889.770866
913.975000	2927.143460
914.280775	2985.971205
914.586510	3068.230233
914.892205	3175.400122
915.197859	3325.800427
915.503475	3504.373220
915.809050	3685.133873
916.114585	3814.651198
916.420081	3890.235738
916.725536	3924.505502
917.030952	3882.931106
917.336328	3848.815097
917.641665	3803.633756
917.946961	3742.310640
918.252218	3685.269984
918.557435	3605.523972
918.862612	3539.313457
919.167750	3481.960250
919.472848	3405.579207
919.777906	3340.031604
920.082925	3268.805142
920.387904	3194.657330
920.692843	3140.772437
920.997743	3088.581371
921.302603	3039.142775
921.607423	3003.736231
921.912204	2969.355562
922.216946	2942.816408
922.521647	2919.677511
922.826310	2894.958213
923.130932	2875.854761
923.435516	2858.266175
923.740059	2843.601459
924.044564	2827.953717
924.349028	2814.768579
924.653454	2800.827268
924.957840	2784.390586
925.262186	2778.328599
925.566493	2767.119593
925.870761	2750.720720
926.174989	2751.812129
926.479178	2742.014647
926.783328	2736.303020
927.087438	2724.128633
927.391509	2721.126626
927.695541	2714.598332
927.999533	2709.020295
928.303486	2704.153061
928.607400	2700.271372
928.911275	2696.291382
929.215110	2693.334745
929.518906	2693.942204
929.822663	2692.495393
930.126381	2687.741585
930.430060	2687.754187
930.733699	2686.446008
931.037299	2691.081349
931.340861	2688.991791
931.644383	2692.200485
931.947866	2689.947089
932.251309	2689.579085
932.554714	2688.785103
932.858080	2690.519260
933.161407	2687.207222
933.464694	2686.955165
933.767943	2689.553879
934.071153	2686.478776
934.374323	2683.353260
934.677455	2683.028106
934.980548	2681.682118
935.283602	2679.181705
935.586617	2678.738084
935.889593	2681.344360
936.192530	2682.239165
936.495428	2681.036850
936.798287	2684.487520
937.101108	2690.461287
937.403890	2698.766588
937.706632	2708.236396
938.009336	2716.226624
938.312002	2727.221381
938.614628	2740.194790
938.917216	2751.670977
939.219765	2756.646596
939.522275	2765.755961
939.824747	2766.028183
940.127179	2766.524737
940.429573	2765.443409
940.731929	2766.713780
941.034246	2766.275200
941.336524	2765.856784
941.638763	2765.634973
941.940964	2766.068512
942.243126	2758.902512
942.545250	2757.874117
942.847335	2747.774165
943.149381	2741.989441
943.451389	2735.866960
943.753359	2733.081722
944.055290	2726.220712
944.357182	2721.673591
944.659036	2717.378528
944.960851	2716.771069
945.262628	2711.906356
945.564367	2711.298897
945.866067	2713.113712
946.167729	2709.486602
946.469352	2706.484595
946.770937	2707.933926
947.072484	2701.014943
947.373992	2705.582228
947.675462	2702.207176
947.976893	2700.152905
948.278286	2699.936136
948.579641	2700.042000
948.880958	2697.523944
949.182236	2699.928574
949.483476	2694.572348
949.784678	2693.785928
950.085841	2697.382791
950.386967	2697.609643
950.688054	2695.570497
950.989103	2699.747092
951.290114	2702.844882
951.591087	2706.688761
951.892021	2709.804194
952.192917	2717.645709
952.493776	2720.516646
952.794596	2722.701987
953.095378	2725.787173
953.396122	2726.883624
953.696828	2727.649879
953.997496	2722.787686
954.298126	2720.947665
954.598718	2720.695607
954.899272	2712.579350
955.199788	2709.587425
955.500266	2705.458720
955.800706	2697.912112
956.101108	2689.329548
956.401472	2686.720751
956.701798	2679.015347
957.002087	2670.836075
957.302337	2667.390447
957.602550	2664.486742
957.902724	2657.729075
958.202861	2651.926707
958.502960	2648.551655
958.803022	2646.968732
959.103045	2639.255767
959.403031	2635.215282
959.702979	2633.236629
960.002889	2627.983747
960.302762	2625.541308
960.602596	2624.994343
960.902393	2621.004269
961.202153	2619.557458
961.501875	2617.432612
961.801559	2617.384721
962.101205	2616.260544
962.400814	2613.765172
962.700385	2614.622169
962.999918	2614.150821
963.299414	2614.102930
963.598873	2611.103443
963.898293	2608.608072
964.197677	2610.188474
964.497022	2609.003803
964.796331	2606.878956
965.095601	2607.778802
965.394835	2609.046653
965.694030	2606.621857
965.993189	2608.557661
966.292309	2607.249481
966.591393	2605.691765
966.890439	2604.809563
967.189447	2606.019440
967.488419	2604.060951
967.787353	2603.957608
968.086249	2608.938268
968.385108	2606.145468
968.683930	2605.953905
968.982714	2609.081941
969.281462	2606.488267
969.580172	2608.098916
969.878844	2610.551437
970.177480	2608.913062
970.476078	2612.358691
970.774639	2614.551592
971.073162	2616.880606
971.371649	2612.235182
971.670098	2613.152672
971.968510	2613.427415
972.266885	2612.668722
972.565223	2619.502006
972.863524	2620.631224
973.161788	2619.844804
973.460014	2623.595422
973.758204	2620.432098
974.056356	2623.171966
974.354471	2625.493417
974.652550	2622.549383
974.950591	2622.385546
975.248595	2624.928808
975.546563	2623.545011
975.844493	2623.648355
976.142386	2621.437809
976.440243	2622.929990
976.738062	2620.003600
977.035845	2619.650720
977.333590	2619.416306
977.631299	2616.563013
977.928971	2615.882457
978.226606	2614.334823
978.524204	2615.627879
978.821765	2613.142590
979.119290	2612.469596
979.416777	2614.095368
979.714228	2612.031016
980.011642	2612.638475
980.309020	2617.510750
980.606360	2618.702983
980.903664	2620.671553
981.200931	2628.437451
981.498162	2631.996505
981.795356	2646.061325
982.092513	2660.753767
982.389633	2679.471572
982.686717	2697.034952
982.983764	2712.362580
983.280775	2725.852708
983.577749	2733.452247
983.874686	2732.592730
984.171587	2728.496793
984.468451	2724.136195
984.765279	2715.846017
985.062070	2710.535162
985.358824	2703.371682
985.655543	2691.814837
985.952224	2685.926769
986.248869	2672.091322
986.545478	2653.902839
986.842050	2642.378762
987.138586	2632.220837
987.435086	2620.979064
987.731549	2613.482868
988.027975	2612.371293
988.324366	2609.636467
988.620719	2606.228647
988.917037	2603.294696
989.213318	2600.809407
989.509563	2596.600044
989.805772	2594.432347
990.101944	2593.088880
990.398080	2596.799169
990.694180	2595.077615
990.990244	2593.214909
991.286271	2594.681885
991.582262	2592.478900
991.878217	2595.947214
992.174136	2596.229519
992.470019	2597.169694
992.765865	2598.820672
993.061676	2598.510641
993.357450	2600.012905
993.653188	2600.524582
993.948890	2603.866867
994.244556	2607.960284
994.540186	2612.131839
994.835780	2613.520677
995.131337	2621.692387
995.426859	2630.093470
995.722345	2638.615540
996.017795	2646.328506
996.313208	2658.613798
996.608586	2664.252328
996.903928	2668.365910
997.199234	2666.800632
997.494504	2672.355983
997.789738	2670.147958
998.084936	2663.077739
998.380099	2657.565238
998.675225	2654.747233
998.970316	2650.000986
999.265371	2642.174595
999.560390	2634.146557
999.855373	2629.642287
1000.150320	2623.108951
1000.445232	2617.414968
1000.740108	2611.012703
1001.034948	2607.448607
1001.329752	2603.080447
1001.624521	2602.873760
1001.919254	2596.426124
1002.213951	2591.299270
1002.508613	2592.483942
1002.803239	2591.256421
1003.097829	2588.161152
1003.392384	2591.689960
1003.686903	2590.714497
1003.981386	2590.142326
1004.275834	2589.179465
1004.570246	2586.689135
1004.864623	2586.484968
1005.158964	2585.738878
1005.453270	2585.481779
1005.747540	2586.731985
1006.041775	2583.598908
1006.335974	2584.062694
1006.630138	2584.488672
1006.924266	2583.677046
1007.218359	2583.125039
1007.512416	2585.701069
1007.806438	2582.328537
1008.100425	2586.472366
1008.394376	2584.818867
1008.688292	2581.242168
1008.982172	2582.845255
1009.276017	2584.733168
1009.569827	2584.077817
1009.863602	2583.835842
1010.157341	2585.580081
1010.451045	2582.976325
1010.744714	2580.501119
1011.038347	2579.873495
1011.331945	2581.653022
1011.625508	2583.619072
1011.919036	2580.886767
1012.212528	2580.531366
1012.505986	2580.528845
1012.799408	2577.811663
1013.092795	2578.167065
1013.386147	2580.927096
1013.679464	2580.556572
1013.972745	2580.755697
1014.265992	2579.465162
1014.559204	2581.000193
1014.852380	2580.188567
1015.145521	2580.977508
1015.438628	2580.009606
1015.731699	2578.177147
1016.024736	2579.651684
1016.317737	2578.653536
1016.610703	2582.688980
1016.903635	2576.148083
1017.196531	2578.330902
1017.489393	2578.978690
1017.782219	2576.485840
1018.075011	2581.335430
1018.367768	2581.448856
1018.660490	2583.901377
1018.953177	2583.901377
1019.245829	2583.901377
