Dividing Wavelength (nm)	Counts (n)	Blue Motor Position (mm): 7.000000	Red Motor Position (mm): 0.000000	
326.493990	2157.389515
326.888308	2157.389515
327.282561	2157.389515
327.676750	2135.793212
328.070874	2136.652728
328.464933	2142.389562
328.858929	2150.019348
329.252859	2160.953611
329.646726	2176.664367
330.040528	2192.753209
330.434265	2211.360108
330.827938	2229.102449
331.221547	2248.268916
331.615091	2267.652152
332.008571	2289.293826
332.401986	2308.568678
332.795338	2325.862356
333.188625	2347.849348
333.581847	2368.412215
333.975006	2385.489123
334.368100	2403.793553
334.761129	2422.360123
335.154095	2438.953081
335.546996	2459.306739
335.939833	2476.250057
336.332606	2486.166007
336.725315	2498.088336
337.117960	2507.401868
337.510540	2516.705317
337.903056	2526.180166
338.295508	2531.974972
338.687896	2538.372196
339.080220	2546.886705
339.472480	2549.981973
339.864676	2555.484393
340.256807	2560.913716
340.648875	2561.909343
341.040879	2561.992523
341.432818	2564.792883
341.824694	2566.746331
342.216506	2567.590724
342.608253	2567.222720
342.999937	2564.119889
343.391557	2565.601989
343.783113	2562.269786
344.174605	2563.038562
344.566033	2560.104610
344.957397	2557.747871
345.348697	2556.288457
345.739934	2554.743343
346.131106	2552.900802
346.522215	2551.673281
346.913260	2546.853937
347.304241	2549.699669
347.695159	2545.956612
348.086012	2545.328988
348.476802	2545.649102
348.867528	2543.345294
349.258191	2542.803370
349.648789	2538.815818
350.039324	2540.824717
350.429796	2538.505787
350.820203	2535.904551
351.210548	2535.140817
351.600828	2532.297606
351.991045	2534.079654
352.381198	2533.535209
352.771288	2533.807431
353.161314	2533.928419
353.551276	2533.961187
353.941175	2534.379602
354.331010	2533.741896
354.720782	2532.421114
355.110490	2533.807431
355.500135	2535.776002
355.889717	2536.441434
356.279235	2533.663758
356.668689	2533.943543
357.058080	2537.099305
357.447408	2534.792977
357.836672	2529.928263
358.225873	2532.753830
358.615010	2533.976310
359.004084	2538.047042
359.393095	2538.314223
359.782043	2539.025026
360.170927	2536.897659
360.559748	2537.948739
360.948505	2539.725746
361.337199	2541.389327
361.725830	2541.104502
362.114398	2541.414532
362.502903	2543.083154
362.891344	2542.011909
363.279722	2540.446631
363.668037	2544.535007
364.056289	2542.493339
364.444478	2542.866385
364.832603	2545.286139
365.220665	2543.133566
365.608665	2546.102806
365.996601	2545.359235
366.384474	2543.410829
366.772284	2545.989380
367.160031	2544.693803
367.547715	2545.351674
367.935336	2547.748742
368.322893	2546.571633
368.710388	2547.138763
369.097820	2549.818136
369.485189	2549.160265
369.872495	2548.056253
370.259738	2547.773948
370.646918	2548.162117
371.034035	2549.442570
371.421090	2547.179092
371.808081	2552.099258
372.195010	2548.015923
372.581875	2548.094061
372.968678	2548.399051
373.355418	2551.574978
373.742096	2550.879299
374.128710	2551.383414
374.515262	2548.078938
374.901751	2551.373332
375.288177	2552.132026
375.674540	2550.712941
376.060841	2551.519525
376.447079	2553.399876
376.833254	2554.037582
377.219367	2548.386448
377.605417	2550.402910
377.991404	2551.043136
378.377329	2546.937117
378.763191	2550.942313
379.148991	2553.092365
379.534727	2552.361398
379.920402	2554.524053
380.306013	2553.016748
380.691563	2553.919115
381.077049	2554.153528
381.462474	2552.714279
381.847835	2553.485575
382.233134	2553.130174
382.618371	2553.707386
383.003545	2556.795093
383.388657	2554.720658
383.773706	2553.891388
384.158693	2556.084290
384.543618	2553.026830
384.928480	2555.978426
385.313280	2557.359702
385.698017	2556.830381
386.082692	2558.534291
386.467305	2558.546894
386.851856	2557.818447
387.236344	2554.932387
387.620770	2558.604867
388.005133	2558.002449
388.389435	2558.100752
388.773674	2558.879610
389.157851	2556.878272
389.541965	2558.720814
389.926018	2558.098231
390.310008	2561.223747
390.693936	2557.770556
391.077802	2560.795248
391.461606	2560.838098
391.845348	2561.533778
392.229027	2560.752399
392.612645	2559.998746
392.996200	2558.698128
393.379694	2559.020762
393.763125	2559.781977
394.146494	2563.504869
394.529801	2560.880948
394.913047	2562.244580
395.296230	2560.815413
395.679351	2561.901782
396.062410	2565.082750
396.445408	2563.923284
396.828343	2563.565362
397.211217	2558.867007
397.594028	2562.237018
397.976778	2562.771381
398.359466	2560.069322
398.742092	2560.749878
399.124656	2567.058882
399.507158	2563.522513
399.889598	2563.736762
400.271977	2564.407235
400.654294	2565.027297
401.036549	2563.288099
401.418742	2566.217009
401.800874	2565.138202
402.182944	2564.545867
402.564952	2564.986968
402.946898	2562.983109
403.328783	2565.486042
403.710606	2567.033676
404.092367	2565.097873
404.474067	2565.004612
404.855705	2563.610733
405.237282	2564.066957
405.618797	2564.631567
406.000250	2565.843964
406.381642	2565.954869
406.762972	2565.072667
407.144240	2569.360169
407.525447	2569.755899
407.906593	2566.148954
408.287677	2565.380178
408.668700	2567.323543
409.049661	2569.982751
409.430560	2566.219530
409.811399	2569.753379
410.192176	2569.274469
410.572891	2570.088616
410.953545	2566.784139
411.334138	2570.789336
411.714669	2569.266907
412.095139	2569.874367
412.475547	2567.351269
412.855894	2569.508883
413.236180	2569.672720
413.616405	2573.501477
413.996568	2569.899572
414.376670	2569.319840
414.756711	2569.377813
415.136691	2571.298492
415.516609	2570.103739
415.896466	2574.471899
416.276262	2571.797567
416.655997	2568.772874
417.035670	2568.636763
417.415283	2568.152812
417.794834	2567.114335
418.174324	2566.905127
418.553753	2572.316806
418.933121	2572.568863
419.312428	2573.055335
419.691674	2572.054666
420.070859	2571.684141
420.449983	2571.064079
420.829045	2571.830334
421.208047	2571.865622
421.586988	2570.000395
421.965867	2574.154306
422.344686	2572.684810
422.723444	2571.079202
423.102141	2574.799574
423.480777	2576.445511
423.859352	2575.124728
424.237866	2574.665983
424.616319	2572.309244
424.994712	2574.915520
425.373044	2574.363514
425.751314	2573.100705
426.129524	2572.783112
426.507673	2575.210428
426.885762	2574.401323
427.263789	2576.805953
427.641756	2572.682289
428.019662	2574.668504
428.397508	2576.964749
428.775292	2576.372414
429.153016	2572.770509
429.530679	2576.599266
429.908282	2574.381158
430.285824	2572.334450
430.663305	2573.148596
431.040726	2577.234451
431.418086	2577.299986
431.795385	2575.510377
432.172624	2577.453741
432.549802	2577.438618
432.926920	2577.236972
433.303977	2574.771848
433.680974	2578.378793
434.057910	2576.266550
434.434786	2578.444328
434.811601	2574.461817
435.188355	2577.718402
435.565050	2578.187229
435.941683	2579.132446
436.318257	2575.631364
436.694770	2571.696744
437.071222	2574.008113
437.447614	2574.277814
437.823946	2572.432752
438.200218	2577.138669
438.576429	2577.705799
438.952580	2578.633371
439.328670	2579.397106
439.704700	2578.414081
440.080670	2580.654874
440.456580	2577.499112
440.832429	2580.559092
441.208218	2579.233269
441.583947	2579.482806
441.959616	2575.462486
442.335224	2578.356108
442.710773	2579.102199
443.086261	2579.523135
443.461689	2577.698237
443.837057	2578.393917
444.212365	2577.267219
444.587612	2582.084041
444.962800	2579.208063
445.337927	2582.242837
445.712995	2578.149421
446.088002	2581.085893
446.462949	2582.376428
446.837837	2581.438773
447.212664	2579.664287
447.587431	2578.630851
447.962139	2580.009606
448.336786	2580.944740
448.711374	2580.811150
449.085901	2582.036150
449.460369	2579.608835
449.834776	2580.821232
450.209124	2579.452559
450.583412	2583.132601
450.957640	2580.533886
451.331808	2582.152097
451.705917	2580.170923
452.079965	2580.125553
452.453954	2580.634709
452.827883	2581.721078
453.201752	2584.420616
453.575562	2578.963567
453.949311	2579.676890
454.323001	2581.572364
454.696632	2581.446335
455.070202	2582.303331
455.443713	2580.390213
455.817164	2577.733525
456.190556	2579.545820
456.563888	2580.238979
456.937160	2576.768144
457.310373	2580.128073
457.683526	2580.622107
458.056619	2582.598239
458.429653	2583.926583
458.802628	2584.357602
459.175542	2581.373238
459.548398	2583.140163
459.921194	2581.723599
460.293930	2579.825604
460.666607	2581.035481
461.039224	2585.514546
461.411782	2585.693507
461.784280	2582.631006
462.156719	2581.532035
462.529099	2582.925914
462.901419	2582.802406
463.273680	2583.515729
463.645882	2585.549834
464.018024	2582.913311
464.390106	2582.537745
464.762130	2581.358115
465.134094	2582.026068
465.505999	2583.603949
465.877845	2580.324678
466.249631	2584.218970
466.621358	2584.042529
466.993026	2588.244331
467.364634	2584.549165
467.736184	2582.129412
468.107674	2584.365163
468.479105	2585.396079
468.850477	2583.281315
469.221790	2585.184351
469.593043	2584.947417
469.964238	2583.523291
470.335373	2584.614700
470.706449	2585.375915
471.077467	2586.434557
471.448425	2588.786255
471.819324	2586.169896
472.190164	2585.164186
472.560945	2584.886923
472.931667	2586.361460
473.302330	2586.096800
473.672934	2584.713003
474.043479	2583.505647
474.413965	2584.836511
474.784393	2581.206880
475.154761	2581.222004
475.525070	2581.113619
475.895321	2579.772672
476.265513	2582.298290
476.635645	2586.500092
477.005719	2582.363825
477.375734	2587.581419
477.745691	2585.955647
478.115588	2584.292067
478.485427	2585.940524
478.855207	2584.402972
479.224928	2586.709300
479.594591	2587.475555
479.964194	2585.615369
480.333739	2587.261306
480.703226	2586.366501
481.072653	2587.679722
481.442022	2585.426326
481.811333	2587.168045
482.180584	2585.524629
482.549777	2586.903384
482.918912	2585.035637
483.287988	2586.888261
483.657005	2585.181830
484.025964	2586.492530
484.394864	2586.497571
484.763706	2586.064032
485.132489	2586.479927
485.501213	2587.462952
485.869879	2586.001018
486.238487	2584.667632
486.607036	2587.077304
486.975527	2584.292067
487.343959	2585.776686
487.712333	2586.553024
488.080648	2585.670822
488.448905	2586.290884
488.817104	2588.551842
489.185244	2584.864237
489.553326	2586.449680
489.921350	2585.970771
490.289315	2586.663929
490.657222	2587.044537
491.025070	2586.802561
491.392861	2589.865062
491.760593	2588.302304
492.128267	2587.588981
492.495883	2586.230390
492.863440	2586.701738
493.230939	2584.208887
493.598380	2589.154259
493.965763	2584.970102
494.333088	2583.891295
494.700354	2582.081521
495.067563	2586.737026
495.434713	2585.144022
495.801805	2586.621080
496.168839	2589.320617
496.535815	2586.484968
496.902733	2586.079156
497.269593	2588.355237
497.636395	2588.514033
498.003139	2588.607294
498.369825	2587.599063
498.736453	2588.773652
499.103023	2589.585278
499.469535	2590.396904
499.835989	2588.317428
500.202385	2588.995463
500.568723	2590.371698
500.935003	2585.111254
501.301226	2586.709300
501.667390	2588.526636
502.033497	2588.458580
502.399546	2586.333734
502.765537	2588.022520
503.131470	2589.008066
503.497345	2589.169383
503.863163	2589.118971
504.228923	2587.062181
504.594625	2589.323138
504.960269	2590.207861
505.325856	2589.527305
505.691385	2589.058477
506.056856	2587.349526
506.422270	2588.919846
506.787625	2591.639548
507.152924	2588.456060
507.518164	2589.439085
507.883347	2588.846749
508.248472	2588.224167
508.613540	2587.987232
508.978550	2588.965216
509.343503	2587.092428
509.708398	2589.066039
510.073236	2590.170052
510.438016	2589.668457
510.802738	2589.101327
511.167403	2589.807089
511.532010	2589.628128
511.896561	2589.360947
512.261053	2588.829105
512.625488	2588.327510
512.989866	2587.835998
513.354186	2582.270564
513.718449	2584.823908
514.082655	2586.676532
514.446803	2588.559403
514.810894	2591.773139
515.174927	2590.832964
515.538904	2590.346492
515.902822	2592.115937
516.266684	2590.245669
516.630488	2588.516553
516.994235	2589.643251
517.357925	2589.955803
517.721558	2590.865731
518.085133	2590.311204
518.448651	2588.088055
518.812112	2590.739702
519.175516	2589.297932
519.538863	2589.378591
519.902152	2591.493355
520.265385	2589.580237
520.628560	2589.973447
520.991678	2590.868252
521.354739	2589.696183
521.717743	2589.968406
522.080690	2591.571493
522.443580	2589.522264
522.806413	2591.221132
523.169189	2591.468149
523.531908	2593.524940
523.894569	2590.038982
524.257174	2590.913622
524.619722	2592.247007
524.982213	2588.745926
525.344647	2590.903540
525.707025	2592.947728
526.069345	2589.033272
526.431608	2590.046544
526.793815	2587.946903
527.155964	2590.664085
527.518057	2589.948241
527.880093	2591.916812
528.242072	2588.430854
528.603995	2590.926225
528.965860	2590.996801
529.327669	2593.345979
529.689421	2592.186513
530.051117	2593.408993
530.412755	2590.908581
530.774337	2591.029569
531.135862	2592.385639
531.497331	2588.940010
531.858743	2590.016297
532.220098	2588.526636
532.581396	2589.134095
532.942638	2585.978332
533.303824	2590.996801
533.664953	2593.562748
534.026025	2593.930753
534.387040	2593.567790
534.747999	2590.386822
535.108902	2592.400762
535.469748	2594.875969
535.830537	2593.177100
536.191270	2593.472008
536.551947	2592.630135
536.912567	2592.572162
537.273131	2592.620053
537.633638	2592.851946
537.994089	2591.911771
538.354483	2593.928232
538.714821	2593.620722
539.075103	2593.996288
539.435328	2592.557038
539.795497	2591.808427
540.155609	2596.297574
540.515665	2594.175249
540.875665	2593.809765
541.235609	2595.004518
541.595496	2594.427306
541.955328	2594.145002
542.315102	2593.063674
542.674821	2593.986205
543.034483	2592.199116
543.394090	2595.148191
543.753640	2593.499734
544.113134	2592.743561
544.472571	2592.451174
544.831953	2592.665423
545.191278	2593.562748
545.550548	2592.529312
545.909761	2592.080649
546.268918	2594.881010
546.628019	2592.441092
546.987064	2592.985536
547.346053	2594.787749
547.704986	2593.514858
548.063863	2595.117944
548.422684	2594.802872
548.781449	2595.795980
549.140158	2594.230701
549.498811	2594.515527
549.857408	2590.737182
550.215949	2589.464290
550.574434	2589.028231
550.932864	2591.818509
551.291237	2589.759198
551.649555	2593.348499
552.007817	2595.125506
552.366022	2596.320260
552.724173	2594.321442
553.082267	2593.847574
553.440305	2595.012080
553.798288	2595.937132
554.156215	2595.853953
554.514086	2594.699529
554.871902	2595.924529
555.229661	2596.852101
555.587365	2593.179621
555.945014	2594.545773
556.302606	2598.377050
556.660143	2595.475866
557.017625	2596.037955
557.375050	2596.199272
557.732421	2596.025352
558.089735	2594.850763
558.446994	2595.228850
558.804197	2597.008377
559.161345	2597.719180
559.518437	2595.029724
559.875474	2596.411000
560.232455	2596.030393
560.589381	2594.570979
560.946251	2598.273707
561.303065	2596.847060
561.659825	2593.504775
562.016528	2595.538881
562.373177	2592.730958
562.729770	2595.884200
563.086307	2593.517378
563.442789	2596.100969
563.799216	2596.126175
564.155587	2596.907554
564.511904	2597.840167
564.868164	2597.479725
565.224370	2598.613985
565.580520	2597.872935
565.936615	2599.896958
566.292654	2594.991916
566.648638	2596.244642
567.004567	2595.755650
567.360441	2597.935949
567.716260	2598.530806
568.072023	2597.550301
568.427732	2592.831781
568.783385	2593.020824
569.138982	2593.749271
569.494525	2594.034096
569.850013	2595.344796
570.205445	2597.104159
570.560823	2595.881679
570.916145	2597.983840
571.271412	2596.499221
571.626625	2599.919643
571.981782	2598.112390
572.336884	2598.225816
572.691931	2598.682040
573.046923	2596.080805
573.401860	2595.864035
573.756743	2596.353027
574.111570	2597.346134
574.466342	2597.419231
574.821059	2599.080291
575.175722	2597.116762
575.530330	2596.141299
575.884882	2598.392174
576.239380	2597.225147
576.593823	2599.284458
576.948211	2596.809252
577.302544	2596.695826
577.656823	2596.779005
578.011047	2599.599530
578.365216	2598.147678
578.719330	2598.429982
579.073389	2595.392687
579.427394	2595.377564
579.781344	2597.386464
580.135239	2596.443768
580.489080	2597.517534
580.842866	2598.407297
581.196597	2597.865373
581.550273	2598.734972
581.903895	2595.327152
582.257463	2597.240270
582.610975	2598.276227
582.964434	2596.358068
583.317837	2598.188007
583.671186	2597.507451
584.024481	2595.254056
584.377721	2598.959304
584.730906	2599.778491
585.084037	2597.837647
585.437113	2595.281782
585.790135	2600.728749
586.143103	2595.957297
586.496016	2599.468460
586.848874	2593.313211
587.201679	2596.242122
587.554428	2593.971082
587.907124	2593.661051
588.259765	2591.125351
588.612352	2597.441916
588.964884	2598.029211
589.317362	2596.378233
589.669786	2597.051227
590.022155	2599.365117
590.374470	2595.987543
590.726731	2598.061978
591.078937	2599.254211
591.431090	2597.956114
591.783188	2598.472832
592.135232	2599.042483
592.487222	2598.893769
592.839157	2598.480394
593.191038	2596.811772
593.542866	2599.125662
593.894639	2598.160281
594.246358	2600.305292
594.598022	2596.103490
594.949633	2598.984509
595.301190	2596.378233
595.652692	2596.768922
596.004141	2599.405446
596.355535	2600.028028
596.706876	2596.806731
597.058162	2596.491659
597.409395	2598.450147
597.760573	2593.850094
598.111698	2597.774632
598.462768	2598.918974
598.813785	2598.377050
599.164748	2596.544591
599.515657	2596.201792
599.866511	2593.885382
600.217312	2599.546598
600.568060	2599.372678
600.918753	2597.371340
601.269392	2596.511823
601.619978	2598.772781
601.970510	2597.167173
602.320988	2599.029880
602.671412	2596.201792
603.021783	2597.167173
603.372100	2600.655652
603.722363	2598.001484
604.072572	2598.639190
604.422728	2600.285127
604.772830	2594.112234
605.122878	2595.927050
605.472872	2595.344796
605.822813	2592.627614
606.172701	2596.486618
606.522534	2599.148347
606.872314	2598.503079
607.222041	2599.496187
607.571714	2599.561722
607.921333	2598.903851
608.270899	2601.931064
608.620411	2598.818151
608.969870	2599.642380
609.319276	2596.113572
609.668627	2600.632967
610.017926	2597.426793
610.367171	2600.640528
610.716362	2600.499376
611.065500	2599.528954
611.414585	2603.660180
611.763616	2600.756475
612.112594	2599.977617
612.461518	2602.291506
612.810389	2601.870570
613.159207	2599.148347
613.507971	2600.814448
613.856682	2600.887545
614.205340	2599.443254
614.553945	2600.249839
614.902496	2601.951228
615.250994	2603.161105
615.599439	2600.587596
615.947830	2601.210179
616.296169	2601.172370
616.644454	2603.491301
616.992686	2603.327463
617.340864	2599.667586
617.688990	2602.921651
618.037063	2603.997937
618.385082	2604.040787
618.733048	2603.201435
619.080961	2603.831579
619.428821	2603.826538
619.776628	2604.955756
620.124382	2607.599841
620.472083	2605.888370
620.819731	2608.179574
621.167326	2604.925509
621.514868	2608.192177
621.862357	2606.223606
622.209793	2607.219234
622.557176	2608.136724
622.904506	2600.869901
623.251783	2601.784870
623.599007	2602.616661
623.946179	2600.723707
624.293297	2601.069027
624.640363	2603.448451
624.987376	2607.246961
625.334336	2604.708740
625.681243	2607.244440
626.028097	2604.610437
626.374899	2605.381734
626.721647	2605.560695
627.068343	2608.744183
627.414987	2605.641353
627.761577	2609.107146
628.108115	2610.990017
628.454600	2607.428442
628.801032	2607.993051
629.147412	2608.343412
629.493739	2610.475820
629.840014	2611.141252
630.186236	2607.814090
630.532405	2610.460696
630.878521	2609.911210
631.224585	2611.166458
631.570597	2608.867692
631.916556	2611.211828
632.262462	2612.361211
632.608316	2611.887343
632.954117	2611.726026
633.299866	2614.095368
633.645562	2614.407920
633.991206	2615.519494
634.336797	2614.715430
634.682336	2611.736108
635.027823	2614.627210
635.373257	2613.124946
635.718639	2611.768876
636.063968	2611.562188
636.409245	2612.255347
636.754470	2611.398351
637.099642	2612.948506
637.444762	2613.361880
637.789829	2614.604525
638.134845	2614.458331
638.479808	2612.986314
638.824719	2613.757611
639.169577	2615.254833
639.514383	2617.024278
639.859137	2615.965636
640.203839	2616.011007
640.548489	2617.654423
640.893086	2615.254833
641.237632	2613.152672
641.582125	2614.168465
641.926566	2613.404730
642.270955	2617.467900
642.615292	2620.356481
642.959576	2621.135339
643.303809	2620.444701
643.647990	2621.369753
643.992118	2619.849845
644.336195	2622.370422
644.680219	2620.633745
645.024192	2620.626183
645.368112	2624.812861
645.711981	2623.197171
646.055797	2625.803448
646.399562	2628.185393
646.743274	2630.101032
647.086935	2631.699077
647.430544	2632.924078
647.774101	2634.633029
648.117606	2635.404325
648.461059	2634.829634
648.804460	2634.466671
649.147810	2634.121352
649.491108	2633.791156
649.834354	2635.343832
650.177548	2635.507669
650.520690	2637.498925
650.863781	2633.985241
651.206820	2638.393730
651.549807	2636.619243
651.892742	2637.531692
652.235626	2638.252577
652.578458	2636.709984
652.921238	2637.846764
653.263967	2638.728966
653.606644	2638.272742
653.949269	2640.818525
654.291843	2640.377424
654.634365	2642.131745
654.976836	2641.257105
655.319255	2642.633340
655.661622	2644.095275
656.003938	2646.701551
656.346203	2643.127373
656.688416	2644.687610
657.030577	2645.673156
657.372687	2649.171717
657.714746	2646.162148
658.056753	2646.966212
658.398708	2644.450676
658.740612	2647.097282
659.082465	2650.681542
659.424266	2646.759524
659.766016	2647.109885
660.107715	2653.018117
660.449362	2654.497696
660.790958	2657.698828
661.132503	2658.165135
661.473996	2659.296874
661.815438	2661.482214
662.156829	2663.954900
662.498168	2661.487255
662.839456	2662.866011
663.180693	2665.089160
663.521879	2667.067813
663.863013	2667.093018
664.204097	2668.733914
664.545129	2671.640139
664.886110	2675.073165
665.227040	2675.443690
665.567918	2678.448217
665.908746	2678.826304
666.249522	2682.022396
666.590248	2681.782941
666.930922	2684.701769
667.271545	2684.411902
667.612118	2688.056657
667.952639	2688.195288
668.293109	2691.277954
668.633528	2693.977492
668.973896	2691.068746
669.314213	2693.319621
669.654480	2695.754499
669.994695	2696.253573
670.334859	2697.559232
670.674973	2697.707946
671.015035	2700.117617
671.355047	2702.978472
671.695008	2706.000644
672.034918	2703.717001
672.374777	2705.753627
672.714585	2709.549616
673.054342	2711.644216
673.394049	2714.568085
673.733705	2715.730071
674.073310	2716.932386
674.412864	2721.045967
674.752368	2719.364743
675.091820	2720.355329
675.431223	2721.492110
675.770574	2719.752912
676.109875	2718.016234
676.449125	2722.036554
676.788324	2719.052191
677.127473	2721.035885
677.466571	2720.355329
677.805619	2724.849518
678.144616	2730.306567
678.483562	2727.680126
678.822458	2728.675754
679.161303	2733.394274
679.500098	2731.327401
679.838842	2733.053996
680.177535	2732.844788
680.516179	2737.384347
680.854771	2739.390726
681.193314	2747.564957
681.531805	2759.119282
681.870247	2767.386774
682.208638	2772.614451
682.546978	2780.221552
682.885268	2785.003086
683.223508	2785.252623
683.561697	2784.829167
683.899836	2788.181534
684.237925	2784.400668
684.575963	2787.148097
684.913951	2790.931483
685.251889	2794.961886
685.589776	2795.697894
685.927614	2800.865077
686.265401	2802.105201
686.603137	2809.407312
686.940824	2816.369146
687.278460	2823.890547
687.616046	2830.764160
687.953582	2840.491067
688.291068	2848.987932
688.628504	2852.143694
688.965889	2859.324817
689.303224	2859.753316
689.640510	2859.342462
689.977745	2856.912625
690.314930	2853.582943
690.652065	2851.170751
690.989150	2843.472909
691.326185	2838.439317
691.663170	2832.866322
692.000105	2829.206444
692.336990	2821.390135
692.673825	2821.685042
693.010610	2820.147490
693.347345	2811.761531
693.684030	2810.039977
694.020665	2806.962352
694.357251	2806.473361
694.693786	2805.777681
695.030272	2808.782209
695.366707	2806.354893
695.703093	2805.152578
696.039429	2806.692651
696.375716	2809.379586
696.711952	2806.700212
697.048139	2810.453352
697.384276	2813.445276
697.720363	2815.988538
698.056400	2817.228662
698.392388	2818.766214
698.728326	2826.706032
699.064214	2825.082780
699.400053	2823.479693
699.735842	2822.471462
700.071581	2822.219405
700.407270	2818.972902
700.742910	2820.389466
701.078501	2817.581543
701.414042	2818.733447
701.749533	2817.722695
702.084974	2817.251347
702.420366	2820.218067
702.755709	2819.045998
703.091002	2814.602221
703.426246	2818.733447
703.761440	2816.220432
704.096584	2816.028868
704.431679	2819.058601
704.766725	2818.138591
705.101721	2820.316369
705.436668	2823.262923
705.771565	2821.737974
706.106413	2829.599654
706.441212	2831.217864
706.775961	2837.534430
707.110661	2839.364369
707.445311	2847.480627
707.779913	2849.376100
708.114465	2855.727954
708.448967	2861.540405
708.783421	2876.253012
709.117825	2883.867675
709.452180	2891.043758
709.786485	2902.275448
710.120742	2919.450659
710.454949	2926.447781
710.789107	2938.561674
711.123216	2952.404682
711.457275	2961.330045
711.791286	2977.378558
712.125247	2985.520022
712.459159	2987.324755
712.793023	3004.815038
713.126837	2991.844149
713.460602	2998.102742
713.794318	2993.568224
714.127985	2992.244921
714.461602	2978.858137
714.795171	2976.443424
715.128691	2965.216775
715.462162	2957.443315
715.795584	2951.822429
716.128957	2947.897891
716.462281	2942.466047
716.795556	2940.230296
717.128782	2932.393822
717.461960	2921.799837
717.795088	2925.099272
718.128167	2920.063160
718.461198	2910.963877
718.794180	2913.234917
719.127113	2910.490008
719.459997	2906.356262
719.792833	2901.186559
720.125619	2906.288207
720.458357	2898.287896
720.791046	2897.418297
721.123686	2899.142371
721.456278	2898.635735
721.788821	2900.248904
722.121315	2896.137843
722.453761	2897.753533
722.786158	2902.504821
723.118506	2901.693195
723.450805	2902.093967
723.783056	2908.841551
724.115259	2909.832138
724.447412	2910.437076
724.779518	2921.285639
725.111574	2924.078439
725.443582	2930.705035
725.775542	2932.033379
726.107453	2948.326389
726.439315	2947.698765
726.771129	2962.504634
727.102895	2972.375213
727.434612	2980.060452
727.766281	2988.408603
728.097901	2997.991836
728.429473	3001.510562
728.760996	3004.200017
729.092471	3008.250584
729.423897	3014.534383
729.755276	3009.810822
730.086606	3018.242151
730.417887	3034.678833
730.749120	3050.719785
731.080305	3060.842422
731.411442	3071.617888
731.742530	3080.452510
732.073570	3087.638675
732.404562	3100.813731
732.735506	3104.188783
733.066401	3101.998402
733.397249	3094.875252
733.728048	3082.655495
734.058798	3062.705128
734.389501	3043.145451
734.720156	3031.414686
735.050762	3020.616535
735.381320	3008.245543
735.711831	3002.138185
736.042293	2993.873214
736.372707	2999.783967
736.703073	2991.750888
737.033391	3002.450737
737.363661	2999.340345
737.693883	3006.201355
738.024056	3013.173271
738.354182	3021.362626
738.684260	3032.191024
739.014290	3043.238713
739.344272	3051.382697
739.674207	3062.306877
740.004093	3073.634350
740.333931	3078.751121
740.663722	3086.088520
740.993464	3088.692276
741.323159	3085.284456
741.652806	3079.693817
741.982405	3078.287335
742.311956	3071.993454
742.641460	3071.932960
742.970915	3065.034141
743.300323	3059.214129
743.629683	3052.189281
743.958996	3047.127963
744.288260	3038.038763
744.617477	3028.367309
744.946647	3026.781866
745.275768	3020.336751
745.604842	3018.232069
745.933869	3013.644619
746.262847	3014.463807
746.591778	3016.737367
746.920662	3015.315762
747.249498	3015.827439
747.578286	3023.265661
747.907027	3029.862011
748.235720	3040.138403
748.564365	3043.480688
748.892963	3044.511604
749.221514	3050.704662
749.550017	3048.973025
749.878473	3049.199877
750.206881	3047.422870
750.535242	3042.638815
750.863555	3039.072199
751.191821	3043.077396
751.520039	3044.194011
751.848210	3044.249464
752.176334	3047.347253
752.504411	3045.973539
752.832440	3041.169319
753.160421	3044.761141
753.488356	3042.386758
753.816243	3041.421377
754.144082	3035.523227
754.471875	3036.188659
754.799620	3038.137065
755.127318	3035.467774
755.454969	3038.759648
755.782572	3040.239226
756.110129	3040.526572
756.437638	3038.253012
756.765100	3039.152858
757.092515	3042.154865
757.419882	3044.468754
757.747203	3046.059238
758.074477	3051.662481
758.401703	3053.668860
758.728882	3057.825291
759.056014	3064.013308
759.383099	3068.031107
759.710138	3081.359918
760.037129	3085.498705
760.364073	3090.287802
760.690970	3093.723348
761.017820	3095.893565
761.344623	3102.626026
761.671379	3120.617904
761.998088	3141.553816
762.324751	3200.976417
762.651366	3311.861637
762.977935	3475.754589
763.304456	3607.487501
763.630931	3685.549768
763.957359	3679.792771
764.283740	3616.044860
764.610074	3542.605330
764.936362	3451.027730
765.262602	3376.826986
765.588796	3293.905047
765.914943	3235.846078
766.241044	3183.221473
766.567097	3142.771254
766.893104	3107.289093
767.219064	3088.634303
767.544978	3062.591702
767.870845	3045.590411
768.196665	3030.832433
768.522438	3022.557379
768.848165	3014.690658
769.173846	3005.241016
769.499479	3001.167763
769.825066	2993.772391
770.150607	2984.380721
770.476101	2979.516008
770.801548	2975.891418
771.126949	2970.699029
771.452303	2967.397074
771.777611	2956.351906
772.102872	2959.028758
772.428087	2954.292594
772.753256	2947.613065
773.078378	2946.009978
773.403453	2935.640325
773.728482	2933.684357
774.053465	2930.959614
774.378401	2925.905857
774.703291	2921.056267
775.028135	2913.615524
775.352932	2916.146183
775.677683	2909.988414
776.002388	2907.684606
776.327046	2906.701581
776.651658	2899.167577
776.976224	2899.533061
777.300743	2902.217475
777.625216	2897.579613
777.949643	2895.875703
778.274024	2896.077350
778.598359	2888.102244
778.922647	2891.827657
779.246889	2888.409755
779.571086	2889.148284
779.895236	2892.132647
780.219339	2896.478121
780.543397	2892.861093
780.867409	2898.673544
781.191374	2901.494069
781.515294	2899.207906
781.839167	2904.869122
782.162995	2902.613206
782.486776	2904.460788
782.810511	2903.944070
783.134201	2902.209913
783.457844	2902.048596
783.781441	2902.517424
784.104993	2901.058010
784.428498	2899.996847
784.751958	2898.366033
785.075372	2900.082546
785.398739	2896.173132
785.722061	2897.166239
786.045337	2901.667989
786.368568	2908.770975
786.691752	2910.714340
787.014891	2924.033068
787.337983	2936.434307
787.661030	2962.315591
787.984031	2993.444716
788.306987	3014.473889
788.629897	3032.838812
788.952760	3037.471633
789.275579	3038.358876
789.598351	3025.675333
789.921078	3007.907786
790.243759	2992.348265
790.566395	2981.799650
790.888984	2970.041159
791.211529	2958.126392
791.534027	2949.024588
791.856480	2931.514141
792.178888	2931.226795
792.501249	2921.744384
792.823566	2916.912438
793.145836	2910.144689
793.468062	2910.172416
793.790241	2907.956829
794.112375	2907.482960
794.434464	2913.275246
794.756507	2914.341450
795.078505	2921.988880
795.400457	2932.744182
795.722364	2947.691203
796.044226	2961.307360
796.366042	2978.621203
796.687812	2975.425111
797.009538	2987.158397
797.331218	2987.075218
797.652852	2986.820639
797.974442	2984.138746
798.295986	2981.139259
798.617484	2974.343784
798.938938	2965.728452
799.260346	2962.514716
799.581709	2952.157666
799.903026	2947.998714
800.224299	2941.185594
800.545526	2930.606733
800.866708	2927.405600
801.187845	2922.613983
801.508936	2914.626275
801.829983	2911.979669
802.150984	2906.520100
802.471940	2901.184038
802.792851	2897.708163
803.113717	2899.235633
803.434538	2896.331928
803.755314	2890.595095
804.076045	2888.293808
804.396731	2888.737430
804.717372	2885.866493
805.037967	2886.862120
805.358518	2888.366905
805.679024	2891.736916
805.999485	2889.942265
806.319901	2893.559293
806.640272	2893.289592
806.960598	2900.054820
807.280879	2896.571383
807.601115	2904.838875
807.921306	2901.632701
808.241453	2902.237640
808.561554	2906.573032
808.881611	2906.966242
809.201623	2907.442631
809.521590	2904.312074
809.841513	2905.211920
810.161390	2911.039494
810.481223	2901.731004
810.801011	2902.766961
811.120755	2902.764440
811.440453	2901.640263
811.760107	2898.728997
812.079716	2898.028276
812.399281	2894.743964
812.718801	2895.626166
813.038276	2893.440826
813.357707	2895.381670
813.677093	2899.187742
813.996434	2891.424365
814.315731	2897.889644
814.634983	2900.135478
814.954191	2899.868297
815.273354	2906.744431
815.592473	2910.772313
815.911547	2923.218922
816.230577	2926.306629
816.549562	2939.998403
816.868502	2946.110802
817.187399	2955.021041
817.506250	2969.658031
817.825058	2976.559371
818.143821	2995.274654
818.462539	3015.179650
818.781213	3040.103115
819.099843	3076.699371
819.418429	3135.753968
819.736970	3194.753112
820.055466	3272.112138
820.373919	3369.514793
820.692327	3513.031401
821.010691	3709.805280
821.329011	4080.594748
821.647286	4609.484883
821.965517	5233.171396
822.283704	5698.825297
822.601847	6067.608387
822.919945	6048.537702
823.237999	5927.698723
823.556010	5707.188572
823.873976	5414.849540
824.191897	5097.372794
824.509775	4836.752702
824.827609	4562.138367
825.145398	4372.147360
825.463144	4240.301023
825.780845	4198.328376
826.098502	4208.924881
826.416116	4334.157225
826.733685	4506.496631
827.051210	4615.299854
827.368692	4597.887709
827.686129	4458.406544
828.003522	4258.660905
828.320872	4040.651166
828.638177	3861.874206
828.955439	3714.332236
829.272656	3578.074889
829.589830	3468.369299
829.906960	3359.964327
830.224046	3275.494753
830.541088	3208.202911
830.858086	3157.350271
831.175041	3120.627986
831.491952	3100.985130
831.808819	3096.856425
832.125642	3113.567850
832.442421	3158.668533
832.759157	3248.685897
833.075849	3394.319790
833.392497	3574.500711
833.709101	3722.057804
834.025662	3774.460599
834.342179	3734.650607
834.658653	3636.358189
834.975083	3531.608053
835.291469	3434.444854
835.607811	3337.523630
835.924110	3269.969648
836.240366	3200.739482
836.556578	3131.360603
836.872746	3072.346335
837.188871	3025.524098
837.504952	2985.943479
837.820990	2950.738581
838.136984	2924.885023
838.452935	2911.571336
838.768842	2905.660583
839.084706	2918.397058
839.400526	2973.280100
839.716303	3064.028431
840.032037	3153.095537
840.347727	3184.075948
840.663373	3156.268944
840.978977	3097.000098
841.294537	3038.210162
841.610054	2989.943634
841.925527	2958.078501
842.240957	2928.502051
842.556344	2899.293606
842.871687	2874.140769
843.186987	2847.024402
843.502244	2821.508602
843.817458	2803.839358
844.132629	2789.774538
844.447756	2775.150151
844.762840	2765.622370
845.077881	2757.392687
845.392879	2749.228538
845.707833	2747.927920
846.022745	2741.061869
846.337613	2741.853330
846.652438	2736.101373
846.967221	2734.309243
847.281960	2731.564335
847.596656	2727.962431
847.911309	2722.200392
848.225919	2724.592419
848.540485	2721.252655
848.855009	2718.535473
849.169490	2717.466748
849.483928	2719.747870
849.798323	2716.771069
850.112675	2714.013558
850.426984	2716.839125
850.741251	2712.677652
851.055474	2715.046994
851.369654	2712.791078
851.683792	2711.500543
851.997887	2713.403578
852.311938	2711.399720
852.625947	2716.072869
852.939914	2711.447611
853.253837	2717.318034
853.567718	2716.183775
853.881555	2712.299566
854.195350	2715.931717
854.509103	2712.067672
854.822812	2713.970708
855.136479	2712.932230
855.450103	2713.204453
855.763685	2709.988197
856.077224	2711.624051
856.390720	2715.354505
856.704173	2713.113712
857.017584	2715.236038
857.330953	2713.980790
857.644278	2718.336347
857.957561	2721.850032
858.270802	2719.531101
858.584000	2719.226111
858.897155	2722.616287
859.210268	2721.093858
859.523339	2717.302911
859.836367	2718.225442
860.149352	2718.144783
860.462295	2717.242417
860.775195	2712.695296
861.088054	2714.772252
861.400869	2716.125801
861.713642	2714.673949
862.026373	2711.944164
862.339062	2716.236707
862.651708	2719.495813
862.964312	2721.303066
863.276873	2720.642675
863.589392	2726.104765
863.901869	2727.584344
864.214303	2732.433934
864.526696	2735.647670
864.839045	2738.359810
865.151353	2741.248392
865.463619	2743.423649
865.775842	2742.559092
866.088023	2748.583270
866.400162	2747.617889
866.712258	2749.924217
867.024313	2753.851276
867.336325	2750.423292
867.648296	2752.989239
867.960224	2752.792634
868.272110	2756.061822
868.583954	2753.984867
868.895755	2756.039137
869.207515	2758.741195
869.519233	2761.223964
869.830909	2762.993409
870.142542	2766.973400
870.454134	2765.385436
870.765684	2769.393153
871.077191	2772.019595
871.388657	2775.860954
871.700081	2778.076541
872.011463	2781.101233
872.322803	2786.470062
872.634101	2789.255300
872.945357	2791.468366
873.256571	2796.630508
873.567744	2797.038841
873.878874	2799.730817
874.189963	2803.236940
874.501010	2806.838844
874.812015	2807.857157
875.122979	2811.943012
875.433900	2815.219762
875.744780	2818.620021
876.055618	2821.228818
876.366415	2823.585557
876.677169	2829.894561
876.987882	2830.975889
877.298554	2837.083247
877.609183	2849.076152
877.919771	2862.432689
878.230317	2873.689585
878.540822	2899.563308
878.851285	2929.033893
879.161707	2970.215079
879.472087	3032.548946
879.782425	3115.682614
880.092722	3253.578336
880.402977	3438.596244
880.713191	3623.919142
881.023363	3807.162564
881.333494	3936.863890
881.643583	4045.223492
881.953631	4113.415180
882.263637	4142.147237
882.573602	4122.272488
882.883526	4081.822269
883.193408	4016.582177
883.503248	3938.197276
883.813048	3845.682020
884.122806	3755.823453
884.432522	3648.993841
884.742197	3550.015827
885.051831	3460.336220
885.361424	3373.787170
885.670975	3294.270530
885.980485	3224.082545
886.289954	3164.201199
886.599382	3113.073817
886.908768	3068.525140
887.218113	3025.607277
887.527417	2992.375991
887.836680	2961.506485
888.145901	2937.308947
888.455082	2915.163158
888.764221	2898.353431
889.073319	2880.492623
889.382376	2870.140613
889.691392	2861.399252
890.000366	2854.094620
890.309300	2850.018847
890.618193	2847.039526
890.927044	2845.418795
891.235855	2844.675224
891.544625	2847.785616
891.853353	2851.145545
892.162041	2854.603777
892.470687	2872.255377
892.779293	2890.411093
893.087858	2912.153589
893.396381	2953.831329
893.704864	3009.309227
894.013306	3084.397213
894.321707	3176.569670
894.630068	3255.511619
894.938387	3301.096253
895.246665	3313.290804
895.554903	3292.606949
895.863100	3253.850559
896.171256	3218.408727
896.479371	3181.106709
896.787446	3141.609268
897.095480	3100.468412
897.403473	3069.626632
897.711425	3039.210831
898.019336	3013.153107
898.327207	2984.171513
898.635038	2959.283337
898.942827	2928.771753
899.250576	2902.671179
899.558284	2883.378683
899.865952	2869.233205
900.173579	2852.632686
900.481165	2839.850840
900.788711	2830.554952
901.096216	2817.979794
901.403681	2812.739515
901.711105	2806.924544
902.018489	2805.044193
902.325832	2812.658856
902.633135	2815.786892
902.940397	2838.323371
903.247619	2887.129302
903.554800	2974.250522
903.861941	3106.195163
904.169041	3232.302147
904.476101	3322.410251
904.783121	3348.049559
905.090100	3326.801096
905.397039	3282.582615
905.703938	3224.959706
906.010796	3171.379802
906.317614	3128.363637
906.624391	3078.463775
906.931129	3040.622354
907.237826	3004.298320
907.544483	2967.825572
907.851099	2927.710590
908.157675	2886.282388
908.464211	2851.964733
908.770707	2817.188333
909.077163	2792.527008
909.383578	2772.745521
909.689954	2753.889085
909.996289	2740.973649
910.302584	2735.370406
910.608839	2731.251783
910.915054	2724.819271
911.221229	2721.156873
911.527363	2723.251472
911.833458	2724.095866
912.139513	2727.276834
912.445527	2726.639128
912.751502	2736.804614
913.057436	2743.158989
913.363331	2754.063005
913.669186	2772.785850
913.975000	2794.752678
914.280775	2828.596464
914.586510	2874.954915
914.892205	2932.073709
915.197859	3009.316788
915.503475	3097.990685
915.809050	3190.773121
916.114585	3257.616301
916.420081	3300.990388
916.725536	3324.179696
917.030952	3310.293838
917.336328	3294.925880
917.641665	3271.519803
917.946961	3243.027201
918.252218	3212.364383
918.557435	3173.852488
918.862612	3139.570122
919.167750	3103.107456
919.472848	3060.751681
919.777906	3025.682894
920.082925	2989.711741
920.387904	2950.620114
920.692843	2918.543252
920.997743	2888.994528
921.302603	2859.896988
921.607423	2841.516942
921.912204	2818.131029
922.216946	2803.093267
922.521647	2787.952161
922.826310	2775.581170
923.130932	2767.490118
923.435516	2752.941348
923.740059	2745.379617
924.044564	2735.602299
924.349028	2727.798593
924.653454	2716.130842
924.957840	2708.503577
925.262186	2701.559387
925.566493	2696.409849
925.870761	2687.187058
926.174989	2688.328879
926.479178	2683.398631
926.783328	2678.027281
927.087438	2672.141734
927.391509	2671.297341
927.695541	2666.034376
927.999533	2664.756444
928.303486	2659.715290
928.607400	2656.587254
928.911275	2657.015752
929.215110	2655.344609
929.518906	2653.217242
929.822663	2650.333702
930.126381	2649.811943
930.430060	2648.012251
930.733699	2650.767242
931.037299	2650.726912
931.340861	2647.084679
931.644383	2652.773621
931.947866	2650.084165
932.251309	2648.410502
932.554714	2648.932262
932.858080	2651.084834
933.161407	2650.991573
933.464694	2646.585605
933.767943	2650.018630
934.071153	2648.065183
934.374323	2647.301448
934.677455	2644.775830
934.980548	2646.043681
935.283602	2643.490336
935.586617	2642.590490
935.889593	2645.421098
936.192530	2645.736170
936.495428	2647.067035
936.798287	2649.532159
937.101108	2649.673311
937.403890	2655.150525
937.706632	2660.642862
938.009336	2667.859274
938.312002	2672.265242
938.614628	2681.225893
938.917216	2689.894157
939.219765	2694.451360
939.522275	2698.244829
939.824747	2699.679037
940.127179	2698.345652
940.429573	2699.389171
940.731929	2700.624253
941.034246	2697.975127
941.336524	2699.895807
941.638763	2700.853626
941.940964	2700.783050
942.243126	2696.798017
942.545250	2693.052440
942.847335	2690.153777
943.149381	2683.885102
943.451389	2682.733198
943.753359	2681.490554
944.055290	2678.407888
944.357182	2674.861437
944.659036	2673.936385
944.960851	2668.504542
945.262628	2666.583862
945.564367	2666.972031
945.866067	2664.658141
946.167729	2665.031187
946.469352	2663.750733
946.770937	2663.864159
947.072484	2661.668737
947.373992	2663.173521
947.675462	2660.174035
947.976893	2658.797800
948.278286	2660.844508
948.579641	2658.276040
948.880958	2659.866524
949.182236	2659.044816
949.483476	2657.673622
949.784678	2656.574651
950.085841	2655.740340
950.386967	2659.901812
950.688054	2657.598005
950.989103	2660.960455
951.290114	2661.399035
951.591087	2664.660662
951.892021	2667.823986
952.192917	2670.533606
952.493776	2670.793225
952.794596	2673.475119
953.095378	2676.303207
953.396122	2673.376817
953.696828	2674.846313
953.997496	2673.523010
954.298126	2671.201559
954.598718	2669.923626
954.899272	2669.316167
955.199788	2663.410456
955.500266	2663.488593
955.800706	2651.268837
956.101108	2650.298414
956.401472	2646.625934
956.701798	2643.573515
957.002087	2634.164202
957.302337	2637.219141
957.602550	2632.593882
957.902724	2630.474077
958.202861	2627.903088
958.502960	2622.451081
958.803022	2619.565020
959.103045	2620.817747
959.403031	2618.072838
959.702979	2614.909514
960.002889	2613.538321
960.302762	2608.625716
960.602596	2608.078751
960.902393	2608.729060
961.202153	2606.435335
961.501875	2604.106322
961.801559	2603.400560
962.101205	2599.917123
962.400814	2601.270673
962.700385	2601.593307
962.999918	2600.741352
963.299414	2597.230188
963.598873	2600.098604
963.898293	2599.349993
964.197677	2598.014087
964.497022	2599.833944
964.796331	2596.209354
965.095601	2596.244642
965.394835	2597.736824
965.694030	2596.645414
965.993189	2596.277410
966.292309	2594.623911
966.591393	2595.468305
966.890439	2594.828078
967.189447	2595.226329
967.488419	2594.021493
967.787353	2596.393356
968.086249	2595.135588
968.385108	2593.935794
968.683930	2595.065012
968.982714	2598.873604
969.281462	2599.801176
969.580172	2599.120621
969.878844	2597.709097
970.177480	2597.895620
970.476078	2602.974583
970.774639	2602.336877
971.073162	2603.062803
971.371649	2599.662545
971.670098	2600.796804
971.968510	2600.620364
972.266885	2600.980806
972.565223	2603.037597
972.863524	2609.152517
973.161788	2604.812083
973.460014	2604.802001
973.758204	2605.583380
974.056356	2604.270159
974.354471	2607.589759
974.652550	2608.166971
974.950591	2608.177053
975.248595	2609.903649
975.546563	2608.229986
975.844493	2604.297886
976.142386	2603.486260
976.440243	2605.404419
976.738062	2607.289810
977.035845	2602.876280
977.333590	2602.299068
977.631299	2603.922320
977.928971	2601.668924
978.226606	2601.908379
978.524204	2601.535333
978.821765	2602.457864
979.119290	2601.495004
979.416777	2600.194386
979.714228	2602.409973
980.011642	2602.198245
980.309020	2606.977259
980.606360	2602.972062
980.903664	2607.062958
981.200931	2612.499843
981.498162	2617.523353
981.795356	2626.340331
982.092513	2631.928450
982.389633	2641.284831
982.686717	2651.838487
982.983764	2661.812410
983.280775	2668.007988
983.577749	2669.225427
983.874686	2674.982424
984.171587	2672.209790
984.468451	2669.258194
984.765279	2663.289468
985.062070	2660.370640
985.358824	2652.763539
985.655543	2646.983856
985.952224	2642.053607
986.248869	2635.432052
986.545478	2623.635752
986.842050	2618.362705
987.138586	2611.053032
987.435086	2603.897114
987.731549	2600.219592
988.027975	2599.624736
988.324366	2597.958635
988.620719	2596.859663
988.917037	2593.746751
989.213318	2591.153077
989.509563	2590.200299
989.805772	2592.045361
990.101944	2589.237438
990.398080	2589.411358
990.694180	2589.436564
990.990244	2588.997984
991.286271	2586.719382
991.582262	2590.051585
991.878217	2588.012438
992.174136	2588.952613
992.470019	2590.958992
992.765865	2588.975298
993.061676	2592.622573
993.357450	2593.504775
993.653188	2592.357913
993.948890	2593.580393
994.244556	2596.305136
994.540186	2598.740013
994.835780	2601.905858
995.131337	2608.083792
995.426859	2611.973042
995.722345	2614.710389
996.017795	2623.335803
996.313208	2628.339148
996.608586	2631.754530
996.903928	2635.512710
997.199234	2637.524131
997.494504	2637.377937
997.789738	2635.132103
998.084936	2633.791156
998.380099	2630.718573
998.675225	2627.605660
998.970316	2624.439816
999.265371	2620.457304
999.560390	2615.184257
999.855373	2613.182919
1000.150320	2605.792588
1000.445232	2606.326950
1000.740108	2601.031218
1001.034948	2597.585589
1001.329752	2596.030393
1001.624521	2592.229363
1001.919254	2587.997315
1002.213951	2588.662747
1002.508613	2586.815164
1002.803239	2586.653847
1003.097829	2581.968095
1003.392384	2587.112592
1003.686903	2585.270050
1003.981386	2585.459094
1004.275834	2581.758887
1004.570246	2588.050247
1004.864623	2584.362643
1005.158964	2585.002869
1005.453270	2580.899370
1005.747540	2583.750142
1006.041775	2583.636717
1006.335974	2583.193095
1006.630138	2580.556572
1006.924266	2583.056984
1007.218359	2580.044894
1007.512416	2580.949782
1007.806438	2581.053125
1008.100425	2581.040522
1008.394376	2581.186716
1008.688292	2581.663105
1008.982172	2581.252251
1009.276017	2580.080183
1009.569827	2580.072621
1009.863602	2580.657395
1010.157341	2581.713516
1010.451045	2580.160841
1010.744714	2580.319637
1011.038347	2578.678742
1011.331945	2581.083372
1011.625508	2582.000862
1011.919036	2580.443146
1012.212528	2580.296952
1012.505986	2578.530028
1012.799408	2580.496078
1013.092795	2579.908783
1013.386147	2581.917683
1013.679464	2579.974318
1013.972745	2578.232600
1014.265992	2579.253433
1014.559204	2581.239648
1014.852380	2579.689493
1015.145521	2582.109247
1015.438628	2579.558423
1015.731699	2580.760738
1016.024736	2580.422981
1016.317737	2582.663774
1016.610703	2579.447518
1016.903635	2573.803946
1017.196531	2574.970973
1017.489393	2575.500294
1017.782219	2575.480130
1018.075011	2578.739236
1018.367768	2579.346695
1018.660490	2582.361305
1018.953177	2582.361305
1019.245829	2582.361305
