Dividing Wavelength (nm)	Counts (n)	Blue Motor Position (mm): 24.000000	Red Motor Position (mm): 0.000000	
326.493990	2158.501089
326.888308	2158.501089
327.282561	2158.501089
327.676750	2129.743827
328.070874	2133.310443
328.464933	2139.019550
328.858929	2148.179327
329.252859	2158.806079
329.646726	2171.650939
330.040528	2185.241890
330.434265	2206.631506
330.827938	2225.734958
331.221547	2245.138359
331.615091	2265.577718
332.008571	2283.045316
332.401986	2305.838893
332.795338	2326.033755
333.188625	2345.114522
333.581847	2365.369878
333.975006	2381.940151
334.368100	2402.286248
334.761129	2420.447005
335.154095	2434.158943
335.546996	2460.824127
335.939833	2487.411172
336.332606	2500.319046
336.725315	2514.477127
337.117960	2519.591378
337.510540	2531.123017
337.903056	2540.078627
338.295508	2546.261602
338.687896	2555.396173
339.080220	2563.789694
339.472480	2566.559808
339.864676	2570.088616
340.256807	2574.527352
340.648875	2576.677404
341.040879	2577.935172
341.432818	2579.838207
341.824694	2580.720409
342.216506	2578.454410
342.608253	2578.681262
342.999937	2576.397620
343.391557	2578.835017
343.783113	2577.836869
344.174605	2576.770665
344.566033	2571.726991
344.957397	2570.746486
345.348697	2571.522824
345.739934	2567.310940
346.131106	2566.620302
346.522215	2566.131310
346.913260	2561.085115
347.304241	2562.731052
347.695159	2560.298695
348.086012	2556.401883
348.476802	2555.040771
348.867528	2557.321893
349.258191	2552.391645
349.648789	2552.747046
350.039324	2549.843342
350.429796	2555.300391
350.820203	2551.484237
351.210548	2549.797971
351.600828	2548.835111
351.991045	2549.404761
352.381198	2545.820501
352.771288	2548.676315
353.161314	2548.308310
353.551276	2548.305790
353.941175	2546.795964
354.331010	2547.264792
354.720782	2546.057435
355.110490	2549.500543
355.500135	2551.494320
355.889717	2549.061963
356.279235	2547.733619
356.668689	2551.771583
357.058080	2549.848383
357.447408	2544.499719
357.836672	2546.879143
358.225873	2547.698331
358.615010	2549.046839
359.004084	2552.981460
359.393095	2551.869886
359.782043	2551.030533
360.170927	2552.626059
360.559748	2553.019269
360.948505	2552.920966
361.337199	2556.366595
361.725830	2552.303425
362.114398	2554.811399
362.502903	2555.033210
362.891344	2558.380536
363.279722	2553.853580
363.668037	2558.362892
364.056289	2558.294836
364.444478	2559.242573
364.832603	2559.900444
365.220665	2560.008828
365.608665	2557.780638
365.996601	2557.435319
366.384474	2559.068653
366.772284	2561.337172
367.160031	2560.185269
367.547715	2559.159394
367.935336	2558.977912
368.322893	2560.243242
368.710388	2561.947152
369.097820	2563.688871
369.485189	2563.068809
369.872495	2562.912533
370.259738	2563.038562
370.646918	2562.252142
371.034035	2563.837585
371.421090	2562.884807
371.808081	2562.347924
372.195010	2564.694581
372.581875	2562.710887
372.968678	2563.930846
373.355418	2565.034859
373.742096	2563.527554
374.128710	2566.204407
374.515262	2569.289593
374.901751	2564.729869
375.288177	2565.511248
375.674540	2566.030487
376.060841	2566.516958
376.447079	2565.498645
376.833254	2566.650549
377.219367	2565.029818
377.605417	2562.738613
377.991404	2564.674416
378.377329	2564.583676
378.763191	2562.998233
379.148991	2568.175498
379.534727	2568.767833
379.920402	2567.336146
380.306013	2568.825807
380.691563	2569.304716
381.077049	2567.285734
381.462474	2568.674572
381.847835	2569.397977
382.233134	2571.941240
382.618371	2569.143399
383.003545	2569.864284
383.388657	2572.750345
383.773706	2572.316806
384.158693	2571.071641
384.543618	2570.547361
384.928480	2570.537278
385.313280	2573.554409
385.698017	2572.450396
386.082692	2574.388720
386.467305	2573.710685
386.851856	2574.408884
387.236344	2573.481312
387.620770	2572.684810
388.005133	2573.776220
388.389435	2573.284707
388.773674	2576.332085
389.157851	2573.204049
389.541965	2574.981055
389.926018	2573.231775
390.310008	2575.764955
390.693936	2574.938206
391.077802	2574.401323
391.461606	2573.990469
391.845348	2573.844275
392.229027	2577.352918
392.612645	2578.910635
392.996200	2574.466858
393.379694	2576.488360
393.763125	2576.138000
394.146494	2575.790161
394.529801	2578.772003
394.913047	2578.000707
395.296230	2577.857034
395.679351	2577.012640
396.062410	2579.369380
396.445408	2579.828125
396.828343	2577.022723
397.211217	2575.386868
397.594028	2575.528021
397.976778	2577.685634
398.359466	2578.787127
398.742092	2575.873340
399.124656	2581.627817
399.507158	2579.891139
399.889598	2581.156469
400.271977	2578.519945
400.654294	2580.664956
401.036549	2580.375090
401.418742	2579.767631
401.800874	2582.232755
402.182944	2581.010275
402.564952	2582.449525
402.946898	2581.378280
403.328783	2581.174113
403.710606	2581.968095
404.092367	2580.632189
404.474067	2581.733681
404.855705	2582.527663
405.237282	2584.559248
405.618797	2582.714185
406.000250	2584.377766
406.381642	2582.197467
406.762972	2586.618559
407.144240	2583.034299
407.525447	2584.503795
407.906593	2585.769125
408.287677	2585.910277
408.668700	2581.597570
409.049661	2585.136460
409.430560	2586.948755
409.811399	2584.733167
410.192176	2583.460276
410.572891	2583.510688
410.953545	2582.310893
411.334138	2585.968250
411.714669	2587.788107
412.095139	2586.578230
412.475547	2585.517067
412.855894	2582.683938
413.236180	2587.941862
413.616405	2588.874475
413.996568	2587.374732
414.376670	2589.711307
414.756711	2587.838518
415.136691	2586.986563
415.516609	2588.519074
415.896466	2587.198292
416.276262	2587.863724
416.655997	2585.262489
417.035670	2583.704772
417.415283	2584.627303
417.794834	2584.544124
418.174324	2586.752150
418.553753	2589.154259
418.933121	2589.282809
419.312428	2591.357244
419.691674	2591.584096
420.070859	2589.300453
420.449983	2587.490679
420.829045	2589.507140
421.208047	2590.041502
421.586988	2590.853128
421.965867	2590.366657
422.344686	2593.973603
422.723444	2591.289188
423.102141	2590.470001
423.480777	2592.040320
423.859352	2589.739033
424.237866	2593.613160
424.616319	2590.326328
424.994712	2591.999991
425.373044	2591.732810
425.751314	2591.778180
426.129524	2592.284816
426.507673	2593.293047
426.885762	2592.035279
427.263789	2595.095259
427.641756	2591.967223
428.019662	2592.544435
428.397508	2592.289857
428.775292	2593.577872
429.153016	2591.737851
429.530679	2596.169025
429.908282	2594.671802
430.285824	2594.114755
430.663305	2593.219950
431.040726	2594.729776
431.418086	2593.545104
431.795385	2594.946545
432.172624	2594.013932
432.549802	2598.011567
432.926920	2594.787749
433.303977	2595.682554
433.680974	2594.722214
434.057910	2594.686926
434.434786	2595.662389
434.811601	2594.502924
435.188355	2596.184148
435.565050	2596.549632
435.941683	2597.005857
436.318257	2593.184662
436.694770	2594.296236
437.071222	2596.282451
437.447614	2595.478387
437.823946	2594.623911
438.200218	2598.462750
438.576429	2598.495517
438.952580	2600.212030
439.328670	2601.187494
439.704700	2597.701536
440.080670	2597.043665
440.456580	2598.498038
440.832429	2599.526433
441.208218	2599.120621
441.583947	2600.635487
441.959616	2600.375868
442.335224	2602.208327
442.710773	2600.267483
443.086261	2600.426279
443.461689	2603.110694
443.837057	2601.336208
444.212365	2601.827720
444.587612	2601.129520
444.962800	2605.409460
445.337927	2599.791094
445.712995	2601.371496
446.088002	2602.364603
446.462949	2602.185642
446.837837	2602.301589
447.212664	2604.081116
447.587431	2606.813421
447.962139	2604.665890
448.336786	2610.468258
448.711374	2607.599841
449.085901	2607.108329
449.460369	2605.202773
449.834776	2607.486415
450.209124	2609.041611
450.583412	2608.043463
450.957640	2608.187136
451.331808	2608.293000
451.705917	2607.874584
452.079965	2609.175202
452.453954	2610.843824
452.827883	2609.684358
453.201752	2607.899790
453.575562	2609.160078
453.949311	2612.754421
454.323001	2612.976232
454.696632	2612.512446
455.070202	2613.891201
455.443713	2614.193671
455.817164	2613.223248
456.190556	2614.851541
456.563888	2617.770369
456.937160	2611.615120
457.310373	2618.927314
457.683526	2620.117026
458.056619	2620.782459
458.429653	2624.175155
458.802628	2624.281019
459.175542	2623.799589
459.548398	2628.873511
459.921194	2629.433079
460.293930	2630.186731
460.666607	2637.627474
461.039224	2641.000006
461.411782	2644.312044
461.784280	2648.581902
462.156719	2650.275729
462.529099	2650.512663
462.901419	2653.849907
463.273680	2654.094403
463.645882	2655.198416
464.018024	2660.428613
464.390106	2665.628563
464.762130	2674.732887
465.134094	2688.906091
465.505999	2709.355532
465.877845	2733.694222
466.249631	2745.515728
466.621358	2748.507653
466.993026	2752.510329
467.364634	2751.292891
467.736184	2749.021851
468.107674	2754.511667
468.479105	2763.913419
468.850477	2770.232506
469.221790	2772.904317
469.593043	2773.607558
469.964238	2781.698610
470.335373	2790.797893
470.706449	2809.485450
471.077467	2833.093173
471.448425	2880.522869
471.819324	2925.227822
472.190164	2941.583845
472.560945	2928.098759
472.931667	2918.238262
473.302330	2921.686411
473.672934	2930.301743
474.043479	2952.603808
474.413965	2965.405818
474.784393	2974.187508
475.154761	3005.185563
475.525070	3026.991074
475.895321	3040.219062
476.265513	3068.958680
476.635645	3110.701954
477.005719	3132.041158
477.375734	3164.143226
477.745691	3199.801828
478.115588	3249.560537
478.485427	3306.646563
478.855207	3402.113414
479.224928	3495.525995
479.594591	3577.870722
479.964194	3611.948922
480.333739	3654.105571
480.703226	3689.471786
481.072653	3753.328082
481.442022	3817.328050
481.811333	3883.568812
482.180584	3899.337541
482.549777	3934.058488
482.918912	3967.834219
483.287988	4015.861292
483.657005	4044.026218
484.025964	4070.875404
484.394864	4128.586533
484.763706	4172.318543
485.132489	4199.984395
485.501213	4246.655397
485.869879	4310.546981
486.238487	4347.072661
486.607036	4416.595214
486.975527	4462.167245
487.343959	4525.980691
487.712333	4596.821505
488.080648	4669.860262
488.448905	4751.821862
488.817104	4810.717663
489.185244	4923.110188
489.553326	5054.588521
489.921350	5278.382984
490.289315	5558.096447
490.657222	5731.239917
491.025070	5862.314958
491.392861	5907.624849
491.760593	5923.678403
492.128267	5900.670577
492.495883	5884.140633
492.863440	5870.090938
493.230939	5849.104614
493.598380	5853.908834
493.965763	5907.899592
494.333088	5923.247384
494.700354	5964.771369
495.067563	6016.942270
495.434713	6092.947746
495.801805	6180.666344
496.168839	6232.607872
496.535815	6294.961904
496.902733	6374.145828
497.269593	6431.950219
497.636395	6495.909858
498.003139	6622.420135
498.369825	6653.201420
498.736453	6771.734071
499.103023	6808.153887
499.469535	6886.256483
499.835989	6974.126315
500.202385	7029.805859
500.568723	7105.297138
500.935003	7209.994342
501.301226	7264.640450
501.667390	7430.464164
502.033497	7555.177269
502.399546	7581.625683
502.765537	7590.256138
503.131470	7718.987043
503.497345	7850.679625
503.863163	7769.610310
504.228923	7922.934483
504.594625	8066.269611
504.960269	8065.281545
505.325856	8234.729849
505.691385	8222.759629
506.056856	8326.657810
506.422270	8459.887944
506.787625	8476.022157
507.152924	8569.384326
507.518164	8682.215432
507.883347	8638.899317
508.248472	8752.060618
508.613540	8892.124037
508.978550	9005.408846
509.343503	9043.348570
509.708398	9133.791911
510.073236	9298.614957
510.438016	9366.153815
510.802738	9347.511628
511.167403	9504.266307
511.532010	9598.671995
511.896561	9724.607580
512.261053	9944.026322
512.625488	9925.331203
512.989866	9965.531884
513.354186	9993.104475
513.718449	10055.637468
514.082655	10220.120236
514.446803	10227.921421
514.810894	10366.941321
515.174927	10401.654706
515.538904	10431.299211
515.902822	10612.926943
516.266684	10541.743330
516.630488	10679.145020
516.994235	10712.363703
517.357925	10843.269865
517.721558	10937.005080
518.085133	11034.856397
518.448651	11100.484658
518.812112	11095.922414
519.175516	11138.079063
519.538863	11257.451065
519.902152	11296.719133
520.265385	11420.668503
520.628560	11471.818571
520.991678	11455.061776
521.354739	11537.953468
521.717743	11630.075514
522.080690	11628.989145
522.443580	11779.674275
522.806413	11825.304279
523.169189	11846.744306
523.531908	11918.091756
523.894569	11902.070969
524.257174	11949.621653
524.619722	12068.282853
524.982213	12067.201525
525.344647	12083.499576
525.707025	12107.853390
526.069345	12224.898900
526.431608	12225.760937
526.793815	12317.933394
527.155964	12230.832338
527.518057	12280.512909
527.880093	12251.433013
528.242072	12368.100437
528.603995	12313.857621
528.965860	12337.810664
529.327669	12386.515772
529.689421	12346.667971
530.051117	12377.673588
530.412755	12432.843976
530.774337	12438.840428
531.135862	12411.252714
531.497331	12471.262609
531.858743	12445.293105
532.220098	12537.851210
532.581396	12479.114206
532.942638	12418.365782
533.303824	12484.679640
533.664953	12474.075573
534.026025	12440.362857
534.387040	12550.164228
534.747999	12530.589428
535.108902	12576.771438
535.469748	12466.455869
535.830537	12491.160043
536.191270	12544.641644
536.551947	12477.347282
536.912567	12544.097200
537.273131	12579.120616
537.633638	12465.883698
537.994089	12527.330322
538.354483	12443.382508
538.714821	12569.950757
539.075103	12653.517965
539.435328	12595.534613
539.795497	12571.246334
540.155609	12569.623082
540.515665	12671.023371
540.875665	12533.838452
541.235609	12640.720996
541.595496	12609.193619
541.955328	12777.084207
542.315102	12638.127322
542.674821	12577.812437
543.034483	12597.823297
543.394090	12595.065786
543.753640	12564.670149
544.113134	12814.953355
544.472571	12579.460894
544.831953	12864.212990
545.191278	12671.194771
545.550548	12605.526180
545.909761	12721.145043
546.268918	12767.347218
546.628019	12841.142149
546.987064	12733.276580
547.346053	12583.466091
547.704986	12770.452569
548.063863	12655.781443
548.422684	12712.315463
548.781449	12672.253413
549.140158	12774.326696
549.498811	12717.278478
549.857408	12592.767020
550.215949	12801.705202
550.574434	12771.052467
550.932864	12711.564331
551.291237	12898.815470
551.649555	12800.467599
552.007817	12857.939274
552.366022	12773.510029
552.724173	12810.673415
553.082267	12895.200962
553.440305	12993.132937
553.798288	12817.668016
554.156215	12895.460582
554.514086	12942.207201
554.871902	12879.999363
555.229661	12905.399217
555.587365	12863.983617
555.945014	12874.917880
556.302606	12856.522709
556.660143	12920.409252
557.017625	12945.872120
557.375050	12909.747212
557.732421	13026.565870
558.089735	13016.158408
558.446994	12989.319305
558.804197	13106.891615
559.161345	13101.442128
559.518437	12909.326275
559.875474	13013.698325
560.232455	13041.225545
560.589381	13086.485024
560.946251	13020.496321
561.303065	13200.906614
561.659825	13151.904078
562.016528	13070.847365
562.373177	13015.674457
562.729770	13134.759114
563.086307	13027.120397
563.442789	13133.697951
563.799216	13160.940346
564.155587	13107.874640
564.511904	13133.929844
564.868164	13143.311431
565.224370	13214.578223
565.580520	13146.804951
565.936615	13211.031771
566.292654	13141.584836
566.648638	13220.617525
567.004567	13223.024676
567.360441	13212.496227
567.716260	13192.939070
568.072023	13279.125157
568.427732	13259.285696
568.783385	13159.667455
569.138982	13267.245678
569.494525	13266.381120
569.850013	13208.755690
570.205445	13201.032643
570.560823	13214.608470
570.916145	13163.783557
571.271412	13183.287781
571.626625	13139.129794
571.981782	13139.540648
572.336884	13079.656782
572.691931	13174.828725
573.046923	13063.628433
573.401860	13042.392572
573.756743	13038.871326
574.111570	13060.770099
574.466342	13038.067262
574.821059	13089.708842
575.175722	12962.074389
575.530330	12983.388387
575.884882	12913.613777
576.239380	12925.173142
576.593823	12900.237075
576.948211	12894.694326
577.302544	12767.924431
577.656823	12784.363633
578.011047	12849.344106
578.365216	12783.962862
578.719330	12732.966549
579.073389	12701.343391
579.427394	12709.472252
579.781344	12700.985469
580.135239	12626.860343
580.489080	12643.796099
580.842866	12530.380220
581.196597	12628.952422
581.550273	12614.804424
581.903895	12579.488620
582.257463	12685.095752
582.610975	12536.782486
582.964434	12605.027106
583.317837	12513.099145
583.671186	12464.109212
584.024481	12521.515351
584.377721	12413.929566
584.730906	12488.631905
585.084037	12507.742919
585.437113	12414.030389
585.790135	12445.509875
586.143103	12346.635204
586.496016	12363.235723
586.848874	12377.350954
587.201679	12378.833053
587.554428	12255.201276
587.907124	12306.399234
588.259765	12238.308369
588.612352	12314.407107
588.964884	12176.095490
589.317362	12226.638098
589.669786	12209.823329
590.022155	12163.674087
590.374470	12269.971857
590.726731	12157.155875
591.078937	12046.474821
591.431090	12071.264695
591.783188	12004.005621
592.135232	11915.402301
592.487222	11979.654327
592.839157	11999.024961
593.191038	11929.336050
593.542866	11871.105682
593.894639	11731.437994
594.246358	11793.734053
594.598022	11797.774538
594.949633	11697.871471
595.301190	11684.358658
595.652692	11637.511216
596.004141	11733.903118
596.355535	11517.632577
596.706876	11493.377065
597.058162	11462.847838
597.409395	11563.560009
597.760573	11582.635735
598.111698	11481.389202
598.462768	11480.443985
598.813785	11481.326187
599.164748	11362.780934
599.515657	11433.684763
599.866511	11313.274282
600.217312	11443.865373
600.568060	11212.287368
600.918753	11369.379804
601.269392	11365.510719
601.619978	11275.884044
601.970510	11320.682258
602.320988	11360.726664
602.671412	11428.888105
603.021783	11357.545696
603.372100	11288.328133
603.722363	11302.672736
604.072572	11297.059411
604.422728	11302.224073
604.772830	11248.964283
605.122878	11254.852351
605.472872	11225.908566
605.822813	11291.705706
606.172701	11252.921589
606.522534	11293.129832
606.872314	11339.349651
607.222041	11271.281471
607.571714	11350.707370
607.921333	11213.610671
608.270899	11268.556727
608.620411	11336.720689
608.969870	11275.599219
609.319276	11261.889801
609.668627	11276.874631
610.017926	11355.803977
610.367171	11385.355221
610.716362	11367.234793
611.065500	11353.608554
611.414585	11362.206242
611.763616	11432.895822
612.112594	11396.312169
612.461518	11417.991651
612.810389	11473.255300
613.159207	11409.802296
613.507971	11411.425548
613.856682	11509.659992
614.205340	11463.213321
614.553945	11603.768252
614.902496	11475.919550
615.250994	11548.998636
615.599439	11528.813856
615.947830	11560.941130
616.296169	11525.849658
616.644454	11545.495034
616.992686	11554.453165
617.340864	11649.010087
617.688990	11535.143025
618.037063	11669.865341
618.385082	11642.582616
618.733048	11675.178717
619.080961	11663.334526
619.428821	11647.283492
619.776628	11664.211687
620.124382	11602.674322
620.472083	11617.581014
620.819731	11633.354784
621.167326	11570.554610
621.514868	11554.725387
621.862357	11454.318205
622.209793	11454.613113
622.557176	11367.645647
622.904506	11308.104579
623.251783	11234.682694
623.599007	11164.041005
623.946179	11120.729932
624.293297	11095.246899
624.640363	10957.431835
624.987376	10951.140475
625.334336	10881.595238
625.681243	10797.521394
626.028097	10775.552046
626.374899	10732.472866
626.721647	10708.633249
627.068343	10669.125726
627.414987	10601.115520
627.761577	10532.689418
628.108115	10587.975752
628.454600	10457.122522
628.801032	10466.199119
629.147412	10452.255288
629.493739	10427.848542
629.840014	10346.247384
630.186236	10399.388708
630.532405	10292.977512
630.878521	10328.779786
631.224585	10285.952664
631.570597	10207.847547
631.916556	10217.161078
632.262462	10198.675167
632.608316	10182.258650
632.954117	10156.021964
633.299866	10140.028904
633.645562	10111.501014
633.991206	10012.059213
634.336797	9919.506149
634.682336	9908.067771
635.027823	9854.069452
635.373257	9815.139141
635.718639	9749.488195
636.063968	9719.195901
636.409245	9597.119320
636.754470	9586.260674
637.099642	9532.741265
637.444762	9435.126882
637.789829	9439.490001
638.134845	9366.741110
638.479808	9342.629271
638.824719	9315.593563
639.169577	9232.303619
639.514383	9227.244821
639.859137	9153.757401
640.203839	9193.895068
640.548489	9117.133418
640.893086	9115.260629
641.237632	9049.707985
641.582125	9053.566989
641.926566	9043.136841
642.270955	9029.561014
642.615292	9022.581537
642.959576	9006.979165
643.303809	8992.793358
643.647990	9014.724898
643.992118	8989.879572
644.336195	8967.441396
644.680219	8963.920150
645.024192	8998.389039
645.368112	9065.156601
645.711981	9043.411584
646.055797	9184.142956
646.399562	9139.022108
646.743274	9309.206421
647.086935	9372.263694
647.430544	9347.383079
647.774101	9374.892655
648.117606	9392.050223
648.461059	9455.089851
648.804460	9392.486282
649.147810	9270.079505
649.491108	9237.324608
649.834354	9173.541409
650.177548	9027.196713
650.520690	8939.576418
650.863781	8937.943084
651.206820	8908.311182
651.549807	8819.730547
651.892742	8729.705622
652.235626	8688.751288
652.578458	8651.945823
652.921238	8542.358701
653.263967	8586.327644
653.606644	8519.194599
653.949269	8494.387081
654.291843	8417.401100
654.634365	8483.929207
654.976836	8413.272395
655.319255	8399.086588
655.661622	8390.924960
656.003938	8350.290739
656.346203	8310.402609
656.688416	8344.450562
657.030577	8298.916340
657.372687	8263.653469
657.714746	8296.226885
658.056753	8306.432701
658.398708	8211.157413
658.740612	8202.239612
659.082465	8247.849452
659.424266	8213.357877
659.766016	8223.193168
660.107715	8194.335083
660.449362	8217.083290
660.790958	8212.354687
661.132503	8206.990900
661.473996	8212.256385
661.815438	8221.958086
662.156829	8254.866738
662.498168	8203.653656
662.839456	8195.686112
663.180693	8214.812250
663.521879	8231.470743
663.863013	8220.579330
664.204097	8209.201446
664.545129	8283.281202
664.886110	8276.926827
665.227040	8274.817104
665.567918	8290.212788
665.908746	8310.924369
666.249522	8323.625556
666.590248	8321.241090
666.930922	8334.310281
667.271545	8324.323756
667.612118	8347.598763
667.952639	8306.057135
668.293109	8318.468455
668.633528	8289.262531
668.973896	8271.391640
669.314213	8278.507229
669.654480	8228.246925
669.994695	8226.858087
670.334859	8210.776806
670.674973	8191.015483
671.015035	8214.413999
671.355047	8201.644756
671.695008	8188.079011
672.034918	8166.938932
672.374777	8167.241402
672.714585	8144.210890
673.054342	8175.576950
673.394049	8145.708113
673.733705	8179.761107
674.073310	8128.250597
674.412864	8138.670662
674.752368	8076.873678
675.091820	8129.538612
675.431223	8064.442192
675.770574	8015.391766
676.109875	7983.841704
676.449125	7939.855116
676.788324	7929.457737
677.127473	7842.681835
677.466571	7831.160278
677.805619	7767.971935
678.144616	7769.887573
678.483562	7751.336127
678.822458	7705.058335
679.161303	7684.641662
679.500098	7659.198958
679.838842	7642.381669
680.177535	7655.622260
680.516179	7688.719955
680.854771	7706.903397
681.193314	7827.344124
681.531805	7980.943041
681.870247	8105.716640
682.208638	8263.910568
682.546978	8329.944642
682.885268	8361.230043
683.223508	8286.658775
683.561697	8241.159841
683.899836	8206.514511
684.237925	8118.528732
684.575963	8094.366482
684.913951	8014.242382
685.251889	8030.787449
685.589776	8028.486163
685.927614	8005.425404
686.265401	8030.759723
686.603137	8035.271556
686.940824	8101.552647
687.278460	8152.513671
687.616046	8165.608068
687.953582	8273.662680
688.291068	8255.756502
688.628504	8321.493148
688.965889	8316.041140
689.303224	8284.765821
689.640510	8230.805311
689.977745	8128.984085
690.314930	8011.142073
690.652065	7937.954601
690.989150	7819.565624
691.326185	7672.789909
691.663170	7557.922178
692.000105	7440.465813
692.336990	7323.558935
692.673825	7252.203923
693.010610	7154.150960
693.347345	7059.455406
693.684030	6951.456246
694.020665	6898.072948
694.357251	6792.387678
694.693786	6773.430419
695.030272	6741.668629
695.366707	6645.516181
695.703093	6594.625733
696.039429	6590.171874
696.375716	6539.720006
696.711952	6535.394696
697.048139	6500.202401
697.384276	6469.741229
697.720363	6491.372820
698.056400	6462.426515
698.392388	6435.171516
698.728326	6425.202635
699.064214	6405.965592
699.400053	6396.034518
699.735842	6338.827505
700.071581	6292.088447
700.407270	6249.435244
700.742910	6222.470112
701.078501	6182.539132
701.414042	6137.259489
701.749533	6081.136323
702.084974	6027.432911
702.420366	6064.414816
702.755709	5993.919320
703.091002	5941.393018
703.426246	5942.718841
703.761440	5929.574033
704.096584	5884.339759
704.431679	5875.172421
704.766725	5855.988310
705.101721	5845.013718
705.436668	5860.918558
705.771565	5803.247758
706.106413	5863.204722
706.441212	5860.341346
706.775961	5874.176793
707.110661	5884.659872
707.445311	5940.972081
707.779913	5907.569396
708.114465	5950.570438
708.448967	5993.891594
708.783421	6110.513647
709.117825	6149.194420
709.452180	6180.373957
709.786485	6242.506178
710.120742	6376.394183
710.454949	6376.104317
710.789107	6451.318332
711.123216	6576.573361
711.457275	6607.936900
711.791286	6714.953034
712.125247	6735.853658
712.459159	6704.588422
712.793023	6831.809501
713.126837	6662.903121
713.460602	6728.304530
713.794318	6684.653179
714.127985	6624.605475
714.461602	6482.560883
714.795171	6482.054247
715.128691	6318.864535
715.462162	6230.495629
715.795584	6162.495505
716.128957	6116.389112
716.462281	6050.309667
716.795556	6010.940776
717.128782	5923.340646
717.461960	5823.631664
717.795088	5816.637063
718.128167	5751.218009
718.461198	5666.458569
718.794180	5641.812368
719.127113	5583.660138
719.459997	5548.903903
719.792833	5485.065251
720.125619	5481.934694
720.458357	5421.236682
720.791046	5389.782402
721.123686	5363.646540
721.456278	5318.724818
721.788821	5307.762829
722.121315	5273.475421
722.453761	5278.874497
722.786158	5262.604173
723.118506	5261.739615
723.450805	5241.209516
723.783056	5265.596098
724.115259	5250.525568
724.447412	5236.657354
724.779518	5282.667965
725.111574	5285.561587
725.443582	5319.065096
725.775542	5312.877080
726.107453	5393.921189
726.439315	5367.321541
726.771129	5436.430719
727.102895	5504.982850
727.434612	5543.701432
727.766281	5570.953910
728.097901	5628.654957
728.429473	5641.688860
728.760996	5649.056506
729.092471	5673.294374
729.423897	5659.884905
729.755276	5638.591071
730.086606	5648.028111
730.417887	5735.325772
730.749120	5830.142314
731.080305	5869.266709
731.411442	5946.603050
731.742530	5968.902594
732.073570	5990.481253
732.404562	6055.247477
732.735506	6044.454367
733.066401	6027.528693
733.397249	5960.297345
733.728048	5862.123394
734.058798	5717.233071
734.389501	5597.021716
734.720156	5512.365620
735.050762	5405.236059
735.381320	5328.976004
735.711831	5272.515081
736.042293	5199.002455
736.372707	5191.405437
736.703073	5145.029342
737.033391	5175.636707
737.363661	5154.978059
737.693883	5175.863559
738.024056	5197.200243
738.354182	5222.355601
738.684260	5273.069608
739.014290	5307.016738
739.344272	5345.815979
739.674207	5398.594339
740.004093	5431.843269
740.333931	5438.709321
740.663722	5458.324450
740.993464	5470.718127
741.323159	5450.119972
741.652806	5406.118261
741.982405	5376.982913
742.311956	5324.446528
742.641460	5309.567562
742.970915	5262.089975
743.300323	5197.757290
743.629683	5162.633051
743.958996	5115.410042
744.288260	5064.186878
744.617477	5001.117002
744.946647	4988.904807
745.275768	4937.273309
745.604842	4900.669491
745.933869	4869.011045
746.262847	4861.512329
746.591778	4847.102191
746.920662	4822.554292
747.249498	4822.491277
747.578286	4835.353782
747.907027	4863.022154
748.235720	4903.477414
748.564365	4911.523096
748.892963	4899.386518
749.221514	4916.803704
749.550017	4892.991814
749.878473	4890.440990
750.206881	4852.110577
750.535242	4842.855018
750.863555	4822.972708
751.191821	4803.344975
751.520039	4808.650790
751.848210	4790.288387
752.176334	4792.723264
752.504411	4775.109472
752.832440	4743.839195
753.160421	4756.404271
753.488356	4739.176128
753.816243	4718.988827
754.144082	4685.734856
754.471875	4675.713042
754.799620	4666.633924
755.127318	4659.374662
755.454969	4652.964835
755.782572	4646.529802
756.110129	4645.244308
756.437638	4629.657061
756.765100	4628.701762
757.092515	4630.594715
757.419882	4637.130571
757.747203	4629.586484
758.074477	4644.372189
758.401703	4636.659223
758.728882	4665.855066
759.056014	4679.105739
759.383099	4697.725240
759.710138	4728.372935
760.037129	4745.041510
760.364073	4761.084982
760.690970	4758.758490
761.017820	4756.915948
761.344623	4792.304848
761.671379	4854.863047
761.998088	4944.885452
762.324751	5173.539587
762.651366	5627.543382
762.977935	6317.185831
763.304456	6873.003290
763.630931	7179.744898
763.957359	7111.795186
764.283740	6822.667368
764.610074	6503.247258
764.936362	6102.137770
765.262602	5784.759327
765.588796	5442.412048
765.914943	5188.479047
766.241044	4965.496209
766.567097	4796.025220
766.893104	4640.954286
767.219064	4544.365779
767.544978	4451.674083
767.870845	4369.508316
768.196665	4319.242971
768.522438	4270.003501
768.848165	4231.216863
769.173846	4194.648333
769.499479	4164.595495
769.825066	4128.944455
770.150607	4087.203701
770.476101	4075.304057
770.801548	4047.880180
771.126949	4021.149462
771.452303	4002.590454
771.777611	3963.501347
772.102872	3963.657623
772.428087	3935.664096
772.753256	3908.951022
773.078378	3890.712127
773.403453	3858.680635
773.728482	3835.965196
774.053465	3820.251920
774.378401	3803.028817
774.703291	3776.585445
775.028135	3753.179368
775.352932	3743.197883
775.677683	3728.081983
776.002388	3707.589693
776.327046	3709.207903
776.651658	3689.280222
776.976224	3668.878672
777.300743	3669.997809
777.625216	3654.682783
777.949643	3641.394302
778.274024	3642.586535
778.598359	3626.207826
778.922647	3628.325110
779.246889	3616.702730
779.571086	3617.138790
779.895236	3617.758852
780.219339	3616.624592
780.543397	3615.263481
780.867409	3627.498361
781.191374	3628.471304
781.515294	3624.365284
781.839167	3637.313488
782.162995	3639.183756
782.486776	3631.584216
782.810511	3620.433184
783.134201	3609.448510
783.457844	3611.343984
783.781441	3600.986933
784.104993	3593.309256
784.428498	3588.031168
784.751958	3583.892380
785.075372	3576.658325
785.398739	3571.120617
785.722061	3575.985331
786.045337	3574.483067
786.368568	3597.858897
786.691752	3595.890327
787.014891	3640.852378
787.337983	3685.610262
787.661030	3774.342132
787.984031	3867.941235
788.306987	3949.955767
788.629897	3991.774659
788.952760	4000.679857
789.275579	3984.875840
789.598351	3938.910599
789.921078	3886.248185
790.243759	3822.507836
790.566395	3776.303140
790.888984	3729.100296
791.211529	3692.572096
791.534027	3650.261691
791.856480	3610.721401
792.178888	3591.252465
792.501249	3572.138930
792.823566	3540.520813
793.145836	3537.178528
793.468062	3527.063453
793.790241	3507.153416
794.112375	3517.709592
794.434464	3536.092160
794.756507	3534.504196
795.078505	3556.266857
795.400457	3590.624841
795.722364	3641.152326
796.044226	3688.082948
796.366042	3733.901995
796.687812	3727.204822
797.009538	3753.549893
797.331218	3742.635794
797.652852	3738.091194
797.974442	3713.414746
798.295986	3704.774208
798.617484	3676.954601
798.938938	3649.676918
799.260346	3637.850371
799.581709	3601.677571
799.903026	3588.527721
800.224299	3572.290165
800.545526	3540.026780
800.866708	3520.585570
801.187845	3510.241123
801.508936	3488.624655
801.829983	3484.327071
802.150984	3451.609983
802.471940	3442.455248
802.792851	3436.511727
803.113717	3429.527208
803.434538	3419.926331
803.755314	3410.305289
804.076045	3401.833630
804.396731	3395.396076
804.717372	3393.041858
805.037967	3392.144532
805.358518	3394.090418
805.679024	3406.305133
805.999485	3404.268507
806.319901	3412.853592
806.640272	3410.655649
806.960598	3422.746857
807.280879	3424.334820
807.601115	3434.091973
807.921306	3425.774069
808.241453	3428.461004
808.561554	3432.322528
808.881611	3430.235491
809.201623	3433.744134
809.521590	3425.133843
809.841513	3420.317020
810.161390	3430.749688
810.481223	3408.601379
810.801011	3410.912748
811.120755	3405.680030
811.440453	3393.019172
811.760107	3387.960374
812.079716	3379.624827
812.399281	3369.860112
812.718801	3366.850543
813.038276	3361.627907
813.357707	3354.837473
813.677093	3361.567413
813.996434	3344.510669
814.315731	3352.919314
814.634983	3354.691280
814.954191	3354.083821
815.273354	3372.529403
815.592473	3379.261863
815.911547	3402.073085
816.230577	3414.005496
816.549562	3440.768982
816.868502	3455.264819
817.187399	3477.009837
817.506250	3505.096625
817.825058	3513.601052
818.143821	3560.047723
818.462539	3602.569855
818.781213	3655.436436
819.099843	3739.545567
819.418429	3892.325296
819.736970	4046.239285
820.055466	4228.328282
820.373919	4464.380311
820.692327	4801.114265
821.010691	5311.876411
821.329011	6383.918105
821.647286	8112.779296
821.965517	10275.151992
822.283704	11886.758465
822.601847	12956.929891
822.919945	12546.436295
823.237999	11868.970753
823.556010	10984.568367
823.873976	10042.777484
824.191897	9080.287625
824.509775	8317.024165
824.827609	7513.834767
825.145398	6972.903835
825.463144	6589.551812
825.780845	6462.791998
826.098502	6521.113107
826.416116	6903.643423
826.733685	7401.958960
827.051210	7681.274171
827.368692	7592.280162
827.686129	7151.479149
828.003522	6601.988338
828.320872	6042.027051
828.638177	5588.955870
828.955439	5220.616402
829.272656	4887.990989
829.589830	4601.862659
829.906960	4339.256352
830.224046	4131.843118
830.541088	3966.193323
830.858086	3847.348122
831.175041	3752.576950
831.491952	3706.964590
831.808819	3688.458514
832.125642	3727.721541
832.442421	3827.899350
832.759157	4043.149057
833.075849	4418.548661
833.392497	4882.299527
833.709101	5266.553917
834.025662	5370.976378
834.342179	5245.345783
834.658653	4979.465247
834.975083	4709.773598
835.291469	4469.121516
835.607811	4244.175149
835.924110	4085.708999
836.240366	3924.371911
836.556578	3761.139350
836.872746	3626.031385
837.188871	3518.962319
837.504952	3422.600663
837.820990	3345.534024
838.136984	3295.104841
838.452935	3264.159718
838.768842	3251.345105
839.084706	3283.719395
839.400526	3417.446083
839.716303	3642.147954
840.032037	3853.142928
840.347727	3921.253957
840.663373	3827.196109
840.978977	3683.044315
841.294537	3544.841082
841.610054	3442.810649
841.925527	3369.315667
842.240957	3302.825368
842.556344	3239.780698
842.871687	3180.705937
843.186987	3117.467182
843.502244	3068.709142
843.817458	3029.153729
844.132629	2994.213492
844.447756	2976.261943
844.762840	2951.890484
845.077881	2935.852053
845.392879	2919.884199
845.707833	2908.942374
846.022745	2899.341497
846.337613	2895.149777
846.652438	2887.787172
846.967221	2883.615617
847.281960	2875.121273
847.596656	2873.797970
847.911309	2868.093905
848.225919	2861.399252
848.540485	2857.439426
848.855009	2854.510516
849.169490	2849.698734
849.483928	2848.012468
849.798323	2842.772189
850.112675	2838.472085
850.426984	2839.974348
850.741251	2834.988647
851.055474	2835.273472
851.369654	2838.262877
851.683792	2835.394460
851.997887	2836.062413
852.311938	2836.795901
852.625947	2836.826148
852.939914	2832.082422
853.253837	2836.392609
853.567718	2834.592917
853.881555	2832.475632
854.195350	2834.933195
854.509103	2831.827844
854.822812	2831.842967
855.136479	2830.673420
855.450103	2835.618792
855.763685	2831.774912
856.077224	2830.542350
856.390720	2832.412618
856.704173	2834.759275
857.017584	2836.364882
857.330953	2837.310099
857.644278	2841.234637
857.957561	2843.394771
858.270802	2842.452076
858.584000	2845.078517
858.897155	2842.815039
859.210268	2842.792353
859.523339	2840.932168
859.836367	2839.719770
860.149352	2836.228771
860.462295	2835.724656
860.775195	2829.529078
861.088054	2830.534788
861.400869	2830.565035
861.713642	2829.334993
862.026373	2829.362720
862.339062	2833.113338
862.651708	2834.794563
862.964312	2838.295644
863.276873	2839.621468
863.589392	2852.229393
863.901869	2858.051926
864.214303	2862.868749
864.526696	2871.428628
864.839045	2876.031201
865.151353	2882.274670
865.463619	2885.029661
865.775842	2891.263048
866.088023	2891.734396
866.400162	2892.208264
866.712258	2893.823954
867.024313	2895.053995
867.336325	2896.178173
867.648296	2896.140364
867.960224	2899.906106
868.272110	2897.299829
868.583954	2901.327711
868.895755	2900.309398
869.207515	2903.248391
869.519233	2908.150913
869.830909	2909.189391
870.142542	2917.356060
870.454134	2915.876481
870.765684	2921.953592
871.077191	2925.938624
871.388657	2932.774429
871.700081	2936.837599
872.011463	2944.631223
872.322803	2951.182202
872.634101	2955.419292
872.945357	2961.690488
873.256571	2973.726242
873.567744	2979.226141
873.878874	2984.335351
874.189963	2995.017556
874.501010	2994.584016
874.812015	2993.545539
875.122979	3001.661796
875.433900	3005.107425
875.744780	3007.133969
876.055618	3012.956502
876.366415	3013.412726
876.677169	3020.419930
876.987882	3024.266330
877.298554	3035.079605
877.609183	3049.111657
877.919771	3067.625294
878.230317	3091.069180
878.540822	3128.144346
878.851285	3176.239475
879.161707	3240.148702
879.472087	3349.917307
879.782425	3512.348325
880.092722	3784.802526
880.402977	4202.177297
880.713191	4746.493363
881.023363	5335.141336
881.333494	5776.086021
881.643583	6060.828035
881.953631	6133.219004
882.263637	6079.800417
882.573602	5935.371359
882.883526	5767.984887
883.193408	5568.380401
883.503248	5349.750599
883.813048	5140.295698
884.122806	4920.508952
884.432522	4676.025594
884.742197	4454.182057
885.051831	4249.317126
885.361424	4055.005851
885.670975	3887.982342
885.980485	3742.928181
886.289954	3619.324130
886.599382	3517.621372
886.908768	3434.253290
887.218113	3357.466435
887.527417	3292.317083
887.836680	3233.580079
888.145901	3189.860672
888.455082	3153.014879
888.764221	3115.642285
889.073319	3088.165476
889.382376	3070.392888
889.691392	3049.250289
890.000366	3043.747869
890.309300	3036.861653
890.618193	3034.179759
890.927044	3028.263965
891.235855	3031.553318
891.544625	3034.525078
891.853353	3038.462219
892.162041	3051.566699
892.470687	3078.856985
892.779293	3112.872171
893.087858	3163.147598
893.396381	3235.339442
893.704864	3340.313909
894.013306	3496.781242
894.321707	3681.136238
894.630068	3832.995957
894.938387	3909.064447
895.246665	3917.611724
895.554903	3860.520657
895.863100	3774.942029
896.171256	3700.426213
896.479371	3627.039616
896.787446	3551.553378
897.095480	3480.561329
897.403473	3427.941766
897.711425	3370.573435
898.019336	3319.680466
898.327207	3263.090994
898.635038	3219.497616
898.942827	3169.262518
899.250576	3125.591002
899.558284	3086.781679
899.865952	3061.805282
900.173579	3033.388298
900.481165	3009.150430
900.788711	2991.839108
901.096216	2975.835965
901.403681	2961.955148
901.711105	2956.689663
902.018489	2950.607511
902.325832	2960.573872
902.633135	2966.807259
902.940397	3005.659431
903.247619	3096.927001
903.554800	3270.831685
903.861941	3541.571894
904.169041	3802.907830
904.476101	3969.588541
904.783121	3991.825070
905.090100	3929.604629
905.397039	3821.182013
905.703938	3718.213925
906.010796	3617.317751
906.317614	3531.567724
906.624391	3447.382975
906.931129	3378.011657
907.237826	3309.136893
907.544483	3245.580546
907.851099	3172.078002
908.157675	3099.099738
908.464211	3029.327649
908.770707	2972.700368
909.077163	2925.235383
909.383578	2888.137532
909.689954	2860.348172
909.996289	2841.784123
910.302584	2828.553614
910.608839	2820.775114
910.915054	2808.298258
911.221229	2805.636529
911.527363	2805.097126
911.833458	2805.071920
912.139513	2806.491005
912.445527	2810.783547
912.751502	2823.900629
913.057436	2837.247084
913.363331	2856.705938
913.669186	2887.439333
913.975000	2922.926535
914.280775	2981.524907
914.586510	3063.274779
914.892205	3173.887776
915.197859	3317.832883
915.503475	3494.709328
915.809050	3672.369672
916.114585	3803.442192
916.420081	3876.924571
916.725536	3911.678286
917.030952	3870.318139
917.336328	3833.484948
917.641665	3785.354532
917.946961	3723.446642
918.252218	3664.313908
918.557435	3596.162549
918.862612	3529.268958
919.167750	3471.202427
919.472848	3396.668968
919.777906	3327.726148
920.082925	3261.069491
920.387904	3190.168183
920.692843	3131.665592
920.997743	3080.281111
921.302603	3032.803524
921.607423	2997.941425
921.912204	2964.432875
922.216946	2940.280707
922.521647	2912.100657
922.826310	2889.493603
923.130932	2872.898124
923.435516	2853.968592
923.740059	2842.842765
924.044564	2825.516319
924.349028	2814.816470
924.653454	2796.355765
924.957840	2781.960750
925.262186	2776.518824
925.566493	2766.512134
925.870761	2754.531832
926.174989	2749.586460
926.479178	2740.681262
926.783328	2731.183728
927.087438	2728.922770
927.391509	2720.851883
927.695541	2713.388455
927.999533	2708.183463
928.303486	2702.807073
928.607400	2699.011084
928.911275	2696.092256
929.215110	2692.379446
929.518906	2687.618076
929.822663	2690.572192
930.126381	2687.391224
930.430060	2691.693849
930.733699	2685.876358
931.037299	2690.904909
931.340861	2689.942048
931.644383	2693.715352
931.947866	2687.630679
932.251309	2691.174610
932.554714	2691.396421
932.858080	2692.326514
933.161407	2687.842408
933.464694	2684.986594
933.767943	2685.830987
934.071153	2684.537931
934.374323	2684.187571
934.677455	2682.518949
934.980548	2681.810667
935.283602	2679.287570
935.586617	2681.180523
935.889593	2680.016016
936.192530	2677.941582
936.495428	2682.145904
936.798287	2684.346367
937.101108	2688.706966
937.403890	2696.480425
937.706632	2705.057948
938.009336	2717.502036
938.312002	2727.269272
938.614628	2740.126735
938.917216	2748.918507
939.219765	2753.684918
939.522275	2763.910899
939.824747	2765.158584
940.127179	2765.564397
940.429573	2765.534150
940.731929	2765.009870
941.034246	2761.773449
941.336524	2765.375354
941.638763	2765.743358
941.940964	2764.437699
942.243126	2756.535691
942.545250	2753.563930
942.847335	2746.229052
943.149381	2740.787126
943.451389	2737.079357
943.753359	2727.080229
944.055290	2728.758933
944.357182	2723.309446
944.659036	2718.502705
944.960851	2715.016747
945.262628	2710.514997
945.564367	2710.431818
945.866067	2709.796633
946.167729	2708.319575
946.469352	2707.369317
946.770937	2706.592979
947.072484	2705.022660
947.373992	2703.951415
947.675462	2703.691795
947.976893	2702.368492
948.278286	2700.992258
948.579641	2694.665609
948.880958	2696.283820
949.182236	2696.765250
949.483476	2694.728624
949.784678	2694.244673
950.085841	2694.960517
950.386967	2694.448840
950.688054	2697.239118
950.989103	2699.081660
951.290114	2703.089377
951.591087	2703.540561
951.892021	2710.008361
952.192917	2716.405585
952.493776	2719.649568
952.794596	2723.163252
953.095378	2725.285578
953.396122	2725.472101
953.696828	2724.153839
953.997496	2724.778942
954.298126	2720.768704
954.598718	2717.401213
954.899272	2714.308465
955.199788	2710.434339
955.500266	2708.143134
955.800706	2697.821372
956.101108	2690.688139
956.401472	2682.476099
956.701798	2677.003927
957.002087	2672.192146
957.302337	2667.430776
957.602550	2663.183604
957.902724	2660.615136
958.202861	2651.974598
958.502960	2647.737508
958.803022	2645.312713
959.103045	2641.476395
959.403031	2639.328864
959.702979	2633.914664
960.002889	2628.694550
960.302762	2627.467029
960.602596	2625.435444
960.902393	2623.199692
961.202153	2622.577109
961.501875	2620.643827
961.801559	2620.739609
962.101205	2618.161059
962.400814	2617.435133
962.700385	2616.056377
962.999918	2615.055708
963.299414	2614.591922
963.598873	2611.882302
963.898293	2610.372476
964.197677	2611.254678
964.497022	2609.354163
964.796331	2609.971704
965.095601	2610.017075
965.394835	2610.196036
965.694030	2607.589759
965.993189	2607.637650
966.292309	2606.831065
966.591393	2605.653956
966.890439	2604.950715
967.189447	2604.275200
967.488419	2608.071189
967.787353	2607.491457
968.086249	2607.660335
968.385108	2607.914913
968.683930	2608.892897
968.982714	2605.926178
969.281462	2606.770572
969.580172	2609.901128
969.878844	2611.988166
970.177480	2614.564195
970.476078	2612.270470
970.774639	2615.229628
971.073162	2614.879267
971.371649	2615.302724
971.670098	2612.646036
971.968510	2616.419340
972.266885	2616.018568
972.565223	2618.541666
972.863524	2621.760442
973.161788	2623.073663
973.460014	2621.626852
973.758204	2621.909157
974.056356	2621.528549
974.354471	2624.918725
974.652550	2625.773201
974.950591	2624.580968
975.248595	2623.749178
975.546563	2623.527367
975.844493	2626.799076
976.142386	2622.504013
976.440243	2622.183899
976.738062	2621.132819
977.035845	2617.805657
977.333590	2621.077366
977.631299	2620.359002
977.928971	2615.232148
978.226606	2615.857251
978.524204	2616.436984
978.821765	2615.879937
979.119290	2615.675770
979.416777	2613.003958
979.714228	2616.452107
980.011642	2615.814402
980.309020	2617.374639
980.606360	2617.107457
980.903664	2621.344547
981.200931	2625.687501
981.498162	2634.575056
981.795356	2645.043012
982.092513	2659.901812
982.389633	2676.933351
982.686717	2694.516895
982.983764	2713.206973
983.280775	2723.468242
983.577749	2728.937894
983.874686	2730.306567
984.171587	2724.978067
984.468451	2719.488251
984.765279	2712.889381
985.062070	2708.909390
985.358824	2701.990406
985.655543	2692.873479
985.952224	2682.992818
986.248869	2670.795746
986.545478	2655.652120
986.842050	2644.685090
987.138586	2632.183028
987.435086	2620.059053
987.731549	2616.535287
988.027975	2615.128805
988.324366	2609.361725
988.620719	2603.811414
988.917037	2604.207145
989.213318	2600.040631
989.509563	2599.314705
989.805772	2597.031062
990.101944	2598.679520
990.398080	2596.042996
990.694180	2597.794797
990.990244	2599.387802
991.286271	2596.632811
991.582262	2599.100456
991.878217	2595.044848
992.174136	2597.845209
992.470019	2598.195569
992.765865	2595.806062
993.061676	2599.165991
993.357450	2599.445775
993.653188	2601.747062
993.948890	2605.870726
994.244556	2607.753597
994.540186	2611.453803
994.835780	2619.418827
995.131337	2624.570886
995.426859	2630.148922
995.722345	2638.746610
996.017795	2650.512663
996.313208	2658.162614
996.608586	2662.641680
996.903928	2664.859787
997.199234	2668.234840
997.494504	2669.399346
997.789738	2667.108142
998.084936	2663.145795
998.380099	2659.543891
998.675225	2652.355205
998.970316	2648.765904
999.265371	2640.339615
999.560390	2636.271404
999.855373	2628.734879
1000.150320	2623.671040
1000.445232	2618.385390
1000.740108	2613.031685
1001.034948	2609.772579
1001.329752	2607.050356
1001.624521	2602.717484
1001.919254	2594.830599
1002.213951	2595.705239
1002.508613	2592.277254
1002.803239	2593.608119
1003.097829	2587.316759
1003.392384	2592.902357
1003.686903	2590.845567
1003.981386	2591.352202
1004.275834	2588.617377
1004.570246	2590.107038
1004.864623	2588.330031
1005.158964	2586.593353
1005.453270	2588.080494
1005.747540	2586.482448
1006.041775	2584.682756
1006.335974	2585.025554
1006.630138	2586.371543
1006.924266	2587.291553
1007.218359	2585.083528
1007.512416	2586.333734
1007.806438	2585.499423
1008.100425	2586.227870
1008.394376	2583.263671
1008.688292	2583.815677
1008.982172	2586.666450
1009.276017	2585.963209
1009.569827	2585.380956
1009.863602	2583.515729
1010.157341	2585.118816
1010.451045	2585.101172
1010.744714	2585.365832
1011.038347	2585.489341
1011.331945	2584.526480
1011.625508	2582.701583
1011.919036	2583.167889
1012.212528	2581.406006
1012.505986	2584.599577
1012.799408	2581.443815
1013.092795	2582.961202
1013.386147	2583.225862
1013.679464	2581.204360
1013.972745	2580.866603
1014.265992	2579.928948
1014.559204	2583.137642
1014.852380	2584.241655
1015.145521	2582.941037
1015.438628	2581.393403
1015.731699	2580.422981
1016.024736	2580.755697
1016.317737	2582.159658
1016.610703	2584.465986
1016.903635	2579.883578
1017.196531	2579.457600
1017.489393	2580.367528
1017.782219	2580.153279
1018.075011	2579.626479
1018.367768	2584.571851
1018.660490	2582.462128
1018.953177	2582.462128
1019.245829	2582.462128
