Dividing Wavelength (nm)	Counts (n)	Blue Motor Position (mm): 42.500000	Red Motor Position (mm): 0.000000	
326.493990	2153.964051
326.888308	2153.964051
327.282561	2153.964051
327.676750	2130.240381
328.070874	2132.614764
328.464933	2133.708695
328.858929	2143.354943
329.252859	2155.325162
329.646726	2171.514828
330.040528	2184.664678
330.434265	2202.326360
330.827938	2222.632128
331.221547	2241.924624
331.615091	2261.370875
332.008571	2282.226128
332.401986	2303.260343
332.795338	2323.067036
333.188625	2343.766014
333.581847	2365.314426
333.975006	2382.872765
334.368100	2399.425393
334.761129	2416.013310
335.154095	2433.342276
335.546996	2458.132150
335.939833	2489.115082
336.332606	2501.491115
336.725315	2513.605007
337.117960	2522.916018
337.510540	2527.924405
337.903056	2540.222300
338.295508	2548.265461
338.687896	2551.310317
339.080220	2560.359189
339.472480	2566.022925
339.864676	2571.253122
340.256807	2572.271435
340.648875	2575.069276
341.040879	2577.834348
341.432818	2579.737384
341.824694	2580.856520
342.216506	2577.786457
342.608253	2576.707651
342.999937	2579.664287
343.391557	2579.180337
343.783113	2576.178329
344.174605	2575.603638
344.566033	2573.932495
344.957397	2573.062896
345.348697	2572.031980
345.739934	2567.449572
346.131106	2565.440672
346.522215	2567.066444
346.913260	2563.348593
347.304241	2562.070660
347.695159	2557.304249
348.086012	2558.942624
348.476802	2558.889692
348.867528	2558.315001
349.258191	2552.091696
349.648789	2555.474311
350.039324	2552.119423
350.429796	2554.685370
350.820203	2551.133877
351.210548	2548.353681
351.600828	2548.951057
351.991045	2549.354350
352.381198	2547.234545
352.771288	2550.564227
353.161314	2548.746891
353.551276	2548.928372
353.941175	2548.986346
354.331010	2548.600697
354.720782	2549.901315
355.110490	2548.625903
355.500135	2547.957950
355.889717	2551.527087
356.279235	2546.884184
356.668689	2551.650595
357.058080	2548.439380
357.447408	2546.354863
357.836672	2545.933927
358.225873	2548.865358
358.615010	2547.189174
359.004084	2554.203940
359.393095	2551.096068
359.782043	2551.544731
360.170927	2551.975750
360.559748	2554.191337
360.948505	2556.454815
361.337199	2554.806358
361.725830	2556.406924
362.114398	2557.866338
362.502903	2558.047820
362.891344	2558.178890
363.279722	2556.369115
363.668037	2560.868345
364.056289	2557.561348
364.444478	2559.915567
364.832603	2557.329455
365.220665	2560.207954
365.608665	2560.933880
365.996601	2561.969837
366.384474	2559.343396
366.772284	2561.443037
367.160031	2562.481514
367.547715	2564.422359
367.935336	2559.487069
368.322893	2562.116031
368.710388	2562.897410
369.097820	2565.811197
369.485189	2565.770867
369.872495	2564.770198
370.259738	2566.453944
370.646918	2562.363047
371.034035	2564.097204
371.421090	2565.717935
371.808081	2561.420352
372.195010	2567.588203
372.581875	2565.163408
372.968678	2565.869170
373.355418	2567.338666
373.742096	2566.703481
374.128710	2568.215827
374.515262	2568.989644
374.901751	2569.503842
375.288177	2567.263049
375.674540	2567.890672
376.060841	2568.167936
376.447079	2568.588872
376.833254	2568.258677
377.219367	2564.744992
377.605417	2567.810014
377.991404	2566.451423
378.377329	2566.600137
378.763191	2567.336146
379.148991	2570.242371
379.534727	2571.358986
379.920402	2572.047104
380.306013	2573.216652
380.691563	2571.202711
381.077049	2573.912331
381.462474	2574.726477
381.847835	2571.716908
382.233134	2572.034501
382.618371	2571.348904
383.003545	2575.391909
383.388657	2573.783781
383.773706	2577.420974
384.158693	2575.984245
384.543618	2577.410892
384.928480	2575.223031
385.313280	2579.114802
385.698017	2577.224369
386.082692	2579.439956
386.467305	2580.256623
386.851856	2580.233938
387.236344	2583.213260
387.620770	2586.409351
388.005133	2584.523960
388.389435	2588.176276
388.773674	2590.638879
389.157851	2590.054105
389.541965	2598.225816
389.926018	2597.658686
390.310008	2604.456682
390.693936	2605.467433
391.077802	2613.344236
391.461606	2617.498147
391.845348	2619.393621
392.229027	2622.698097
392.612645	2630.506844
392.996200	2635.779891
393.379694	2642.799698
393.763125	2650.149700
394.146494	2656.299908
394.529801	2666.914057
394.913047	2673.376817
395.296230	2678.385203
395.679351	2687.013138
396.062410	2695.376412
396.445408	2702.754141
396.828343	2713.201932
397.211217	2721.759291
397.594028	2725.383880
397.976778	2738.448031
398.359466	2751.766759
398.742092	2758.534508
399.124656	2773.100922
399.507158	2786.273457
399.889598	2799.816517
400.271977	2813.994762
400.654294	2825.680157
401.036549	2839.659276
401.418742	2848.995493
401.800874	2871.549616
402.182944	2886.587378
402.564952	2911.238620
402.946898	2914.989238
403.328783	2930.586568
403.710606	2950.320165
404.092367	2973.030563
404.474067	3003.327898
404.855705	3004.250429
405.237282	3013.072448
405.618797	3046.961605
406.000250	3072.119483
406.381642	3106.636263
406.762972	3117.079014
407.144240	3120.393572
407.525447	3145.090185
407.906593	3153.811381
408.287677	3180.569826
408.668700	3204.227961
409.049661	3208.160061
409.430560	3231.316601
409.811399	3243.740525
410.192176	3266.556787
410.572891	3277.546502
410.953545	3322.332113
411.334138	3298.442085
411.714669	3353.269674
412.095139	3309.772078
412.475547	3363.868700
412.855894	3360.440716
413.236180	3389.540776
413.616405	3375.153323
413.996568	3406.042993
414.376670	3413.496339
414.756711	3411.489960
415.136691	3437.784618
415.516609	3464.356540
415.896466	3475.159733
416.276262	3501.527488
416.655997	3535.144423
417.035670	3544.021895
417.415283	3609.133438
417.794834	3631.241418
418.174324	3617.340436
418.553753	3622.492495
418.933121	3664.906243
419.312428	3657.150428
419.691674	3652.578102
420.070859	3692.806509
420.449983	3673.158612
420.829045	3721.503278
421.208047	3709.404508
421.586988	3751.407402
421.965867	3786.261940
422.344686	3790.105820
422.723444	3830.228363
423.102141	3737.884507
423.480777	3839.804035
423.859352	3807.442348
424.237866	3907.852050
424.616319	3891.501067
424.994712	3951.528607
425.373044	3938.814817
425.751314	4002.845032
426.129524	3942.285651
426.507673	4042.269376
426.885762	4014.724512
427.263789	4038.392729
427.641756	4043.383471
428.019662	4071.321546
428.397508	4078.043924
428.775292	4114.809059
429.153016	4118.801653
429.530679	4132.649703
429.908282	4140.405518
430.285824	4116.979276
430.663305	4193.264537
431.040726	4148.141169
431.418086	4142.076661
431.795385	4213.832444
432.172624	4251.073968
432.549802	4215.438052
432.926920	4237.034355
433.303977	4230.702666
433.680974	4273.527268
434.057910	4294.241369
434.434786	4298.659940
434.811601	4290.193322
435.188355	4398.096700
435.565050	4370.778687
435.941683	4365.235938
436.318257	4454.938230
436.694770	4461.297646
437.071222	4520.420298
437.447614	4454.103919
437.823946	4456.566523
438.200218	4471.349706
438.576429	4451.295996
438.952580	4478.031756
439.328670	4485.767406
439.704700	4528.390362
440.080670	4491.244620
440.456580	4552.149320
440.832429	4588.082665
441.208218	4492.265454
441.583947	4543.899472
441.959616	4559.068304
442.335224	4583.699382
442.710773	4606.377012
443.086261	4663.248789
443.461689	4610.374647
443.837057	4622.859065
444.212365	4701.490982
444.587612	4702.824367
444.962800	4669.978730
445.337927	4712.901634
445.712995	4603.175879
446.088002	4790.026247
446.462949	4810.783198
446.837837	4831.537628
447.212664	4819.761493
447.587431	5043.881110
447.962139	5345.533674
448.336786	5682.312998
448.711374	5661.044370
449.085901	5309.534795
449.460369	5250.162605
449.834776	5183.120300
450.209124	5420.064613
450.583412	5428.710192
450.957640	5547.787287
451.331808	5415.399025
451.705917	5264.943268
452.079965	5252.698306
452.453954	5296.619358
452.827883	5263.640130
453.201752	5266.085090
453.575562	5298.572806
453.949311	5434.610863
454.323001	5434.663795
454.696632	5426.860089
455.070202	5582.747689
455.443713	5617.723214
455.817164	5703.677408
456.190556	5775.937307
456.563888	5751.477629
456.937160	5830.593497
457.310373	5674.363098
457.683526	5727.912755
458.056619	5725.452672
458.429653	5703.064908
458.802628	5754.008288
459.175542	5788.353669
459.548398	5923.680924
459.921194	6109.107165
460.293930	6171.340209
460.666607	6422.031749
461.039224	6639.282794
461.411782	6764.147134
461.784280	6676.814185
462.156719	6677.986253
462.529099	6642.085676
462.901419	6504.646178
463.273680	6371.542072
463.645882	6355.901893
464.018024	6362.977152
464.390106	6427.211534
464.762130	6688.086205
465.134094	7077.114568
465.505999	7723.138433
465.877845	8426.371833
466.249631	8773.551057
466.621358	8696.023152
466.993026	8492.259714
467.364634	8278.358515
467.736184	8004.006320
468.107674	7844.484047
468.479105	7767.177953
468.850477	7689.103083
469.221790	7525.477311
469.593043	7299.300903
469.964238	7199.329781
470.335373	7176.301790
470.706449	7330.941705
471.077467	7523.067640
471.448425	8188.575565
471.819324	8767.839430
472.190164	8801.600037
472.560945	8314.158269
472.931667	7849.779779
473.302330	7651.672516
473.672934	7532.645832
474.043479	7612.107020
474.413965	7509.446442
474.784393	7464.071016
475.154761	7615.419058
475.525070	7627.870708
475.895321	7586.278668
476.265513	7687.263062
476.635645	7841.532452
477.005719	7836.687903
477.375734	7923.506654
477.745691	8029.386009
478.115588	8234.654232
478.485427	8472.989903
478.855207	8951.680228
479.224928	9389.774142
479.594591	9765.597202
479.964194	9772.773284
480.333739	9859.413075
480.703226	9857.313434
481.072653	9959.631213
481.442022	10072.084232
481.811333	10220.760462
482.180584	10058.213498
482.549777	10005.162915
482.918912	9939.194376
483.287988	9925.134598
483.657005	9831.613632
484.025964	9747.938040
484.394864	9820.497888
484.763706	9776.377709
485.132489	9683.743987
485.501213	9682.700468
485.869879	9734.871369
486.238487	9673.684364
486.607036	9748.066589
486.975527	9694.552221
487.343959	9751.492053
487.712333	9797.512747
488.080648	9833.471297
488.448905	9939.048182
488.817104	9942.574469
489.185244	10116.569894
489.553326	10328.416823
489.921350	10798.181785
490.289315	11430.350039
490.657222	11721.857281
491.025070	11888.989175
491.392861	11808.844911
491.760593	11647.084367
492.128267	11397.312838
492.495883	11162.105202
492.863440	10923.136866
493.230939	10697.036075
493.598380	10513.001192
493.965763	10493.360856
494.333088	10364.241783
494.700354	10289.592377
495.067563	10268.245611
495.434713	10264.880641
495.801805	10313.421911
496.168839	10268.885837
496.535815	10243.191076
496.902733	10284.641964
497.269593	10245.618392
497.636395	10253.263302
498.003139	10362.038799
498.369825	10293.133787
498.736453	10380.663342
499.103023	10325.182923
499.469535	10334.506537
499.835989	10377.817610
500.202385	10353.418426
500.568723	10377.794925
500.935003	10435.039747
501.301226	10402.652855
501.667390	10570.624101
502.033497	10676.349700
502.399546	10599.099058
502.765537	10504.978195
503.131470	10608.878897
503.497345	10697.832577
503.863163	10469.251538
504.228923	10599.630900
504.594625	10725.309386
504.960269	10627.568975
505.325856	10774.067426
505.691385	10662.262195
506.056856	10728.971784
506.422270	10829.852834
506.787625	10763.922104
507.152924	10813.774074
507.518164	10876.788497
507.883347	10741.390667
508.248472	10813.148971
508.613540	10920.308778
508.978550	11001.582261
509.343503	10983.683644
509.708398	11037.989474
510.073236	11170.168528
510.438016	11180.974241
510.802738	11092.565005
511.167403	11220.832124
511.532010	11277.154415
511.896561	11366.375277
512.261053	11574.632904
512.625488	11487.607465
512.989866	11480.340642
513.354186	11449.763523
513.718449	11464.009824
514.082655	11611.098090
514.446803	11568.323900
514.810894	11675.060250
515.174927	11671.526401
515.538904	11651.838175
515.902822	11817.369502
516.266684	11685.434945
516.630488	11782.260387
516.994235	11770.794282
517.357925	11890.143599
517.721558	11945.684512
518.085133	12011.481652
518.448651	12045.690922
518.812112	12008.209943
519.175516	12013.266220
519.538863	12101.829211
519.902152	12107.445057
520.265385	12215.232488
520.628560	12240.370201
520.991678	12187.972448
521.354739	12236.523801
521.717743	12309.439050
522.080690	12281.601798
522.443580	12417.559197
522.806413	12441.171962
523.169189	12422.703695
523.531908	12494.139365
523.894569	12454.178139
524.257174	12462.458234
524.619722	12569.998648
524.982213	12545.223898
525.344647	12537.538659
525.707025	12548.258672
526.069345	12653.606185
526.431608	12629.111218
526.793815	12710.629197
527.155964	12609.841408
527.518057	12635.137918
527.880093	12592.404057
528.242072	12714.301677
528.603995	12636.045325
528.965860	12655.236998
529.327669	12682.451667
529.689421	12625.075775
530.051117	12636.932568
530.412755	12677.365143
530.774337	12675.232735
531.135862	12636.972898
531.497331	12688.301926
531.858743	12655.610043
532.220098	12740.760173
532.581396	12668.470027
532.942638	12598.294645
533.303824	12664.721929
533.664953	12638.270995
534.026025	12592.265425
534.387040	12698.369110
534.747999	12671.751818
535.108902	12709.991491
535.469748	12587.914909
535.830537	12616.183179
536.191270	12664.787464
536.551947	12591.345414
536.912567	12660.263028
537.273131	12682.650793
537.633638	12558.174622
537.994089	12615.724434
538.354483	12542.945296
538.714821	12667.192094
539.075103	12745.760998
539.435328	12681.957634
539.795497	12663.088595
540.155609	12652.323211
540.515665	12753.791556
540.875665	12610.337961
541.235609	12708.075852
541.595496	12672.298783
541.955328	12850.536339
542.315102	12701.219883
542.674821	12641.411634
543.034483	12650.921770
543.394090	12646.901450
543.753640	12622.484622
544.113134	12860.840458
544.472571	12618.691153
544.831953	12899.964853
545.191278	12718.586658
545.550548	12663.801918
545.909761	12774.228393
546.268918	12819.160198
546.628019	12882.202347
546.987064	12773.658743
547.346053	12622.401442
547.704986	12818.787152
548.063863	12695.702340
548.422684	12744.316707
548.781449	12699.679810
549.140158	12796.477526
549.498811	12755.462698
549.857408	12616.246194
550.215949	12817.526864
550.574434	12785.782718
550.932864	12732.709450
551.291237	12932.006427
551.649555	12821.395949
552.007817	12878.459290
552.366022	12796.031384
552.724173	12841.709279
553.082267	12935.366356
553.440305	13026.470088
553.798288	12848.978623
554.156215	12927.229933
554.514086	12964.085809
554.871902	12904.829566
555.229661	12935.497426
555.587365	12877.181358
555.945014	12896.809090
556.302606	12879.563303
556.660143	12944.730299
557.017625	12977.661636
557.375050	12940.556223
557.732421	13034.082230
558.089735	13024.070499
558.446994	13004.601562
558.804197	13115.340589
559.161345	13104.776851
559.518437	12928.777567
559.875474	13022.515303
560.232455	13037.406871
560.589381	13086.963934
560.946251	13025.078729
561.303065	13193.367568
561.659825	13148.982729
562.016528	13066.055748
562.373177	13008.445442
562.729770	13141.652892
563.086307	13028.978062
563.442789	13130.532106
563.799216	13168.688600
564.155587	13118.400569
564.511904	13129.642342
564.868164	13142.784631
565.224370	13207.293756
565.580520	13154.086897
565.936615	13216.599726
566.292654	13164.214576
566.648638	13237.107140
567.004567	13232.431469
567.360441	13235.796440
567.716260	13197.067775
568.072023	13283.329479
568.427732	13274.320937
568.783385	13165.641222
569.138982	13272.690124
569.494525	13271.081996
569.850013	13221.461919
570.205445	13208.904404
570.560823	13220.194068
570.916145	13170.659691
571.271412	13178.750743
571.626625	13149.113799
571.981782	13148.173624
572.336884	13089.439141
572.691931	13183.910364
573.046923	13077.869693
573.401860	13050.034962
573.756743	13049.498079
574.111570	13065.080285
574.466342	13041.134804
574.821059	13096.552209
575.175722	12966.782826
575.530330	12987.738903
575.884882	12911.360381
576.239380	12918.486052
576.593823	12900.100964
576.948211	12902.276222
577.302544	12781.444805
577.656823	12796.152372
578.011047	12862.246940
578.365216	12793.094912
578.719330	12734.214235
579.073389	12708.726161
579.427394	12723.337945
579.781344	12719.851988
580.135239	12645.212664
580.489080	12661.324191
580.842866	12543.575440
581.196597	12631.641878
581.550273	12625.751289
581.903895	12585.124630
582.257463	12687.512986
582.610975	12534.203935
582.964434	12602.259512
583.317837	12527.156402
583.671186	12483.232829
584.024481	12544.782797
584.377721	12427.051690
584.730906	12495.941578
585.084037	12515.100483
585.437113	12429.111001
585.790135	12453.895834
586.143103	12363.838141
586.496016	12381.464536
586.848874	12383.919577
587.201679	12397.167730
587.554428	12272.396652
587.907124	12322.057058
588.259765	12254.881162
588.612352	12319.372644
588.964884	12183.596727
589.317362	12232.745456
589.669786	12225.367727
590.022155	12171.991990
590.374470	12280.764967
590.726731	12170.545179
591.078937	12059.571739
591.431090	12082.027559
591.783188	12014.574400
592.135232	11936.154211
592.487222	11992.375679
592.839157	12005.200374
593.191038	11934.505753
593.542866	11880.736806
593.894639	11732.960423
594.246358	11793.585339
594.598022	11797.167078
594.949633	11705.471011
595.301190	11690.513907
595.652692	11651.515541
596.004141	11741.391752
596.355535	11520.511076
596.706876	11497.868733
597.058162	11466.497633
597.409395	11562.675287
597.760573	11597.199629
598.111698	11482.289048
598.462768	11472.360495
598.813785	11492.376396
599.164748	11365.770338
599.515657	11443.159611
599.866511	11315.908285
600.217312	11449.720673
600.568060	11212.874662
600.918753	11368.729495
601.269392	11375.149405
601.619978	11279.125506
601.970510	11314.143882
602.320988	11361.487878
602.671412	11428.154617
603.021783	11357.185253
603.372100	11281.157091
603.722363	11297.334154
604.072572	11297.316510
604.422728	11309.382512
604.772830	11255.101888
605.122878	11266.963723
605.472872	11237.331820
605.822813	11298.433126
606.172701	11249.876732
606.522534	11293.301231
606.872314	11340.284785
607.222041	11279.236412
607.571714	11357.969153
607.921333	11229.961653
608.270899	11274.787593
608.620411	11340.156235
608.969870	11292.237547
609.319276	11263.742425
609.668627	11277.499734
610.017926	11361.450069
610.367171	11388.992413
610.716362	11388.677341
611.065500	11363.688342
611.414585	11368.737057
611.763616	11432.772314
612.112594	11392.765717
612.461518	11430.410533
612.810389	11474.629014
613.159207	11410.089642
613.507971	11415.650035
613.856682	11507.439364
614.205340	11465.779269
614.553945	11609.404262
614.902496	11481.101856
615.250994	11544.988398
615.599439	11541.905733
615.947830	11574.809344
616.296169	11535.992459
616.644454	11551.408308
616.992686	11564.169989
617.340864	11657.184318
617.688990	11547.657689
618.037063	11678.339521
618.385082	11652.349852
618.733048	11694.892149
619.080961	11674.858604
619.428821	11658.777323
619.776628	11671.511278
620.124382	11615.206630
620.472083	11632.356636
620.819731	11657.025522
621.167326	11579.661455
621.514868	11561.152858
621.862357	11464.279525
622.209793	11451.840478
622.557176	11376.051771
622.904506	11306.509054
623.251783	11232.978784
623.599007	11171.854794
623.946179	11124.694799
624.293297	11096.376118
624.640363	10963.110695
624.987376	10947.069744
625.334336	10884.153623
625.681243	10804.722682
626.028097	10776.474577
626.374899	10741.234391
626.721647	10708.018228
627.068343	10670.489358
627.414987	10613.055493
627.761577	10545.151150
628.108115	10587.683365
628.454600	10460.810126
628.801032	10487.026647
629.147412	10461.616711
629.493739	10431.233676
629.840014	10353.962870
630.186236	10402.052957
630.532405	10304.534357
630.878521	10336.709521
631.224585	10288.238827
631.570597	10214.567405
631.916556	10215.381551
632.262462	10206.683040
632.608316	10187.879536
632.954117	10163.999590
633.299866	10141.274069
633.645562	10118.969484
633.991206	10010.443524
634.336797	9913.781919
634.682336	9905.388398
635.027823	9854.697076
635.373257	9814.312392
635.718639	9749.531045
636.063968	9717.648267
636.409245	9605.293551
636.754470	9589.935676
637.099642	9537.999188
637.444762	9432.429865
637.789829	9435.373899
638.134845	9364.154998
638.479808	9350.879119
638.824719	9317.277308
639.169577	9227.698525
639.514383	9230.667764
639.859137	9160.094131
640.203839	9196.808855
640.548489	9122.716496
640.893086	9126.192372
641.237632	9057.821723
641.582125	9060.705263
641.926566	9048.326709
642.270955	9038.231799
642.615292	9031.700984
642.959576	9008.423456
643.303809	9001.222168
643.647990	9020.645733
643.992118	8991.611208
644.336195	8968.421900
644.680219	8968.714287
645.024192	9009.114094
645.368112	9081.431967
645.711981	9053.776197
646.055797	9191.525725
646.399562	9151.173809
646.743274	9310.645670
647.086935	9376.712512
647.430544	9358.216518
647.774101	9371.557932
648.117606	9402.815607
648.461059	9467.090318
648.804460	9404.350638
649.147810	9284.061145
649.491108	9248.485723
649.834354	9184.291670
650.177548	9042.259681
650.520690	8948.176626
650.863781	8943.145555
651.206820	8920.518336
651.549807	8826.253800
651.892742	8735.661745
652.235626	8692.075929
652.578458	8652.424733
652.921238	8541.002630
653.263967	8587.068694
653.606644	8516.048919
653.949269	8506.107763
654.291843	8418.184999
654.634365	8486.222932
654.976836	8412.785923
655.319255	8417.043178
655.661622	8402.711177
656.003938	8358.903550
656.346203	8324.104465
656.688416	8354.331224
657.030577	8316.704052
657.372687	8276.059749
657.714746	8307.249368
658.056753	8326.042789
658.398708	8216.871561
658.740612	8220.198723
659.082465	8256.999146
659.424266	8217.720996
659.766016	8226.611071
660.107715	8201.806073
660.449362	8224.178714
660.790958	8220.362560
661.132503	8214.305614
661.473996	8210.018113
661.815438	8230.061740
662.156829	8257.755319
662.498168	8201.271711
662.839456	8196.722069
663.180693	8213.289822
663.521879	8247.299966
663.863013	8222.585709
664.204097	8213.677990
664.545129	8292.687995
664.886110	8283.097199
665.227040	8289.358313
665.567918	8293.340824
665.908746	8311.647774
666.249522	8337.503852
666.590248	8330.325249
666.930922	8339.043925
667.271545	8334.534613
667.612118	8353.491872
667.952639	8313.281108
668.293109	8318.632293
668.633528	8290.507696
668.973896	8281.748691
669.314213	8285.141387
669.654480	8245.265860
669.994695	8234.195487
670.334859	8216.826191
670.674973	8196.207872
671.015035	8220.682674
671.355047	8207.938637
671.695008	8196.689302
672.034918	8170.941609
672.374777	8179.844286
672.714585	8150.015779
673.054342	8182.939555
673.394049	8154.966192
673.733705	8192.427006
674.073310	8137.453224
674.412864	8152.309504
674.752368	8088.420441
675.091820	8138.416084
675.431223	8072.639109
675.770574	8028.292078
676.109875	7994.654979
676.449125	7958.656100
676.788324	7938.509128
677.127473	7852.527208
677.466571	7839.231165
677.805619	7776.587267
678.144616	7774.555682
678.483562	7749.501147
678.822458	7711.296763
679.161303	7690.544853
679.500098	7667.937798
679.838842	7654.493041
680.177535	7670.329826
680.516179	7699.233282
680.854771	7718.757670
681.193314	7836.050197
681.531805	7990.551480
681.870247	8114.458000
682.208638	8260.815299
682.546978	8334.726177
682.885268	8366.198100
683.223508	8296.804097
683.561697	8251.358095
683.899836	8220.964978
684.237925	8131.184549
684.575963	8105.814942
684.913951	8024.276799
685.251889	8041.542751
685.589776	8033.895321
685.927614	8025.544649
686.265401	8035.410187
686.603137	8040.025364
686.940824	8108.007844
687.278460	8168.715939
687.616046	8180.436622
687.953582	8290.595916
688.291068	8267.300744
688.628504	8328.064292
688.965889	8336.994696
689.303224	8289.839743
689.640510	8248.222497
689.977745	8141.322309
690.314930	8015.737085
690.652065	7948.175541
690.989150	7832.342428
691.326185	7681.022113
691.663170	7570.020947
692.000105	7454.238246
692.336990	7339.700710
692.673825	7259.004440
693.010610	7170.433887
693.347345	7072.050729
693.684030	6960.731969
694.020665	6909.178610
694.357251	6800.007382
694.693786	6784.977182
695.030272	6749.177428
695.366707	6651.628580
695.703093	6600.549089
696.039429	6602.724347
696.375716	6550.082098
696.711952	6537.131373
697.048139	6509.304204
697.384276	6479.642055
697.720363	6500.451938
698.056400	6474.159800
698.392388	6436.638492
698.728326	6445.460511
699.064214	6412.551859
699.400053	6404.717906
699.735842	6345.824626
700.071581	6303.279808
700.407270	6255.504793
700.742910	6229.036215
701.078501	6187.650862
701.414042	6144.095293
701.749533	6089.736531
702.084974	6028.690679
702.420366	6067.694086
702.755709	5990.970245
703.091002	5946.124141
703.426246	5950.429286
703.761440	5935.144508
704.096584	5891.929216
704.431679	5876.036979
704.766725	5861.495770
705.101721	5850.485890
705.436668	5864.109609
705.771565	5809.639941
706.106413	5867.053643
706.441212	5867.640937
706.775961	5883.419748
707.110661	5895.959619
707.445311	5957.791891
707.779913	5916.283030
708.114465	5955.987158
708.448967	6004.024313
708.783421	6118.740810
709.117825	6161.925854
709.452180	6196.235947
709.786485	6256.225678
710.120742	6388.462705
710.454949	6391.353807
710.789107	6467.737370
711.123216	6589.599703
711.457275	6621.719414
711.791286	6724.339663
712.125247	6743.201140
712.459159	6712.805503
712.793023	6846.849783
713.126837	6673.683628
713.460602	6731.545992
713.794318	6686.795669
714.127985	6633.787937
714.461602	6486.130020
714.795171	6494.594117
715.128691	6323.431821
715.462162	6234.105095
715.795584	6158.495349
716.128957	6118.231653
716.462281	6060.865843
716.795556	6018.510069
717.128782	5931.797181
717.461960	5835.480896
717.795088	5824.831458
718.128167	5752.309419
718.461198	5673.375032
718.794180	5642.558459
719.127113	5587.788843
719.459997	5555.585952
719.792833	5487.611034
720.125619	5484.477957
720.458357	5432.372590
720.791046	5398.740532
721.123686	5368.720461
721.456278	5326.578936
721.788821	5315.924457
722.121315	5280.283499
722.453761	5289.896980
722.786158	5270.307056
723.118506	5269.750008
723.450805	5247.705043
723.783056	5278.526657
724.115259	5257.638636
724.447412	5247.263942
724.779518	5293.241785
725.111574	5290.093585
725.443582	5332.494730
725.775542	5320.426208
726.107453	5404.137088
726.439315	5373.963261
726.771129	5445.668634
727.102895	5516.995919
727.434612	5555.011261
727.766281	5580.322894
728.097901	5638.066791
728.429473	5652.466847
728.760996	5662.486140
729.092471	5687.253329
729.423897	5671.187172
729.755276	5641.482172
730.086606	5654.959697
730.417887	5745.965127
730.749120	5841.268141
731.080305	5881.703236
731.411442	5951.235871
731.742530	5972.076001
732.073570	5996.215566
732.404562	6056.452313
732.735506	6052.127003
733.066401	6030.578591
733.397249	5963.818591
733.728048	5870.549683
734.058798	5725.979473
734.389501	5606.647799
734.720156	5522.195870
735.050762	5414.153860
735.381320	5337.072097
735.711831	5278.012460
736.042293	5196.736457
736.372707	5197.979101
736.703073	5151.184591
737.033391	5182.515362
737.363661	5168.538763
737.693883	5180.307336
738.024056	5202.546387
738.354182	5231.036467
738.684260	5278.420793
739.014290	5316.451258
739.344272	5350.849571
739.674207	5405.697325
740.004093	5443.264003
740.333931	5449.565446
740.663722	5470.526563
740.993464	5480.117358
741.323159	5457.449810
741.652806	5415.777112
741.982405	5385.923399
742.311956	5332.305687
742.641460	5319.410415
742.970915	5268.661119
743.300323	5209.616605
743.629683	5178.250546
743.958996	5125.928410
744.288260	5078.201286
744.617477	5016.613509
744.946647	5003.451057
745.275768	4946.962407
745.604842	4912.596861
745.933869	4878.947159
746.262847	4866.704717
746.591778	4857.923027
746.920662	4830.496630
747.249498	4831.257844
747.578286	4848.733004
747.907027	4872.915419
748.235720	4910.368671
748.564365	4921.033232
748.892963	4909.758692
749.221514	4930.167803
749.550017	4901.027413
749.878473	4900.455242
750.206881	4861.376218
750.535242	4848.236450
750.863555	4831.358667
751.191821	4810.664731
751.520039	4812.807221
751.848210	4795.536228
752.176334	4796.776352
752.504411	4784.995175
752.832440	4754.123149
753.160421	4761.548769
753.488356	4744.076129
753.816243	4723.326740
754.144082	4692.220300
754.471875	4679.992982
754.799620	4670.976878
755.127318	4667.309439
755.454969	4657.910207
755.782572	4650.792098
756.110129	4655.180422
756.437638	4636.548318
756.765100	4630.130929
757.092515	4634.340292
757.419882	4638.789111
757.747203	4638.244666
758.074477	4651.525586
758.401703	4638.645438
758.728882	4671.934697
759.056014	4684.280483
759.383099	4705.473494
759.710138	4734.606322
760.037129	4752.865381
760.364073	4768.820633
760.690970	4763.134212
761.017820	4763.048512
761.344623	4796.494047
761.671379	4858.704406
761.998088	4948.318478
762.324751	5178.805073
762.651366	5641.804806
762.977935	6336.997566
763.304456	6895.562453
763.630931	7202.551078
763.957359	7134.268649
764.283740	6847.318611
764.610074	6528.417739
764.936362	6122.322550
765.262602	5803.144415
765.588796	5453.704233
765.914943	5203.549576
766.241044	4975.535667
766.567097	4807.771108
766.893104	4654.053725
767.219064	4553.139907
767.544978	4460.322182
767.870845	4373.165673
768.196665	4325.683045
768.522438	4280.925161
768.848165	4236.484869
769.173846	4196.390052
769.499479	4170.173532
769.825066	4131.717089
770.150607	4087.990121
770.476101	4079.455447
770.801548	4056.550965
771.126949	4027.113147
771.452303	4007.591279
771.777611	3971.431082
772.102872	3968.492090
772.428087	3943.432514
772.753256	3912.862957
773.078378	3898.508271
773.403453	3862.816902
773.728482	3837.285978
774.053465	3826.936490
774.378401	3804.127789
774.703291	3784.184984
775.028135	3756.531735
775.352932	3750.623503
775.677683	3735.502562
776.002388	3707.824107
776.327046	3709.283521
776.651658	3693.671067
776.976224	3673.425793
777.300743	3670.181811
777.625216	3656.981549
777.949643	3645.734735
778.274024	3648.827483
778.598359	3628.897281
778.922647	3632.574803
779.246889	3621.068369
779.571086	3619.114922
779.895236	3620.450828
780.219339	3621.804378
780.543397	3618.618369
780.867409	3633.628404
781.191374	3634.205616
781.515294	3627.382415
781.839167	3648.678769
782.162995	3645.449910
782.486776	3637.089156
782.810511	3626.580871
783.134201	3612.314406
783.457844	3611.969087
783.781441	3602.600102
784.104993	3595.993670
784.428498	3587.695931
784.751958	3588.026127
785.075372	3584.204932
785.398739	3569.933425
785.722061	3578.286617
786.045337	3578.636977
786.368568	3604.911471
786.691752	3597.949638
787.014891	3646.120383
787.337983	3689.217208
787.661030	3779.335394
787.984031	3874.590517
788.306987	3953.025830
788.629897	4000.354702
788.952760	4008.128162
789.275579	3992.112416
789.598351	3943.248512
789.921078	3889.146849
790.243759	3826.618897
790.566395	3782.826393
790.888984	3730.423599
791.211529	3694.013866
791.534027	3650.783451
791.856480	3608.074795
792.178888	3595.580296
792.501249	3573.550453
792.823566	3542.196997
793.145836	3536.255997
793.468062	3525.639327
793.790241	3515.219262
794.112375	3521.929038
794.434464	3539.310936
794.756507	3539.298333
795.078505	3558.076632
795.400457	3596.565841
795.722364	3646.357318
796.044226	3692.637631
796.366042	3739.278386
796.687812	3736.165473
797.009538	3758.477620
797.331218	3749.496805
797.652852	3743.906165
797.974442	3723.691138
798.295986	3712.575394
798.617484	3682.013399
798.938938	3657.982218
799.260346	3640.363386
799.581709	3606.015484
799.903026	3596.868310
800.224299	3574.994744
800.545526	3543.195145
800.866708	3526.708052
801.187845	3512.267667
801.508936	3492.556755
801.829983	3485.037874
802.150984	3452.618214
802.471940	3441.799898
802.792851	3439.695216
803.113717	3429.691046
803.434538	3421.630241
803.755314	3416.621855
804.076045	3409.163468
804.396731	3395.564955
804.717372	3397.906571
805.037967	3394.649986
805.358518	3399.234915
805.679024	3408.513159
805.999485	3408.079619
806.319901	3412.651946
806.640272	3413.655136
806.960598	3427.117537
807.280879	3428.040068
807.601115	3438.351748
807.921306	3427.109975
808.241453	3430.434616
808.561554	3436.806635
808.881611	3435.894186
809.201623	3436.869649
809.521590	3426.273144
809.841513	3425.411106
810.161390	3435.954680
810.481223	3411.600865
810.801011	3412.599014
811.120755	3408.722367
811.440453	3393.883730
811.760107	3387.708317
812.079716	3379.029970
812.399281	3371.811038
812.718801	3369.189638
813.038276	3362.862990
813.357707	3359.558514
813.677093	3365.302908
813.996434	3348.185671
814.315731	3355.868389
814.634983	3357.181610
814.954191	3357.506764
815.273354	3370.409597
815.592473	3384.421484
815.911547	3403.552663
816.230577	3418.761824
816.549562	3443.539096
816.868502	3460.467290
817.187399	3481.095692
817.506250	3510.117614
817.825058	3522.660005
818.143821	3560.486303
818.462539	3607.336266
818.781213	3663.661078
819.099843	3746.570415
819.418429	3898.215884
819.736970	4052.107188
820.055466	4239.126434
820.373919	4479.758351
820.692327	4812.386285
821.010691	5327.851827
821.329011	6405.053143
821.647286	8154.494844
821.965517	10315.758486
822.283704	11949.861108
822.601847	13035.307231
822.919945	12623.180301
823.237999	11943.418513
823.556010	11049.296782
823.873976	10099.392163
824.191897	9124.609449
824.509775	8353.766615
824.827609	7550.887247
825.145398	7000.173957
825.463144	6621.490042
825.780845	6491.070351
826.098502	6548.761315
826.416116	6927.397340
826.733685	7428.931653
827.051210	7726.117755
827.368692	7631.233157
827.686129	7186.822678
828.003522	6631.559747
828.320872	6063.840124
828.638177	5603.318117
828.955439	5237.050564
829.272656	4893.163213
829.589830	4616.267756
829.906960	4349.683979
830.224046	4141.060868
830.541088	3972.078871
830.858086	3853.392465
831.175041	3757.023248
831.491952	3710.576577
831.808819	3698.356820
832.125642	3733.642376
832.442421	3831.352540
832.759157	4047.819687
833.075849	4426.967388
833.392497	4887.529724
833.709101	5279.560094
834.025662	5387.985231
834.342179	5270.405358
834.658653	4995.785982
834.975083	4719.873550
835.291469	4471.763081
835.607811	4249.574225
835.924110	4096.169393
836.240366	3932.246193
836.556578	3770.200824
836.872746	3636.368271
837.188871	3521.379552
837.504952	3427.959410
837.820990	3352.770600
838.136984	3297.108700
838.452935	3266.796242
838.768842	3252.723861
839.084706	3286.524797
839.400526	3421.789037
839.716303	3648.101557
840.032037	3857.727857
840.347727	3924.190430
840.663373	3833.757171
840.978977	3688.120757
841.294537	3551.815518
841.610054	3446.417594
841.925527	3369.413969
842.240957	3305.250163
842.556344	3240.433528
842.871687	3181.832635
843.186987	3121.787451
843.502244	3070.168557
843.817458	3028.551311
844.132629	2994.427741
844.447756	2976.047694
844.762840	2951.734209
845.077881	2934.455654
845.392879	2923.861669
845.707833	2908.881880
846.022745	2898.408883
846.337613	2899.911147
846.652438	2886.715927
846.967221	2881.397510
847.281960	2876.245450
847.596656	2868.719008
847.911309	2866.402598
848.225919	2861.489993
848.540485	2854.399610
848.855009	2849.471882
849.169490	2849.388703
849.483928	2847.987262
849.798323	2846.043898
850.112675	2837.615088
850.426984	2840.866633
850.741251	2839.495439
851.055474	2837.075685
851.369654	2834.971003
851.683792	2836.052331
851.997887	2835.313802
852.311938	2836.445541
852.625947	2831.759788
852.939914	2834.633246
853.253837	2835.190293
853.567718	2835.432269
853.881555	2829.934891
854.195350	2835.520489
854.509103	2834.393791
854.822812	2833.705674
855.136479	2832.286589
855.450103	2832.284068
855.763685	2830.943121
856.077224	2830.837257
856.390720	2832.614264
856.704173	2835.260870
857.017584	2838.514934
857.330953	2837.456292
857.644278	2840.523834
857.957561	2843.820749
858.270802	2843.026767
858.584000	2844.108095
858.897155	2844.493743
859.210268	2841.156499
859.523339	2836.569049
859.836367	2839.399657
860.149352	2838.446879
860.462295	2835.817917
860.775195	2829.478666
861.088054	2831.472442
861.400869	2827.245435
861.713642	2827.583192
862.026373	2830.958245
862.339062	2836.069975
862.651708	2835.447392
862.964312	2841.267404
863.276873	2840.269256
863.589392	2850.230576
863.901869	2855.339785
864.214303	2863.478728
864.526696	2870.498535
864.839045	2875.839637
865.151353	2883.590412
865.463619	2883.207284
865.775842	2885.155690
866.088023	2892.578789
866.400162	2892.571227
866.712258	2894.628018
867.024313	2894.562483
867.336325	2898.618091
867.648296	2899.701939
867.960224	2897.708163
868.272110	2902.557753
868.583954	2902.288051
868.895755	2903.971797
869.207515	2903.137486
869.519233	2909.643095
869.830909	2912.924886
870.142542	2917.824887
870.454134	2917.509815
870.765684	2923.125661
871.077191	2929.550611
871.388657	2936.701488
871.700081	2937.377003
872.011463	2947.781944
872.322803	2953.370063
872.634101	2959.187555
872.945357	2962.676033
873.256571	2977.005513
873.567744	2979.609269
873.878874	2985.368787
874.189963	2992.360868
874.501010	2995.037720
874.812015	2994.561331
875.122979	3004.862929
875.433900	3006.075327
875.744780	3008.235461
876.055618	3015.159486
876.366415	3017.942203
876.677169	3020.094775
876.987882	3028.702546
877.298554	3035.840819
877.609183	3051.433108
877.919771	3070.259297
878.230317	3091.578337
878.540822	3128.842546
878.851285	3178.984383
879.161707	3247.609610
879.472087	3351.265816
879.782425	3511.342615
880.092722	3792.875934
880.402977	4215.806056
880.713191	4759.290332
881.023363	5360.016909
881.333494	5802.587367
881.643583	6091.455565
881.953631	6165.830228
882.263637	6118.279544
882.573602	5977.349048
882.883526	5807.099200
883.193408	5607.240135
883.503248	5386.682093
883.813048	5173.521943
884.122806	4953.541113
884.432522	4705.556673
884.742197	4480.943022
885.051831	4271.281434
885.361424	4071.979416
885.670975	3904.522368
885.980485	3754.079214
886.289954	3628.821664
886.599382	3522.692773
886.908768	3441.757048
887.218113	3361.580016
887.527417	3300.433341
887.836680	3239.246336
888.145901	3192.136753
888.455082	3154.002945
888.764221	3118.961885
889.073319	3090.121443
889.382376	3073.994792
889.691392	3053.560475
890.000366	3047.032181
890.309300	3040.622354
890.618193	3037.960625
890.927044	3028.667258
891.235855	3033.978113
891.544625	3034.038607
891.853353	3038.908362
892.162041	3055.433264
892.470687	3080.911255
892.779293	3115.140690
893.087858	3164.317146
893.396381	3238.162488
893.704864	3346.471678
894.013306	3504.116121
894.321707	3689.615459
894.630068	3844.633460
894.938387	3923.217487
895.246665	3929.292077
895.554903	3872.712687
895.863100	3785.485602
896.171256	3711.378120
896.479371	3636.257366
896.787446	3560.887075
897.095480	3489.063235
897.403473	3431.788166
897.711425	3372.506717
898.019336	3327.353102
898.327207	3275.025925
898.635038	3227.812999
898.942827	3176.350380
899.250576	3134.317239
899.558284	3092.248810
899.865952	3067.506827
900.173579	3037.186808
900.481165	3014.441121
900.788711	2993.028820
901.096216	2981.618169
901.403681	2966.870273
901.711105	2961.718214
902.018489	2949.427881
902.325832	2961.445992
902.633135	2968.012094
902.940397	3007.552385
903.247619	3095.772577
903.554800	3274.541975
903.861941	3549.859551
904.169041	3814.479798
904.476101	3981.969614
904.783121	4007.823172
905.090100	3944.745734
905.397039	3836.043334
905.703938	3730.307653
906.010796	3626.520377
906.317614	3541.382851
906.624391	3452.988738
906.931129	3384.033316
907.237826	3317.197698
907.544483	3248.151534
907.851099	3176.214269
908.157675	3107.319340
908.464211	3031.195396
908.770707	2972.337404
909.077163	2924.620363
909.383578	2891.472256
909.689954	2861.343800
909.996289	2843.719926
910.302584	2824.833243
910.608839	2818.932572
910.915054	2810.236582
911.221229	2803.811631
911.527363	2805.709626
911.833458	2806.599389
912.139513	2809.596355
912.445527	2813.064669
912.751502	2821.611946
913.057436	2837.383195
913.363331	2858.974457
913.669186	2888.896226
913.975000	2926.490631
914.280775	2985.532625
914.586510	3064.938359
914.892205	3175.332067
915.197859	3322.558965
915.503475	3503.428003
915.809050	3678.885363
916.114585	3808.044766
916.420081	3888.486457
916.725536	3921.382507
917.030952	3884.138462
917.336328	3844.918285
917.641665	3800.026810
917.946961	3738.933067
918.252218	3681.181608
918.557435	3607.386678
918.862612	3538.534599
919.167750	3476.193170
919.472848	3404.155081
919.777906	3334.627487
920.082925	3266.612240
920.387904	3191.907381
920.692843	3140.719505
920.997743	3085.705393
921.302603	3036.796118
921.607423	3002.279338
921.912204	2968.342290
922.216946	2941.941767
922.521647	2916.385638
922.826310	2893.574417
923.130932	2877.263763
923.435516	2855.901874
923.740059	2842.053824
924.044564	2827.343737
924.349028	2814.486275
924.653454	2796.786783
924.957840	2785.277829
925.262186	2780.476130
925.566493	2767.948863
925.870761	2750.771131
926.174989	2750.188878
926.479178	2740.993813
926.783328	2732.678430
927.087438	2726.281206
927.391509	2721.562686
927.695541	2713.965667
927.999533	2709.862168
928.303486	2702.088708
928.607400	2695.328521
928.911275	2698.459078
929.215110	2693.289374
929.518906	2689.604291
929.822663	2690.468849
930.126381	2688.976667
930.430060	2688.407017
930.733699	2689.261492
931.037299	2690.607481
931.340861	2686.766121
931.644383	2691.676205
931.947866	2691.167049
932.251309	2689.856349
932.554714	2687.721420
932.858080	2690.136133
933.161407	2687.907943
933.464694	2687.131605
933.767943	2684.885771
934.071153	2686.655216
934.374323	2680.789833
934.677455	2685.921728
934.980548	2679.438804
935.283602	2678.213804
935.586617	2678.309586
935.889593	2679.300172
936.192530	2680.580626
936.495428	2681.717406
936.798287	2686.040195
937.101108	2688.540608
937.403890	2694.731144
937.706632	2703.906044
938.009336	2717.002962
938.312002	2727.213819
938.614628	2736.529872
938.917216	2750.090575
939.219765	2754.599887
939.522275	2766.880138
939.824747	2767.379212
940.127179	2766.101280
940.429573	2764.994747
940.731929	2765.151022
941.034246	2763.333687
941.336524	2763.482401
941.638763	2761.501227
941.940964	2763.555497
942.243126	2758.242121
942.545250	2754.862027
942.847335	2747.759042
943.149381	2741.752507
943.451389	2736.907958
943.753359	2732.910323
944.055290	2726.399673
944.357182	2723.155690
944.659036	2716.214022
944.960851	2714.386603
945.262628	2712.919627
945.564367	2708.634647
945.866067	2707.807897
946.167729	2707.944009
946.469352	2707.248329
946.770937	2705.519214
947.072484	2704.871425
947.373992	2704.372351
947.675462	2702.481918
947.976893	2697.980168
948.278286	2698.484283
948.579641	2695.832637
948.880958	2695.996474
949.182236	2699.835313
949.483476	2693.546473
949.784678	2694.128727
950.085841	2694.579910
950.386967	2694.524457
950.688054	2697.715507
950.989103	2701.292206
951.290114	2701.604758
951.591087	2707.341591
951.892021	2712.012220
952.192917	2716.488764
952.493776	2720.831718
952.794596	2722.228118
953.095378	2725.701473
953.396122	2724.582337
953.696828	2725.688870
953.997496	2722.477655
954.298126	2718.676625
954.598718	2719.611759
954.899272	2714.293342
955.199788	2706.958463
955.500266	2705.816642
955.800706	2697.465970
956.101108	2688.681760
956.401472	2685.248734
956.701798	2677.843279
957.002087	2669.104439
957.302337	2668.234840
957.602550	2662.124961
957.902724	2660.400887
958.202861	2651.911584
958.502960	2648.715492
958.803022	2642.116622
959.103045	2637.708133
959.403031	2636.929274
959.702979	2632.679582
960.002889	2626.693212
960.302762	2626.100876
960.602596	2624.966616
960.902393	2620.147273
961.202153	2619.028137
961.501875	2618.776079
961.801559	2615.630399
962.101205	2617.798096
962.400814	2614.372632
962.700385	2611.355501
962.999918	2612.189812
963.299414	2610.644698
963.598873	2611.088320
963.898293	2610.581684
964.197677	2609.230655
964.497022	2608.093874
964.796331	2607.788885
965.095601	2605.500201
965.394835	2606.337032
965.694030	2608.396344
965.993189	2607.229317
966.292309	2603.130858
966.591393	2608.232506
966.890439	2603.574480
967.189447	2606.034563
967.488419	2602.629264
967.787353	2603.695468
968.086249	2604.960797
968.385108	2606.382403
968.683930	2606.281580
968.982714	2607.352825
969.281462	2605.338884
969.580172	2607.872064
969.878844	2608.618154
970.177480	2610.884153
970.476078	2609.633947
970.774639	2610.886674
971.073162	2613.258537
971.371649	2612.325923
971.670098	2613.853393
971.968510	2613.316510
972.266885	2613.780296
972.565223	2619.479320
972.863524	2618.849176
973.161788	2618.282046
973.460014	2622.821605
973.758204	2621.949486
974.056356	2621.634414
974.354471	2623.290433
974.652550	2622.625000
974.950591	2623.499641
975.248595	2620.336317
975.546563	2623.983591
975.844493	2625.952162
976.142386	2620.268261
976.440243	2621.959568
976.738062	2619.832201
977.035845	2617.253651
977.333590	2617.094855
977.631299	2616.182406
977.928971	2614.302055
978.226606	2614.223917
978.524204	2613.064452
978.821765	2611.325254
979.119290	2612.613269
979.416777	2610.740480
979.714228	2612.134359
980.011642	2611.176540
980.309020	2617.387242
980.606360	2616.041253
980.903664	2621.152983
981.200931	2627.303191
981.498162	2633.680251
981.795356	2644.730460
982.092513	2660.032882
982.389633	2675.650377
982.686717	2696.112421
982.983764	2707.863350
983.280775	2725.242728
983.577749	2727.995198
983.874686	2732.199520
984.171587	2726.629045
984.468451	2722.286091
984.765279	2715.883826
985.062070	2708.644729
985.358824	2700.518389
985.655543	2691.696370
985.952224	2680.815039
986.248869	2667.892041
986.545478	2654.883344
986.842050	2643.024029
987.138586	2633.090436
987.435086	2619.111316
987.731549	2615.088475
988.027975	2613.671911
988.324366	2604.678493
988.620719	2607.574636
988.917037	2600.552308
989.213318	2601.636156
989.509563	2598.961824
989.805772	2599.070209
990.101944	2595.959817
990.398080	2595.289344
990.694180	2592.166349
990.990244	2594.649117
991.286271	2595.380084
991.582262	2597.482246
991.878217	2596.395877
992.174136	2595.654827
992.470019	2595.430496
992.765865	2598.513162
993.061676	2597.416711
993.357450	2597.875456
993.653188	2600.965683
993.948890	2603.231682
994.244556	2608.028339
994.540186	2612.951026
994.835780	2615.935389
995.131337	2623.877727
995.426859	2627.845115
995.722345	2637.151085
996.017795	2647.258599
996.313208	2657.212357
996.608586	2661.099087
996.903928	2666.077226
997.199234	2666.288954
997.494504	2668.983451
997.789738	2667.319870
998.084936	2663.788542
998.380099	2658.006339
998.675225	2653.181954
998.970316	2648.738177
999.265371	2640.873977
999.560390	2631.832668
999.855373	2628.447533
1000.150320	2621.452932
1000.445232	2618.972684
1000.740108	2610.354832
1001.034948	2609.328957
1001.329752	2601.653800
1001.624521	2598.765219
1001.919254	2593.293047
1002.213951	2591.886565
1002.508613	2591.823550
1002.803239	2590.369177
1003.097829	2586.981522
1003.392384	2587.256265
1003.686903	2587.324321
1003.981386	2588.062850
1004.275834	2588.196440
1004.570246	2588.819023
1004.864623	2585.181830
1005.158964	2588.655185
1005.453270	2585.499423
1005.747540	2583.866089
1006.041775	2584.629824
1006.335974	2585.073445
1006.630138	2583.528332
1006.924266	2585.854824
1007.218359	2584.040009
1007.512416	2582.129412
1007.806438	2581.199319
1008.100425	2585.849783
1008.394376	2583.752663
1008.688292	2583.971953
1008.982172	2581.181675
1009.276017	2579.709658
1009.569827	2581.030440
1009.863602	2582.694021
1010.157341	2584.740729
1010.451045	2577.836869
1010.744714	2579.334092
1011.038347	2582.106726
1011.331945	2578.663618
1011.625508	2581.877354
1011.919036	2580.498598
1012.212528	2581.438773
1012.505986	2581.189236
1012.799408	2577.156313
1013.092795	2581.428691
1013.386147	2580.591860
1013.679464	2580.904411
1013.972745	2579.036664
1014.265992	2579.944071
1014.559204	2581.106057
1014.852380	2578.514904
1015.145521	2579.724781
1015.438628	2581.242168
1015.731699	2578.887950
1016.024736	2582.842735
1016.317737	2581.433732
1016.610703	2581.216963
1016.903635	2577.519276
1017.196531	2575.386868
1017.489393	2576.571539
1017.782219	2576.266550
1018.075011	2577.917527
1018.367768	2582.310893
1018.660490	2581.879874
1018.953177	2581.879874
1019.245829	2581.879874
