Dividing Wavelength (nm)	Counts (n)	Blue Motor Position (mm): 43.000000	Red Motor Position (mm): 0.000000	
326.493990	2154.687456
326.888308	2154.687456
327.282561	2154.687456
327.676750	2128.067643
328.070874	2130.386574
328.464933	2138.835548
328.858929	2146.235962
329.252859	2155.362971
329.646726	2168.853099
330.040528	2185.425892
330.434265	2203.241330
330.827938	2224.441902
331.221547	2240.046794
331.615091	2263.505803
332.008571	2284.875254
332.401986	2303.333439
332.795338	2322.852787
333.188625	2345.169975
333.581847	2364.134796
333.975006	2381.698176
334.368100	2400.736093
334.761129	2416.477096
335.154095	2434.615168
335.546996	2458.883282
335.939833	2487.887561
336.332606	2506.101250
336.725315	2515.187930
337.117960	2522.550535
337.510540	2533.401618
337.903056	2542.296734
338.295508	2545.618855
338.687896	2554.720658
339.080220	2560.762481
339.472480	2569.244222
339.864676	2574.885273
340.256807	2576.067424
340.648875	2577.330233
341.040879	2578.933320
341.432818	2581.471541
341.824694	2581.501788
342.216506	2581.791654
342.608253	2579.094637
342.999937	2583.644278
343.391557	2579.850810
343.783113	2576.291755
344.174605	2575.830490
344.566033	2574.534913
344.957397	2576.390058
345.348697	2572.803277
345.739934	2570.338153
346.131106	2566.101063
346.522215	2568.077195
346.913260	2566.133830
347.304241	2561.748027
347.695159	2562.191648
348.086012	2559.986143
348.476802	2556.868190
348.867528	2557.866338
349.258191	2552.588250
349.648789	2556.621173
350.039324	2554.569423
350.429796	2554.203940
350.820203	2548.681356
351.210548	2551.814433
351.600828	2548.978784
351.991045	2549.775286
352.381198	2546.629606
352.771288	2550.405430
353.161314	2546.496016
353.551276	2548.315872
353.941175	2546.047353
354.331010	2550.730585
354.720782	2550.279402
355.110490	2550.816284
355.500135	2548.525080
355.889717	2549.228321
356.279235	2548.940975
356.668689	2550.155893
357.058080	2551.010369
357.447408	2550.556665
357.836672	2550.725544
358.225873	2547.910059
358.615010	2546.654812
359.004084	2552.868034
359.393095	2552.880637
359.782043	2554.274516
360.170927	2554.143446
360.559748	2556.590926
360.948505	2554.657644
361.337199	2555.779300
361.725830	2555.519681
362.114398	2557.626883
362.502903	2556.054043
362.891344	2556.858107
363.279722	2559.013201
363.668037	2557.952038
364.056289	2558.856925
364.444478	2560.490259
364.832603	2561.798438
365.220665	2558.584702
365.608665	2560.293654
365.996601	2562.703325
366.384474	2560.810372
366.772284	2562.509241
367.160031	2565.231464
367.547715	2564.465208
367.935336	2563.850188
368.322893	2564.477811
368.710388	2566.395970
369.097820	2565.448233
369.485189	2567.580642
369.872495	2564.059396
370.259738	2563.560321
370.646918	2564.903789
371.034035	2566.504355
371.421090	2566.832030
371.808081	2567.535271
372.195010	2566.358162
372.581875	2566.826989
372.968678	2564.843295
373.355418	2565.619633
373.742096	2568.331773
374.128710	2567.580642
374.515262	2568.238512
374.901751	2570.239850
375.288177	2568.808163
375.674540	2568.722463
376.060841	2569.889490
376.447079	2568.331773
376.833254	2570.688513
377.219367	2566.632905
377.605417	2567.772205
377.991404	2565.838923
378.377329	2568.419994
378.763191	2569.307237
379.148991	2573.060376
379.534727	2573.246898
379.920402	2571.427042
380.306013	2574.648339
380.691563	2574.300500
381.077049	2574.653380
381.462474	2573.589697
381.847835	2575.548185
382.233134	2574.792012
382.618371	2575.434759
383.003545	2574.953329
383.388657	2578.401478
383.773706	2577.947774
384.158693	2578.368711
384.543618	2579.192939
384.928480	2576.989955
385.313280	2581.055646
385.698017	2580.874164
386.082692	2582.104206
386.467305	2584.448342
386.851856	2587.974629
387.236344	2588.851790
387.620770	2589.245000
388.005133	2591.614343
388.389435	2594.286154
388.773674	2599.289499
389.157851	2599.229005
389.541965	2609.220572
389.926018	2607.274687
390.310008	2612.736777
390.693936	2617.868672
391.077802	2623.073663
391.461606	2628.755043
391.845348	2632.591362
392.229027	2639.888432
392.612645	2647.238434
392.996200	2653.108858
393.379694	2661.361227
393.763125	2671.322547
394.146494	2680.459638
394.529801	2687.219825
394.913047	2699.976465
395.296230	2706.809749
395.679351	2714.366439
396.062410	2727.483521
396.445408	2730.672051
396.828343	2743.027919
397.211217	2752.215422
397.594028	2755.724065
397.976778	2770.197217
398.359466	2785.736574
398.742092	2788.899898
399.124656	2808.394040
399.507158	2820.157573
399.889598	2834.466888
400.271977	2848.299814
400.654294	2861.104345
401.036549	2875.582539
401.418742	2887.557800
401.800874	2912.796336
402.182944	2924.814447
402.564952	2954.794189
402.946898	2956.750157
403.328783	2970.469657
403.710606	2989.600836
404.092367	3016.717202
404.474067	3042.081768
404.855705	3043.387427
405.237282	3052.305228
405.618797	3086.617842
406.000250	3111.150617
406.381642	3148.364414
406.762972	3155.875734
407.144240	3155.071670
407.525447	3183.095444
407.906593	3189.230528
408.287677	3216.256154
408.668700	3238.235585
409.049661	3242.850761
409.430560	3266.657610
409.811399	3274.030297
410.192176	3297.529636
410.572891	3311.337357
410.953545	3354.784541
411.334138	3324.630879
411.714669	3377.686503
412.095139	3331.287723
412.475547	3382.132801
412.855894	3381.200187
413.236180	3411.426946
413.616405	3395.688463
413.996568	3423.555962
414.376670	3426.991508
414.756711	3426.588216
415.136691	3454.710292
415.516609	3475.026143
415.896466	3487.981908
416.276262	3513.570805
416.655997	3544.339487
417.035670	3552.153276
417.415283	3618.225159
417.794834	3645.258346
418.174324	3626.608598
418.553753	3627.662199
418.933121	3672.657017
419.312428	3664.308867
419.691674	3661.294257
420.070859	3694.603681
420.449983	3677.279755
420.829045	3728.298753
421.208047	3715.345508
421.586988	3758.346550
421.965867	3792.248310
422.344686	3797.909526
422.723444	3838.689940
423.102141	3742.106473
423.480777	3845.830734
423.859352	3812.944767
424.237866	3910.712905
424.616319	3896.403590
424.994712	3954.626396
425.373044	3944.876804
425.751314	4009.673275
426.129524	3942.177267
426.507673	4044.903379
426.885762	4021.479658
427.263789	4043.842216
427.641756	4046.672824
428.019662	4076.188780
428.397508	4080.604831
428.775292	4118.748721
429.153016	4121.281901
429.530679	4138.421824
429.908282	4147.271570
430.285824	4125.198878
430.663305	4195.817881
431.040726	4156.897653
431.418086	4145.423987
431.795385	4221.926017
432.172624	4254.169237
432.549802	4223.876943
432.926920	4238.249273
433.303977	4236.363882
433.680974	4278.109677
434.057910	4297.502995
434.434786	4301.195641
434.811601	4294.564003
435.188355	4403.422679
435.565050	4372.631311
435.941683	4370.675343
436.318257	4463.702276
436.694770	4469.242504
437.071222	4525.032954
437.447614	4453.809012
437.823946	4460.644816
438.200218	4474.029080
438.576429	4459.913849
438.952580	4482.979648
439.328670	4491.373169
439.704700	4535.556362
440.080670	4499.587730
440.456580	4556.666194
440.832429	4597.292853
441.208218	4495.176720
441.583947	4549.227972
441.959616	4563.756577
442.335224	4590.525104
442.710773	4611.140903
443.086261	4661.328110
443.461689	4620.197335
443.837057	4629.646978
444.212365	4706.214543
444.587612	4710.002971
444.962800	4677.593392
445.337927	4718.058734
445.712995	4607.859111
446.088002	4796.988080
446.462949	4819.506914
446.837837	4836.170448
447.212664	4830.778934
447.587431	5052.105753
447.962139	5354.592628
448.336786	5691.344225
448.711374	5668.994270
449.085901	5313.267769
449.460369	5254.671917
449.834776	5191.876784
450.209124	5429.153814
450.583412	5439.742757
450.957640	5557.688113
451.331808	5418.700981
451.705917	5271.695894
452.079965	5267.244555
452.453954	5302.315862
452.827883	5264.978556
453.201752	5270.264206
453.575562	5302.257889
453.949311	5439.828457
454.323001	5442.974137
454.696632	5434.988949
455.070202	5587.335139
455.443713	5622.872753
455.817164	5713.845415
456.190556	5783.569614
456.563888	5755.964256
456.937160	5838.097255
457.310373	5676.099776
457.683526	5735.010700
458.056619	5730.781172
458.429653	5716.527309
458.802628	5760.617241
459.175542	5793.193177
459.548398	5928.177633
459.921194	6118.271983
460.293930	6176.933369
460.666607	6429.210352
461.039224	6641.122816
461.411782	6778.118692
461.784280	6684.854825
462.156719	6689.442275
462.529099	6650.300236
462.901419	6507.169276
463.273680	6377.294029
463.645882	6371.287494
464.018024	6368.968563
464.390106	6435.867196
464.762130	6697.369490
465.134094	7089.326763
465.505999	7727.471305
465.877845	8427.616998
466.249631	8785.057491
466.621358	8710.884474
466.993026	8509.994493
467.364634	8295.024569
467.736184	8011.152155
468.107674	7860.514917
468.479105	7778.941486
468.850477	7705.199487
469.221790	7530.584000
469.593043	7311.445042
469.964238	7215.920218
470.335373	7186.195055
470.706449	7344.784713
471.077467	7535.950308
471.448425	8197.475722
471.819324	8782.567161
472.190164	8810.154875
472.560945	8328.102100
472.931667	7859.708332
473.302330	7660.817169
473.672934	7539.983232
474.043479	7624.828371
474.413965	7517.129161
474.784393	7475.637944
475.154761	7631.303733
475.525070	7639.956874
475.895321	7595.360307
476.265513	7694.340842
476.635645	7849.555448
477.005719	7848.693411
477.375734	7929.525792
477.745691	8042.505612
478.115588	8247.181499
478.485427	8488.418354
478.855207	8961.036610
479.224928	9395.347137
479.594591	9784.360377
479.964194	9790.601325
480.333739	9872.285661
480.703226	9873.251042
481.072653	9976.766095
481.442022	10087.041336
481.811333	10241.225026
482.180584	10080.414739
482.549777	10016.258495
482.918912	9954.494278
483.287988	9944.580849
483.657005	9852.037867
484.025964	9772.473336
484.394864	9831.764867
484.763706	9782.694275
485.132489	9700.631852
485.501213	9690.191623
485.869879	9746.153472
486.238487	9681.878760
486.607036	9763.903374
486.975527	9715.450324
487.343959	9770.857646
487.712333	9809.437596
488.080648	9854.208084
488.448905	9958.416295
488.817104	9965.549528
489.185244	10128.721596
489.553326	10347.772333
489.921350	10821.739097
490.289315	11445.881834
490.657222	11738.498130
491.025070	11907.013821
491.392861	11832.903818
491.760593	11663.354691
492.128267	11422.498442
492.495883	11170.344968
492.863440	10939.008939
493.230939	10716.726822
493.598380	10530.982988
493.965763	10507.692857
494.333088	10375.717970
494.700354	10312.219596
495.067563	10280.714905
495.434713	10281.561819
495.801805	10326.347429
496.168839	10288.979877
496.535815	10257.848231
496.902733	10304.720879
497.269593	10258.115412
497.636395	10267.658316
498.003139	10380.416325
498.369825	10309.338576
498.736453	10391.040557
499.103023	10342.305202
499.469535	10345.539102
499.835989	10402.078163
500.202385	10372.143792
500.568723	10388.068797
500.935003	10457.367018
501.301226	10424.349981
501.667390	10591.335681
502.033497	10688.012409
502.399546	10613.529361
502.765537	10522.846565
503.131470	10628.420930
503.497345	10710.957221
503.863163	10493.325568
504.228923	10617.569846
504.594625	10740.006870
504.960269	10642.697477
505.325856	10791.943358
505.691385	10675.913640
506.056856	10748.493653
506.422270	10844.767088
506.787625	10782.750813
507.152924	10837.724596
507.518164	10892.642926
507.883347	10754.986659
508.248472	10833.132105
508.613540	10941.201841
508.978550	11019.359890
509.343503	11004.027220
509.708398	11048.553212
510.073236	11180.621360
510.438016	11196.624503
510.802738	11108.918508
511.167403	11240.069167
511.532010	11296.930862
511.896561	11395.356870
512.261053	11587.704616
512.625488	11503.305618
512.989866	11493.722384
513.354186	11464.435801
513.718449	11483.284675
514.082655	11626.213990
514.446803	11583.964079
514.810894	11693.405009
515.174927	11686.042404
515.538904	11670.936586
515.902822	11830.678149
516.266684	11701.344826
516.630488	11803.642441
516.994235	11792.720781
517.357925	11905.546845
517.721558	11963.434415
518.085133	12029.705423
518.448651	12060.799260
518.812112	12013.465346
519.175516	12022.504135
519.538863	12114.197682
519.902152	12121.323353
520.265385	12236.017165
520.628560	12249.444278
520.991678	12203.501722
521.354739	12255.244126
521.717743	12330.417812
522.080690	12299.628965
522.443580	12438.006117
522.806413	12457.472533
523.169189	12449.366357
523.531908	12507.402641
523.894569	12466.045015
524.257174	12486.633087
524.619722	12593.737442
524.982213	12571.863875
525.344647	12557.786453
525.707025	12568.224162
526.069345	12674.166531
526.431608	12654.490907
526.793815	12730.604769
527.155964	12624.937143
527.518057	12648.101245
527.880093	12613.755864
528.242072	12733.707599
528.603995	12653.364209
528.965860	12663.149089
529.327669	12702.699462
529.689421	12641.295687
530.051117	12670.736026
530.412755	12694.351311
530.774337	12692.488604
531.135862	12653.966627
531.497331	12714.218498
531.858743	12676.634176
532.220098	12766.966611
532.581396	12693.494315
532.942638	12616.697377
533.303824	12685.244466
533.664953	12658.624653
534.026025	12613.357613
534.387040	12718.543808
534.747999	12687.661700
535.108902	12738.710944
535.469748	12608.180348
535.830537	12637.718988
536.191270	12681.972758
536.551947	12609.760749
536.912567	12679.031244
537.273131	12714.082387
537.633638	12582.170514
537.994089	12643.042447
538.354483	12556.097667
538.714821	12692.798635
539.075103	12771.387703
539.435328	12700.330119
539.795497	12686.426617
540.155609	12677.294567
540.515665	12779.955144
540.875665	12631.868729
541.235609	12733.470665
541.595496	12689.758820
541.955328	12869.584339
542.315102	12721.540774
542.674821	12664.875684
543.034483	12668.414574
543.394090	12671.441787
543.753640	12634.129687
544.113134	12881.993139
544.472571	12633.441569
544.831953	12920.285744
545.191278	12740.374525
545.550548	12675.860358
545.909761	12793.964511
546.268918	12836.133763
546.628019	12903.100450
546.987064	12800.858289
547.346053	12636.161272
547.704986	12833.880367
548.063863	12711.395452
548.422684	12763.455448
548.781449	12718.052296
549.140158	12822.767143
549.498811	12769.222528
549.857408	12635.329482
550.215949	12843.748426
550.574434	12812.843632
550.932864	12760.261877
551.291237	12958.170015
551.649555	12847.194054
552.007817	12899.400243
552.366022	12823.626660
552.724173	12870.479144
553.082267	12957.940643
553.440305	13048.489848
553.798288	12868.266077
554.156215	12936.389710
554.514086	12982.791010
554.871902	12929.614399
555.229661	12958.553143
555.587365	12909.442222
555.945014	12917.591247
556.302606	12896.728432
556.660143	12959.876446
557.017625	12996.626457
557.375050	12961.406436
557.732421	13054.443451
558.089735	13047.700907
558.446994	13025.792053
558.804197	13142.104075
559.161345	13134.214669
559.518437	12948.299436
559.875474	13047.673181
560.232455	13068.047004
560.589381	13107.877161
560.946251	13048.298284
561.303065	13222.646590
561.659825	13176.351153
562.016528	13090.918719
562.373177	13030.074513
562.729770	13165.409329
563.086307	13046.196123
563.442789	13155.334583
563.799216	13193.228937
564.155587	13128.550933
564.511904	13158.850788
564.868164	13169.923682
565.224370	13227.478536
565.580520	13178.105475
565.936615	13239.514291
566.292654	13183.111341
566.648638	13258.244698
567.004567	13253.120365
567.360441	13254.075663
567.716260	13223.128020
568.072023	13304.530052
568.427732	13284.655303
568.783385	13186.433461
569.138982	13297.991675
569.494525	13298.669710
569.850013	13243.280033
570.205445	13241.094692
570.560823	13246.627359
570.916145	13203.152448
571.271412	13202.784444
571.626625	13170.490812
571.981782	13162.193073
572.336884	13122.554480
572.691931	13209.395917
573.046923	13093.136827
573.401860	13073.594794
573.756743	13065.589442
574.111570	13093.766971
574.466342	13063.409143
574.821059	13126.252167
575.175722	12995.640912
575.530330	13014.635979
575.884882	12938.277622
576.239380	12943.742233
576.593823	12928.719594
576.948211	12932.727312
577.302544	12801.495995
577.656823	12820.130620
578.011047	12880.503478
578.365216	12814.726503
578.719330	12756.599478
579.073389	12733.488309
579.427394	12748.941966
579.781344	12738.829411
580.135239	12671.267867
580.489080	12685.819158
580.842866	12558.434241
581.196597	12655.554591
581.550273	12646.820792
581.903895	12608.550872
582.257463	12718.657234
582.610975	12556.614385
582.964434	12630.358904
583.317837	12541.332127
583.671186	12493.350425
584.024481	12552.765464
584.377721	12451.927263
584.730906	12521.429652
585.084037	12538.514122
585.437113	12457.913634
585.790135	12475.648413
586.143103	12387.135834
586.496016	12397.944068
586.848874	12403.522104
587.201679	12415.895616
587.554428	12289.511369
587.907124	12333.140035
588.259765	12276.054009
588.612352	12341.921725
588.964884	12208.852907
589.317362	12252.030390
589.669786	12242.928587
590.022155	12201.616331
590.374470	12299.654170
590.726731	12193.331195
591.078937	12073.969274
591.431090	12098.529776
591.783188	12026.161492
592.135232	11942.715272
592.487222	12019.340811
592.839157	12020.001202
593.191038	11956.238167
593.542866	11902.207081
593.894639	11753.603948
594.246358	11808.071094
594.598022	11815.453864
594.949633	11720.022301
595.301190	11710.265148
595.652692	11661.723878
596.004141	11751.383319
596.355535	11537.595546
596.706876	11516.553770
597.058162	11490.370017
597.409395	11572.820609
597.760573	11608.499375
598.111698	11501.135401
598.462768	11501.400062
598.813785	11511.893223
599.164748	11384.057124
599.515657	11465.277674
599.866511	11341.303098
600.217312	11469.111471
600.568060	11235.310318
600.918753	11396.629761
601.269392	11395.132539
601.619978	11300.333641
601.970510	11338.348982
602.320988	11378.852132
602.671412	11454.597989
603.021783	11373.087573
603.372100	11298.874227
603.722363	11321.231744
604.072572	11319.754686
604.422728	11321.302320
604.772830	11271.462953
605.122878	11285.053903
605.472872	11252.218348
605.822813	11317.902062
606.172701	11265.902560
606.522534	11306.383025
606.872314	11364.976356
607.222041	11294.526231
607.571714	11381.143337
607.921333	11246.617626
608.270899	11297.538321
608.620411	11355.435973
608.969870	11302.483693
609.319276	11298.780965
609.668627	11296.620831
610.017926	11380.160312
610.367171	11410.051833
610.716362	11410.228274
611.065500	11376.477749
611.414585	11389.945191
611.763616	11453.962804
612.112594	11417.598441
612.461518	11438.274733
612.810389	11487.400778
613.159207	11436.734661
613.507971	11420.512228
613.856682	11530.253106
614.205340	11483.624953
614.553945	11631.232458
614.902496	11509.589416
615.250994	11565.757952
615.599439	11559.958105
615.947830	11584.866446
616.296169	11545.268183
616.644454	11570.219373
616.992686	11581.982906
617.340864	11677.631238
617.688990	11560.179916
618.037063	11696.543127
618.385082	11663.596666
618.733048	11706.590147
619.080961	11692.858044
619.428821	11674.916577
619.776628	11688.061386
620.124382	11632.190278
620.472083	11648.382464
620.819731	11676.713748
621.167326	11595.543610
621.514868	11583.757392
621.862357	11473.134312
622.209793	11478.530867
622.557176	11389.811601
622.904506	11332.178609
623.251783	11252.896383
623.599007	11188.167968
623.946179	11142.767336
624.293297	11120.510642
624.640363	10975.650565
624.987376	10959.173554
625.334336	10901.563248
625.681243	10822.863275
626.028097	10794.153903
626.374899	10753.809549
626.721647	10728.432381
627.068343	10687.737666
627.414987	10626.356577
627.761577	10560.115816
628.108115	10603.898237
628.454600	10477.811417
628.801032	10497.792031
629.147412	10468.906219
629.493739	10448.766809
629.840014	10374.107321
630.186236	10424.423078
630.532405	10321.424743
630.878521	10359.195588
631.224585	10312.857302
631.570597	10229.756401
631.916556	10236.183872
632.262462	10219.343898
632.608316	10201.112565
632.954117	10176.284882
633.299866	10159.054218
633.645562	10131.264858
633.991206	10035.614005
634.336797	9935.887379
634.682336	9924.068394
635.027823	9869.109734
635.373257	9832.037089
635.718639	9763.908415
636.063968	9734.773067
636.409245	9620.144790
636.754470	9608.232543
637.099642	9550.760869
637.444762	9446.966032
637.789829	9454.013565
638.134845	9380.606803
638.479808	9352.071352
638.824719	9334.069392
639.169577	9247.376669
639.514383	9248.084951
639.859137	9169.369854
640.203839	9213.671514
640.548489	9135.422724
640.893086	9139.024629
641.237632	9074.271008
641.582125	9077.089013
641.926566	9056.095127
642.270955	9048.074652
642.615292	9044.676914
642.959576	9028.593113
643.303809	9008.483950
643.647990	9025.943986
643.992118	9012.229527
644.336195	8985.418150
644.680219	8984.394796
645.024192	9018.689766
645.368112	9096.232794
645.711981	9064.982682
646.055797	9203.760606
646.399562	9157.084562
646.743274	9319.901229
647.086935	9384.448162
647.430544	9365.001912
647.774101	9388.251713
648.117606	9417.639119
648.461059	9479.438624
648.804460	9412.169468
649.147810	9294.700501
649.491108	9262.124564
649.834354	9197.537301
650.177548	9052.911639
650.520690	8963.138771
650.863781	8960.703894
651.206820	8929.632742
651.549807	8845.294238
651.892742	8749.903004
652.235626	8702.765695
652.578458	8663.714397
652.921238	8565.847957
653.263967	8601.972865
653.606644	8535.046507
653.949269	8517.473045
654.291843	8426.417203
654.634365	8500.486877
654.976836	8428.048017
655.319255	8416.712982
655.661622	8410.580418
656.003938	8370.636836
656.346203	8332.172832
656.688416	8365.799849
657.030577	8325.248807
657.372687	8286.668857
657.714746	8322.803848
658.056753	8336.591403
658.398708	8241.142197
658.740612	8230.275989
659.082465	8269.511290
659.424266	8229.955876
659.766016	8236.484170
660.107715	8210.272691
660.449362	8236.864777
660.790958	8227.359682
661.132503	8223.278868
661.473996	8220.291984
661.815438	8241.457269
662.156829	8270.035570
662.498168	8209.594656
662.839456	8200.913789
663.180693	8225.093683
663.521879	8247.804081
663.863013	8235.697750
664.204097	8229.098880
664.545129	8305.313564
664.886110	8293.350906
665.227040	8294.265876
665.567918	8312.046025
665.908746	8324.538005
666.249522	8345.738577
666.590248	8336.825817
666.930922	8352.138322
667.271545	8349.438784
667.612118	8363.909416
667.952639	8324.414496
668.293109	8327.996236
668.633528	8310.634502
668.973896	8292.882079
669.314213	8301.371382
669.654480	8254.279443
669.994695	8247.877178
670.334859	8228.864466
670.674973	8207.603400
671.015035	8229.741627
671.355047	8218.144453
671.695008	8206.043163
672.034918	8185.109772
672.374777	8187.617746
672.714585	8165.383737
673.054342	8196.046555
673.394049	8160.834095
673.733705	8203.729273
674.073310	8152.652302
674.412864	8164.743510
674.752368	8094.520237
675.091820	8154.835122
675.431223	8079.520284
675.770574	8032.677882
676.109875	8008.906321
676.449125	7964.191287
676.788324	7950.839791
677.127473	7860.701439
677.466571	7848.852207
677.805619	7784.590098
678.144616	7787.055223
678.483562	7767.306502
678.822458	7718.125006
679.161303	7699.301337
679.500098	7673.909045
679.838842	7665.490318
680.177535	7676.747215
680.516179	7709.610497
680.854771	7732.197387
681.193314	7841.446752
681.531805	7999.197059
681.870247	8121.795400
682.208638	8270.438862
682.546978	8350.656223
682.885268	8381.087148
683.223508	8309.396899
683.561697	8255.829598
683.899836	8235.337308
684.237925	8144.286508
684.575963	8117.714586
684.913951	8037.522431
685.251889	8051.436016
685.589776	8046.941827
685.927614	8030.845423
686.265401	8049.389307
686.603137	8050.367291
686.940824	8124.026110
687.278460	8174.160385
687.616046	8189.445164
687.953582	8298.263511
688.291068	8287.281357
688.628504	8338.033173
688.965889	8346.071293
689.303224	8302.379613
689.640510	8262.057944
689.977745	8149.766242
690.314930	8031.626802
690.652065	7961.791697
690.989150	7846.452618
691.326185	7693.385543
691.663170	7586.369409
692.000105	7461.575645
692.336990	7349.452822
692.673825	7269.694206
693.010610	7178.804723
693.347345	7085.339210
693.684030	6969.440563
694.020665	6921.778974
694.357251	6803.470655
694.693786	6795.397247
695.030272	6751.982830
695.366707	6651.444578
695.703093	6608.158711
696.039429	6609.567713
696.375716	6560.212296
696.711952	6548.206788
697.048139	6518.902561
697.384276	6486.530792
697.720363	6509.246231
698.056400	6483.473332
698.392388	6447.547549
698.728326	6446.511592
699.064214	6412.254431
699.400053	6411.112610
699.735842	6351.606830
700.071581	6308.610828
700.407270	6265.193891
700.742910	6232.663325
701.078501	6193.226379
701.414042	6149.978320
701.749533	6095.498570
702.084974	6039.808944
702.420366	6078.537608
702.755709	6003.540362
703.091002	5954.046314
703.426246	5959.624351
703.761440	5940.125168
704.096584	5898.107150
704.431679	5888.758330
704.766725	5866.168920
705.101721	5860.016192
705.436668	5870.907605
705.771565	5815.596065
706.106413	5875.104365
706.441212	5871.378953
706.775961	5887.797991
707.110661	5898.477675
707.445311	5961.429084
707.779913	5923.660759
708.114465	5962.497808
708.448967	6014.910685
708.783421	6125.869002
709.117825	6166.616648
709.452180	6204.566454
709.786485	6264.039467
710.120742	6396.435290
710.454949	6391.923457
710.789107	6475.772969
711.123216	6597.526917
711.457275	6623.453571
711.791286	6726.787143
712.125247	6754.740341
712.459159	6717.942438
712.793023	6850.388673
713.126837	6676.141191
713.460602	6737.461786
713.794318	6695.622730
714.127985	6642.025182
714.461602	6486.238405
714.795171	6496.580332
715.128691	6330.449107
715.462162	6240.446867
715.795584	6172.504716
716.128957	6127.257839
716.462281	6062.458848
716.795556	6028.002561
717.128782	5940.765394
717.461960	5843.173697
717.795088	5824.773485
718.128167	5758.484833
718.461198	5675.386453
718.794180	5650.054655
719.127113	5592.348567
719.459997	5560.170882
719.792833	5493.191591
720.125619	5487.580787
720.458357	5431.311427
720.791046	5405.563734
721.123686	5374.618611
721.456278	5332.217466
721.788821	5323.980221
722.121315	5284.220641
722.453761	5290.965704
722.786158	5274.987767
723.118506	5274.851656
723.450805	5253.711578
723.783056	5278.682933
724.115259	5261.621148
724.447412	5251.117904
724.779518	5295.898473
725.111574	5299.825532
725.443582	5334.843908
725.775542	5324.343184
726.107453	5406.917284
726.439315	5377.086256
726.771129	5450.354386
727.102895	5516.431310
727.434612	5559.553340
727.766281	5591.388227
728.097901	5644.365712
728.429473	5659.718547
728.760996	5670.793962
729.092471	5698.764804
729.423897	5680.115055
729.755276	5650.347042
730.086606	5662.942364
730.417887	5747.961424
730.749120	5846.941959
731.080305	5881.882197
731.411442	5955.924144
731.742530	5976.784438
732.073570	5998.968036
732.404562	6062.463889
732.735506	6058.047838
733.066401	6038.054622
733.397249	5971.279498
733.728048	5881.385643
734.058798	5733.291666
734.389501	5610.718531
734.720156	5526.730387
735.050762	5418.486732
735.381320	5344.152398
735.711831	5280.051606
736.042293	5205.230801
736.372707	5202.803485
736.703073	5156.782792
737.033391	5187.312020
737.363661	5170.509854
737.693883	5179.399929
738.024056	5207.532088
738.354182	5236.722889
738.684260	5287.978821
739.014290	5323.007278
739.344272	5357.506415
739.674207	5413.901803
740.004093	5446.271052
740.333931	5454.258760
740.663722	5468.487417
740.993464	5485.289582
741.323159	5460.794616
741.652806	5422.993524
741.982405	5388.595210
742.311956	5337.558569
742.641460	5324.708668
742.970915	5273.253610
743.300323	5212.361513
743.629683	5180.884548
743.958996	5128.534686
744.288260	5081.904013
744.617477	5021.437893
744.946647	5006.155636
745.275768	4953.155465
745.604842	4919.331843
745.933869	4880.953539
746.262847	4877.732241
746.591778	4864.564747
746.920662	4834.496785
747.249498	4830.557124
747.578286	4845.826779
747.907027	4876.610585
748.235720	4918.174898
748.564365	4927.629582
748.892963	4915.309002
749.221514	4934.598977
749.550017	4908.253907
749.878473	4904.480604
750.206881	4865.459552
750.535242	4850.769630
750.863555	4835.978885
751.191821	4813.578517
751.520039	4816.441893
751.848210	4800.448832
752.176334	4808.993588
752.504411	4787.006596
752.832440	4754.269342
753.160421	4766.733595
753.488356	4744.812138
753.816243	4732.110951
754.144082	4695.343295
754.471875	4684.905586
754.799620	4679.128424
755.127318	4670.760108
755.454969	4662.651412
755.782572	4655.752593
756.110129	4657.292666
756.437638	4637.448164
756.765100	4635.968585
757.092515	4638.043020
757.419882	4646.451665
757.747203	4642.358248
758.074477	4656.274353
758.401703	4648.032066
758.728882	4674.951828
759.056014	4691.443963
759.383099	4707.366447
759.710138	4738.704780
760.037129	4754.849075
760.364073	4767.540180
760.690970	4768.926497
761.017820	4767.381384
761.344623	4799.927073
761.671379	4862.265981
761.998088	4950.292089
762.324751	5185.156926
762.651366	5643.796062
762.977935	6338.852710
763.304456	6905.138125
763.630931	7208.852521
763.957359	7148.842625
764.283740	6854.106524
764.610074	6531.490322
764.936362	6128.755062
765.262602	5811.424510
765.588796	5459.088185
765.914943	5206.017221
766.241044	4983.253674
766.567097	4808.444102
766.893104	4659.122605
767.219064	4560.154673
767.544978	4463.067091
767.870845	4379.421745
768.196665	4328.425433
768.522438	4285.008496
768.848165	4245.632043
769.173846	4201.224519
769.499479	4175.975900
769.825066	4134.411586
770.150607	4091.521449
770.476101	4079.069799
770.801548	4061.894588
771.126949	4028.302859
771.452303	4008.554139
771.777611	3972.431751
772.102872	3970.528716
772.428087	3943.387143
772.753256	3917.402516
773.078378	3899.186307
773.403453	3865.299670
773.728482	3839.541895
774.053465	3828.010255
774.378401	3807.951504
774.703291	3783.232206
775.028135	3761.237652
775.352932	3753.101230
775.677683	3734.441399
776.002388	3711.229406
776.327046	3716.507494
776.651658	3693.832384
776.976224	3674.207172
777.300743	3674.847399
777.625216	3655.895181
777.949643	3648.393944
778.274024	3652.358811
778.598359	3633.588075
778.922647	3632.814258
779.246889	3623.478041
779.571086	3624.130870
779.895236	3623.208339
780.219339	3623.586426
780.543397	3624.418216
780.867409	3638.150319
781.191374	3637.605875
781.515294	3629.726551
781.839167	3648.141886
782.162995	3645.165085
782.486776	3637.784836
782.810511	3632.370636
783.134201	3613.055455
783.457844	3613.539406
783.781441	3606.575052
784.104993	3595.759257
784.428498	3589.719954
784.751958	3590.609718
785.075372	3585.306424
785.398739	3573.159764
785.722061	3583.438677
786.045337	3577.563212
786.368568	3604.445165
786.691752	3600.518106
787.014891	3648.164571
787.337983	3690.404399
787.661030	3779.111063
787.984031	3877.690827
788.306987	3953.242599
788.629897	4001.587265
788.952760	4009.779140
789.275579	3993.110564
789.598351	3941.998306
789.921078	3892.448804
790.243759	3828.950431
790.566395	3783.161630
790.888984	3735.999115
791.211529	3695.644679
791.534027	3651.262360
791.856480	3611.119652
792.178888	3596.775049
792.501249	3578.145465
792.823566	3543.011143
793.145836	3537.982592
793.468062	3528.666540
793.790241	3515.892256
794.112375	3522.521373
794.434464	3544.064744
794.756507	3540.719939
795.078505	3560.549317
795.400457	3598.993157
795.722364	3649.069458
796.044226	3694.303732
796.366042	3745.509252
796.687812	3736.606574
797.009538	3760.980553
797.331218	3752.765993
797.652852	3742.391298
797.974442	3722.350191
798.295986	3714.158316
798.617484	3686.089172
798.938938	3661.606808
799.260346	3644.086278
799.581709	3609.178808
799.903026	3599.083897
800.224299	3578.319385
800.545526	3545.942574
800.866708	3524.076569
801.187845	3518.458203
801.508936	3495.513392
801.829983	3487.823112
802.150984	3456.706589
802.471940	3445.326185
802.792851	3442.830813
803.113717	3435.690019
803.434538	3427.041920
803.755314	3415.338881
804.076045	3410.302768
804.396731	3398.607291
804.717372	3397.442785
805.037967	3397.551170
805.358518	3400.492683
805.679024	3412.944333
805.999485	3410.156575
806.319901	3417.544386
806.640272	3419.724685
806.960598	3430.054009
807.280879	3428.705500
807.601115	3441.434414
807.921306	3431.614246
808.241453	3435.997529
808.561554	3440.201852
808.881611	3435.357303
809.201623	3437.277983
809.521590	3429.776746
809.841513	3427.324224
810.161390	3441.046245
810.481223	3414.902821
810.801011	3412.087337
811.120755	3412.750248
811.440453	3397.382291
811.760107	3390.332237
812.079716	3384.381155
812.399281	3373.051162
812.718801	3373.056203
813.038276	3365.849874
813.357707	3358.383925
813.677093	3367.062271
813.996434	3349.902183
814.315731	3357.872248
814.634983	3357.416023
814.954191	3358.797299
815.273354	3376.895042
815.592473	3386.019530
815.911547	3406.053076
816.230577	3417.302410
816.549562	3446.183181
816.868502	3462.377888
817.187399	3484.387565
817.506250	3509.850433
817.825058	3522.165972
818.143821	3564.766243
818.462539	3610.759210
818.781213	3666.358096
819.099843	3751.271291
819.418429	3902.314342
819.736970	4056.757652
820.055466	4243.643308
820.373919	4479.778516
820.692327	4820.759641
821.010691	5335.529504
821.329011	6419.307005
821.647286	8160.607243
821.965517	10344.243526
822.283704	11976.004532
822.601847	13069.307293
822.919945	12652.045948
823.237999	11975.883544
823.556010	11075.210833
823.873976	10116.758938
824.191897	9144.806832
824.509775	8373.570788
824.827609	7568.995072
825.145398	7015.241966
825.463144	6634.239120
825.780845	6502.523852
826.098502	6554.672068
826.416116	6944.310411
826.733685	7446.623583
827.051210	7738.904642
827.368692	7638.739435
827.686129	7198.883639
828.003522	6645.463249
828.320872	6076.218677
828.638177	5609.133088
828.955439	5243.742696
829.272656	4905.077980
829.589830	4624.419302
829.906960	4355.932489
830.224046	4151.344822
830.541088	3976.263028
830.858086	3862.537118
831.175041	3762.692025
831.491952	3716.247875
831.808819	3698.518137
832.125642	3737.007346
832.442421	3836.103828
832.759157	4050.864543
833.075849	4431.688428
833.392497	4893.362339
833.709101	5286.922699
834.025662	5396.887908
834.342179	5275.809475
834.658653	5002.924256
834.975083	4730.275971
835.291469	4480.088547
835.607811	4257.065380
835.924110	4096.529836
836.240366	3939.797842
836.556578	3775.945218
836.872746	3642.432779
837.188871	3524.431971
837.504952	3426.658792
837.820990	3353.005014
838.136984	3299.374698
838.452935	3269.422683
838.768842	3256.015734
839.084706	3286.534880
839.400526	3425.965633
839.716303	3649.780261
840.032037	3861.801110
840.347727	3927.787293
840.663373	3839.683047
840.978977	3691.531097
841.294537	3558.999163
841.610054	3449.545630
841.925527	3370.671737
842.240957	3306.593631
842.556344	3245.867892
842.871687	3186.057122
843.186987	3124.804582
843.502244	3072.217786
843.817458	3031.795293
844.132629	2997.989316
844.447756	2975.752786
844.762840	2956.677060
845.077881	2938.659976
845.392879	2922.737492
845.707833	2913.804567
846.022745	2899.691857
846.337613	2896.566342
846.652438	2888.142573
846.967221	2885.657285
847.281960	2876.880636
847.596656	2870.853936
847.911309	2866.999974
848.225919	2862.702391
848.540485	2859.465970
848.855009	2855.415403
849.169490	2849.774352
849.483928	2847.773013
849.798323	2846.217817
850.112675	2844.647498
850.426984	2843.319154
850.741251	2839.261025
851.055474	2836.652228
851.369654	2837.733556
851.683792	2836.616940
851.997887	2837.040397
852.311938	2837.552074
852.625947	2836.221209
852.939914	2833.320025
853.253837	2838.666169
853.567718	2837.894872
853.881555	2832.936898
854.195350	2835.230623
854.509103	2835.298678
854.822812	2835.160047
855.136479	2835.172649
855.450103	2835.195335
855.763685	2831.958914
856.077224	2831.759788
856.390720	2836.185921
856.704173	2840.002075
857.017584	2839.097188
857.330953	2840.778412
857.644278	2843.861078
857.957561	2845.776717
858.270802	2845.212107
858.584000	2846.681604
858.897155	2848.181347
859.210268	2843.583815
859.523339	2839.200531
859.836367	2841.521983
860.149352	2838.235150
860.462295	2837.806652
860.775195	2831.802638
861.088054	2831.391784
861.400869	2829.468584
861.713642	2828.369612
862.026373	2830.479335
862.339062	2834.043431
862.651708	2839.071982
862.964312	2840.317147
863.276873	2844.150944
863.589392	2851.747963
863.901869	2858.634179
864.214303	2866.576517
864.526696	2871.413504
864.839045	2879.557488
865.151353	2884.520504
865.463619	2886.128633
865.775842	2890.416134
866.088023	2892.543501
866.400162	2893.526526
866.712258	2895.865621
867.024313	2899.162536
867.336325	2898.504665
867.648296	2899.681775
867.960224	2899.553225
868.272110	2904.450706
868.583954	2904.450706
868.895755	2908.266860
869.207515	2907.674524
869.519233	2911.604103
869.830909	2912.907242
870.142542	2918.465114
870.454134	2920.126174
870.765684	2924.673295
871.077191	2930.364758
871.388657	2935.080757
871.700081	2940.845316
872.011463	2950.161369
872.322803	2956.263685
872.634101	2958.905250
872.945357	2965.365489
873.256571	2977.282776
873.567744	2983.732933
873.878874	2986.722337
874.189963	2993.918584
874.501010	2997.112155
874.812015	2997.149964
875.122979	3007.832169
875.433900	3007.522138
875.744780	3011.401306
876.055618	3018.136287
876.366415	3021.571833
876.677169	3025.188861
876.987882	3030.966024
877.298554	3036.773433
877.609183	3055.387893
877.919771	3074.173753
878.230317	3094.787031
878.540822	3135.592651
878.851285	3185.631144
879.161707	3251.675301
879.472087	3356.775797
879.782425	3520.247813
880.092722	3800.306594
880.402977	4225.288467
880.713191	4771.061426
881.023363	5376.698087
881.333494	5815.616229
881.643583	6105.686742
881.953631	6186.191448
882.263637	6134.312934
882.573602	5988.764740
882.883526	5823.409853
883.193408	5621.562053
883.503248	5396.494698
883.813048	5183.808418
884.122806	4963.699038
884.432522	4718.346080
884.742197	4491.350484
885.051831	4276.178915
885.361424	4079.160540
885.670975	3909.129982
885.980485	3760.814195
886.289954	3636.857263
886.599382	3528.666540
886.908768	3447.259467
887.218113	3366.379195
887.527417	3303.011891
887.836680	3241.988724
888.145901	3192.582895
888.455082	3160.032165
888.764221	3125.550673
889.073319	3092.339551
889.382376	3077.087540
889.691392	3061.346537
890.000366	3049.716595
890.309300	3045.371121
890.618193	3038.938608
890.927044	3032.690098
891.235855	3036.460881
891.544625	3039.069678
891.853353	3044.546892
892.162041	3057.139694
892.470687	3084.866041
892.779293	3116.564816
893.087858	3165.847136
893.396381	3243.783374
893.704864	3353.078110
894.013306	3512.176926
894.321707	3698.056871
894.630068	3852.863144
894.938387	3926.406017
895.246665	3936.765588
895.554903	3876.559087
895.863100	3788.376704
896.171256	3715.595045
896.479371	3643.801453
896.787446	3566.732293
897.095480	3494.822754
897.403473	3439.962397
897.711425	3381.134652
898.019336	3328.888134
898.327207	3276.165226
898.635038	3230.920870
898.942827	3178.260977
899.250576	3136.583238
899.558284	3094.855087
899.865952	3066.790983
900.173579	3038.807538
900.481165	3016.961698
900.788711	2995.657782
901.096216	2984.080772
901.403681	2968.554018
901.711105	2959.739561
902.018489	2955.633541
902.325832	2961.014973
902.633135	2971.198104
902.940397	3010.340143
903.247619	3100.886827
903.554800	3276.215638
903.861941	3551.583625
904.169041	3821.048422
904.476101	3992.636696
904.783121	4013.433976
905.090100	3946.139613
905.397039	3841.210517
905.703938	3732.669433
906.010796	3631.508599
906.317614	3545.045249
906.624391	3457.838328
906.931129	3390.929614
907.237826	3318.120229
907.544483	3250.246134
907.851099	3179.294414
908.157675	3107.470574
908.464211	3033.403422
908.770707	2976.952581
909.077163	2929.301074
909.383578	2891.893192
909.689954	2863.370343
909.996289	2844.294617
910.302584	2828.846001
910.608839	2821.861483
910.915054	2812.931079
911.221229	2806.372537
911.527363	2806.954791
911.833458	2807.650470
912.139513	2810.695327
912.445527	2813.319247
912.751502	2826.436330
913.057436	2840.798577
913.363331	2860.176772
913.669186	2889.775907
913.975000	2925.056423
914.280775	2988.020434
914.586510	3071.764082
914.892205	3180.988242
915.197859	3324.729182
915.503475	3509.908407
915.809050	3683.868543
916.114585	3820.009944
916.420081	3898.208323
916.725536	3927.641099
917.030952	3890.870923
917.336328	3853.715099
917.641665	3807.434786
917.946961	3744.916917
918.252218	3686.323585
918.557435	3612.332050
918.862612	3542.401164
919.167750	3483.147441
919.472848	3409.798653
919.777906	3344.369517
920.082925	3272.596089
920.387904	3196.709080
920.692843	3145.191008
920.997743	3090.065991
921.302603	3041.572611
921.607423	3006.375275
921.912204	2968.004533
922.216946	2944.918569
922.521647	2919.740526
922.826310	2898.615571
923.130932	2880.631254
923.435516	2854.939014
923.740059	2846.545492
924.044564	2829.720642
924.349028	2816.674135
924.653454	2799.178811
924.957840	2788.317645
925.262186	2781.819598
925.566493	2766.537340
925.870761	2753.919332
926.174989	2751.174423
926.479178	2741.818042
926.783328	2734.349572
927.087438	2729.255487
927.391509	2723.218705
927.695541	2714.782334
927.999533	2707.886035
928.303486	2705.640201
928.607400	2700.162988
928.911275	2697.556711
929.215110	2696.430013
929.518906	2692.896164
929.822663	2692.689477
930.126381	2690.511699
930.430060	2689.828622
930.733699	2690.408355
931.037299	2690.698221
931.340861	2691.008252
931.644383	2692.233253
931.947866	2691.895495
932.251309	2691.028417
932.554714	2692.699559
932.858080	2690.670495
933.161407	2689.553879
933.464694	2689.702593
933.767943	2689.349713
934.071153	2686.367870
934.374323	2682.713034
934.677455	2684.600946
934.980548	2681.571212
935.283602	2681.697241
935.586617	2678.425532
935.889593	2681.707323
936.192530	2678.619617
936.495428	2683.428877
936.798287	2685.205884
937.101108	2687.250072
937.403890	2695.996474
937.706632	2706.988710
938.009336	2717.464228
938.312002	2730.445199
938.614628	2740.469533
938.917216	2750.201481
939.219765	2754.952768
939.522275	2766.081115
939.824747	2772.566560
940.127179	2764.798142
940.429573	2764.780498
940.731929	2767.502721
941.034246	2763.754623
941.336524	2766.812083
941.638763	2767.883328
941.940964	2767.258225
942.243126	2762.567431
942.545250	2756.916298
942.847335	2750.844228
943.149381	2743.413567
943.451389	2739.065572
943.753359	2731.650035
944.055290	2727.128120
944.357182	2723.039744
944.659036	2717.648230
944.960851	2717.502036
945.262628	2711.407281
945.564367	2713.360728
945.866067	2713.837117
946.167729	2710.429297
946.469352	2709.002651
946.770937	2708.415357
947.072484	2704.619368
947.373992	2706.411498
947.675462	2705.703216
947.976893	2700.954449
948.278286	2701.723225
948.579641	2701.997968
948.880958	2699.129551
949.182236	2697.468491
949.483476	2697.168542
949.784678	2696.626618
950.085841	2695.590661
950.386967	2697.034952
950.688054	2697.085363
950.989103	2699.880683
951.290114	2706.507280
951.591087	2707.979297
951.892021	2712.319730
952.192917	2716.483723
952.493776	2722.021431
952.794596	2724.930177
953.095378	2725.557800
953.396122	2727.811196
953.696828	2725.204919
953.997496	2726.417317
954.298126	2721.219887
954.598718	2720.690566
954.899272	2713.269988
955.199788	2712.705378
955.500266	2708.591797
955.800706	2700.505786
956.101108	2688.936338
956.401472	2686.856862
956.701798	2678.518794
957.002087	2670.110149
957.302337	2671.377999
957.602550	2664.895075
957.902724	2658.744868
958.202861	2654.767397
958.502960	2647.545944
958.803022	2645.567292
959.103045	2639.046559
959.403031	2637.917341
959.702979	2636.220992
960.002889	2632.795528
960.302762	2626.907461
960.602596	2623.887809
960.902393	2621.513426
961.202153	2622.960237
961.501875	2620.250617
961.801559	2617.241048
962.101205	2618.324896
962.400814	2616.878085
962.700385	2615.214504
962.999918	2614.475975
963.299414	2612.933382
963.598873	2613.457662
963.898293	2609.434821
964.197677	2609.843155
964.497022	2610.019595
964.796331	2606.871395
965.095601	2608.542537
965.394835	2605.792588
965.694030	2606.591611
965.993189	2605.832917
966.292309	2607.748555
966.591393	2604.854933
966.890439	2604.527258
967.189447	2603.178749
967.488419	2606.377362
967.787353	2606.563884
968.086249	2605.674121
968.385108	2604.847371
968.683930	2607.967846
968.982714	2607.567074
969.281462	2609.361725
969.580172	2609.283587
969.878844	2610.196036
970.177480	2611.743670
970.476078	2613.283742
970.774639	2613.177878
971.073162	2616.636110
971.371649	2613.371962
971.670098	2614.821294
971.968510	2617.893878
972.266885	2615.242231
972.565223	2621.140381
972.863524	2622.267078
973.161788	2621.805813
973.460014	2623.487038
973.758204	2622.027624
974.056356	2623.960906
974.354471	2623.426544
974.652550	2623.552573
974.950591	2624.366719
975.248595	2623.746657
975.546563	2624.402007
975.844493	2621.362191
976.142386	2622.030144
976.440243	2621.034516
976.738062	2620.837911
977.035845	2621.316821
977.333590	2617.046964
977.631299	2617.268774
977.928971	2614.798609
978.226606	2616.131994
978.524204	2614.637292
978.821765	2616.242900
979.119290	2612.973711
979.416777	2615.827004
979.714228	2615.370780
980.011642	2613.296345
980.309020	2618.196347
980.606360	2616.512601
980.903664	2620.795062
981.200931	2627.900568
981.498162	2634.701084
981.795356	2646.880512
982.092513	2660.910043
982.389633	2677.054338
982.686717	2696.303984
982.983764	2712.140769
983.280775	2726.790362
983.577749	2730.740106
983.874686	2733.903430
984.171587	2726.729868
984.468451	2723.352295
984.765279	2717.623024
985.062070	2710.381407
985.358824	2703.119624
985.655543	2693.002029
985.952224	2683.249917
986.248869	2670.858760
986.545478	2652.942500
986.842050	2642.940850
987.138586	2633.027421
987.435086	2624.018879
987.731549	2613.445059
988.027975	2612.638475
988.324366	2608.008175
988.620719	2605.590942
988.917037	2602.735128
989.213318	2602.757813
989.509563	2595.753130
989.805772	2597.913264
990.101944	2595.942173
990.398080	2594.923860
990.694180	2594.959148
990.990244	2597.225147
991.286271	2594.906216
991.582262	2596.693305
991.878217	2593.887903
992.174136	2597.141968
992.470019	2594.974272
992.765865	2596.741196
993.061676	2596.363109
993.357450	2600.706063
993.653188	2601.605909
993.948890	2602.104984
994.244556	2608.479523
994.540186	2612.434308
994.835780	2618.017386
995.131337	2623.814713
995.426859	2630.441309
995.722345	2638.078657
996.017795	2648.775986
996.313208	2658.676812
996.608586	2664.582524
996.903928	2667.987823
997.199234	2668.050838
997.494504	2668.885149
997.789738	2666.934222
998.084936	2665.429438
998.380099	2660.201761
998.675225	2654.956441
998.970316	2649.338075
999.265371	2644.821201
999.560390	2633.637401
999.855373	2629.990126
1000.150320	2622.015021
1000.445232	2617.719958
1000.740108	2610.566560
1001.034948	2608.686210
1001.329752	2605.170005
1001.624521	2602.379727
1001.919254	2595.967379
1002.213951	2595.667430
1002.508613	2591.629466
1002.803239	2589.514702
1003.097829	2590.732141
1003.392384	2592.075608
1003.686903	2589.522264
1003.981386	2589.013107
1004.275834	2588.435895
1004.570246	2590.845567
1004.864623	2587.838518
1005.158964	2588.592171
1005.453270	2586.328693
1005.747540	2587.412541
1006.041775	2584.700400
1006.335974	2584.856676
1006.630138	2584.413054
1006.924266	2584.234093
1007.218359	2584.886923
1007.512416	2583.183013
1007.806438	2585.055801
1008.100425	2586.207705
1008.394376	2584.408013
1008.688292	2583.515729
1008.982172	2583.447673
1009.276017	2582.008424
1009.569827	2584.009762
1009.863602	2584.803744
1010.157341	2583.926583
1010.451045	2581.554720
1010.744714	2580.959864
1011.038347	2582.938517
1011.331945	2583.561099
1011.625508	2582.910790
1011.919036	2583.737540
1012.212528	2578.391396
1012.505986	2582.910790
1012.799408	2579.457600
1013.092795	2581.852148
1013.386147	2580.821232
1013.679464	2579.387024
1013.972745	2581.524473
1014.265992	2579.034143
1014.559204	2581.448856
1014.852380	2580.727971
1015.145521	2577.806622
1015.438628	2580.054977
1015.731699	2579.709658
1016.024736	2580.153279
1016.317737	2581.494226
1016.610703	2582.842735
1016.903635	2577.899883
1017.196531	2579.036664
1017.489393	2578.852662
1017.782219	2576.105233
1018.075011	2579.003896
1018.367768	2582.520101
1018.660490	2582.631006
1018.953177	2582.631006
1019.245829	2582.631006
