Dividing Wavelength (nm)	Counts (n)	Blue Motor Position (mm): 18.000000	Red Motor Position (mm): 0.000000	
326.493990	2158.609474
326.888308	2158.609474
327.282561	2158.609474
327.676750	2132.163581
328.070874	2131.044445
328.464933	2138.974180
328.858929	2147.145890
329.252859	2160.262973
329.646726	2173.352328
330.040528	2187.459998
330.434265	2207.402802
330.827938	2224.625904
331.221547	2244.162896
331.615091	2264.259456
332.008571	2285.583537
332.401986	2303.845116
332.795338	2325.176759
333.188625	2344.985973
333.581847	2361.815865
333.975006	2384.024668
334.368100	2401.189797
334.761129	2420.139494
335.154095	2437.672627
335.546996	2461.550053
335.939833	2484.376397
336.332606	2500.240908
336.725315	2508.752897
337.117960	2517.950482
337.510540	2525.280320
337.903056	2537.822710
338.295508	2541.187681
338.687896	2552.860472
339.080220	2557.674774
339.472480	2562.852039
339.864676	2567.046279
340.256807	2571.066599
340.648875	2573.680438
341.040879	2574.613051
341.432818	2575.948957
341.824694	2576.994996
342.216506	2572.755386
342.608253	2575.422156
342.999937	2575.212948
343.391557	2573.864440
343.783113	2576.831159
344.174605	2573.834193
344.566033	2567.159705
344.957397	2566.645507
345.348697	2564.850857
345.739934	2563.159550
346.131106	2565.095353
346.522215	2563.373799
346.913260	2560.545711
347.304241	2558.935063
347.695159	2557.125288
348.086012	2553.624207
348.476802	2553.556152
348.867528	2552.137067
349.258191	2550.924669
349.648789	2552.356357
350.039324	2547.267312
350.429796	2548.436860
350.820203	2546.259081
351.210548	2546.183464
351.600828	2546.798485
351.991045	2544.204811
352.381198	2543.703216
352.771288	2544.434184
353.161314	2542.616848
353.551276	2546.218752
353.941175	2542.117773
354.331010	2543.244471
354.720782	2543.103319
355.110490	2546.180943
355.500135	2546.248999
355.889717	2545.137425
356.279235	2543.360418
356.668689	2546.236396
357.058080	2544.265305
357.447408	2542.694986
357.836672	2542.321940
358.225873	2543.423432
358.615010	2542.778165
359.004084	2546.858979
359.393095	2548.220090
359.782043	2550.647406
360.170927	2549.780327
360.559748	2550.735626
360.948505	2547.416026
361.337199	2550.561706
361.725830	2548.857796
362.114398	2553.818292
362.502903	2551.300235
362.891344	2550.009700
363.279722	2552.668908
363.668037	2555.960782
364.056289	2553.576316
364.444478	2554.556821
364.832603	2554.748384
365.220665	2554.829043
365.608665	2554.428271
365.996601	2553.102448
366.384474	2557.263920
366.772284	2555.991029
367.160031	2558.100752
367.547715	2556.842984
367.935336	2557.258879
368.322893	2557.523540
368.710388	2560.439847
369.097820	2558.763663
369.485189	2558.521688
369.872495	2556.963972
370.259738	2560.333983
370.646918	2558.143602
371.034035	2559.441699
371.421090	2560.767522
371.808081	2557.664692
372.195010	2560.616288
372.581875	2560.863304
372.968678	2560.631411
373.355418	2559.991184
373.742096	2562.708366
374.128710	2561.327090
374.515262	2564.326577
374.901751	2563.462019
375.288177	2561.017059
375.674540	2561.690053
376.060841	2559.643345
376.447079	2561.473284
376.833254	2561.811041
377.219367	2559.532439
377.605417	2558.614949
377.991404	2559.156873
378.377329	2561.735424
378.763191	2558.650238
379.148991	2562.075702
379.534727	2562.491597
379.920402	2563.956052
380.306013	2564.404715
380.691563	2564.873542
381.077049	2565.160888
381.462474	2564.992009
381.847835	2564.994530
382.233134	2565.060065
382.618371	2567.016032
383.003545	2565.780950
383.388657	2566.040569
383.773706	2569.095508
384.158693	2566.587534
384.543618	2569.776064
384.928480	2565.415466
385.313280	2568.145251
385.698017	2567.807493
386.082692	2569.047617
386.467305	2569.478636
386.851856	2569.849161
387.236344	2569.133317
387.620770	2569.965107
388.005133	2568.755230
388.389435	2567.305899
388.773674	2570.297823
389.157851	2568.687175
389.541965	2571.205231
389.926018	2570.411249
390.310008	2570.983420
390.693936	2570.227247
391.077802	2569.186249
391.461606	2571.805128
391.845348	2570.149109
392.229027	2572.130283
392.612645	2571.174984
392.996200	2570.660787
393.379694	2573.675397
393.763125	2571.210272
394.146494	2574.555078
394.529801	2573.219172
394.913047	2572.906621
395.296230	2574.648339
395.679351	2572.717577
396.062410	2575.633885
396.445408	2574.643298
396.828343	2572.805797
397.211217	2571.467371
397.594028	2573.808987
397.976778	2569.372772
398.359466	2572.704974
398.742092	2572.654563
399.124656	2574.683627
399.507158	2574.008113
399.889598	2575.369224
400.271977	2575.190263
400.654294	2576.805953
401.036549	2575.918710
401.418742	2577.146231
401.800874	2575.301169
402.182944	2575.959039
402.564952	2575.664132
402.946898	2577.594894
403.328783	2575.684296
403.710606	2577.383165
404.092367	2576.395099
404.474067	2574.855027
404.855705	2578.535069
405.237282	2577.458782
405.618797	2579.999524
406.000250	2579.107240
406.381642	2578.283011
406.762972	2577.494071
407.144240	2578.782085
407.525447	2580.231417
407.906593	2576.006930
408.287677	2578.860223
408.668700	2578.769482
409.049661	2578.615727
409.430560	2576.805953
409.811399	2580.667477
410.192176	2578.961046
410.572891	2580.601942
410.953545	2578.923238
411.334138	2580.249061
411.714669	2581.930286
412.095139	2580.632189
412.475547	2579.114802
412.855894	2583.805595
413.236180	2581.597570
413.616405	2581.519432
413.996568	2583.200657
414.376670	2585.035637
414.756711	2579.465162
415.136691	2584.337437
415.516609	2578.845100
415.896466	2584.803744
416.276262	2583.309042
416.655997	2579.767631
417.035670	2577.461303
417.415283	2580.917014
417.794834	2578.608166
418.174324	2581.189236
418.553753	2583.750143
418.933121	2586.651327
419.312428	2582.915832
419.691674	2583.034299
420.070859	2584.234093
420.449983	2582.194947
420.829045	2584.246696
421.208047	2583.702252
421.586988	2583.185533
421.965867	2585.880030
422.344686	2584.443301
422.723444	2586.968919
423.102141	2583.482961
423.480777	2586.139649
423.859352	2584.806264
424.237866	2587.004207
424.616319	2586.162335
424.994712	2584.569330
425.373044	2582.106726
425.751314	2584.239134
426.129524	2585.496902
426.507673	2586.956316
426.885762	2584.171079
427.263789	2586.840370
427.641756	2587.208374
428.019662	2586.621080
428.397508	2584.163517
428.775292	2585.154104
429.153016	2587.364650
429.530679	2588.221646
429.908282	2588.352716
430.285824	2586.711820
430.663305	2586.555545
431.040726	2585.953127
431.418086	2586.336254
431.795385	2588.236769
432.172624	2586.479927
432.549802	2586.769794
432.926920	2585.418764
433.303977	2587.503282
433.680974	2586.905905
434.057910	2588.100658
434.434786	2589.776842
434.811601	2589.055957
435.188355	2590.177614
435.565050	2587.727613
435.941683	2588.763570
436.318257	2584.327355
436.694770	2586.091758
437.071222	2587.082345
437.447614	2588.206522
437.823946	2584.392890
438.200218	2589.154259
438.576429	2589.033272
438.952580	2589.809609
439.328670	2592.322625
439.704700	2590.757346
440.080670	2591.800865
440.456580	2590.429671
440.832429	2589.292891
441.208218	2590.376739
441.583947	2590.865731
441.959616	2590.356575
442.335224	2588.844228
442.710773	2592.660382
443.086261	2591.785742
443.461689	2590.769949
443.837057	2592.466297
444.212365	2591.964703
444.587612	2591.195927
444.962800	2590.132243
445.337927	2590.520412
445.712995	2590.152408
446.088002	2593.472008
446.462949	2593.371185
446.837837	2592.403283
447.212664	2592.415886
447.587431	2593.918150
447.962139	2592.589806
448.336786	2595.957297
448.711374	2593.076277
449.085901	2594.109714
449.460369	2593.923191
449.834776	2594.891092
450.209124	2592.317583
450.583412	2594.298757
450.957640	2593.744230
451.331808	2594.437389
451.705917	2594.006370
452.079965	2594.215578
452.453954	2594.618870
452.827883	2593.978644
453.201752	2597.041145
453.575562	2595.385126
453.949311	2595.523757
454.323001	2595.032245
454.696632	2590.903540
455.070202	2596.201792
455.443713	2597.794797
455.817164	2591.649631
456.190556	2591.526122
456.563888	2590.974116
456.937160	2590.477562
457.310373	2594.664241
457.683526	2595.183479
458.056619	2595.725403
458.429653	2597.336052
458.802628	2597.830085
459.175542	2596.816813
459.548398	2596.050558
459.921194	2596.894951
460.293930	2597.003336
460.666607	2596.567276
461.039224	2599.528954
461.411782	2597.920826
461.784280	2598.235898
462.156719	2599.407966
462.529099	2597.678851
462.901419	2599.576845
463.273680	2597.502410
463.645882	2598.089705
464.018024	2596.264807
464.390106	2598.782863
464.762130	2597.404108
465.134094	2600.522061
465.505999	2600.431321
465.877845	2599.975096
466.249631	2602.238574
466.621358	2603.645056
466.993026	2605.858123
467.364634	2603.022474
467.736184	2602.415015
468.107674	2600.239757
468.479105	2599.899479
468.850477	2600.471650
469.221790	2600.748913
469.593043	2602.591455
469.964238	2603.801332
470.335373	2601.104315
470.706449	2603.443410
471.077467	2603.544233
471.448425	2605.258225
471.819324	2604.010540
472.190164	2605.590942
472.560945	2603.766044
472.931667	2604.819645
473.302330	2603.153544
473.672934	2605.550612
474.043479	2604.678493
474.413965	2606.626899
474.784393	2601.076588
475.154761	2604.789398
475.525070	2600.501897
475.895321	2603.085488
476.265513	2601.429469
476.635645	2606.737804
477.005719	2606.989862
477.375734	2608.045983
477.745691	2607.683020
478.115588	2609.565891
478.485427	2610.236365
478.855207	2612.971191
479.224928	2612.043618
479.594591	2617.422530
479.964194	2615.484206
480.333739	2614.614607
480.703226	2616.096706
481.072653	2613.124946
481.442022	2615.045626
481.811333	2618.289608
482.180584	2618.566872
482.549777	2616.021089
482.918912	2616.401696
483.287988	2617.830863
483.657005	2619.781790
484.025964	2616.522684
484.394864	2618.110647
484.763706	2617.614093
485.132489	2618.448404
485.501213	2619.638117
485.869879	2621.079887
486.238487	2617.236007
486.607036	2618.584516
486.975527	2620.608539
487.343959	2621.039557
487.712333	2621.528549
488.080648	2619.113837
488.448905	2623.552573
488.817104	2621.455453
489.185244	2623.814713
489.553326	2625.682460
489.921350	2627.620784
490.289315	2630.224540
490.657222	2630.214457
491.025070	2630.375774
491.392861	2631.961217
491.760593	2630.534571
492.128267	2632.530868
492.495883	2632.059520
492.863440	2631.326032
493.230939	2630.474077
493.598380	2628.603809
493.965763	2624.210443
494.333088	2626.569703
494.700354	2629.486011
495.067563	2627.744292
495.434713	2628.359313
495.801805	2635.197638
496.168839	2631.968779
496.535815	2632.911475
496.902733	2634.701084
497.269593	2635.457257
497.636395	2634.635549
498.003139	2636.568832
498.369825	2636.722587
498.736453	2636.805766
499.103023	2638.925571
499.469535	2640.069913
499.835989	2640.165695
500.202385	2642.933289
500.568723	2641.536889
500.935003	2646.797333
501.301226	2643.792805
501.667390	2650.298414
502.033497	2651.422592
502.399546	2651.074752
502.765537	2649.106182
503.131470	2652.816471
503.497345	2653.491985
503.863163	2656.819147
504.228923	2657.257727
504.594625	2660.272337
504.960269	2661.499858
505.325856	2665.439520
505.691385	2666.104952
506.056856	2668.421362
506.422270	2667.919768
506.787625	2671.824141
507.152924	2674.455624
507.518164	2678.254133
507.883347	2677.243382
508.248472	2684.847962
508.613540	2687.262675
508.978550	2691.353571
509.343503	2692.084539
509.708398	2701.080478
510.073236	2701.375385
510.438016	2705.801518
510.802738	2706.986189
511.167403	2714.558002
511.532010	2718.515308
511.896561	2723.241390
512.261053	2731.725652
512.625488	2731.463512
512.989866	2737.465006
513.354186	2741.606313
513.718449	2745.845924
514.082655	2755.570310
514.446803	2762.083480
514.810894	2771.568411
515.174927	2775.709719
515.538904	2781.764145
515.902822	2790.807975
516.266684	2794.293933
516.630488	2806.319605
516.994235	2814.566933
517.357925	2825.675116
517.721558	2836.354800
518.085133	2845.902745
518.448651	2852.471369
518.812112	2862.788090
519.175516	2873.331663
519.538863	2884.749877
519.902152	2896.432751
520.265385	2907.664442
520.628560	2923.775969
520.991678	2933.470108
521.354739	2947.224897
521.717743	2960.231073
522.080690	2972.786067
522.443580	2991.617297
522.806413	3008.134638
523.169189	3021.501257
523.531908	3037.874925
523.894569	3051.170968
524.257174	3065.946590
524.619722	3090.736464
524.982213	3102.890686
525.344647	3123.977833
525.707025	3137.861170
526.069345	3163.223215
526.431608	3182.170392
526.793815	3204.543033
527.155964	3218.685990
527.518057	3240.040318
527.880093	3258.006990
528.242072	3286.204684
528.603995	3306.752427
528.965860	3325.538287
529.327669	3350.313038
529.689421	3375.997716
530.051117	3397.994791
530.412755	3424.975047
530.774337	3450.788275
531.135862	3473.907006
531.497331	3504.257273
531.858743	3521.417361
532.220098	3558.845408
532.581396	3581.023964
532.942638	3605.178652
533.303824	3638.546050
533.664953	3671.084177
534.026025	3696.904967
534.387040	3739.434662
534.747999	3771.672841
535.108902	3807.447389
535.469748	3824.922549
535.830537	3861.909494
536.191270	3899.788724
536.551947	3926.421140
536.912567	3966.440340
537.273131	4009.194366
537.633638	4029.686656
537.994089	4076.534099
538.354483	4100.920681
538.714821	4159.088034
539.075103	4211.427814
539.435328	4241.137854
539.795497	4278.933905
540.155609	4319.442097
540.515665	4374.062999
540.875665	4397.940424
541.235609	4454.111481
541.595496	4490.846369
541.955328	4566.229263
542.315102	4585.478909
542.674821	4616.852530
543.034483	4666.853214
543.394090	4711.013722
543.753640	4755.522069
544.113134	4845.040359
544.472571	4849.141337
544.831953	4951.696051
545.191278	4966.597701
545.550548	5001.290922
545.909761	5074.601902
546.268918	5137.134895
546.628019	5204.905647
546.987064	5230.421447
547.346053	5244.052727
547.704986	5342.919836
548.063863	5366.779617
548.422684	5430.804792
548.781449	5478.801617
549.140158	5559.656684
549.498811	5599.577581
549.857408	5619.832937
550.215949	5725.384617
550.574434	5780.411331
550.932864	5813.607329
551.291237	5926.138486
551.649555	5949.652948
552.007817	6028.788981
552.366022	6055.287807
552.724173	6126.834382
553.082267	6217.401232
553.440305	6305.886085
553.798288	6308.068904
554.156215	6390.524537
554.514086	6463.487677
554.871902	6502.112998
555.229661	6569.682104
555.587365	6615.286902
555.945014	6679.574217
556.302606	6735.820891
556.660143	6816.081101
557.017625	6887.388222
557.375050	6935.523680
557.732421	7030.947681
558.089735	7097.395130
558.446994	7152.527709
558.804197	7257.474449
559.161345	7315.767832
559.518437	7297.196221
559.875474	7400.943167
560.232455	7478.279508
560.589381	7567.886018
560.946251	7592.872497
561.303065	7736.500011
561.659825	7777.668594
562.016528	7802.234137
562.373177	7837.859971
562.729770	7956.569062
563.086307	7960.864125
563.442789	8077.919717
563.799216	8156.448291
564.155587	8186.110441
564.511904	8264.760002
564.868164	8325.604209
565.224370	8426.265969
565.580520	8458.191596
565.936615	8552.138539
566.292654	8569.908606
566.648638	8676.987755
567.004567	8737.181653
567.360441	8794.910426
567.716260	8836.933484
568.072023	8944.952808
568.427732	8989.688008
568.783385	8991.177669
569.138982	9112.886246
569.494525	9176.316564
569.850013	9202.936377
570.205445	9255.142566
570.560823	9319.117329
570.916145	9353.709727
571.271412	9414.989993
571.626625	9445.420918
571.981782	9495.434206
572.336884	9509.718315
572.691931	9626.647878
573.046923	9612.174726
573.401860	9644.974993
573.756743	9696.977016
574.111570	9770.703891
574.466342	9813.583945
574.821059	9892.495647
575.175722	9866.727789
575.530330	9922.089741
575.884882	9927.362788
576.239380	9982.132404
576.593823	10017.317137
576.948211	10055.229134
577.302544	10026.915494
577.656823	10095.041647
578.011047	10175.029635
578.365216	10181.880563
578.719330	10190.332058
579.073389	10211.520027
579.427394	10260.424261
579.781344	10287.737232
580.135239	10283.701788
580.489080	10337.498462
580.842866	10298.248038
581.196597	10409.506303
581.550273	10438.722310
581.903895	10448.013157
582.257463	10562.273429
582.610975	10494.953861
582.964434	10577.666593
583.317837	10549.047962
583.671186	10558.411906
584.024481	10631.599377
584.377721	10582.768240
584.730906	10676.430358
585.084037	10730.637886
585.437113	10700.398524
585.790135	10758.419684
586.143103	10714.070133
586.496016	10753.554971
586.848874	10801.682867
587.201679	10823.848820
587.554428	10752.982800
587.907124	10825.134314
588.259765	10807.946500
588.612352	10888.010106
588.964884	10797.851590
589.317362	10875.077026
589.669786	10895.639892
590.022155	10881.481812
590.374470	10999.971612
590.726731	10927.704151
591.078937	10854.367966
591.431090	10895.894470
591.783188	10871.694411
592.135232	10822.666670
592.487222	10908.487273
592.839157	10950.832965
593.191038	10909.873590
593.542866	10882.066585
593.894639	10778.150761
594.246358	10864.883813
594.598022	10885.423994
594.949633	10822.880919
595.301190	10828.688328
595.652692	10812.095370
596.004141	10915.471791
596.355535	10736.684750
596.706876	10733.397917
597.058162	10722.168747
597.409395	10829.368884
597.760573	10866.562517
598.111698	10791.890425
598.462768	10806.986161
598.813785	10834.430202
599.164748	10741.919988
599.515657	10833.704276
599.866511	10726.131094
600.217312	10862.688390
600.568060	10659.648357
600.918753	10828.045581
601.269392	10833.162352
601.619978	10760.330282
601.970510	10809.819289
602.320988	10863.424398
602.671412	10934.902919
603.021783	10881.002902
603.372100	10823.548872
603.722363	10846.481080
604.072572	10866.058401
604.422728	10893.636033
604.772830	10849.838489
605.122878	10858.703358
605.472872	10849.155413
605.822813	10910.838971
606.172701	10878.058868
606.522534	10937.151273
606.872314	10999.714513
607.222041	10941.859711
607.571714	11024.509428
607.921333	10909.820658
608.270899	10970.286778
608.620411	11030.863803
608.969870	10988.142545
609.319276	10973.669392
609.668627	11003.631490
610.017926	11082.089488
610.367171	11116.271031
610.716362	11118.479057
611.065500	11098.044740
611.414585	11119.464602
611.763616	11196.964781
612.112594	11169.568630
612.461518	11195.616272
612.810389	11248.366906
613.159207	11190.451610
613.507971	11189.488750
613.856682	11297.419854
614.205340	11256.263874
614.553945	11393.617672
614.902496	11276.698191
615.250994	11347.632267
615.599439	11337.963333
615.947830	11375.252748
616.296169	11346.283758
616.644454	11364.275636
616.992686	11386.474357
617.340864	11481.081691
617.688990	11365.276305
618.037063	11508.528253
618.385082	11479.302164
618.733048	11519.379337
619.080961	11513.927329
619.428821	11503.333344
619.776628	11509.680157
620.124382	11470.938890
620.472083	11489.260963
620.819731	11510.731238
621.167326	11433.959506
621.514868	11421.553226
621.862357	11338.749753
622.209793	11326.361118
622.557176	11257.796384
622.904506	11198.643485
623.251783	11125.700510
623.599007	11066.920656
623.946179	11024.990859
624.293297	10999.744760
624.640363	10869.872034
624.987376	10859.212514
625.334336	10793.425457
625.681243	10723.988604
626.028097	10685.995948
626.374899	10659.227421
626.721647	10634.843360
627.068343	10590.944992
627.414987	10530.723368
627.761577	10462.282143
628.108115	10514.765596
628.454600	10384.723991
628.801032	10401.258976
629.147412	10388.255319
629.493739	10364.957627
629.840014	10283.369072
630.186236	10329.349437
630.532405	10232.430733
630.878521	10265.455332
631.224585	10224.601821
631.570597	10147.676334
631.916556	10162.187296
632.262462	10144.722218
632.608316	10122.672211
632.954117	10108.607392
633.299866	10092.185833
633.645562	10069.188089
633.991206	9963.283529
634.336797	9873.218275
634.682336	9862.604125
635.027823	9810.428183
635.373257	9775.394684
635.718639	9711.019150
636.063968	9677.979427
636.409245	9560.578516
636.754470	9551.083503
637.099642	9495.003187
637.444762	9403.105473
637.789829	9410.553778
638.134845	9335.052417
638.479808	9315.868306
638.824719	9285.202967
639.169577	9200.733393
639.514383	9194.570582
639.859137	9130.313515
640.203839	9166.617384
640.548489	9088.955889
640.893086	9091.395807
641.237632	9032.242908
641.582125	9032.530254
641.926566	9021.890898
642.270955	9005.544957
642.615292	8996.914502
642.959576	8981.118046
643.303809	8973.362231
643.647990	8986.590219
643.992118	8962.065005
644.336195	8936.498793
644.680219	8931.939070
645.024192	8972.490111
645.368112	9040.772540
645.711981	9021.396865
646.055797	9165.462960
646.399562	9123.069377
646.743274	9276.653170
647.086935	9347.980456
647.430544	9327.525974
647.774101	9349.618831
648.117606	9374.214620
648.461059	9437.095453
648.804460	9374.204538
649.147810	9256.783462
649.491108	9223.494203
649.834354	9163.088577
650.177548	9013.925875
650.520690	8926.910519
650.863781	8915.386441
651.206820	8893.593533
651.549807	8797.007546
651.892742	8712.487561
652.235626	8677.156634
652.578458	8637.381930
652.921238	8533.370323
653.263967	8570.216117
653.606644	8501.868153
653.949269	8480.526428
654.291843	8406.338288
654.634365	8467.240467
654.976836	8392.162563
655.319255	8391.852532
655.661622	8376.260243
656.003938	8335.310950
656.346203	8301.525137
656.688416	8328.991864
657.030577	8292.040206
657.372687	8255.476718
657.714746	8281.829349
658.056753	8306.891446
658.398708	8204.936630
658.740612	8197.868932
659.082465	8237.091629
659.424266	8202.988224
659.766016	8212.422743
660.107715	8183.791510
660.449362	8210.970891
660.790958	8202.191721
661.132503	8194.115793
661.473996	8192.134619
661.815438	8202.925209
662.156829	8230.182728
662.498168	8186.528856
662.839456	8176.960746
663.180693	8202.232051
663.521879	8218.671253
663.863013	8199.653500
664.204097	8197.649642
664.545129	8276.296683
664.886110	8269.798636
665.227040	8270.343080
665.567918	8285.161552
665.908746	8298.296278
666.249522	8316.885533
666.590248	8317.213208
666.930922	8324.273344
667.271545	8314.687590
667.612118	8337.831527
667.952639	8299.102863
668.293109	8301.361300
668.633528	8277.478833
668.973896	8268.795446
669.314213	8267.696474
669.654480	8225.018066
669.994695	8220.518836
670.334859	8199.852626
670.674973	8184.330913
671.015035	8208.233544
671.355047	8201.082668
671.695008	8182.211108
672.034918	8147.089389
672.374777	8168.547061
672.714585	8141.009758
673.054342	8170.150147
673.394049	8133.488356
673.733705	8178.957043
674.073310	8126.077860
674.412864	8136.316443
674.752368	8070.942760
675.091820	8127.141543
675.431223	8055.582365
675.770574	8010.269953
676.109875	7975.347360
676.449125	7930.269362
676.788324	7920.055985
677.127473	7833.416194
677.466571	7822.975964
677.805619	7760.145543
678.144616	7760.498424
678.483562	7740.943788
678.822458	7695.114659
679.161303	7676.767379
679.500098	7664.313209
679.838842	7644.572050
680.177535	7651.443143
680.516179	7686.516971
680.854771	7705.859878
681.193314	7826.227509
681.531805	7977.447001
681.870247	8095.558715
682.208638	8248.015810
682.546978	8325.082449
682.885268	8351.498095
683.223508	8288.697921
683.561697	8233.172132
683.899836	8198.514200
684.237925	8107.720498
684.575963	8085.025224
684.913951	8003.484560
685.251889	8024.317128
685.589776	8015.865634
685.927614	8002.516659
686.265401	8029.867439
686.603137	8030.893314
686.940824	8098.482584
687.278460	8157.958117
687.616046	8167.276690
687.953582	8277.219214
688.291068	8259.620546
688.628504	8314.952251
688.965889	8314.052405
689.303224	8277.355325
689.640510	8229.033345
689.977745	8126.851677
690.314930	7999.791915
690.652065	7933.702388
690.989150	7815.230232
691.326185	7671.471647
691.663170	7559.663896
692.000105	7437.494053
692.336990	7324.667989
692.673825	7247.039261
693.010610	7154.264386
693.347345	7058.941208
693.684030	6941.658764
694.020665	6899.489512
694.357251	6786.590351
694.693786	6771.398834
695.030272	6730.510035
695.366707	6640.038968
695.703093	6589.970228
696.039429	6584.745072
696.375716	6537.340581
696.711952	6525.723242
697.048139	6496.295507
697.384276	6461.425846
697.720363	6479.110213
698.056400	6454.017870
698.392388	6422.392191
698.728326	6424.501914
699.064214	6400.470734
699.400053	6391.005967
699.735842	6335.286094
700.071581	6293.434435
700.407270	6244.242856
700.742910	6220.408280
701.078501	6176.071332
701.414042	6136.717565
701.749533	6082.058854
702.084974	6021.396129
702.420366	6059.814763
702.755709	5985.518237
703.091002	5939.343789
703.426246	5940.657009
703.761440	5931.572850
704.096584	5886.235233
704.431679	5874.741402
704.766725	5854.725501
705.101721	5845.321228
705.436668	5862.556933
705.771565	5802.231966
706.106413	5855.872363
706.441212	5851.287434
706.775961	5869.148242
707.110661	5879.858173
707.445311	5940.846053
707.779913	5908.570065
708.114465	5946.802176
708.448967	5989.833465
708.783421	6102.591474
709.117825	6147.097300
709.452180	6180.149626
709.786485	6241.734882
710.120742	6374.929728
710.454949	6377.707404
710.789107	6455.600792
711.123216	6576.356592
711.457275	6605.353308
711.791286	6713.861624
712.125247	6735.999852
712.459159	6701.331837
712.793023	6829.760272
713.126837	6662.484705
713.460602	6717.645010
713.794318	6679.107910
714.127985	6627.680579
714.461602	6477.832281
714.795171	6483.778322
715.128691	6317.004350
715.462162	6225.968673
715.795584	6153.250029
716.128957	6112.683864
716.462281	6043.183996
716.795556	6014.330952
717.128782	5923.796870
717.461960	5824.052600
717.795088	5814.824768
718.128167	5738.481534
718.461198	5660.431870
718.794180	5639.611904
719.127113	5579.622174
719.459997	5547.003388
719.792833	5482.925281
720.125619	5481.551567
720.458357	5420.319192
720.791046	5390.999841
721.123686	5362.620665
721.456278	5323.433256
721.788821	5308.738292
722.121315	5267.244555
722.453761	5274.150936
722.786158	5257.205097
723.118506	5263.065438
723.450805	5239.616511
723.783056	5263.395634
724.115259	5242.709259
724.447412	5233.141149
724.779518	5272.631028
725.111574	5278.982882
725.443582	5317.250281
725.775542	5311.616791
726.107453	5395.554523
726.439315	5370.701635
726.771129	5434.104227
727.102895	5501.333054
727.434612	5545.259148
727.766281	5576.731072
728.097901	5630.232838
728.429473	5645.845291
728.760996	5649.928626
729.092471	5678.824520
729.423897	5663.980842
729.755276	5636.841790
730.086606	5643.690198
730.417887	5736.263427
730.749120	5830.142314
731.080305	5871.048757
731.411442	5943.439726
731.742530	5963.919414
732.073570	5992.273383
732.404562	6051.822013
732.735506	6048.020983
733.066401	6022.240523
733.397249	5957.459175
733.728048	5863.653384
734.058798	5718.183328
734.389501	5592.237661
734.720156	5506.006204
735.050762	5406.070370
735.381320	5330.221169
735.711831	5272.215133
736.042293	5194.223442
736.372707	5191.304613
736.703073	5147.161750
737.033391	5172.375081
737.363661	5157.642309
737.693883	5174.131923
738.024056	5196.106312
738.354182	5222.501794
738.684260	5270.843939
739.014290	5314.525537
739.344272	5346.703222
739.674207	5394.828597
740.004093	5426.832362
740.333931	5437.411224
740.663722	5455.574501
740.993464	5468.343744
741.323159	5446.704591
741.652806	5405.140277
741.982405	5372.748343
742.311956	5318.986958
742.641460	5304.723013
742.970915	5257.104274
743.300323	5193.192526
743.629683	5164.664636
743.958996	5111.984578
744.288260	5063.753339
744.617477	5003.619935
744.946647	4987.838603
745.275768	4935.997898
745.604842	4902.184358
745.933869	4863.798492
746.262847	4860.476372
746.591778	4853.070917
746.920662	4826.130991
747.249498	4821.873736
747.578286	4832.805478
747.907027	4862.202967
748.235720	4900.528339
748.564365	4912.450668
748.892963	4895.623296
749.221514	4912.760699
749.550017	4891.688676
749.878473	4887.068458
750.206881	4846.988765
750.535242	4840.140357
750.863555	4820.351308
751.191821	4799.158297
751.520039	4806.762877
751.848210	4789.625475
752.176334	4792.284684
752.504411	4774.559987
752.832440	4745.512858
753.160421	4758.846710
753.488356	4735.009614
753.816243	4721.688365
754.144082	4688.535217
754.471875	4675.909647
754.799620	4667.392618
755.127318	4656.586904
755.454969	4654.575484
755.782572	4648.518538
756.110129	4652.478364
756.437638	4634.814161
756.765100	4626.319817
757.092515	4629.836022
757.419882	4635.159480
757.747203	4632.802741
758.074477	4646.716325
758.401703	4633.813492
758.728882	4664.584695
759.056014	4679.204041
759.383099	4696.744736
759.710138	4726.590887
760.037129	4748.018312
760.364073	4761.500878
760.690970	4757.026854
761.017820	4758.541720
761.344623	4789.890136
761.671379	4852.324826
761.998088	4940.902940
762.324751	5174.172252
762.651366	5632.128312
762.977935	6321.153219
763.304456	6877.298353
763.630931	7180.987543
763.957359	7113.181503
764.283740	6824.585528
764.610074	6496.739128
764.936362	6099.438232
765.262602	5785.069358
765.588796	5435.553558
765.914943	5186.376886
766.241044	4961.753153
766.567097	4793.282832
766.893104	4644.878825
767.219064	4548.635636
767.544978	4448.674596
767.870845	4372.895972
768.196665	4321.209021
768.522438	4271.256228
768.848165	4233.384560
769.173846	4190.507026
769.499479	4163.362933
769.825066	4127.951348
770.150607	4084.673042
770.476101	4067.487748
770.801548	4045.586455
771.126949	4018.074358
771.452303	3999.215402
771.777611	3958.467755
772.102872	3958.296356
772.428087	3934.897840
772.753256	3907.526896
773.078378	3889.091396
773.403453	3857.057384
773.728482	3832.549814
774.053465	3815.404850
774.378401	3797.995225
774.703291	3773.560753
775.028135	3753.438987
775.352932	3739.356524
775.677683	3719.958164
776.002388	3706.062223
776.327046	3706.936863
776.651658	3685.534645
776.976224	3668.414886
777.300743	3668.387160
777.625216	3654.259326
777.949643	3644.066113
778.274024	3643.504025
778.598359	3620.919655
778.922647	3622.812609
779.246889	3616.755662
779.571086	3615.336577
779.895236	3616.780868
780.219339	3615.802884
780.543397	3614.865230
780.867409	3628.793938
781.191374	3627.589102
781.515294	3623.218422
781.839167	3639.050165
782.162995	3634.445071
782.486776	3628.244452
782.810511	3621.322948
783.134201	3607.968931
783.457844	3607.575721
783.781441	3597.521140
784.104993	3589.286415
784.428498	3585.414809
784.751958	3580.897935
785.075372	3578.372317
785.398739	3563.768094
785.722061	3573.182449
786.045337	3569.504927
786.368568	3596.923763
786.691752	3592.737085
787.014891	3642.296668
787.337983	3680.783357
787.661030	3773.406998
787.984031	3869.609857
788.306987	3943.019139
788.629897	3990.758866
788.952760	4003.207996
789.275579	3985.001868
789.598351	3935.507820
789.921078	3884.604769
790.243759	3821.875171
790.566395	3775.753655
790.888984	3723.650809
791.211529	3691.808361
791.534027	3647.531907
791.856480	3608.662090
792.178888	3591.277671
792.501249	3566.792787
792.823566	3539.951163
793.145836	3534.272303
793.468062	3520.635982
793.790241	3505.255422
794.112375	3510.626771
794.434464	3532.633928
794.756507	3534.221892
795.078505	3550.502298
795.400457	3589.593925
795.722364	3642.805825
796.044226	3683.825694
796.366042	3732.455184
796.687812	3724.480079
797.009538	3749.484202
797.331218	3741.614961
797.652852	3734.169177
797.974442	3714.070096
798.295986	3702.162891
798.617484	3673.705577
798.938938	3649.871002
799.260346	3632.756285
799.581709	3598.163887
799.903026	3587.673246
800.224299	3571.052562
800.545526	3540.140206
800.866708	3522.715458
801.187845	3507.929754
801.508936	3487.082062
801.829983	3478.113849
802.150984	3448.169395
802.471940	3441.842747
802.792851	3434.500307
803.113717	3426.683998
803.434538	3414.549940
803.755314	3409.032398
804.076045	3403.093918
804.396731	3391.128740
804.717372	3389.651682
805.037967	3391.199316
805.358518	3392.938514
805.679024	3406.116090
805.999485	3402.854463
806.319901	3408.873601
806.640272	3410.209507
806.960598	3422.267947
807.280879	3421.758790
807.601115	3432.637600
807.921306	3424.382711
808.241453	3429.580141
808.561554	3432.572065
808.881611	3429.469235
809.201623	3431.047116
809.521590	3420.276691
809.841513	3419.800302
810.161390	3427.823298
810.481223	3403.817324
810.801011	3405.395205
811.120755	3403.199783
811.440453	3388.814850
811.760107	3388.535066
812.079716	3375.634753
812.399281	3367.616798
812.718801	3365.328114
813.038276	3358.053729
813.357707	3352.064838
813.677093	3359.974409
813.996434	3344.225844
814.315731	3351.953933
814.634983	3349.599714
814.954191	3352.470651
815.273354	3370.064278
815.592473	3379.327398
815.911547	3397.183165
816.230577	3410.481729
816.549562	3438.686985
816.868502	3456.406641
817.187399	3475.772233
817.506250	3505.336080
817.825058	3517.321423
818.143821	3557.701066
818.462539	3599.923250
818.781213	3658.463649
819.099843	3741.483891
819.418429	3890.192888
819.736970	4041.843399
820.055466	4229.596133
820.373919	4468.347699
820.692327	4803.246673
821.010691	5313.739117
821.329011	6380.946345
821.647286	8111.478678
821.965517	10262.223953
822.283704	11869.676515
822.601847	12932.303855
822.919945	12532.225283
823.237999	11859.100174
823.556010	10971.168980
823.873976	10019.484833
824.191897	9065.035614
824.509775	8299.543964
824.827609	7497.715677
825.145398	6957.780374
825.463144	6575.282826
825.780845	6448.381860
826.098502	6515.426686
826.416116	6896.490025
826.733685	7390.971765
827.051210	7668.459558
827.368692	7579.863800
827.686129	7142.712582
828.003522	6594.356031
828.320872	6033.343664
828.638177	5577.668727
828.955439	5211.456626
829.272656	4878.836254
829.589830	4596.171196
829.906960	4337.817103
830.224046	4129.289774
830.541088	3959.034885
830.858086	3845.364427
831.175041	3746.751897
831.491952	3705.600958
831.808819	3687.616641
832.125642	3721.805747
832.442421	3826.800378
832.759157	4041.228378
833.075849	4412.080861
833.392497	4872.174369
833.709101	5255.806177
834.025662	5366.404051
834.342179	5238.131892
834.658653	4969.924863
834.975083	4698.451167
835.291469	4461.496771
835.607811	4235.302719
835.924110	4080.199018
836.240366	3921.057352
836.556578	3760.645317
836.872746	3626.230511
837.188871	3517.412164
837.504952	3416.914242
837.820990	3349.516535
838.136984	3293.436219
838.452935	3262.977568
838.768842	3248.065835
839.084706	3281.702934
839.400526	3417.418357
839.716303	3640.005464
840.032037	3849.888863
840.347727	3917.682300
840.663373	3823.243844
840.978977	3678.824869
841.294537	3544.904097
841.610054	3438.749999
841.925527	3363.614122
842.240957	3300.524082
842.556344	3236.259452
842.871687	3180.010258
843.186987	3116.418622
843.502244	3062.684964
843.817458	3026.151722
844.132629	2990.099910
844.447756	2974.154740
844.762840	2950.869651
845.077881	2934.634615
845.392879	2918.263468
845.707833	2906.691499
846.022745	2896.563821
846.337613	2894.343193
846.652438	2885.828684
846.967221	2880.396841
847.281960	2871.708412
847.596656	2869.205479
847.911309	2863.115765
848.225919	2859.130733
848.540485	2856.872296
848.855009	2851.722757
849.169490	2846.729495
849.483928	2846.081706
849.798323	2843.024247
850.112675	2837.012671
850.426984	2841.332939
850.741251	2839.024091
851.055474	2836.271621
851.369654	2832.712566
851.683792	2829.511434
851.997887	2834.406394
852.311938	2831.303564
852.625947	2832.410097
852.939914	2830.643173
853.253837	2834.257680
853.567718	2831.981599
853.881555	2830.154181
854.195350	2833.793894
854.509103	2829.798779
854.822812	2828.374653
855.136479	2829.337514
855.450103	2828.926660
855.763685	2829.554283
856.077224	2828.460353
856.390720	2832.037052
856.704173	2831.880776
857.017584	2833.720797
857.330953	2834.802125
857.644278	2840.052486
857.957561	2841.688341
858.270802	2843.861078
858.584000	2841.763958
858.897155	2841.118690
859.210268	2839.392095
859.523339	2835.039059
859.836367	2836.211127
860.149352	2833.642659
860.462295	2835.502845
860.775195	2828.077225
861.088054	2826.973213
861.400869	2825.566731
861.713642	2826.821978
862.026373	2828.530929
862.339062	2832.029490
862.651708	2834.449244
862.964312	2839.737414
863.276873	2837.539471
863.589392	2851.112778
863.901869	2852.045391
864.214303	2864.083667
864.526696	2868.517362
864.839045	2877.291490
865.151353	2883.313148
865.463619	2883.169475
865.775842	2885.248951
866.088023	2889.168448
866.400162	2888.268602
866.712258	2891.033675
867.024313	2891.925959
867.336325	2891.258007
867.648296	2898.166908
867.960224	2896.445354
868.272110	2896.556259
868.583954	2898.008112
868.895755	2901.229409
869.207515	2899.802762
869.519233	2906.189904
869.830909	2906.356262
870.142542	2914.734660
870.454134	2914.399423
870.765684	2920.060639
871.077191	2927.052719
871.388657	2930.001794
871.700081	2937.687033
872.011463	2943.960749
872.322803	2949.390072
872.634101	2956.009107
872.945357	2961.322483
873.256571	2968.743062
873.567744	2978.306131
873.878874	2981.489619
874.189963	2987.801144
874.501010	2992.388594
874.812015	2991.024962
875.122979	2998.846312
875.433900	3000.719101
875.744780	3003.489215
876.055618	3009.795698
876.366415	3014.730988
876.677169	3014.226872
876.987882	3022.721217
877.298554	3029.705735
877.609183	3043.523538
877.919771	3060.401321
878.230317	3087.681525
878.540822	3126.087556
878.851285	3176.622602
879.161707	3239.944536
879.472087	3344.046883
879.782425	3505.467150
880.092722	3777.286165
880.402977	4195.157490
880.713191	4731.427874
881.023363	5323.587011
881.333494	5759.772848
881.643583	6042.611825
881.953631	6118.760975
882.263637	6067.767183
882.573602	5921.029277
882.883526	5753.751189
883.193408	5553.060334
883.503248	5338.092931
883.813048	5128.002845
884.122806	4904.914143
884.432522	4667.087628
884.742197	4449.955049
885.051831	4242.592227
885.361424	4045.294068
885.670975	3880.365159
885.980485	3736.029362
886.289954	3614.708954
886.599382	3510.417563
886.908768	3425.852207
887.218113	3351.311186
887.527417	3286.557565
887.836680	3230.807444
888.145901	3184.443952
888.455082	3149.395330
888.764221	3116.156483
889.073319	3087.126998
889.382376	3067.012794
889.691392	3053.613407
890.000366	3042.633774
890.309300	3034.615819
890.618193	3030.136754
890.927044	3029.062988
891.235855	3027.996784
891.544625	3033.209337
891.853353	3036.160933
892.162041	3051.402861
892.470687	3078.153744
892.779293	3109.340842
893.087858	3156.594098
893.396381	3231.704770
893.704864	3339.714012
894.013306	3495.836026
894.321707	3676.843696
894.630068	3830.336748
894.938387	3908.477153
895.246665	3911.902617
895.554903	3856.276005
895.863100	3765.159670
896.171256	3694.318855
896.479371	3620.967546
896.787446	3547.177657
897.095480	3474.043118
897.403473	3421.854572
897.711425	3365.998588
898.019336	3315.627378
898.327207	3261.835746
898.635038	3215.227758
898.942827	3165.088442
899.250576	3122.407513
899.558284	3080.374372
899.865952	3058.042061
900.173579	3026.973430
900.481165	3007.454082
900.788711	2990.208295
901.096216	2970.636015
901.403681	2960.057154
901.711105	2954.456432
902.018489	2949.145576
902.325832	2955.681432
902.633135	2965.965386
902.940397	3002.760768
903.247619	3090.507092
903.554800	3265.556118
903.861941	3536.916388
904.169041	3797.428096
904.476101	3965.432109
904.783121	3985.316941
905.090100	3922.887291
905.397039	3816.904593
905.703938	3711.065568
906.010796	3607.424487
906.317614	3525.296529
906.624391	3438.795370
906.931129	3371.906820
907.237826	3304.698157
907.544483	3240.705750
907.851099	3166.895696
908.157675	3094.839963
908.464211	3025.861855
908.770707	2968.644759
909.077163	2918.611307
909.383578	2885.228787
909.689954	2857.474714
909.996289	2836.934533
910.302584	2823.530105
910.608839	2813.841007
910.915054	2805.906231
911.221229	2801.255766
911.527363	2804.872794
911.833458	2804.172074
912.139513	2806.107877
912.445527	2808.373876
912.751502	2822.126143
913.057436	2832.969665
913.363331	2853.779548
913.669186	2881.745349
913.975000	2919.738005
914.280775	2976.945019
914.586510	3058.097514
914.892205	3166.343690
915.197859	3313.172337
915.503475	3494.893330
915.809050	3667.066378
916.114585	3795.278043
916.420081	3869.773694
916.725536	3897.583220
917.030952	3860.702138
917.336328	3824.594874
917.641665	3776.882873
917.946961	3717.596383
918.252218	3657.946930
918.557435	3588.691559
918.862612	3522.987680
919.167750	3461.712455
919.472848	3388.983729
919.777906	3322.158193
920.082925	3255.375508
920.387904	3182.417409
920.692843	3128.933287
920.997743	3078.869588
921.302603	3031.339069
921.607423	2995.980416
921.912204	2960.536063
922.216946	2935.297527
922.521647	2909.033115
922.826310	2890.829508
923.130932	2871.537013
923.435516	2851.800895
923.740059	2838.709019
924.044564	2819.502223
924.349028	2809.611479
924.653454	2794.697225
924.957840	2784.282201
925.262186	2772.674945
925.566493	2763.983995
925.870761	2750.335071
926.174989	2745.359452
926.479178	2739.292424
926.783328	2729.661299
927.087438	2726.024107
927.391509	2720.798951
927.695541	2713.935420
927.999533	2707.633978
928.303486	2701.017463
928.607400	2699.676516
928.911275	2693.460774
929.215110	2694.257276
929.518906	2689.805937
929.822663	2688.533046
930.126381	2686.748477
930.430060	2687.706297
930.733699	2686.561955
931.037299	2689.652182
931.340861	2687.038344
931.644383	2690.718386
931.947866	2687.313087
932.251309	2687.290401
932.554714	2687.968437
932.858080	2691.650999
933.161407	2688.054136
933.464694	2684.853003
933.767943	2683.963240
934.071153	2684.250586
934.374323	2682.531552
934.677455	2683.280163
934.980548	2679.332940
935.283602	2678.312106
935.586617	2678.549041
935.889593	2679.151458
936.192530	2677.281190
936.495428	2679.673218
936.798287	2681.966943
937.101108	2687.759229
937.403890	2692.520598
937.706632	2702.028215
938.009336	2714.321068
938.312002	2724.726010
938.614628	2738.077506
938.917216	2747.106212
939.219765	2752.638879
939.522275	2760.170362
939.824747	2763.956269
940.127179	2763.691608
940.429573	2762.244797
940.731929	2761.229005
941.034246	2759.116761
941.336524	2760.850918
941.638763	2761.002153
941.940964	2761.654982
942.243126	2754.499064
942.545250	2752.459918
942.847335	2745.581263
943.149381	2737.880901
943.451389	2733.487535
943.753359	2726.908829
944.055290	2723.969837
944.357182	2717.991028
944.659036	2715.402396
944.960851	2712.929710
945.262628	2710.749411
945.564367	2707.016436
945.866067	2706.560212
946.167729	2706.103987
946.469352	2706.436704
946.770937	2704.042156
947.072484	2702.066023
947.373992	2701.181301
947.675462	2700.760364
947.976893	2696.495548
948.278286	2696.603933
948.579641	2694.448840
948.880958	2694.330373
949.182236	2693.123016
949.483476	2694.751309
949.784678	2695.084025
950.085841	2692.785259
950.386967	2694.103521
950.688054	2692.891123
950.989103	2698.640559
951.290114	2699.888245
951.591087	2703.878318
951.892021	2707.797815
952.192917	2715.001624
952.493776	2717.920452
952.794596	2721.464383
953.095378	2721.204764
953.396122	2723.006976
953.696828	2722.671740
953.997496	2722.230639
954.298126	2715.049515
954.598718	2717.131512
954.899272	2713.985832
955.199788	2707.437373
955.500266	2706.708926
955.800706	2694.383305
956.101108	2685.886440
956.401472	2682.667663
956.701798	2675.476457
957.002087	2669.777433
957.302337	2666.230981
957.602550	2663.148316
957.902724	2656.408293
958.202861	2652.471152
958.502960	2648.246665
958.803022	2643.364307
959.103045	2638.592855
959.403031	2634.355765
959.702979	2631.116824
960.002889	2632.263687
960.302762	2627.134312
960.602596	2623.822274
960.902393	2624.931328
961.202153	2621.848663
961.501875	2619.345730
961.801559	2617.483023
962.101205	2617.979577
962.400814	2615.776593
962.700385	2613.782817
962.999918	2613.888681
963.299414	2609.888525
963.598873	2612.666201
963.898293	2610.337188
964.197677	2610.871550
964.497022	2609.548247
964.796331	2610.271653
965.095601	2607.562033
965.394835	2610.564040
965.694030	2605.117073
965.993189	2607.614965
966.292309	2606.818462
966.591393	2604.398709
966.890439	2604.938112
967.189447	2604.265118
967.488419	2603.788729
967.787353	2603.879470
968.086249	2605.777464
968.385108	2608.088833
968.683930	2603.975252
968.982714	2608.222424
969.281462	2610.062445
969.580172	2609.696961
969.878844	2608.666045
970.177480	2610.422887
970.476078	2611.436159
970.774639	2614.085286
971.073162	2615.257354
971.371649	2610.874071
971.670098	2611.698299
971.968510	2615.302724
972.266885	2611.789040
972.565223	2617.656943
972.863524	2618.854217
973.161788	2621.291615
973.460014	2622.262037
973.758204	2622.446039
974.056356	2621.702469
974.354471	2623.240021
974.652550	2622.125926
974.950591	2623.396297
975.248595	2623.643313
975.546563	2623.245062
975.844493	2620.364043
976.142386	2622.161214
976.440243	2617.704834
976.738062	2620.177520
977.035845	2618.581995
977.333590	2618.541666
977.631299	2616.656274
977.928971	2617.183075
978.226606	2614.042436
978.524204	2613.223248
978.821765	2611.224431
979.119290	2612.583022
979.416777	2612.288114
979.714228	2615.537138
980.011642	2611.945316
980.309020	2617.379680
980.606360	2618.892026
980.903664	2619.222222
981.200931	2624.018879
981.498162	2634.799387
981.795356	2642.265336
982.092513	2660.216885
982.389633	2673.155006
982.686717	2693.246525
982.983764	2711.127497
983.280775	2720.403220
983.577749	2724.617625
983.874686	2730.611557
984.171587	2723.692573
984.468451	2720.768704
984.765279	2712.087837
985.062070	2704.357228
985.358824	2700.616692
985.655543	2690.597398
985.952224	2679.970646
986.248869	2671.259532
986.545478	2652.057777
986.842050	2643.737353
987.138586	2631.449540
987.435086	2622.662809
987.731549	2614.317179
988.027975	2612.187291
988.324366	2610.299379
988.620719	2605.860643
988.917037	2602.745210
989.213318	2597.288161
989.509563	2596.320260
989.805772	2597.018459
990.101944	2595.992585
990.398080	2596.284972
990.694180	2597.204982
990.990244	2597.572986
991.286271	2594.699529
991.582262	2594.649117
991.878217	2594.820516
992.174136	2594.636514
992.470019	2597.341093
992.765865	2595.763212
993.061676	2596.718511
993.357450	2598.767740
993.653188	2602.445262
993.948890	2602.793101
994.244556	2606.105139
994.540186	2611.675614
994.835780	2615.287601
995.131337	2623.418982
995.426859	2630.655558
995.722345	2637.506487
996.017795	2649.028044
996.313208	2654.308652
996.608586	2662.525733
996.903928	2667.072854
997.199234	2666.886331
997.494504	2669.318688
997.789738	2665.316012
998.084936	2661.623367
998.380099	2658.694456
998.675225	2655.430309
998.970316	2648.642395
999.265371	2640.873977
999.560390	2633.886938
999.855373	2628.699591
1000.150320	2623.126595
1000.445232	2616.399175
1000.740108	2610.498505
1001.034948	2605.913575
1001.329752	2603.677824
1001.624521	2599.009715
1001.919254	2593.855135
1002.213951	2594.361771
1002.508613	2593.240115
1002.803239	2594.172728
1003.097829	2587.916656
1003.392384	2591.478231
1003.686903	2589.151739
1003.981386	2592.042841
1004.275834	2588.327510
1004.570246	2588.677870
1004.864623	2586.401789
1005.158964	2588.264496
1005.453270	2586.873137
1005.747540	2587.261306
1006.041775	2585.842221
1006.335974	2586.268199
1006.630138	2585.186871
1006.924266	2583.913980
1007.218359	2584.193764
1007.512416	2583.014134
1007.806438	2584.178641
1008.100425	2585.930442
1008.394376	2584.034968
1008.688292	2586.268199
1008.982172	2583.538414
1009.276017	2583.293918
1009.569827	2581.975656
1009.863602	2583.588826
1010.157341	2584.095462
1010.451045	2580.543969
1010.744714	2584.861717
1011.038347	2586.787438
1011.331945	2580.591860
1011.625508	2582.404154
1011.919036	2582.225193
1012.212528	2583.951789
1012.505986	2580.745615
1012.799408	2585.824577
1013.092795	2581.824422
1013.386147	2583.009093
1013.679464	2580.281829
1013.972745	2580.415419
1014.265992	2580.629668
1014.559204	2585.196954
1014.852380	2579.823084
1015.145521	2581.456417
1015.438628	2580.942220
1015.731699	2580.743094
1016.024736	2582.903229
1016.317737	2581.388362
1016.610703	2582.739391
1016.903635	2577.173957
1017.196531	2577.337795
1017.489393	2578.409040
1017.782219	2578.865264
1018.075011	2582.257961
1018.367768	2581.958012
1018.660490	2584.607139
1018.953177	2584.607139
1019.245829	2584.607139
