Dividing Wavelength (nm)	Counts (n)	Blue Motor Position (mm): 22.300000	Red Motor Position (mm): 0.000000	
326.493990	1.001176
326.888308	1.001176
327.282561	1.001176
327.676750	1.001534
328.070874	1.002944
328.464933	1.003048
328.858929	1.003533
329.252859	1.002579
329.646726	1.001406
330.040528	1.001280
330.434265	1.002401
330.827938	1.001819
331.221547	1.001347
331.615091	1.002333
332.008571	1.002897
332.401986	1.001231
332.795338	1.001777
333.188625	1.002020
333.581847	1.000737
333.975006	1.002191
334.368100	1.002117
334.761129	1.001024
335.154095	1.002719
335.546996	1.000681
335.939833	0.998315
336.332606	1.000711
336.725315	0.999077
337.117960	1.001212
337.510540	0.999516
337.903056	0.999449
338.295508	1.001120
338.687896	0.999733
339.080220	1.000545
339.472480	0.999484
339.864676	0.999940
340.256807	0.998181
340.648875	0.999306
341.040879	0.998825
341.432818	0.999817
341.824694	0.998814
342.216506	1.000836
342.608253	0.998659
342.999937	0.998651
343.391557	0.998576
343.783113	1.000180
344.174605	0.999273
344.566033	0.998674
344.957397	0.999357
345.348697	1.000047
345.739934	1.000351
346.131106	0.998983
346.522215	0.998779
346.913260	0.999195
347.304241	0.998455
347.695159	0.998844
348.086012	0.999557
348.476802	0.999188
348.867528	0.998607
349.258191	0.999943
349.648789	0.998479
350.039324	0.998840
350.429796	0.998235
350.820203	0.997884
351.210548	0.999304
351.600828	0.998634
351.991045	0.999148
352.381198	0.998563
352.771288	0.999382
353.161314	0.998493
353.551276	0.999649
353.941175	0.997048
354.331010	0.999823
354.720782	0.999135
355.110490	0.998162
355.500135	0.998937
355.889717	0.998002
356.279235	0.997882
356.668689	0.998769
357.058080	0.998134
357.447408	0.997307
357.836672	0.998274
358.225873	0.997747
358.615010	0.997952
359.004084	0.997220
359.393095	0.999264
359.782043	0.997873
360.170927	0.998853
360.559748	0.998276
360.948505	0.997400
361.337199	0.997356
361.725830	0.998572
362.114398	0.997405
362.502903	0.997211
362.891344	0.996907
363.279722	0.997358
363.668037	0.998515
364.056289	0.996563
364.444478	0.999348
364.832603	0.996981
365.220665	0.997495
365.608665	0.996455
365.996601	0.997533
366.384474	0.995065
366.772284	0.996550
367.160031	0.995214
367.547715	0.995295
367.935336	0.994743
368.322893	0.994289
368.710388	0.992454
369.097820	0.991189
369.485189	0.988750
369.872495	0.987502
370.259738	0.985009
370.646918	0.982580
371.034035	0.979936
371.421090	0.977225
371.808081	0.971570
372.195010	0.970046
372.581875	0.962404
372.968678	0.959543
373.355418	0.956325
373.742096	0.948682
374.128710	0.943862
374.515262	0.939355
374.901751	0.934809
375.288177	0.929137
375.674540	0.922418
376.060841	0.916132
376.447079	0.908926
376.833254	0.902620
377.219367	0.897272
377.605417	0.886760
377.991404	0.883397
378.377329	0.876144
378.763191	0.870035
379.148991	0.861153
379.534727	0.854174
379.920402	0.845532
380.306013	0.841650
380.691563	0.829555
381.077049	0.823072
381.462474	0.818183
381.847835	0.807403
382.233134	0.802321
382.618371	0.802680
383.003545	0.785629
383.388657	0.783714
383.773706	0.775998
384.158693	0.772156
384.543618	0.766648
384.928480	0.758119
385.313280	0.747001
385.698017	0.747065
386.082692	0.736090
386.467305	0.734105
386.851856	0.729075
387.236344	0.723136
387.620770	0.717485
388.005133	0.710928
388.389435	0.706261
388.773674	0.703531
389.157851	0.696233
389.541965	0.693343
389.926018	0.700376
390.310008	0.686536
390.693936	0.683882
391.077802	0.676092
391.461606	0.676981
391.845348	0.666459
392.229027	0.666835
392.612645	0.663776
392.996200	0.651191
393.379694	0.644230
393.763125	0.634697
394.146494	0.639033
394.529801	0.629937
394.913047	0.621908
395.296230	0.628088
395.679351	0.618802
396.062410	0.615872
396.445408	0.618354
396.828343	0.613771
397.211217	0.608695
397.594028	0.620928
397.976778	0.611264
398.359466	0.608294
398.742092	0.603263
399.124656	0.615540
399.507158	0.603437
399.889598	0.601188
400.271977	0.591615
400.654294	0.595453
401.036549	0.594970
401.418742	0.599169
401.800874	0.584557
402.182944	0.582080
402.564952	0.573242
402.946898	0.575845
403.328783	0.576742
403.710606	0.587333
404.092367	0.562247
404.474067	0.566785
404.855705	0.566557
405.237282	0.574954
405.618797	0.561196
406.000250	0.556616
406.381642	0.546561
406.762972	0.552518
407.144240	0.551173
407.525447	0.551019
407.906593	0.543931
408.287677	0.538981
408.668700	0.547333
409.049661	0.541435
409.430560	0.536768
409.811399	0.544649
410.192176	0.526760
410.572891	0.534399
410.953545	0.521741
411.334138	0.535917
411.714669	0.527846
412.095139	0.540214
412.475547	0.523842
412.855894	0.526273
413.236180	0.525185
413.616405	0.530434
413.996568	0.520669
414.376670	0.527604
414.756711	0.532078
415.136691	0.528814
415.516609	0.519826
415.896466	0.516852
416.276262	0.512659
416.655997	0.514293
417.035670	0.495903
417.415283	0.487700
417.794834	0.492583
418.174324	0.497879
418.553753	0.507002
418.933121	0.488838
419.312428	0.483300
419.691674	0.488887
420.070859	0.476797
420.449983	0.484685
420.829045	0.473835
421.208047	0.483193
421.586988	0.476658
421.965867	0.475016
422.344686	0.463681
422.723444	0.476689
423.102141	0.493238
423.480777	0.466151
423.859352	0.487218
424.237866	0.464018
424.616319	0.465078
424.994712	0.456268
425.373044	0.466354
425.751314	0.454268
426.129524	0.470750
426.507673	0.454394
426.885762	0.448013
427.263789	0.453180
427.641756	0.463440
428.019662	0.453329
428.397508	0.452596
428.775292	0.456904
429.153016	0.448505
429.530679	0.455228
429.908282	0.448552
430.285824	0.458633
430.663305	0.436988
431.040726	0.458289
431.418086	0.457840
431.795385	0.449592
432.172624	0.448788
432.549802	0.449146
432.926920	0.447806
433.303977	0.447772
433.680974	0.444829
434.057910	0.443452
434.434786	0.442312
434.811601	0.445428
435.188355	0.428302
435.565050	0.436960
435.941683	0.438212
436.318257	0.421988
436.694770	0.422915
437.071222	0.421404
437.447614	0.426217
437.823946	0.432004
438.200218	0.421565
438.576429	0.431508
438.952580	0.424101
439.328670	0.420716
439.704700	0.427096
440.080670	0.429098
440.456580	0.409451
440.832429	0.418046
441.208218	0.428925
441.583947	0.417946
441.959616	0.416822
442.335224	0.422752
442.710773	0.413510
443.086261	0.411884
443.461689	0.425781
443.837057	0.415047
444.212365	0.405469
444.587612	0.412083
444.962800	0.401770
445.337927	0.403865
445.712995	0.430192
446.088002	0.392008
446.462949	0.402407
446.837837	0.407610
447.212664	0.396159
447.587431	0.387668
447.962139	0.357794
448.336786	0.316738
448.711374	0.327250
449.085901	0.371759
449.460369	0.376023
449.834776	0.379256
450.209124	0.358766
450.583412	0.351384
450.957640	0.344083
451.331808	0.355717
451.705917	0.378738
452.079965	0.383814
452.453954	0.372260
452.827883	0.378800
453.201752	0.373596
453.575562	0.385038
453.949311	0.373053
454.323001	0.379835
454.696632	0.376088
455.070202	0.368159
455.443713	0.359951
455.817164	0.354675
456.190556	0.350582
456.563888	0.347234
456.937160	0.345065
457.310373	0.362519
457.683526	0.361225
458.056619	0.367218
458.429653	0.367140
458.802628	0.371273
459.175542	0.365529
459.548398	0.347561
459.921194	0.340145
460.293930	0.340652
460.666607	0.317822
461.039224	0.306041
461.411782	0.302140
461.784280	0.301176
462.156719	0.305187
462.529099	0.309904
462.901419	0.325870
463.273680	0.330338
463.645882	0.329661
464.018024	0.335982
464.390106	0.328623
464.762130	0.313386
465.134094	0.296115
465.505999	0.265526
465.877845	0.235570
466.249631	0.222793
466.621358	0.230322
466.993026	0.244509
467.364634	0.250652
467.736184	0.259658
468.107674	0.268908
468.479105	0.268002
468.850477	0.275045
469.221790	0.282120
469.593043	0.292396
469.964238	0.297806
470.335373	0.297286
470.706449	0.295992
471.077467	0.296820
471.448425	0.259578
471.819324	0.235665
472.190164	0.235285
472.560945	0.264680
472.931667	0.287356
473.302330	0.292028
473.672934	0.304746
474.043479	0.293600
474.413965	0.296058
474.784393	0.300373
475.154761	0.296048
475.525070	0.294000
475.895321	0.300644
476.265513	0.295749
476.635645	0.292179
477.005719	0.293008
477.375734	0.290888
477.745691	0.285392
478.115588	0.282751
478.485427	0.278000
478.855207	0.266533
479.224928	0.251564
479.594591	0.241430
479.964194	0.245994
480.333739	0.247987
480.703226	0.251089
481.072653	0.251325
481.442022	0.250016
481.811333	0.248342
482.180584	0.253751
482.549777	0.260619
482.918912	0.266286
483.287988	0.268390
483.657005	0.270353
484.025964	0.278894
484.394864	0.278141
484.763706	0.281464
485.132489	0.288611
485.501213	0.292070
485.869879	0.292966
486.238487	0.299535
486.607036	0.299922
486.975527	0.308095
487.343959	0.306818
487.712333	0.309562
488.080648	0.313797
488.448905	0.317148
488.817104	0.321578
489.185244	0.320144
489.553326	0.321933
489.921350	0.318008
490.289315	0.307157
490.657222	0.306372
491.025070	0.312221
491.392861	0.317677
491.760593	0.327733
492.128267	0.336063
492.495883	0.344945
492.863440	0.355127
493.230939	0.365609
493.598380	0.371710
493.965763	0.379252
494.333088	0.384897
494.700354	0.392406
495.067563	0.395642
495.434713	0.405319
495.801805	0.407968
496.168839	0.415363
496.535815	0.422749
496.902733	0.427244
497.269593	0.435480
497.636395	0.438018
498.003139	0.445584
498.369825	0.453433
498.736453	0.457386
499.103023	0.463857
499.469535	0.470078
499.835989	0.475961
500.202385	0.482883
500.568723	0.491852
500.935003	0.493660
501.301226	0.505706
501.667390	0.506186
502.033497	0.512143
502.399546	0.519879
502.765537	0.528459
503.131470	0.534459
503.497345	0.538790
503.863163	0.550324
504.228923	0.553215
504.594625	0.558266
504.960269	0.568661
505.325856	0.572961
505.691385	0.582655
506.056856	0.586815
506.422270	0.593480
506.787625	0.600522
507.152924	0.606934
507.518164	0.613026
507.883347	0.621056
508.248472	0.628768
508.613540	0.632031
508.978550	0.640835
509.343503	0.647343
509.708398	0.653173
510.073236	0.658630
510.438016	0.664473
510.802738	0.671863
511.167403	0.677377
511.532010	0.685647
511.896561	0.689317
512.261053	0.695616
512.625488	0.703728
512.989866	0.710085
513.354186	0.716259
513.718449	0.724097
514.082655	0.727824
514.446803	0.735383
514.810894	0.740851
515.174927	0.747960
515.538904	0.753186
515.902822	0.758398
516.266684	0.764248
516.630488	0.770651
516.994235	0.775535
517.357925	0.781691
517.721558	0.786366
518.085133	0.792011
518.448651	0.796603
518.812112	0.803484
519.175516	0.808461
519.538863	0.812275
519.902152	0.818642
520.265385	0.823181
520.628560	0.827161
520.991678	0.832992
521.354739	0.837133
521.717743	0.841488
522.080690	0.846195
522.443580	0.850892
522.806413	0.855725
523.169189	0.859938
523.531908	0.862963
523.894569	0.868120
524.257174	0.872868
524.619722	0.876470
524.982213	0.879766
525.344647	0.883970
525.707025	0.886943
526.069345	0.889966
526.431608	0.895792
526.793815	0.897828
527.155964	0.902040
527.518057	0.905314
527.880093	0.907930
528.242072	0.911132
528.603995	0.914839
528.965860	0.918271
529.327669	0.921227
529.689421	0.922609
530.051117	0.926022
530.412755	0.929038
530.774337	0.931087
531.135862	0.935078
531.497331	0.935881
531.858743	0.939180
532.220098	0.940084
532.581396	0.943672
532.942638	0.945317
533.303824	0.948013
533.664953	0.949823
534.026025	0.952491
534.387040	0.953801
534.747999	0.955220
535.108902	0.956451
535.469748	0.959215
535.830537	0.959653
536.191270	0.961693
536.551947	0.962704
536.912567	0.963866
537.273131	0.965698
537.633638	0.967339
537.994089	0.968611
538.354483	0.970214
538.714821	0.970370
539.075103	0.972211
539.435328	0.973092
539.795497	0.973491
540.155609	0.974717
540.515665	0.975673
540.875665	0.976703
541.235609	0.977561
541.595496	0.977380
541.955328	0.978919
542.315102	0.980486
542.674821	0.980233
543.034483	0.981673
543.394090	0.981548
543.753640	0.982336
544.113134	0.982919
544.472571	0.984117
544.831953	0.984256
545.191278	0.984671
545.550548	0.984399
545.909761	0.984910
546.268918	0.986508
546.628019	0.986662
546.987064	0.986494
547.346053	0.986450
547.704986	0.986702
548.063863	0.987317
548.422684	0.987394
548.781449	0.988618
549.140158	0.988516
549.498811	0.987952
549.857408	0.987968
550.215949	0.988476
550.574434	0.988207
550.932864	0.989530
551.291237	0.989055
551.649555	0.990137
552.007817	0.989218
552.366022	0.989673
552.724173	0.990591
553.082267	0.989553
553.440305	0.989421
553.798288	0.990512
554.156215	0.990226
554.514086	0.991004
554.871902	0.990682
555.229661	0.990704
555.587365	0.990930
555.945014	0.991531
556.302606	0.990912
556.660143	0.991943
557.017625	0.991897
557.375050	0.991421
557.732421	0.991494
558.089735	0.991519
558.446994	0.991418
558.804197	0.991818
559.161345	0.991554
559.518437	0.992177
559.875474	0.991759
560.232455	0.991743
560.589381	0.992648
560.946251	0.992253
561.303065	0.992109
561.659825	0.991441
562.016528	0.993145
562.373177	0.992351
562.729770	0.992200
563.086307	0.991102
563.442789	0.992418
563.799216	0.992052
564.155587	0.992226
564.511904	0.992902
564.868164	0.991619
565.224370	0.992628
565.580520	0.992329
565.936615	0.992482
566.292654	0.992339
566.648638	0.993348
567.004567	0.991846
567.360441	0.993264
567.716260	0.993001
568.072023	0.992420
568.427732	0.992692
568.783385	0.992702
569.138982	0.992937
569.494525	0.992416
569.850013	0.993517
570.205445	0.993350
570.560823	0.992489
570.916145	0.992776
571.271412	0.993979
571.626625	0.992758
571.981782	0.992319
572.336884	0.993310
572.691931	0.993246
573.046923	0.994419
573.401860	0.992417
573.756743	0.993683
574.111570	0.993197
574.466342	0.993466
574.821059	0.992941
575.175722	0.993669
575.530330	0.993209
575.884882	0.993492
576.239380	0.993779
576.593823	0.992508
576.948211	0.993503
577.302544	0.993467
577.656823	0.993575
578.011047	0.992619
578.365216	0.993672
578.719330	0.993812
579.073389	0.992825
579.427394	0.993336
579.781344	0.993817
580.135239	0.993349
580.489080	0.993330
580.842866	0.992877
581.196597	0.992983
581.550273	0.992933
581.903895	0.993615
582.257463	0.993384
582.610975	0.993623
582.964434	0.993098
583.317837	0.994022
583.671186	0.993813
584.024481	0.993240
584.377721	0.992575
584.730906	0.993546
585.084037	0.994129
585.437113	0.993707
585.790135	0.993429
586.143103	0.993499
586.496016	0.993458
586.848874	0.993684
587.201679	0.993092
587.554428	0.993609
587.907124	0.993835
588.259765	0.993886
588.612352	0.993404
588.964884	0.993472
589.317362	0.994377
589.669786	0.993581
590.022155	0.992554
590.374470	0.992797
590.726731	0.993317
591.078937	0.993452
591.431090	0.994074
591.783188	0.992735
592.135232	0.994270
592.487222	0.993909
592.839157	0.993674
593.191038	0.993436
593.542866	0.993387
593.894639	0.992284
594.246358	0.993716
594.598022	0.993375
594.949633	0.993978
595.301190	0.993426
595.652692	0.993249
596.004141	0.993296
596.355535	0.993287
596.706876	0.993706
597.058162	0.993187
597.409395	0.993923
597.760573	0.993090
598.111698	0.993736
598.462768	0.993026
598.813785	0.992891
599.164748	0.992980
599.515657	0.993352
599.866511	0.993811
600.217312	0.994322
600.568060	0.992923
600.918753	0.993862
601.269392	0.993875
601.619978	0.993774
601.970510	0.993342
602.320988	0.993677
602.671412	0.993751
603.021783	0.994201
603.372100	0.993848
603.722363	0.993730
604.072572	0.993626
604.422728	0.993983
604.772830	0.993506
605.122878	0.993947
605.472872	0.994090
605.822813	0.993143
606.172701	0.993990
606.522534	0.994240
606.872314	0.994193
607.222041	0.993601
607.571714	0.994280
607.921333	0.993775
608.270899	0.993895
608.620411	0.994026
608.969870	0.994266
609.319276	0.993369
609.668627	0.994250
610.017926	0.993467
610.367171	0.994447
610.716362	0.993538
611.065500	0.993076
611.414585	0.993982
611.763616	0.993555
612.112594	0.993243
612.461518	0.992570
612.810389	0.993931
613.159207	0.993570
613.507971	0.993241
613.856682	0.994475
614.205340	0.992788
614.553945	0.993510
614.902496	0.993357
615.250994	0.993977
615.599439	0.993858
615.947830	0.993141
616.296169	0.993568
616.644454	0.993590
616.992686	0.994410
617.340864	0.993836
617.688990	0.992905
618.037063	0.993732
618.385082	0.993150
618.733048	0.993234
619.080961	0.992999
619.428821	0.993003
619.776628	0.993149
620.124382	0.993739
620.472083	0.993890
620.819731	0.994485
621.167326	0.994322
621.514868	0.994166
621.862357	0.993700
622.209793	0.993910
622.557176	0.993670
622.904506	0.992951
623.251783	0.993731
623.599007	0.994100
623.946179	0.993222
624.293297	0.993759
624.640363	0.994675
624.987376	0.993223
625.334336	0.993784
625.681243	0.993495
626.028097	0.994471
626.374899	0.994032
626.721647	0.994853
627.068343	0.994151
627.414987	0.994102
627.761577	0.992976
628.108115	0.993821
628.454600	0.993846
628.801032	0.994494
629.147412	0.994332
629.493739	0.994950
629.840014	0.993787
630.186236	0.993382
630.532405	0.994644
630.878521	0.993405
631.224585	0.993673
631.570597	0.993635
631.916556	0.994464
632.262462	0.993053
632.608316	0.994243
632.954117	0.993334
633.299866	0.993446
633.645562	0.993960
633.991206	0.994167
634.336797	0.993979
634.682336	0.995264
635.027823	0.993639
635.373257	0.994115
635.718639	0.994807
636.063968	0.993237
636.409245	0.993732
636.754470	0.993658
637.099642	0.993582
637.444762	0.994503
637.789829	0.993957
638.134845	0.993876
638.479808	0.994207
638.824719	0.994645
639.169577	0.993949
639.514383	0.995090
639.859137	0.994773
640.203839	0.993755
640.548489	0.993967
640.893086	0.992795
641.237632	0.995030
641.582125	0.994151
641.926566	0.994769
642.270955	0.994605
642.615292	0.993935
642.959576	0.993442
643.303809	0.994600
643.647990	0.994467
643.992118	0.994819
644.336195	0.994228
644.680219	0.994504
645.024192	0.994081
645.368112	0.993516
645.711981	0.994304
646.055797	0.993866
646.399562	0.993128
646.743274	0.995471
647.086935	0.993573
647.430544	0.993932
647.774101	0.993277
648.117606	0.994530
648.461059	0.994564
648.804460	0.993699
649.147810	0.993638
649.491108	0.993317
649.834354	0.993715
650.177548	0.994371
650.520690	0.993146
650.863781	0.993951
651.206820	0.994213
651.549807	0.993725
651.892742	0.994693
652.235626	0.994094
652.578458	0.994120
652.921238	0.994639
653.263967	0.994687
653.606644	0.993612
653.949269	0.994731
654.291843	0.993498
654.634365	0.994485
654.976836	0.994341
655.319255	0.994062
655.661622	0.994320
656.003938	0.993246
656.346203	0.993928
656.688416	0.994890
657.030577	0.994059
657.372687	0.994176
657.714746	0.993592
658.056753	0.994049
658.398708	0.993874
658.740612	0.994865
659.082465	0.994719
659.424266	0.994411
659.766016	0.993468
660.107715	0.994922
660.449362	0.994540
660.790958	0.994192
661.132503	0.994228
661.473996	0.994649
661.815438	0.994859
662.156829	0.993694
662.498168	0.994734
662.839456	0.993504
663.180693	0.994332
663.521879	0.993557
663.863013	0.994281
664.204097	0.993646
664.545129	0.993836
664.886110	0.994327
665.227040	0.994195
665.567918	0.993488
665.908746	0.993292
666.249522	0.993126
666.590248	0.994073
666.930922	0.993263
667.271545	0.993107
667.612118	0.993359
667.952639	0.993972
668.293109	0.993956
668.633528	0.992432
668.973896	0.994159
669.314213	0.993241
669.654480	0.993569
669.994695	0.993338
670.334859	0.993726
670.674973	0.992958
671.015035	0.994266
671.355047	0.994160
671.695008	0.993664
672.034918	0.993335
672.374777	0.994287
672.714585	0.994005
673.054342	0.994110
673.394049	0.993124
673.733705	0.993736
674.073310	0.993614
674.412864	0.993290
674.752368	0.993396
675.091820	0.994237
675.431223	0.994092
675.770574	0.992973
676.109875	0.993957
676.449125	0.993610
676.788324	0.993005
677.127473	0.994397
677.466571	0.993984
677.805619	0.994243
678.144616	0.994548
678.483562	0.993880
678.822458	0.994517
679.161303	0.993522
679.500098	0.993401
679.838842	0.993583
680.177535	0.994484
680.516179	0.993631
680.854771	0.993449
681.193314	0.993460
681.531805	0.993543
681.870247	0.993656
682.208638	0.993933
682.546978	0.993001
682.885268	0.993555
683.223508	0.993076
683.561697	0.993923
683.899836	0.993076
684.237925	0.993283
684.575963	0.993033
684.913951	0.993955
685.251889	0.993877
685.589776	0.993579
685.927614	0.992916
686.265401	0.993629
686.603137	0.993287
686.940824	0.993536
687.278460	0.993208
687.616046	0.992954
687.953582	0.993214
688.291068	0.994244
688.628504	0.993012
688.965889	0.993302
689.303224	0.991912
689.640510	0.993128
689.977745	0.993306
690.314930	0.992395
690.652065	0.993135
690.989150	0.992739
691.326185	0.993242
691.663170	0.992952
692.000105	0.994085
692.336990	0.994150
692.673825	0.992767
693.010610	0.993106
693.347345	0.993563
693.684030	0.993656
694.020665	0.993010
694.357251	0.994020
694.693786	0.993334
695.030272	0.993233
695.366707	0.993880
695.703093	0.994134
696.039429	0.993833
696.375716	0.995274
696.711952	0.993424
697.048139	0.994580
697.384276	0.994538
697.720363	0.994176
698.056400	0.993197
698.392388	0.993334
698.728326	0.994066
699.064214	0.994923
699.400053	0.994057
699.735842	0.994139
700.071581	0.994767
700.407270	0.994015
700.742910	0.993901
701.078501	0.993835
701.414042	0.995417
701.749533	0.993331
702.084974	0.994250
702.420366	0.994898
702.755709	0.993528
703.091002	0.995215
703.426246	0.994971
703.761440	0.994071
704.096584	0.994067
704.431679	0.994080
704.766725	0.993761
705.101721	0.995131
705.436668	0.994700
705.771565	0.993422
706.106413	0.993865
706.441212	0.994967
706.775961	0.993870
707.110661	0.994033
707.445311	0.994245
707.779913	0.994945
708.114465	0.995469
708.448967	0.995941
708.783421	0.994977
709.117825	0.994340
709.452180	0.994075
709.786485	0.994554
710.120742	0.994038
710.454949	0.993224
710.789107	0.994086
711.123216	0.993338
711.457275	0.992753
711.791286	0.993253
712.125247	0.994537
712.459159	0.993229
712.793023	0.993774
713.126837	0.994624
713.460602	0.993080
713.794318	0.992198
714.127985	0.992743
714.461602	0.993998
714.795171	0.992704
715.128691	0.993375
715.462162	0.994080
715.795584	0.993741
716.128957	0.994279
716.462281	0.994227
716.795556	0.993014
717.128782	0.994211
717.461960	0.993226
717.795088	0.993291
718.128167	0.995193
718.461198	0.993595
718.794180	0.994320
719.127113	0.994210
719.459997	0.993687
719.792833	0.994739
720.125619	0.993548
720.458357	0.993916
720.791046	0.994806
721.123686	0.994433
721.456278	0.995197
721.788821	0.994013
722.121315	0.995396
722.453761	0.994428
722.786158	0.994488
723.118506	0.993855
723.450805	0.993421
723.783056	0.994557
724.115259	0.993874
724.447412	0.995633
724.779518	0.994141
725.111574	0.993491
725.443582	0.995055
725.775542	0.994810
726.107453	0.994914
726.439315	0.994889
726.771129	0.994897
727.102895	0.994142
727.434612	0.994737
727.766281	0.993665
728.097901	0.993420
728.429473	0.994302
728.760996	0.992915
729.092471	0.994049
729.423897	0.994440
729.755276	0.994397
730.086606	0.993374
730.417887	0.994881
730.749120	0.994022
731.080305	0.994259
731.411442	0.992732
731.742530	0.993629
732.073570	0.993607
732.404562	0.994097
732.735506	0.993428
733.066401	0.992905
733.397249	0.993384
733.728048	0.993568
734.058798	0.993705
734.389501	0.993594
734.720156	0.994335
735.050762	0.994513
735.381320	0.994383
735.711831	0.993715
736.042293	0.993810
736.372707	0.995451
736.703073	0.993343
737.033391	0.994130
737.363661	0.994823
737.693883	0.993899
738.024056	0.993436
738.354182	0.993844
738.684260	0.993318
739.014290	0.994158
739.344272	0.994182
739.674207	0.994501
740.004093	0.994082
740.333931	0.993658
740.663722	0.994409
740.993464	0.994995
741.323159	0.994263
741.652806	0.993765
741.982405	0.994074
742.311956	0.994400
742.641460	0.995058
742.970915	0.993970
743.300323	0.993676
743.629683	0.994224
743.958996	0.995312
744.288260	0.993930
744.617477	0.995359
744.946647	0.994269
745.275768	0.995741
745.604842	0.994238
745.933869	0.994728
746.262847	0.995511
746.591778	0.993428
746.920662	0.994840
747.249498	0.995435
747.578286	0.996318
747.907027	0.994955
748.235720	0.995119
748.564365	0.995658
748.892963	0.994115
749.221514	0.995567
749.550017	0.994050
749.878473	0.994509
750.206881	0.995925
750.535242	0.994880
750.863555	0.994474
751.191821	0.994355
751.520039	0.994471
751.848210	0.993196
752.176334	0.995075
752.504411	0.994767
752.832440	0.994938
753.160421	0.994747
753.488356	0.995090
753.816243	0.994772
754.144082	0.993686
754.471875	0.994637
754.799620	0.995125
755.127318	0.994758
755.454969	0.994998
755.782572	0.995369
756.110129	0.994912
756.437638	0.996757
756.765100	0.995692
757.092515	0.993455
757.419882	0.995555
757.747203	0.994373
758.074477	0.996445
758.401703	0.995350
758.728882	0.994929
759.056014	0.995049
759.383099	0.995392
759.710138	0.994907
760.037129	0.994402
760.364073	0.994702
760.690970	0.994179
761.017820	0.994167
761.344623	0.994978
761.671379	0.995696
761.998088	0.994559
762.324751	0.994236
762.651366	0.993065
762.977935	0.991735
763.304456	0.991902
763.630931	0.988730
763.957359	0.988566
764.283740	0.990360
764.610074	0.991895
764.936362	0.992424
765.262602	0.993167
765.588796	0.993222
765.914943	0.993430
766.241044	0.994623
766.567097	0.994902
766.893104	0.995083
767.219064	0.994546
767.544978	0.995045
767.870845	0.994882
768.196665	0.995181
768.522438	0.995779
768.848165	0.995631
769.173846	0.996217
769.499479	0.996054
769.825066	0.996439
770.150607	0.997042
770.476101	0.996135
770.801548	0.996560
771.126949	0.997891
771.452303	0.996137
771.777611	0.996116
772.102872	0.995817
772.428087	0.995506
772.753256	0.996540
773.078378	0.996962
773.403453	0.996484
773.728482	0.998165
774.053465	0.996874
774.378401	0.996676
774.703291	0.996462
775.028135	0.997959
775.352932	0.996676
775.677683	0.997297
776.002388	0.997516
776.327046	0.996850
776.651658	0.997701
776.976224	0.997270
777.300743	0.995941
777.625216	0.996776
777.949643	0.997197
778.274024	0.996224
778.598359	0.997139
778.922647	0.996975
779.246889	0.997085
779.571086	0.997558
779.895236	0.996789
780.219339	0.997634
780.543397	0.996600
780.867409	0.996682
781.191374	0.996057
781.515294	0.996985
781.839167	0.997659
782.162995	0.996653
782.486776	0.996974
782.810511	0.996753
783.134201	0.997716
783.457844	0.997520
783.781441	0.996759
784.104993	0.996577
784.428498	0.997242
784.751958	0.997999
785.075372	0.997663
785.398739	0.996688
785.722061	0.997149
786.045337	0.997453
786.368568	0.997052
786.691752	0.996534
787.014891	0.997290
787.337983	0.995456
787.661030	0.995807
787.984031	0.996624
788.306987	0.996497
788.629897	0.995158
788.952760	0.995677
789.275579	0.996280
789.598351	0.994785
789.921078	0.996906
790.243759	0.996552
790.566395	0.996618
790.888984	0.997143
791.211529	0.997634
791.534027	0.996767
791.856480	0.996730
792.178888	0.996477
792.501249	0.996666
792.823566	0.998184
793.145836	0.996880
793.468062	0.997979
793.790241	0.997948
794.112375	0.996414
794.434464	0.997991
794.756507	0.996776
795.078505	0.997698
795.400457	0.997649
795.722364	0.998192
796.044226	0.996859
796.366042	0.996151
796.687812	0.995046
797.009538	0.995829
797.331218	0.997011
797.652852	0.997544
797.974442	0.996246
798.295986	0.996907
798.617484	0.996321
798.938938	0.997314
799.260346	0.995730
799.581709	0.996609
799.903026	0.997435
800.224299	0.996297
800.545526	0.997905
800.866708	0.997164
801.187845	0.998096
801.508936	0.996482
801.829983	0.996321
802.150984	0.998083
802.471940	0.998071
802.792851	0.997058
803.113717	0.997877
803.434538	0.998051
803.755314	0.999257
804.076045	0.997408
804.396731	0.996743
804.717372	0.996026
805.037967	0.998467
805.358518	0.997333
805.679024	0.997909
805.999485	0.997176
806.319901	0.997354
806.640272	0.997235
806.960598	0.997517
807.280879	0.997769
807.601115	0.998358
807.921306	0.999021
808.241453	0.996480
808.561554	0.998187
808.881611	0.997739
809.201623	0.996351
809.521590	0.996865
809.841513	0.998162
810.161390	0.996389
810.481223	0.995889
810.801011	0.998318
811.120755	0.997941
811.440453	0.997138
811.760107	0.998014
812.079716	0.997202
812.399281	0.997472
812.718801	0.996132
813.038276	0.997470
813.357707	0.997472
813.677093	0.998303
813.996434	0.997698
814.315731	0.999696
814.634983	0.998247
814.954191	0.998529
815.273354	0.997248
815.592473	0.997453
815.911547	0.997493
816.230577	0.996980
816.549562	0.997037
816.868502	0.996445
817.187399	0.997891
817.506250	0.997192
817.825058	0.995627
818.143821	0.996449
818.462539	0.996552
818.781213	0.996709
819.099843	0.996982
819.418429	0.995053
819.736970	0.994902
820.055466	0.993483
820.373919	0.994040
820.692327	0.992168
821.010691	0.990645
821.329011	0.987563
821.647286	0.983648
821.965517	0.981323
822.283704	0.976917
822.601847	0.974935
822.919945	0.975931
823.237999	0.977955
823.556010	0.979629
823.873976	0.981917
824.191897	0.984726
824.509775	0.986309
824.827609	0.987604
825.145398	0.988584
825.463144	0.987872
825.780845	0.987707
826.098502	0.988327
826.416116	0.987933
826.733685	0.985624
827.051210	0.982405
827.368692	0.984239
827.686129	0.984594
828.003522	0.988111
828.320872	0.988493
828.638177	0.991903
828.955439	0.992901
829.272656	0.992826
829.589830	0.992982
829.906960	0.994867
830.224046	0.995051
830.541088	0.994747
830.858086	0.995968
831.175041	0.996005
831.491952	0.996589
831.808819	0.996543
832.125642	0.996019
832.442421	0.996243
832.759157	0.995266
833.075849	0.993471
833.392497	0.991019
833.709101	0.989447
834.025662	0.988741
834.342179	0.990127
834.658653	0.992379
834.975083	0.991844
835.291469	0.995005
835.607811	0.994755
835.924110	0.995305
836.240366	0.998201
836.556578	0.996885
836.872746	0.997541
837.188871	0.997353
837.504952	0.997437
837.820990	0.997917
838.136984	0.996381
838.452935	0.997427
838.768842	0.998552
839.084706	0.998073
839.400526	0.997272
839.716303	0.994700
840.032037	0.993870
840.347727	0.993125
840.663373	0.995363
840.978977	0.995172
841.294537	0.997224
841.610054	0.998355
841.925527	0.998655
842.240957	0.998483
842.556344	0.997328
842.871687	0.998088
843.186987	0.998989
843.502244	0.999299
843.817458	0.998075
844.132629	0.998460
844.447756	0.999485
844.762840	0.999909
845.077881	0.999744
845.392879	0.998081
845.707833	0.998989
846.022745	0.999932
846.337613	0.999489
846.652438	0.998638
846.967221	1.000085
847.281960	0.999429
847.596656	0.999195
847.911309	1.000328
848.225919	0.999191
848.540485	1.000598
848.855009	0.999980
849.169490	0.999670
849.483928	0.999447
849.798323	0.998429
850.112675	1.000252
850.426984	0.999704
850.741251	1.000251
851.055474	0.998373
851.369654	1.000200
851.683792	0.999748
851.997887	0.999556
852.311938	1.000037
852.625947	0.999014
852.939914	0.998810
853.253837	1.000672
853.567718	0.998730
853.881555	0.999741
854.195350	0.999832
854.509103	0.999932
854.822812	0.999378
855.136479	0.999361
855.450103	0.999684
855.763685	1.000567
856.077224	0.999690
856.390720	0.998765
856.704173	1.000225
857.017584	0.999092
857.330953	0.999893
857.644278	0.998873
857.957561	0.999981
858.270802	0.999993
858.584000	0.998815
858.897155	0.999790
859.210268	0.998633
859.523339	1.000786
859.836367	0.999791
860.149352	0.998959
860.462295	0.999698
860.775195	0.999665
861.088054	0.997624
861.400869	1.000167
861.713642	0.998829
862.026373	1.000294
862.339062	1.000107
862.651708	1.000042
862.964312	1.000569
863.276873	1.000344
863.589392	0.998016
863.901869	0.998573
864.214303	1.000035
864.526696	1.000032
864.839045	0.999380
865.151353	0.998890
865.463619	0.999063
865.775842	0.999336
866.088023	1.000756
866.400162	0.999915
866.712258	1.001258
867.024313	0.999302
867.336325	0.999965
867.648296	0.999907
867.960224	0.999090
868.272110	0.999520
868.583954	0.999305
868.895755	0.999761
869.207515	0.999202
869.519233	0.999987
869.830909	0.998763
870.142542	0.998654
870.454134	0.998683
870.765684	0.997965
871.077191	0.999266
871.388657	0.999198
871.700081	1.000051
872.011463	0.998972
872.322803	0.999229
872.634101	0.998626
872.945357	0.998690
873.256571	0.998224
873.567744	0.998333
873.878874	0.998088
874.189963	0.998686
874.501010	0.999395
874.812015	0.998562
875.122979	0.998554
875.433900	0.998405
875.744780	0.998142
876.055618	0.997963
876.366415	0.998246
876.677169	0.998469
876.987882	0.998553
877.298554	0.998866
877.609183	0.997222
877.919771	0.997844
878.230317	0.998558
878.540822	0.997250
878.851285	0.997170
879.161707	0.996965
879.472087	0.997990
879.782425	0.994109
880.092722	0.992410
880.402977	0.989552
880.713191	0.984794
881.023363	0.981095
881.333494	0.979250
881.643583	0.979554
881.953631	0.979042
882.263637	0.977946
882.573602	0.979574
882.883526	0.980731
883.193408	0.984426
883.503248	0.986015
883.813048	0.986375
884.122806	0.989390
884.432522	0.990478
884.742197	0.992570
885.051831	0.993002
885.361424	0.994235
885.670975	0.995445
885.980485	0.994153
886.289954	0.994921
886.599382	0.994790
886.908768	0.997731
887.218113	0.995614
887.527417	0.996853
887.836680	0.997696
888.145901	0.998272
888.455082	0.997932
888.764221	0.997610
889.073319	0.997817
889.382376	0.999187
889.691392	0.997345
890.000366	0.998427
890.309300	0.998020
890.618193	0.998757
890.927044	0.997604
891.235855	0.996630
891.544625	0.997363
891.853353	0.997928
892.162041	0.996651
892.470687	0.998826
892.779293	0.996781
893.087858	0.996408
893.396381	0.995751
893.704864	0.993720
894.013306	0.993823
894.321707	0.991898
894.630068	0.990469
894.938387	0.988732
895.246665	0.989012
895.554903	0.989014
895.863100	0.991712
896.171256	0.993217
896.479371	0.993615
896.787446	0.994544
897.095480	0.995309
897.403473	0.995870
897.711425	0.995926
898.019336	0.996085
898.327207	0.997257
898.635038	0.997030
898.942827	0.996872
899.250576	0.996729
899.558284	0.997887
899.865952	0.997391
900.173579	0.998696
900.481165	0.997089
900.788711	0.996979
901.096216	0.997835
901.403681	0.999200
901.711105	0.997477
902.018489	0.997344
902.325832	0.997998
902.633135	0.998113
902.940397	0.997631
903.247619	0.997220
903.554800	0.995396
903.861941	0.992983
904.169041	0.989410
904.476101	0.987697
904.783121	0.986288
905.090100	0.988293
905.397039	0.989434
905.703938	0.990490
906.010796	0.993444
906.317614	0.994925
906.624391	0.996145
906.931129	0.996905
907.237826	0.997005
907.544483	0.996940
907.851099	0.997309
908.157675	0.998768
908.464211	0.998807
908.770707	0.997954
909.077163	0.999234
909.383578	0.998897
909.689954	0.998422
909.996289	0.997925
910.302584	0.999485
910.608839	0.999953
910.915054	0.998843
911.221229	1.000048
911.527363	0.999401
911.833458	0.999697
912.139513	1.000201
912.445527	0.999068
912.751502	0.998506
913.057436	0.998897
913.363331	0.999569
913.669186	0.999106
913.975000	0.997935
914.280775	0.997162
914.586510	0.995635
914.892205	0.993704
915.197859	0.992965
915.503475	0.992077
915.809050	0.989219
916.114585	0.986514
916.420081	0.987336
916.725536	0.987072
917.030952	0.988725
917.336328	0.989193
917.641665	0.990134
917.946961	0.990619
918.252218	0.992687
918.557435	0.993596
918.862612	0.995225
919.167750	0.995990
919.472848	0.995565
919.777906	0.997736
920.082925	0.998250
920.387904	0.999054
920.692843	0.998081
920.997743	0.997291
921.302603	0.997935
921.607423	0.998088
921.912204	0.998162
922.216946	0.998969
922.521647	0.997483
922.826310	0.999151
923.130932	0.999442
923.435516	0.999984
923.740059	0.997652
924.044564	0.998630
924.349028	0.999208
924.653454	0.999295
924.957840	0.999222
925.262186	0.998968
925.566493	0.999253
925.870761	0.999323
926.174989	0.999181
926.479178	1.000299
926.783328	1.000465
927.087438	1.000739
927.391509	0.999451
927.695541	0.999822
927.999533	1.000336
928.303486	0.999910
928.607400	0.999939
928.911275	1.000054
929.215110	1.000218
929.518906	1.001790
929.822663	1.002523
930.126381	1.000945
930.430060	1.000783
930.733699	1.001123
931.037299	1.001091
931.340861	1.000980
931.644383	1.000030
931.947866	1.001867
932.251309	1.000751
932.554714	0.999800
932.858080	1.001101
933.161407	0.999852
933.464694	1.000963
933.767943	1.000880
934.071153	0.999930
934.374323	1.001691
934.677455	0.999542
934.980548	0.999814
935.283602	1.000870
935.586617	1.000284
935.889593	1.001328
936.192530	1.000960
936.495428	1.000343
936.798287	0.999771
937.101108	1.000047
937.403890	0.999229
937.706632	1.000842
938.009336	1.000334
938.312002	1.000147
938.614628	1.000125
938.917216	0.998451
939.219765	0.999193
939.522275	0.999295
939.824747	0.999613
940.127179	1.000213
940.429573	1.001488
940.731929	0.999540
941.034246	0.999114
941.336524	0.999055
941.638763	0.999587
941.940964	0.999767
942.243126	1.001267
942.545250	1.001412
942.847335	0.999057
943.149381	1.000398
943.451389	1.000331
943.753359	0.999799
944.055290	1.000396
944.357182	1.001113
944.659036	1.000844
944.960851	1.000721
945.262628	0.999944
945.564367	1.000867
945.866067	1.000579
946.167729	1.000545
946.469352	1.001008
946.770937	0.998746
947.072484	1.000647
947.373992	0.999849
947.675462	0.999697
947.976893	1.000139
948.278286	1.001281
948.579641	1.000738
948.880958	1.000486
949.182236	0.999474
949.483476	1.000563
949.784678	1.000823
950.085841	0.999512
950.386967	1.000319
950.688054	0.999875
950.989103	0.997520
951.290114	0.999232
951.591087	0.999328
951.892021	0.998891
952.192917	1.001024
952.493776	0.999764
952.794596	0.999845
953.095378	1.000008
953.396122	1.000003
953.696828	1.001126
953.997496	1.000675
954.298126	1.000883
954.598718	0.999473
954.899272	1.000475
955.199788	1.000614
955.500266	1.001185
955.800706	1.000045
956.101108	1.000041
956.401472	1.002141
956.701798	1.000568
957.002087	0.999236
957.302337	1.000955
957.602550	1.001110
957.902724	1.001196
958.202861	1.000362
958.502960	0.999256
958.803022	1.001482
959.103045	1.001797
959.403031	1.001542
959.702979	1.001563
960.002889	1.000245
960.302762	1.000406
960.602596	1.002120
960.902393	1.000778
961.202153	1.001221
961.501875	1.000651
961.801559	1.002448
962.101205	1.000967
962.400814	1.002673
962.700385	1.001466
962.999918	1.001636
963.299414	0.999208
963.598873	1.001854
963.898293	1.000730
964.197677	1.001181
964.497022	1.001427
964.796331	1.001599
965.095601	1.002040
965.394835	1.000517
965.694030	1.001831
965.993189	1.000398
966.292309	1.000795
966.591393	1.000779
966.890439	1.000999
967.189447	1.000752
967.488419	1.002587
967.787353	1.001255
968.086249	1.001895
968.385108	1.000974
968.683930	1.001543
968.982714	1.001452
969.281462	1.002043
969.580172	1.000710
969.878844	1.002466
970.177480	1.002224
970.476078	1.002186
970.774639	1.002261
971.073162	1.001702
971.371649	1.000719
971.670098	1.001096
971.968510	1.001498
972.266885	1.000393
972.565223	1.000859
972.863524	0.999257
973.161788	1.001302
973.460014	1.002938
973.758204	1.000090
974.056356	1.000054
974.354471	1.000119
974.652550	1.001544
974.950591	1.001592
975.248595	1.000011
975.546563	1.001750
975.844493	1.002054
976.142386	1.000467
976.440243	1.001071
976.738062	1.001692
977.035845	0.999836
977.333590	1.000608
977.631299	1.002017
977.928971	1.001452
978.226606	1.000986
978.524204	1.000976
978.821765	1.001635
979.119290	1.002211
979.416777	1.001608
979.714228	1.001018
980.011642	1.001166
980.309020	1.000177
980.606360	0.999877
980.903664	1.001619
981.200931	1.000404
981.498162	0.999621
981.795356	1.001549
982.092513	1.000748
982.389633	1.001727
982.686717	1.000101
982.983764	1.000900
983.280775	1.001321
983.577749	1.001133
983.874686	1.000229
984.171587	0.998962
984.468451	1.000307
984.765279	1.001965
985.062070	1.000670
985.358824	1.000378
985.655543	1.000893
985.952224	1.002282
986.248869	1.001560
986.545478	1.002880
986.842050	1.001325
987.138586	1.000017
987.435086	1.000214
987.731549	1.002752
988.027975	1.002130
988.324366	1.000069
988.620719	1.002716
988.917037	1.000256
989.213318	1.001430
989.509563	1.001121
989.805772	1.001954
990.101944	1.000807
990.398080	1.001050
990.694180	1.003338
990.990244	0.999930
991.286271	1.002298
991.582262	1.001977
991.878217	1.001595
992.174136	1.002229
992.470019	1.000061
992.765865	1.001845
993.061676	1.002008
993.357450	1.002485
993.653188	1.001715
993.948890	1.002528
994.244556	1.000956
994.540186	1.000975
994.835780	1.000634
995.131337	1.001860
995.426859	1.001381
995.722345	1.002086
996.017795	1.000415
996.313208	1.000616
996.608586	1.000790
996.903928	1.000720
997.199234	1.001163
997.494504	1.001569
997.789738	1.000140
998.084936	1.001891
998.380099	1.000057
998.675225	1.001730
998.970316	1.002960
999.265371	1.001125
999.560390	1.001154
999.855373	1.000384
1000.150320	1.002659
1000.445232	1.001765
1000.740108	1.003197
1001.034948	1.001398
1001.329752	1.002380
1001.624521	1.001698
1001.919254	1.001044
1002.213951	1.000723
1002.508613	1.001298
1002.803239	1.001690
1003.097829	1.002172
1003.392384	1.001423
1003.686903	1.001407
1003.981386	1.001989
1004.275834	1.003060
1004.570246	1.001141
1004.864623	1.001715
1005.158964	1.001705
1005.453270	1.001212
1005.747540	1.001067
1006.041775	1.001685
1006.335974	1.001320
1006.630138	1.002139
1006.924266	1.000738
1007.218359	1.000330
1007.512416	1.001857
1007.806438	1.001564
1008.100425	1.002349
1008.394376	1.001992
1008.688292	1.000722
1008.982172	1.000746
1009.276017	1.002476
1009.569827	1.002011
1009.863602	1.000811
1010.157341	1.002633
1010.451045	1.001207
1010.744714	1.003123
1011.038347	1.002800
1011.331945	1.000856
1011.625508	1.002113
1011.919036	1.001745
1012.212528	1.002004
1012.505986	1.001925
1012.799408	1.002409
1013.092795	1.001791
1013.386147	1.000634
1013.679464	1.002637
1013.972745	1.001649
1014.265992	1.000975
1014.559204	1.002021
1014.852380	1.001997
1015.145521	1.001613
1015.438628	1.002830
1015.731699	1.001523
1016.024736	1.002165
1016.317737	1.002025
1016.610703	1.002159
1016.903635	1.001275
1017.196531	1.000631
1017.489393	1.001515
1017.782219	1.000180
1018.075011	1.000742
1018.367768	1.001818
1018.660490	1.000631
1018.953177	1.000631
1019.245829	1.000631
