Dividing Wavelength (nm)	Counts (n)	Blue Motor Position (mm): 34.700000	Red Motor Position (mm): 0.000000	
326.493990	0.999946
326.888308	0.999946
327.282561	0.999946
327.676750	1.001599
328.070874	1.002409
328.464933	1.000832
328.858929	1.001556
329.252859	0.999687
329.646726	1.000065
330.040528	0.999515
330.434265	1.000982
330.827938	0.999747
331.221547	1.000604
331.615091	1.001441
332.008571	1.001937
332.401986	1.000281
332.795338	0.999527
333.188625	1.001435
333.581847	0.999518
333.975006	1.000561
334.368100	1.000711
334.761129	1.000515
335.154095	1.001329
335.546996	1.000815
335.939833	0.997982
336.332606	1.000215
336.725315	0.999811
337.117960	1.000822
337.510540	0.999128
337.903056	1.000168
338.295508	1.001179
338.687896	1.001235
339.080220	0.999506
339.472480	0.998163
339.864676	0.999849
340.256807	0.998485
340.648875	1.000412
341.040879	0.998929
341.432818	1.001138
341.824694	0.999988
342.216506	1.000506
342.608253	1.000780
342.999937	0.999455
343.391557	0.999199
343.783113	1.000681
344.174605	1.000595
344.566033	1.000018
344.957397	1.001893
345.348697	1.000172
345.739934	0.999963
346.131106	0.999217
346.522215	0.999811
346.913260	0.999466
347.304241	0.999361
347.695159	0.999350
348.086012	1.000851
348.476802	1.000121
348.867528	0.999946
349.258191	0.999931
349.648789	1.000413
350.039324	1.000522
350.429796	1.000159
350.820203	0.998233
351.210548	0.999879
351.600828	0.999553
351.991045	1.001196
352.381198	1.000544
352.771288	0.999919
353.161314	0.999174
353.551276	0.998555
353.941175	0.998333
354.331010	0.999161
354.720782	0.999907
355.110490	0.999517
355.500135	0.999459
355.889717	0.999237
356.279235	0.999739
356.668689	0.999545
357.058080	1.000018
357.447408	0.998661
357.836672	0.999222
358.225873	0.998684
358.615010	0.999415
359.004084	0.997926
359.393095	0.999602
359.782043	0.997693
360.170927	1.000168
360.559748	0.998643
360.948505	0.998378
361.337199	0.997737
361.725830	0.998242
362.114398	0.997735
362.502903	0.997289
362.891344	0.997275
363.279722	0.996882
363.668037	0.998288
364.056289	0.997780
364.444478	0.998468
364.832603	0.998354
365.220665	0.998534
365.608665	0.998635
365.996601	0.997430
366.384474	0.997037
366.772284	0.997961
367.160031	0.996439
367.547715	0.996331
367.935336	0.995445
368.322893	0.993656
368.710388	0.992605
369.097820	0.991821
369.485189	0.989651
369.872495	0.988073
370.259738	0.986368
370.646918	0.983053
371.034035	0.981371
371.421090	0.978263
371.808081	0.972120
372.195010	0.970994
372.581875	0.965329
372.968678	0.960235
373.355418	0.957047
373.742096	0.950354
374.128710	0.944754
374.515262	0.940757
374.901751	0.934473
375.288177	0.929577
375.674540	0.923667
376.060841	0.917801
376.447079	0.910358
376.833254	0.903906
377.219367	0.899255
377.605417	0.888324
377.991404	0.884045
378.377329	0.878434
378.763191	0.871268
379.148991	0.861667
379.534727	0.855064
379.920402	0.846668
380.306013	0.843482
380.691563	0.830253
381.077049	0.824145
381.462474	0.819434
381.847835	0.808787
382.233134	0.804140
382.618371	0.803915
383.003545	0.785749
383.388657	0.785316
383.773706	0.777887
384.158693	0.772720
384.543618	0.768057
384.928480	0.758860
385.313280	0.748942
385.698017	0.748195
386.082692	0.736417
386.467305	0.735086
386.851856	0.730366
387.236344	0.724790
387.620770	0.719259
388.005133	0.713903
388.389435	0.708594
388.773674	0.705227
389.157851	0.697601
389.541965	0.694721
389.926018	0.701775
390.310008	0.687626
390.693936	0.684755
391.077802	0.677676
391.461606	0.679154
391.845348	0.668384
392.229027	0.667529
392.612645	0.666710
392.996200	0.653265
393.379694	0.646074
393.763125	0.635994
394.146494	0.640848
394.529801	0.631765
394.913047	0.623534
395.296230	0.629523
395.679351	0.621527
396.062410	0.618192
396.445408	0.620750
396.828343	0.616044
397.211217	0.610882
397.594028	0.623680
397.976778	0.613722
398.359466	0.610411
398.742092	0.605220
399.124656	0.617650
399.507158	0.605469
399.889598	0.603033
400.271977	0.594529
400.654294	0.598794
401.036549	0.597434
401.418742	0.602062
401.800874	0.587806
402.182944	0.584760
402.564952	0.576358
402.946898	0.578839
403.328783	0.579431
403.710606	0.591424
404.092367	0.566569
404.474067	0.572494
404.855705	0.571196
405.237282	0.581956
405.618797	0.568291
406.000250	0.565221
406.381642	0.556483
406.762972	0.563465
407.144240	0.562938
407.525447	0.564931
407.906593	0.560296
408.287677	0.557270
408.668700	0.568344
409.049661	0.565391
409.430560	0.563598
409.811399	0.574319
410.192176	0.560430
410.572891	0.570175
410.953545	0.562915
411.334138	0.579325
411.714669	0.576760
412.095139	0.591564
412.475547	0.581344
412.855894	0.588332
413.236180	0.592271
413.616405	0.601745
413.996568	0.598794
414.376670	0.609910
414.756711	0.619125
415.136691	0.622119
415.516609	0.621753
415.896466	0.624847
416.276262	0.628197
416.655997	0.637047
417.035670	0.629984
417.415283	0.630924
417.794834	0.642428
418.174324	0.653482
418.553753	0.667111
418.933121	0.662567
419.312428	0.667508
419.691674	0.680105
420.070859	0.680570
420.449983	0.694087
420.829045	0.695236
421.208047	0.709227
421.586988	0.714523
421.965867	0.722937
422.344686	0.727658
422.723444	0.741253
423.102141	0.759116
423.480777	0.753657
423.859352	0.773778
424.237866	0.771477
424.616319	0.780804
424.994712	0.786091
425.373044	0.798260
425.751314	0.802961
426.129524	0.818696
426.507673	0.819429
426.885762	0.825635
427.263789	0.836219
427.641756	0.846263
428.019662	0.852428
428.397508	0.859579
428.775292	0.868534
429.153016	0.873021
429.530679	0.882162
429.908282	0.887294
430.285824	0.894972
430.663305	0.897507
431.040726	0.908513
431.418086	0.913251
431.795385	0.917839
432.172624	0.923748
432.549802	0.927541
432.926920	0.933345
433.303977	0.937946
433.680974	0.941417
434.057910	0.946151
434.434786	0.949608
434.811601	0.953775
435.188355	0.956117
435.565050	0.961246
435.941683	0.963596
436.318257	0.965283
436.694770	0.968782
437.071222	0.971839
437.447614	0.974308
437.823946	0.976576
438.200218	0.978203
438.576429	0.980530
438.952580	0.982335
439.328670	0.982917
439.704700	0.985185
440.080670	0.986932
440.456580	0.988892
440.832429	0.989024
441.208218	0.991768
441.583947	0.992311
441.959616	0.991365
442.335224	0.993382
442.710773	0.993678
443.086261	0.994962
443.461689	0.994667
443.837057	0.995203
444.212365	0.995659
444.587612	0.996321
444.962800	0.996037
445.337927	0.997158
445.712995	0.996920
446.088002	0.996757
446.462949	0.996881
446.837837	0.997999
447.212664	0.996878
447.587431	0.997930
447.962139	0.997502
448.336786	0.996967
448.711374	0.997195
449.085901	0.997824
449.460369	0.998299
449.834776	0.997400
450.209124	0.998066
450.583412	0.998790
450.957640	0.997718
451.331808	0.998597
451.705917	0.997610
452.079965	0.998408
452.453954	0.998901
452.827883	0.998300
453.201752	0.998502
453.575562	0.997785
453.949311	0.998657
454.323001	0.998199
454.696632	0.998277
455.070202	0.997689
455.443713	0.997702
455.817164	0.998002
456.190556	0.998297
456.563888	0.999550
456.937160	0.998484
457.310373	0.998542
457.683526	0.999050
458.056619	0.998332
458.429653	0.998289
458.802628	0.998873
459.175542	0.998572
459.548398	0.998689
459.921194	0.997925
460.293930	1.000163
460.666607	0.998976
461.039224	0.998182
461.411782	0.998837
461.784280	0.998476
462.156719	0.998640
462.529099	0.998486
462.901419	0.998128
463.273680	0.998179
463.645882	0.998824
464.018024	0.998197
464.390106	0.998000
464.762130	0.997815
465.134094	0.998366
465.505999	0.998509
465.877845	0.997396
466.249631	0.997721
466.621358	0.997772
466.993026	0.997565
467.364634	0.998211
467.736184	0.998238
468.107674	0.997955
468.479105	0.997589
468.850477	0.997861
469.221790	0.998739
469.593043	0.997543
469.964238	0.997994
470.335373	0.997831
470.706449	0.998420
471.077467	0.997370
471.448425	0.998096
471.819324	0.997869
472.190164	0.997559
472.560945	0.998104
472.931667	0.997114
473.302330	0.998238
473.672934	0.998370
474.043479	0.997068
474.413965	0.997544
474.784393	0.997672
475.154761	0.997441
475.525070	0.997494
475.895321	0.997608
476.265513	0.997841
476.635645	0.998041
477.005719	0.997712
477.375734	0.997591
477.745691	0.996881
478.115588	0.997516
478.485427	0.997558
478.855207	0.997415
479.224928	0.997017
479.594591	0.997183
479.964194	0.997432
480.333739	0.997399
480.703226	0.996584
481.072653	0.996549
481.442022	0.997224
481.811333	0.997342
482.180584	0.997556
482.549777	0.997450
482.918912	0.997244
483.287988	0.997284
483.657005	0.997077
484.025964	0.997462
484.394864	0.997118
484.763706	0.997491
485.132489	0.997321
485.501213	0.997437
485.869879	0.997195
486.238487	0.996181
486.607036	0.997975
486.975527	0.997852
487.343959	0.996627
487.712333	0.997140
488.080648	0.996893
488.448905	0.997966
488.817104	0.997680
489.185244	0.997513
489.553326	0.997692
489.921350	0.997462
490.289315	0.997502
490.657222	0.997164
491.025070	0.997824
491.392861	0.997358
491.760593	0.997093
492.128267	0.997184
492.495883	0.997035
492.863440	0.997508
493.230939	0.998099
493.598380	0.997895
493.965763	0.997905
494.333088	0.996991
494.700354	0.997719
495.067563	0.997493
495.434713	0.998053
495.801805	0.997296
496.168839	0.997853
496.535815	0.997923
496.902733	0.997714
497.269593	0.997386
497.636395	0.996567
498.003139	0.996739
498.369825	0.998013
498.736453	0.997368
499.103023	0.997768
499.469535	0.997716
499.835989	0.997660
500.202385	0.997662
500.568723	0.997483
500.935003	0.997900
501.301226	0.997886
501.667390	0.997563
502.033497	0.997642
502.399546	0.997132
502.765537	0.997953
503.131470	0.997806
503.497345	0.999105
503.863163	0.997700
504.228923	0.997664
504.594625	0.997807
504.960269	0.997108
505.325856	0.998522
505.691385	0.998362
506.056856	0.997750
506.422270	0.997351
506.787625	0.997742
507.152924	0.998095
507.518164	0.997274
507.883347	0.997457
508.248472	0.997550
508.613540	0.997455
508.978550	0.997443
509.343503	0.997474
509.708398	0.997949
510.073236	0.997530
510.438016	0.997458
510.802738	0.996645
511.167403	0.997210
511.532010	0.997816
511.896561	0.997657
512.261053	0.997474
512.625488	0.997274
512.989866	0.997608
513.354186	0.996313
513.718449	0.997143
514.082655	0.997500
514.446803	0.997380
514.810894	0.997413
515.174927	0.997762
515.538904	0.997881
515.902822	0.997703
516.266684	0.997599
516.630488	0.997420
516.994235	0.997837
517.357925	0.998110
517.721558	0.998038
518.085133	0.996953
518.448651	0.997494
518.812112	0.998500
519.175516	0.997250
519.538863	0.996920
519.902152	0.998199
520.265385	0.997825
520.628560	0.996672
520.991678	0.997393
521.354739	0.997779
521.717743	0.997527
522.080690	0.996395
522.443580	0.998505
522.806413	0.997473
523.169189	0.997677
523.531908	0.997472
523.894569	0.997768
524.257174	0.997906
524.619722	0.997841
524.982213	0.997365
525.344647	0.997730
525.707025	0.996909
526.069345	0.996788
526.431608	0.997668
526.793815	0.997653
527.155964	0.997138
527.518057	0.997988
527.880093	0.997357
528.242072	0.997261
528.603995	0.997262
528.965860	0.997876
529.327669	0.997681
529.689421	0.996988
530.051117	0.998219
530.412755	0.997784
530.774337	0.997674
531.135862	0.998050
531.497331	0.997480
531.858743	0.998355
532.220098	0.997587
532.581396	0.997434
532.942638	0.997958
533.303824	0.998617
533.664953	0.997071
534.026025	0.998302
534.387040	0.997847
534.747999	0.997315
535.108902	0.997546
535.469748	0.997703
535.830537	0.997586
536.191270	0.997915
536.551947	0.997569
536.912567	0.997785
537.273131	0.997669
537.633638	0.997236
537.994089	0.997770
538.354483	0.997915
538.714821	0.997735
539.075103	0.997526
539.435328	0.998128
539.795497	0.998119
540.155609	0.997480
540.515665	0.997460
540.875665	0.997339
541.235609	0.998016
541.595496	0.997234
541.955328	0.997168
542.315102	0.998123
542.674821	0.997858
543.034483	0.998326
543.394090	0.996958
543.753640	0.997786
544.113134	0.997462
544.472571	0.998754
544.831953	0.997943
545.191278	0.997477
545.550548	0.997460
545.909761	0.997300
546.268918	0.998291
546.628019	0.997867
546.987064	0.998092
547.346053	0.997232
547.704986	0.997606
548.063863	0.997934
548.422684	0.997933
548.781449	0.998061
549.140158	0.997593
549.498811	0.997543
549.857408	0.997617
550.215949	0.996854
550.574434	0.997759
550.932864	0.998021
551.291237	0.997765
551.649555	0.998388
552.007817	0.998015
552.366022	0.998130
552.724173	0.998326
553.082267	0.997403
553.440305	0.997171
553.798288	0.997016
554.156215	0.997183
554.514086	0.997910
554.871902	0.998094
555.229661	0.996483
555.587365	0.997950
555.945014	0.998923
556.302606	0.996992
556.660143	0.998019
557.017625	0.997802
557.375050	0.997566
557.732421	0.998018
558.089735	0.997800
558.446994	0.997135
558.804197	0.998125
559.161345	0.996638
559.518437	0.997631
559.875474	0.997761
560.232455	0.998193
560.589381	0.997899
560.946251	0.997801
561.303065	0.998361
561.659825	0.997441
562.016528	0.997755
562.373177	0.998030
562.729770	0.997186
563.086307	0.997606
563.442789	0.997717
563.799216	0.997045
564.155587	0.998111
564.511904	0.998550
564.868164	0.996943
565.224370	0.997696
565.580520	0.997839
565.936615	0.997720
566.292654	0.997860
566.648638	0.998554
567.004567	0.997309
567.360441	0.998347
567.716260	0.998268
568.072023	0.997195
568.427732	0.997975
568.783385	0.997711
569.138982	0.997875
569.494525	0.997707
569.850013	0.998494
570.205445	0.998303
570.560823	0.997136
570.916145	0.997680
571.271412	0.998514
571.626625	0.998714
571.981782	0.998170
572.336884	0.997783
572.691931	0.997689
573.046923	0.998266
573.401860	0.997760
573.756743	0.998594
574.111570	0.998121
574.466342	0.998084
574.821059	0.998261
575.175722	0.998503
575.530330	0.998191
575.884882	0.998513
576.239380	0.998189
576.593823	0.998067
576.948211	0.998115
577.302544	0.997939
577.656823	0.998231
578.011047	0.997717
578.365216	0.998006
578.719330	0.997873
579.073389	0.997641
579.427394	0.997662
579.781344	0.997991
580.135239	0.997217
580.489080	0.997621
580.842866	0.998498
581.196597	0.997889
581.550273	0.997490
581.903895	0.998308
582.257463	0.998004
582.610975	0.997837
582.964434	0.997749
583.317837	0.998433
583.671186	0.998074
584.024481	0.997449
584.377721	0.997364
584.730906	0.998060
585.084037	0.998941
585.437113	0.998889
585.790135	0.997999
586.143103	0.998081
586.496016	0.997961
586.848874	0.998276
587.201679	0.997799
587.554428	0.997883
587.907124	0.998057
588.259765	0.998058
588.612352	0.998631
588.964884	0.998465
589.317362	0.997731
589.669786	0.997577
590.022155	0.997943
590.374470	0.997956
590.726731	0.997522
591.078937	0.998515
591.431090	0.997812
591.783188	0.997509
592.135232	0.999187
592.487222	0.998351
592.839157	0.997669
593.191038	0.997776
593.542866	0.997925
593.894639	0.997456
594.246358	0.998454
594.598022	0.998360
594.949633	0.997973
595.301190	0.997793
595.652692	0.997905
596.004141	0.997708
596.355535	0.997415
596.706876	0.998056
597.058162	0.998266
597.409395	0.997905
597.760573	0.998056
598.111698	0.998208
598.462768	0.996989
598.813785	0.996762
599.164748	0.997872
599.515657	0.997786
599.866511	0.998743
600.217312	0.999091
600.568060	0.997918
600.918753	0.998373
601.269392	0.998487
601.619978	0.998941
601.970510	0.998279
602.320988	0.998091
602.671412	0.998074
603.021783	0.998398
603.372100	0.999250
603.722363	0.999063
604.072572	0.997773
604.422728	0.997487
604.772830	0.997608
605.122878	0.998631
605.472872	0.998451
605.822813	0.997575
606.172701	0.998558
606.522534	0.998258
606.872314	0.998931
607.222041	0.997697
607.571714	0.998373
607.921333	0.998417
608.270899	0.998073
608.620411	0.998470
608.969870	0.999269
609.319276	0.998818
609.668627	0.999172
610.017926	0.998376
610.367171	0.998444
610.716362	0.998036
611.065500	0.998510
611.414585	0.998202
611.763616	0.997090
612.112594	0.998046
612.461518	0.998375
612.810389	0.998812
613.159207	0.998487
613.507971	0.997640
613.856682	0.998787
614.205340	0.997640
614.553945	0.998494
614.902496	0.998768
615.250994	0.998460
615.599439	0.998266
615.947830	0.997985
616.296169	0.998000
616.644454	0.998180
616.992686	0.998248
617.340864	0.998694
617.688990	0.997980
618.037063	0.997788
618.385082	0.997937
618.733048	0.997441
619.080961	0.998415
619.428821	0.998391
619.776628	0.998234
620.124382	0.999230
620.472083	0.998613
620.819731	0.999131
621.167326	0.998198
621.514868	0.998300
621.862357	0.998887
622.209793	0.997962
622.557176	0.997879
622.904506	0.997748
623.251783	0.999122
623.599007	0.998473
623.946179	0.997546
624.293297	0.999331
624.640363	0.998777
624.987376	0.998101
625.334336	0.997849
625.681243	0.998464
626.028097	0.998357
626.374899	0.997899
626.721647	0.998790
627.068343	0.998129
627.414987	0.998482
627.761577	0.997799
628.108115	0.997711
628.454600	0.998879
628.801032	0.998423
629.147412	0.998001
629.493739	1.000108
629.840014	0.998471
630.186236	0.997608
630.532405	0.998549
630.878521	0.998160
631.224585	0.998634
631.570597	0.998524
631.916556	0.998547
632.262462	0.997480
632.608316	0.998434
632.954117	0.998581
633.299866	0.998413
633.645562	0.998119
633.991206	0.999093
634.336797	0.998227
634.682336	0.998813
635.027823	0.998447
635.373257	0.998467
635.718639	0.999454
636.063968	0.997739
636.409245	0.998123
636.754470	0.999320
637.099642	0.998718
637.444762	0.998740
637.789829	0.998415
638.134845	0.998351
638.479808	0.998103
638.824719	0.998359
639.169577	0.998969
639.514383	0.998592
639.859137	0.998232
640.203839	0.997938
640.548489	0.998979
640.893086	0.997971
641.237632	0.998501
641.582125	0.998717
641.926566	0.999772
642.270955	0.997906
642.615292	0.998174
642.959576	0.998386
643.303809	0.999047
643.647990	0.998686
643.992118	0.999273
644.336195	0.998015
644.680219	0.998795
645.024192	0.998429
645.368112	0.998015
645.711981	0.998103
646.055797	0.999012
646.399562	0.998470
646.743274	0.999237
647.086935	0.997634
647.430544	0.997597
647.774101	0.997933
648.117606	0.999016
648.461059	0.999067
648.804460	0.998894
649.147810	0.997853
649.491108	0.998389
649.834354	0.998658
650.177548	0.999305
650.520690	0.998687
650.863781	0.998552
651.206820	0.998409
651.549807	0.998516
651.892742	0.999217
652.235626	0.999208
652.578458	0.998119
652.921238	0.999375
653.263967	0.998375
653.606644	0.998249
653.949269	0.998201
654.291843	0.998591
654.634365	0.998917
654.976836	0.997928
655.319255	0.999107
655.661622	0.998373
656.003938	0.997856
656.346203	0.998589
656.688416	0.999409
657.030577	0.998007
657.372687	0.998479
657.714746	0.998873
658.056753	0.997647
658.398708	0.998621
658.740612	0.999180
659.082465	0.998768
659.424266	0.998692
659.766016	0.997741
660.107715	0.999023
660.449362	0.998057
660.790958	0.998520
661.132503	0.998416
661.473996	0.997701
661.815438	0.998733
662.156829	0.998583
662.498168	0.999221
662.839456	0.997683
663.180693	0.998582
663.521879	0.998160
663.863013	0.998736
664.204097	0.998108
664.545129	0.998505
664.886110	0.999175
665.227040	0.999725
665.567918	0.998318
665.908746	0.997732
666.249522	0.998698
666.590248	0.997736
666.930922	0.997755
667.271545	0.998479
667.612118	0.998594
667.952639	0.998604
668.293109	0.998393
668.633528	0.997969
668.973896	0.998547
669.314213	0.997664
669.654480	0.999049
669.994695	0.997878
670.334859	0.998275
670.674973	0.997838
671.015035	0.998190
671.355047	0.998230
671.695008	0.997470
672.034918	0.998328
672.374777	0.998482
672.714585	0.997818
673.054342	0.999007
673.394049	0.997741
673.733705	0.997680
674.073310	0.998536
674.412864	0.998339
674.752368	0.997398
675.091820	0.999524
675.431223	0.998648
675.770574	0.997969
676.109875	0.998482
676.449125	0.998145
676.788324	0.997821
677.127473	0.998038
677.466571	0.998331
677.805619	0.999162
678.144616	0.999396
678.483562	0.998866
678.822458	0.998245
679.161303	0.997924
679.500098	0.998350
679.838842	0.998840
680.177535	0.997618
680.516179	0.997527
680.854771	0.998127
681.193314	0.998137
681.531805	0.997864
681.870247	0.997622
682.208638	0.998121
682.546978	0.997194
682.885268	0.997793
683.223508	0.997661
683.561697	0.997953
683.899836	0.997927
684.237925	0.997699
684.575963	0.998159
684.913951	0.998070
685.251889	0.998146
685.589776	0.997883
685.927614	0.997932
686.265401	0.996691
686.603137	0.997735
686.940824	0.997643
687.278460	0.998342
687.616046	0.997837
687.953582	0.998078
688.291068	0.998037
688.628504	0.997752
688.965889	0.997447
689.303224	0.996923
689.640510	0.997290
689.977745	0.997787
690.314930	0.998122
690.652065	0.998217
690.989150	0.997185
691.326185	0.998361
691.663170	0.997559
692.000105	0.998204
692.336990	0.997367
692.673825	0.998204
693.010610	0.997606
693.347345	0.998583
693.684030	0.997656
694.020665	0.997399
694.357251	0.997053
694.693786	0.998236
695.030272	0.996079
695.366707	0.997689
695.703093	0.997798
696.039429	0.997394
696.375716	0.998126
696.711952	0.997762
697.048139	0.998970
697.384276	0.998183
697.720363	0.997544
698.056400	0.996858
698.392388	0.996189
698.728326	0.997697
699.064214	0.998151
699.400053	0.997310
699.735842	0.998721
700.071581	0.997663
700.407270	0.997665
700.742910	0.998259
701.078501	0.997999
701.414042	0.997833
701.749533	0.996714
702.084974	0.998174
702.420366	0.998121
702.755709	0.997609
703.091002	0.998267
703.426246	0.998996
703.761440	0.997448
704.096584	0.996601
704.431679	0.997418
704.766725	0.998124
705.101721	0.998003
705.436668	0.997638
705.771565	0.997774
706.106413	0.996601
706.441212	0.998254
706.775961	0.997738
707.110661	0.997365
707.445311	0.998103
707.779913	0.997890
708.114465	0.997976
708.448967	0.998301
708.783421	0.998933
709.117825	0.998854
709.452180	0.997897
709.786485	0.998267
710.120742	0.996734
710.454949	0.997484
710.789107	0.997906
711.123216	0.995767
711.457275	0.997037
711.791286	0.997335
712.125247	0.998893
712.459159	0.997427
712.793023	0.996802
713.126837	0.998105
713.460602	0.996582
713.794318	0.997318
714.127985	0.997703
714.461602	0.998037
714.795171	0.996461
715.128691	0.997995
715.462162	0.998058
715.795584	0.997651
716.128957	0.998044
716.462281	0.998080
716.795556	0.996727
717.128782	0.998400
717.461960	0.997798
717.795088	0.997731
718.128167	0.998423
718.461198	0.996873
718.794180	0.997953
719.127113	0.998237
719.459997	0.997782
719.792833	0.997811
720.125619	0.997388
720.458357	0.997299
720.791046	0.998671
721.123686	0.997584
721.456278	0.996396
721.788821	0.997821
722.121315	0.998089
722.453761	0.997572
722.786158	0.997323
723.118506	0.997389
723.450805	0.997011
723.783056	0.997769
724.115259	0.998111
724.447412	0.998301
724.779518	0.996982
725.111574	0.997691
725.443582	0.997547
725.775542	0.998142
726.107453	0.997844
726.439315	0.999271
726.771129	0.997486
727.102895	0.997803
727.434612	0.997180
727.766281	0.997311
728.097901	0.997336
728.429473	0.998576
728.760996	0.997133
729.092471	0.997677
729.423897	0.997982
729.755276	0.997689
730.086606	0.997703
730.417887	0.997744
730.749120	0.997374
731.080305	0.997533
731.411442	0.996817
731.742530	0.996850
732.073570	0.997653
732.404562	0.997113
732.735506	0.997117
733.066401	0.997320
733.397249	0.997351
733.728048	0.996960
734.058798	0.997425
734.389501	0.998972
734.720156	0.997461
735.050762	0.998305
735.381320	0.997191
735.711831	0.997654
736.042293	0.997125
736.372707	0.998909
736.703073	0.996352
737.033391	0.997004
737.363661	0.998121
737.693883	0.996974
738.024056	0.997191
738.354182	0.996265
738.684260	0.997506
739.014290	0.997398
739.344272	0.996705
739.674207	0.997749
740.004093	0.996950
740.333931	0.997434
740.663722	0.997097
740.993464	0.997886
741.323159	0.996726
741.652806	0.997537
741.982405	0.997771
742.311956	0.997168
742.641460	0.997397
742.970915	0.997041
743.300323	0.996528
743.629683	0.996928
743.958996	0.997996
744.288260	0.996901
744.617477	0.997296
744.946647	0.997373
745.275768	0.998379
745.604842	0.997118
745.933869	0.998431
746.262847	0.997658
746.591778	0.996422
746.920662	0.998389
747.249498	0.998221
747.578286	0.998510
747.907027	0.997608
748.235720	0.997912
748.564365	0.998663
748.892963	0.997543
749.221514	0.997389
749.550017	0.997395
749.878473	0.997663
750.206881	0.998768
750.535242	0.997496
750.863555	0.997299
751.191821	0.998279
751.520039	0.996613
751.848210	0.996166
752.176334	0.997347
752.504411	0.997506
752.832440	0.997150
753.160421	0.998227
753.488356	0.997059
753.816243	0.997131
754.144082	0.997410
754.471875	0.997771
754.799620	0.997270
755.127318	0.997874
755.454969	0.997796
755.782572	0.998985
756.110129	0.997496
756.437638	0.998936
756.765100	0.997640
757.092515	0.996702
757.419882	0.998453
757.747203	0.996774
758.074477	0.998062
758.401703	0.997698
758.728882	0.997788
759.056014	0.996398
759.383099	0.997366
759.710138	0.997067
760.037129	0.996657
760.364073	0.998711
760.690970	0.997610
761.017820	0.997163
761.344623	0.997720
761.671379	0.997761
761.998088	0.997091
762.324751	0.997577
762.651366	0.995982
762.977935	0.995483
763.304456	0.995830
763.630931	0.994523
763.957359	0.994194
764.283740	0.995410
764.610074	0.995807
764.936362	0.996698
765.262602	0.997042
765.588796	0.997029
765.914943	0.996749
766.241044	0.997111
766.567097	0.996744
766.893104	0.998545
767.219064	0.997356
767.544978	0.996880
767.870845	0.998217
768.196665	0.997750
768.522438	0.997936
768.848165	0.998575
769.173846	0.998439
769.499479	0.997982
769.825066	0.998202
770.150607	0.998395
770.476101	0.998132
770.801548	0.998404
771.126949	0.999120
771.452303	0.997766
771.777611	0.999151
772.102872	0.997909
772.428087	0.998298
772.753256	0.998458
773.078378	0.997785
773.403453	0.996963
773.728482	0.999410
774.053465	0.997445
774.378401	0.998573
774.703291	0.998685
775.028135	0.999053
775.352932	0.997075
775.677683	0.999205
776.002388	0.997192
776.327046	0.997316
776.651658	0.999559
776.976224	0.998410
777.300743	0.997423
777.625216	0.998370
777.949643	0.998706
778.274024	0.997962
778.598359	0.997328
778.922647	0.999091
779.246889	0.998467
779.571086	0.997881
779.895236	0.998496
780.219339	0.998878
780.543397	0.998284
780.867409	0.998510
781.191374	0.998192
781.515294	0.999064
781.839167	0.999231
782.162995	0.998495
782.486776	0.997585
782.810511	0.997650
783.134201	0.997691
783.457844	0.997788
783.781441	0.997428
784.104993	0.997865
784.428498	0.999077
784.751958	0.999136
785.075372	0.998948
785.398739	0.998738
785.722061	0.998447
786.045337	0.998790
786.368568	0.999354
786.691752	0.999250
787.014891	0.999082
787.337983	0.997401
787.661030	0.998192
787.984031	0.998360
788.306987	0.997816
788.629897	0.996282
788.952760	0.997764
789.275579	0.998967
789.598351	0.998623
789.921078	0.999250
790.243759	0.998457
790.566395	0.998416
790.888984	0.998463
791.211529	0.998937
791.534027	0.999020
791.856480	0.999280
792.178888	0.998671
792.501249	0.997652
792.823566	0.999786
793.145836	0.998173
793.468062	0.999315
793.790241	0.999270
794.112375	0.997000
794.434464	0.998691
794.756507	0.999514
795.078505	0.998456
795.400457	0.998969
795.722364	0.998196
796.044226	0.998434
796.366042	0.998440
796.687812	0.996058
797.009538	0.997308
797.331218	0.999272
797.652852	0.998711
797.974442	0.998127
798.295986	0.998154
798.617484	0.998010
798.938938	0.998663
799.260346	0.997640
799.581709	0.997328
799.903026	0.998125
800.224299	0.997509
800.545526	0.997614
800.866708	0.997800
801.187845	0.998958
801.508936	0.998866
801.829983	0.998309
802.150984	0.999024
802.471940	0.998436
802.792851	0.997817
803.113717	0.999023
803.434538	0.998717
803.755314	0.999439
804.076045	0.999040
804.396731	0.997920
804.717372	0.997595
805.037967	0.998792
805.358518	0.999303
805.679024	0.998128
805.999485	0.999448
806.319901	0.999209
806.640272	0.999682
806.960598	0.998901
807.280879	0.997843
807.601115	0.999556
807.921306	0.999403
808.241453	0.997606
808.561554	0.999182
808.881611	0.999477
809.201623	0.998462
809.521590	0.998540
809.841513	0.998280
810.161390	0.997772
810.481223	0.997943
810.801011	0.999140
811.120755	0.999802
811.440453	0.997790
811.760107	0.999158
812.079716	0.998609
812.399281	0.998855
812.718801	0.998427
813.038276	0.998686
813.357707	0.998580
813.677093	0.999508
813.996434	0.998509
814.315731	0.999204
814.634983	0.999449
814.954191	0.999870
815.273354	0.999370
815.592473	0.997819
815.911547	0.999425
816.230577	0.997929
816.549562	0.997610
816.868502	0.997951
817.187399	0.998729
817.506250	0.998838
817.825058	0.996967
818.143821	0.999221
818.462539	0.998356
818.781213	0.997579
819.099843	0.998265
819.418429	0.998374
819.736970	0.996975
820.055466	0.996663
820.373919	0.995339
820.692327	0.995187
821.010691	0.995827
821.329011	0.992715
821.647286	0.990491
821.965517	0.989360
822.283704	0.987678
822.601847	0.987351
822.919945	0.987476
823.237999	0.988840
823.556010	0.989176
823.873976	0.990689
824.191897	0.992417
824.509775	0.992901
824.827609	0.993698
825.145398	0.994370
825.463144	0.992882
825.780845	0.993160
826.098502	0.993500
826.416116	0.993241
826.733685	0.992432
827.051210	0.991315
827.368692	0.991037
827.686129	0.992480
828.003522	0.994294
828.320872	0.994283
828.638177	0.994877
828.955439	0.996901
829.272656	0.997094
829.589830	0.995411
829.906960	0.997769
830.224046	0.997605
830.541088	0.997812
830.858086	0.997393
831.175041	0.998247
831.491952	0.997434
831.808819	0.997627
832.125642	0.997161
832.442421	0.997177
832.759157	0.997995
833.075849	0.995694
833.392497	0.995322
833.709101	0.994140
834.025662	0.993954
834.342179	0.994932
834.658653	0.995644
834.975083	0.997081
835.291469	0.996296
835.607811	0.996240
835.924110	0.998176
836.240366	0.998062
836.556578	0.998186
836.872746	0.999055
837.188871	0.997951
837.504952	0.998339
837.820990	0.998947
838.136984	0.998160
838.452935	0.998386
838.768842	0.999347
839.084706	0.997976
839.400526	0.998754
839.716303	0.996139
840.032037	0.997213
840.347727	0.996602
840.663373	0.996989
840.978977	0.997629
841.294537	0.998385
841.610054	0.999146
841.925527	0.999277
842.240957	0.998904
842.556344	0.998949
842.871687	0.999080
843.186987	0.998653
843.502244	0.998957
843.817458	0.998555
844.132629	0.999413
844.447756	0.999217
844.762840	0.999629
845.077881	1.000797
845.392879	0.998233
845.707833	0.999705
846.022745	0.999360
846.337613	0.999860
846.652438	0.999662
846.967221	0.999984
847.281960	1.000338
847.596656	1.001390
847.911309	0.999913
848.225919	0.998107
848.540485	0.999980
848.855009	0.999876
849.169490	0.999991
849.483928	0.998409
849.798323	0.998936
850.112675	1.000679
850.426984	0.998938
850.741251	0.999468
851.055474	0.999002
851.369654	0.999436
851.683792	0.999311
851.997887	0.999940
852.311938	0.999380
852.625947	0.999389
852.939914	0.998566
853.253837	1.001019
853.567718	0.998888
853.881555	0.999079
854.195350	0.999289
854.509103	0.999354
854.822812	1.000185
855.136479	0.999941
855.450103	1.000381
855.763685	0.999156
856.077224	0.999824
856.390720	1.000107
856.704173	1.000046
857.017584	0.999978
857.330953	0.999510
857.644278	0.999398
857.957561	0.998772
858.270802	0.999994
858.584000	0.999140
858.897155	0.999190
859.210268	0.999201
859.523339	1.000091
859.836367	0.999708
860.149352	0.999170
860.462295	0.999439
860.775195	0.999756
861.088054	0.998506
861.400869	0.999320
861.713642	0.999112
862.026373	1.000887
862.339062	0.999555
862.651708	0.999424
862.964312	0.999629
863.276873	0.999491
863.589392	1.000187
863.901869	0.999565
864.214303	0.999992
864.526696	0.999155
864.839045	0.999515
865.151353	0.999978
865.463619	0.999123
865.775842	1.000057
866.088023	1.000350
866.400162	1.000560
866.712258	1.001118
867.024313	1.000276
867.336325	1.000860
867.648296	1.000168
867.960224	1.000082
868.272110	0.998825
868.583954	0.999269
868.895755	0.999774
869.207515	0.999486
869.519233	1.000135
869.830909	0.999223
870.142542	0.998488
870.454134	0.999268
870.765684	0.999317
871.077191	1.000307
871.388657	0.999120
871.700081	0.998693
872.011463	1.000308
872.322803	0.999788
872.634101	0.999192
872.945357	0.998181
873.256571	0.998316
873.567744	0.999182
873.878874	0.999489
874.189963	0.998517
874.501010	1.001101
874.812015	0.998631
875.122979	0.999329
875.433900	0.999076
875.744780	0.999623
876.055618	0.998149
876.366415	0.998431
876.677169	0.998660
876.987882	0.998802
877.298554	0.999990
877.609183	0.999225
877.919771	0.998961
878.230317	0.999779
878.540822	0.998194
878.851285	0.997803
879.161707	0.997330
879.472087	0.998569
879.782425	0.996864
880.092722	0.994979
880.402977	0.994033
880.713191	0.992190
881.023363	0.989651
881.333494	0.988171
881.643583	0.989444
881.953631	0.989289
882.263637	0.988422
882.573602	0.989801
882.883526	0.990896
883.193408	0.993037
883.503248	0.992063
883.813048	0.991883
884.122806	0.994912
884.432522	0.994862
884.742197	0.996486
885.051831	0.996664
885.361424	0.996994
885.670975	0.998560
885.980485	0.997402
886.289954	0.996534
886.599382	0.996621
886.908768	0.998759
887.218113	0.997837
887.527417	0.997928
887.836680	0.998860
888.145901	0.999567
888.455082	1.000141
888.764221	0.999556
889.073319	0.999250
889.382376	0.999292
889.691392	0.998325
890.000366	0.999777
890.309300	0.998770
890.618193	0.999341
890.927044	0.998074
891.235855	0.998194
891.544625	0.999343
891.853353	0.998230
892.162041	0.997667
892.470687	0.999636
892.779293	0.997680
893.087858	0.997587
893.396381	0.997517
893.704864	0.997589
894.013306	0.996743
894.321707	0.995679
894.630068	0.994726
894.938387	0.994119
895.246665	0.994001
895.554903	0.995195
895.863100	0.996437
896.171256	0.995433
896.479371	0.996553
896.787446	0.996416
897.095480	0.997434
897.403473	0.997914
897.711425	0.997937
898.019336	0.998764
898.327207	0.998615
898.635038	0.998006
898.942827	0.998802
899.250576	0.998691
899.558284	0.999016
899.865952	0.997203
900.173579	0.999431
900.481165	0.999286
900.788711	0.998739
901.096216	0.998378
901.403681	0.998864
901.711105	0.999652
902.018489	0.998378
902.325832	0.998872
902.633135	0.998389
902.940397	0.998091
903.247619	0.999101
903.554800	0.996954
903.861941	0.996040
904.169041	0.994588
904.476101	0.993659
904.783121	0.993294
905.090100	0.993745
905.397039	0.994622
905.703938	0.996734
906.010796	0.995721
906.317614	0.996826
906.624391	0.997327
906.931129	0.998082
907.237826	0.998607
907.544483	0.999965
907.851099	0.998829
908.157675	0.998579
908.464211	0.999065
908.770707	0.999131
909.077163	0.998730
909.383578	0.999001
909.689954	0.998284
909.996289	1.000183
910.302584	0.999620
910.608839	1.000945
910.915054	0.999509
911.221229	1.000572
911.527363	0.999451
911.833458	1.000504
912.139513	1.000251
912.445527	1.000447
912.751502	0.999105
913.057436	0.998615
913.363331	1.000035
913.669186	0.999553
913.975000	0.999218
914.280775	0.998784
914.586510	0.997776
914.892205	0.996774
915.197859	0.995409
915.503475	0.995782
915.809050	0.994506
916.114585	0.992822
916.420081	0.993338
916.725536	0.993773
917.030952	0.994108
917.336328	0.993568
917.641665	0.994773
917.946961	0.995375
918.252218	0.996090
918.557435	0.996497
918.862612	0.996889
919.167750	0.997203
919.472848	0.998333
919.777906	0.999164
920.082925	0.999282
920.387904	0.998943
920.692843	0.999177
920.997743	0.998599
921.302603	0.998301
921.607423	0.997552
921.912204	0.998975
922.216946	0.999777
922.521647	0.999718
922.826310	0.998775
923.130932	1.000060
923.435516	0.999367
923.740059	0.999540
924.044564	0.998451
924.349028	0.997977
924.653454	0.999029
924.957840	1.000582
925.262186	1.000067
925.566493	0.999342
925.870761	0.999478
926.174989	1.000448
926.479178	0.999684
926.783328	1.000186
927.087438	0.999885
927.391509	0.998341
927.695541	0.999630
927.999533	0.998924
928.303486	1.000300
928.607400	1.000686
928.911275	0.999387
929.215110	1.000394
929.518906	1.000601
929.822663	1.001380
930.126381	1.001091
930.430060	1.000202
930.733699	1.000668
931.037299	1.001376
931.340861	1.000248
931.644383	0.998058
931.947866	0.999999
932.251309	1.000700
932.554714	0.998897
932.858080	1.001176
933.161407	0.999164
933.464694	0.999929
933.767943	1.000266
934.071153	0.999377
934.374323	1.000789
934.677455	0.999825
934.980548	1.000908
935.283602	1.000830
935.586617	0.999749
935.889593	1.002175
936.192530	1.001007
936.495428	0.998758
936.798287	0.999811
937.101108	0.999809
937.403890	1.000476
937.706632	1.002123
938.009336	0.999784
938.312002	0.999061
938.614628	0.998824
938.917216	0.999588
939.219765	0.998792
939.522275	0.999933
939.824747	1.001491
940.127179	0.999587
940.429573	1.000531
940.731929	0.998897
941.034246	0.999379
941.336524	0.998346
941.638763	0.999518
941.940964	0.999732
942.243126	0.998671
942.545250	0.999985
942.847335	0.999706
943.149381	1.000435
943.451389	0.998781
943.753359	1.000809
944.055290	1.000660
944.357182	0.999949
944.659036	1.000970
944.960851	1.000356
945.262628	0.999540
945.564367	1.000283
945.866067	0.999827
946.167729	1.000053
946.469352	0.999534
946.770937	0.997417
947.072484	1.000554
947.373992	1.001145
947.675462	0.999651
947.976893	0.999789
948.278286	1.001061
948.579641	1.001489
948.880958	1.000411
949.182236	0.999451
949.483476	1.000992
949.784678	1.001103
950.085841	1.000053
950.386967	0.999126
950.688054	1.000252
950.989103	0.998405
951.290114	0.999540
951.591087	0.999618
951.892021	0.999915
952.192917	1.000878
952.493776	1.000082
952.794596	1.000031
953.095378	1.000028
953.396122	1.000526
953.696828	1.000753
953.997496	0.999689
954.298126	1.000897
954.598718	0.998570
954.899272	1.001069
955.199788	0.998367
955.500266	1.000696
955.800706	0.999197
956.101108	0.999303
956.401472	1.001456
956.701798	0.998637
957.002087	0.999574
957.302337	1.000095
957.602550	1.000300
957.902724	0.999743
958.202861	0.999771
958.502960	1.000017
958.803022	1.001282
959.103045	0.999951
959.403031	1.001050
959.702979	1.001796
960.002889	0.999528
960.302762	1.000132
960.602596	1.001261
960.902393	1.000179
961.202153	1.000081
961.501875	1.000746
961.801559	1.000221
962.101205	1.000348
962.400814	1.001114
962.700385	1.001113
962.999918	1.000406
963.299414	0.999746
963.598873	1.001206
963.898293	1.000164
964.197677	1.000063
964.497022	1.000760
964.796331	0.999955
965.095601	1.001316
965.394835	1.000223
965.694030	1.000730
965.993189	1.000748
966.292309	1.001051
966.591393	0.999652
966.890439	1.000776
967.189447	1.000090
967.488419	1.000356
967.787353	1.000261
968.086249	1.001160
968.385108	1.001536
968.683930	1.001333
968.982714	0.999628
969.281462	0.999884
969.580172	1.000580
969.878844	1.001111
970.177480	1.001441
970.476078	1.000304
970.774639	1.001693
971.073162	1.000247
971.371649	0.999400
971.670098	1.000749
971.968510	1.000827
972.266885	0.999516
972.565223	1.000895
972.863524	0.998944
973.161788	1.000444
973.460014	1.001640
973.758204	0.998900
974.056356	1.001171
974.354471	0.999289
974.652550	1.001960
974.950591	0.999981
975.248595	0.999008
975.546563	1.000510
975.844493	1.000952
976.142386	1.000757
976.440243	1.000739
976.738062	1.002209
977.035845	1.000149
977.333590	1.001370
977.631299	0.999286
977.928971	1.000578
978.226606	1.000072
978.524204	0.999830
978.821765	1.000405
979.119290	1.000197
979.416777	1.000569
979.714228	0.999758
980.011642	1.001210
980.309020	1.000024
980.606360	0.999851
980.903664	0.999221
981.200931	1.000201
981.498162	1.000193
981.795356	1.001145
982.092513	0.998273
982.389633	1.002558
982.686717	0.999554
982.983764	1.000162
983.280775	0.999873
983.577749	1.001126
983.874686	0.999800
984.171587	0.999344
984.468451	1.000414
984.765279	1.001416
985.062070	1.000442
985.358824	0.999765
985.655543	1.000743
985.952224	1.000718
986.248869	1.001241
986.545478	1.000880
986.842050	1.000406
987.138586	0.999948
987.435086	1.000146
987.731549	1.001376
988.027975	1.001606
988.324366	1.000364
988.620719	1.000688
988.917037	1.001159
989.213318	1.000933
989.509563	1.001766
989.805772	1.000969
990.101944	1.000890
990.398080	1.000232
990.694180	1.001698
990.990244	1.000031
991.286271	0.999569
991.582262	1.001228
991.878217	1.000174
992.174136	1.001344
992.470019	0.999561
992.765865	1.002355
993.061676	1.001657
993.357450	1.000944
993.653188	1.001292
993.948890	1.000179
994.244556	0.999429
994.540186	1.000585
994.835780	1.000840
995.131337	1.001422
995.426859	0.999921
995.722345	1.000918
996.017795	1.000314
996.313208	1.001588
996.608586	1.000925
996.903928	0.999720
997.199234	1.000317
997.494504	1.001435
997.789738	0.999706
998.084936	1.000802
998.380099	1.000618
998.675225	0.999969
998.970316	1.001340
999.265371	1.000041
999.560390	1.000912
999.855373	1.000591
1000.150320	1.000514
1000.445232	1.001446
1000.740108	0.999967
1001.034948	0.999834
1001.329752	1.001083
1001.624521	0.999969
1001.919254	0.998871
1002.213951	1.000440
1002.508613	0.999331
1002.803239	1.000289
1003.097829	1.001435
1003.392384	1.000775
1003.686903	1.000078
1003.981386	0.999289
1004.275834	1.001952
1004.570246	0.999081
1004.864623	1.001464
1005.158964	1.000776
1005.453270	1.001256
1005.747540	1.001070
1006.041775	1.000679
1006.335974	1.001800
1006.630138	1.000713
1006.924266	0.999023
1007.218359	0.999215
1007.512416	1.000588
1007.806438	1.000781
1008.100425	1.001319
1008.394376	1.000787
1008.688292	0.999798
1008.982172	1.000028
1009.276017	1.000238
1009.569827	1.001172
1009.863602	0.998599
1010.157341	1.001292
1010.451045	0.999612
1010.744714	1.001929
1011.038347	1.001562
1011.331945	0.999326
1011.625508	1.000385
1011.919036	1.000353
1012.212528	1.001295
1012.505986	1.000194
1012.799408	1.000671
1013.092795	1.001207
1013.386147	1.000930
1013.679464	1.001366
1013.972745	1.000406
1014.265992	1.000283
1014.559204	1.000803
1014.852380	1.001513
1015.145521	1.000081
1015.438628	1.000642
1015.731699	1.000391
1016.024736	1.001275
1016.317737	1.000704
1016.610703	1.001465
1016.903635	0.999737
1017.196531	1.000037
1017.489393	0.999860
1017.782219	1.000404
1018.075011	0.999923
1018.367768	1.000534
1018.660490	1.000902
1018.953177	1.000902
1019.245829	1.000902
