Dividing Wavelength (nm)	Counts (n)	Blue Motor Position (mm): 7.400000	Red Motor Position (mm): 0.000000	
326.493990	1.004862
326.888308	1.004862
327.282561	1.004862
327.676750	1.005773
328.070874	1.006031
328.464933	1.005800
328.858929	1.007112
329.252859	1.005435
329.646726	1.005867
330.040528	1.005034
330.434265	1.005300
330.827938	1.005106
331.221547	1.005496
331.615091	1.005077
332.008571	1.005815
332.401986	1.004024
332.795338	1.004088
333.188625	1.004899
333.581847	1.004288
333.975006	1.005163
334.368100	1.005613
334.761129	1.004431
335.154095	1.004836
335.546996	1.003400
335.939833	0.998374
336.332606	1.000288
336.725315	0.998121
337.117960	0.998948
337.510540	0.998829
337.903056	0.999633
338.295508	0.999484
338.687896	0.998735
339.080220	0.997604
339.472480	0.998715
339.864676	0.999504
340.256807	0.998320
340.648875	0.999209
341.040879	0.998434
341.432818	0.999310
341.824694	0.999010
342.216506	0.999534
342.608253	0.998557
342.999937	0.998619
343.391557	0.998945
343.783113	1.000501
344.174605	0.998788
344.566033	0.998709
344.957397	0.998628
345.348697	0.998686
345.739934	0.998174
346.131106	0.998829
346.522215	0.997318
346.913260	0.999028
347.304241	0.997790
347.695159	0.998560
348.086012	0.997469
348.476802	0.998429
348.867528	0.997098
349.258191	0.998470
349.648789	0.997271
350.039324	0.998619
350.429796	0.997823
350.820203	0.996897
351.210548	0.998687
351.600828	0.998960
351.991045	0.997474
352.381198	0.998715
352.771288	0.997156
353.161314	0.998462
353.551276	0.997135
353.941175	0.996528
354.331010	0.997629
354.720782	0.999214
355.110490	0.997149
355.500135	0.998278
355.889717	0.996353
356.279235	0.996663
356.668689	0.997682
357.058080	0.997234
357.447408	0.997650
357.836672	0.996304
358.225873	0.997988
358.615010	0.997049
359.004084	0.996380
359.393095	0.997122
359.782043	0.996571
360.170927	0.997377
360.559748	0.997692
360.948505	0.996693
361.337199	0.996637
361.725830	0.997966
362.114398	0.997193
362.502903	0.996439
362.891344	0.996171
363.279722	0.997521
363.668037	0.997269
364.056289	0.997216
364.444478	0.998755
364.832603	0.996472
365.220665	0.995498
365.608665	0.997038
365.996601	0.996799
366.384474	0.995039
366.772284	0.995198
367.160031	0.995499
367.547715	0.994981
367.935336	0.995483
368.322893	0.993669
368.710388	0.991552
369.097820	0.990190
369.485189	0.987585
369.872495	0.986825
370.259738	0.983914
370.646918	0.981427
371.034035	0.979008
371.421090	0.977308
371.808081	0.971956
372.195010	0.969231
372.581875	0.963581
372.968678	0.958139
373.355418	0.955318
373.742096	0.948984
374.128710	0.943376
374.515262	0.939915
374.901751	0.932464
375.288177	0.928277
375.674540	0.922407
376.060841	0.915527
376.447079	0.908804
376.833254	0.902589
377.219367	0.897640
377.605417	0.885713
377.991404	0.882116
378.377329	0.876585
378.763191	0.869905
379.148991	0.861529
379.534727	0.853397
379.920402	0.845253
380.306013	0.841177
380.691563	0.829510
381.077049	0.821752
381.462474	0.818502
381.847835	0.806521
382.233134	0.803034
382.618371	0.801773
383.003545	0.784506
383.388657	0.782934
383.773706	0.775741
384.158693	0.771368
384.543618	0.766374
384.928480	0.756548
385.313280	0.747137
385.698017	0.746566
386.082692	0.734558
386.467305	0.732944
386.851856	0.727593
387.236344	0.723240
387.620770	0.716926
388.005133	0.711099
388.389435	0.706574
388.773674	0.703922
389.157851	0.695122
389.541965	0.692465
389.926018	0.699557
390.310008	0.686039
390.693936	0.683171
391.077802	0.675413
391.461606	0.676646
391.845348	0.665916
392.229027	0.665486
392.612645	0.664246
392.996200	0.650112
393.379694	0.644216
393.763125	0.633494
394.146494	0.639432
394.529801	0.629063
394.913047	0.621321
395.296230	0.626640
395.679351	0.618786
396.062410	0.615486
396.445408	0.618009
396.828343	0.612595
397.211217	0.607829
397.594028	0.620691
397.976778	0.610622
398.359466	0.607148
398.742092	0.602219
399.124656	0.614625
399.507158	0.602820
399.889598	0.600433
400.271977	0.590726
400.654294	0.595044
401.036549	0.594652
401.418742	0.599071
401.800874	0.584423
402.182944	0.581288
402.564952	0.572829
402.946898	0.575209
403.328783	0.575171
403.710606	0.586932
404.092367	0.561144
404.474067	0.566677
404.855705	0.565615
405.237282	0.574178
405.618797	0.560386
406.000250	0.556151
406.381642	0.546462
406.762972	0.551758
407.144240	0.549419
407.525447	0.549894
407.906593	0.542779
408.287677	0.538846
408.668700	0.546758
409.049661	0.540183
409.430560	0.535313
409.811399	0.544849
410.192176	0.525899
410.572891	0.533340
410.953545	0.521203
411.334138	0.534850
411.714669	0.527572
412.095139	0.539637
412.475547	0.523242
412.855894	0.526138
413.236180	0.524351
413.616405	0.529388
413.996568	0.520654
414.376670	0.526686
414.756711	0.531292
415.136691	0.528313
415.516609	0.519929
415.896466	0.515676
416.276262	0.511916
416.655997	0.513526
417.035670	0.495096
417.415283	0.486733
417.794834	0.491606
418.174324	0.496783
418.553753	0.506622
418.933121	0.488271
419.312428	0.482270
419.691674	0.488756
420.070859	0.476173
420.449983	0.484331
420.829045	0.473357
421.208047	0.482597
421.586988	0.475744
421.965867	0.474773
422.344686	0.462923
422.723444	0.475340
423.102141	0.492888
423.480777	0.465601
423.859352	0.485976
424.237866	0.463687
424.616319	0.464437
424.994712	0.455146
425.373044	0.465967
425.751314	0.453492
426.129524	0.470014
426.507673	0.453493
426.885762	0.446944
427.263789	0.453022
427.641756	0.462259
428.019662	0.452454
428.397508	0.451663
428.775292	0.456288
429.153016	0.448254
429.530679	0.454153
429.908282	0.447542
430.285824	0.457703
430.663305	0.436327
431.040726	0.456817
431.418086	0.457065
431.795385	0.449180
432.172624	0.448345
432.549802	0.448132
432.926920	0.447169
433.303977	0.446846
433.680974	0.443912
434.057910	0.442492
434.434786	0.442240
434.811601	0.444447
435.188355	0.426923
435.565050	0.436282
435.941683	0.436973
436.318257	0.420800
436.694770	0.422455
437.071222	0.420115
437.447614	0.424398
437.823946	0.431739
438.200218	0.421003
438.576429	0.430038
438.952580	0.423170
439.328670	0.419949
439.704700	0.426160
440.080670	0.427884
440.456580	0.409039
440.832429	0.416610
441.208218	0.427806
441.583947	0.417133
441.959616	0.416282
442.335224	0.422077
442.710773	0.412399
443.086261	0.410864
443.461689	0.424601
443.837057	0.414131
444.212365	0.404610
444.587612	0.411713
444.962800	0.401175
445.337927	0.403266
445.712995	0.429256
446.088002	0.390699
446.462949	0.401328
446.837837	0.406205
447.212664	0.394453
447.587431	0.386338
447.962139	0.357008
448.336786	0.315985
448.711374	0.326151
449.085901	0.370929
449.460369	0.375084
449.834776	0.378315
450.209124	0.357673
450.583412	0.350303
450.957640	0.343173
451.331808	0.355257
451.705917	0.378095
452.079965	0.382835
452.453954	0.370851
452.827883	0.377722
453.201752	0.372832
453.575562	0.383828
453.949311	0.372644
454.323001	0.378463
454.696632	0.374359
455.070202	0.367078
455.443713	0.358783
455.817164	0.353704
456.190556	0.349341
456.563888	0.346460
456.937160	0.343291
457.310373	0.361180
457.683526	0.359867
458.056619	0.365621
458.429653	0.366091
458.802628	0.369960
459.175542	0.363607
459.548398	0.346359
459.921194	0.338804
460.293930	0.338882
460.666607	0.316659
461.039224	0.304689
461.411782	0.300155
461.784280	0.299571
462.156719	0.303708
462.529099	0.308009
462.901419	0.324285
463.273680	0.328584
463.645882	0.328204
464.018024	0.334065
464.390106	0.326704
464.762130	0.311139
465.134094	0.294284
465.505999	0.262866
465.877845	0.233439
466.249631	0.220566
466.621358	0.227882
466.993026	0.241985
467.364634	0.248168
467.736184	0.256970
468.107674	0.265906
468.479105	0.264791
468.850477	0.271827
469.221790	0.278535
469.593043	0.288767
469.964238	0.293460
470.335373	0.292838
470.706449	0.291240
471.077467	0.291383
471.448425	0.253782
471.819324	0.229059
472.190164	0.228786
472.560945	0.257495
472.931667	0.280123
473.302330	0.283941
473.672934	0.295919
474.043479	0.284072
474.413965	0.285973
474.784393	0.289475
475.154761	0.284297
475.525070	0.281304
475.895321	0.287258
476.265513	0.281190
476.635645	0.276768
477.005719	0.276513
477.375734	0.273403
477.745691	0.266247
478.115588	0.262726
478.485427	0.256388
478.855207	0.243428
479.224928	0.225614
479.594591	0.214093
479.964194	0.217192
480.333739	0.218579
480.703226	0.219941
481.072653	0.218368
481.442022	0.214039
481.811333	0.210697
482.180584	0.213775
482.549777	0.219210
482.918912	0.222784
483.287988	0.222399
483.657005	0.222079
484.025964	0.228408
484.394864	0.225661
484.763706	0.226396
485.132489	0.231356
485.501213	0.232344
485.869879	0.230546
486.238487	0.233724
486.607036	0.231644
486.975527	0.236230
487.343959	0.232265
487.712333	0.231053
488.080648	0.232583
488.448905	0.231619
488.817104	0.232731
489.185244	0.227425
489.553326	0.224345
489.921350	0.214266
490.289315	0.196759
490.657222	0.191264
491.025070	0.193050
491.392861	0.194888
491.760593	0.200691
492.128267	0.206373
492.495883	0.211760
492.863440	0.218154
493.230939	0.224478
493.598380	0.226096
493.965763	0.228070
494.333088	0.230307
494.700354	0.232048
495.067563	0.231028
495.434713	0.234293
495.801805	0.232048
496.168839	0.233656
496.535815	0.235219
496.902733	0.234961
497.269593	0.236395
497.636395	0.234002
498.003139	0.234495
498.369825	0.237660
498.736453	0.233760
499.103023	0.235878
499.469535	0.234979
499.835989	0.235073
500.202385	0.235835
500.568723	0.238956
500.935003	0.234432
501.301226	0.239051
501.667390	0.233084
502.033497	0.231048
502.399546	0.233912
502.765537	0.235992
503.131470	0.234365
503.497345	0.230949
503.863163	0.239150
504.228923	0.232394
504.594625	0.230946
504.960269	0.236393
505.325856	0.231939
505.691385	0.236179
506.056856	0.232752
506.422270	0.232242
506.787625	0.234727
507.152924	0.232030
507.518164	0.232484
507.883347	0.234247
508.248472	0.236159
508.613540	0.231038
508.978550	0.233644
509.343503	0.234118
509.708398	0.231605
510.073236	0.229244
510.438016	0.229017
510.802738	0.230244
511.167403	0.228837
511.532010	0.231276
511.896561	0.226416
512.261053	0.224874
512.625488	0.227272
512.989866	0.227545
513.354186	0.227883
513.718449	0.229660
514.082655	0.226169
514.446803	0.228337
514.810894	0.226220
515.174927	0.228834
515.538904	0.228442
515.902822	0.225027
516.266684	0.227533
516.630488	0.228632
516.994235	0.227570
517.357925	0.226083
517.721558	0.224369
518.085133	0.223981
518.448651	0.224013
518.812112	0.226598
519.175516	0.225815
519.538863	0.223447
519.902152	0.225445
520.265385	0.222159
520.628560	0.223884
520.991678	0.224345
521.354739	0.223199
521.717743	0.224516
522.080690	0.224803
522.443580	0.222184
522.806413	0.223010
523.169189	0.222696
523.531908	0.221274
523.894569	0.224899
524.257174	0.224693
524.619722	0.222475
524.982213	0.223394
525.344647	0.222341
525.707025	0.223194
526.069345	0.221355
526.431608	0.223220
526.793815	0.221305
527.155964	0.225077
527.518057	0.224109
527.880093	0.225182
528.242072	0.223728
528.603995	0.225787
528.965860	0.227386
529.327669	0.226415
529.689421	0.227205
530.051117	0.228096
530.412755	0.225533
530.774337	0.228026
531.135862	0.228589
531.497331	0.227716
531.858743	0.230595
532.220098	0.227351
532.581396	0.229731
532.942638	0.230184
533.303824	0.231450
533.664953	0.230985
534.026025	0.232722
534.387040	0.230824
534.747999	0.230607
535.108902	0.229532
535.469748	0.234668
535.830537	0.232581
536.191270	0.233023
536.551947	0.232348
536.912567	0.232253
537.273131	0.234140
537.633638	0.234431
537.994089	0.234666
538.354483	0.235844
538.714821	0.232691
539.075103	0.232500
539.435328	0.233394
539.795497	0.236997
540.155609	0.233706
540.515665	0.231895
540.875665	0.237402
541.235609	0.235989
541.595496	0.236142
541.955328	0.232692
542.315102	0.235362
542.674821	0.236651
543.034483	0.236494
543.394090	0.236123
543.753640	0.238067
544.113134	0.232812
544.472571	0.236232
544.831953	0.233200
545.191278	0.237356
545.550548	0.236589
545.909761	0.233736
546.268918	0.234381
546.628019	0.232996
546.987064	0.235713
547.346053	0.237177
547.704986	0.235150
548.063863	0.235203
548.422684	0.235603
548.781449	0.237380
549.140158	0.235000
549.498811	0.237965
549.857408	0.240634
550.215949	0.235824
550.574434	0.238927
550.932864	0.237083
551.291237	0.235244
551.649555	0.236738
552.007817	0.236628
552.366022	0.237532
552.724173	0.237675
553.082267	0.237969
553.440305	0.234879
553.798288	0.239236
554.156215	0.235683
554.514086	0.236350
554.871902	0.239909
555.229661	0.238957
555.587365	0.239530
555.945014	0.242105
556.302606	0.239015
556.660143	0.241755
557.017625	0.238117
557.375050	0.240378
557.732421	0.237078
558.089735	0.239281
558.446994	0.239074
558.804197	0.238657
559.161345	0.238512
559.518437	0.241914
559.875474	0.239741
560.232455	0.239461
560.589381	0.240361
560.946251	0.240592
561.303065	0.238004
561.659825	0.239516
562.016528	0.241078
562.373177	0.243655
562.729770	0.241275
563.086307	0.242938
563.442789	0.241070
563.799216	0.243668
564.155587	0.242271
564.511904	0.243623
564.868164	0.243637
565.224370	0.243571
565.580520	0.245214
565.936615	0.245163
566.292654	0.248183
566.648638	0.245152
567.004567	0.246468
567.360441	0.246569
567.716260	0.248510
568.072023	0.246393
568.427732	0.247249
568.783385	0.249444
569.138982	0.247625
569.494525	0.247504
569.850013	0.250167
570.205445	0.248563
570.560823	0.250862
570.916145	0.253307
571.271412	0.251609
571.626625	0.252906
571.981782	0.253537
572.336884	0.253941
572.691931	0.254035
573.046923	0.255490
573.401860	0.256292
573.756743	0.258280
574.111570	0.257119
574.466342	0.257611
574.821059	0.256574
575.175722	0.259768
575.530330	0.259247
575.884882	0.259565
576.239380	0.261222
576.593823	0.262114
576.948211	0.261783
577.302544	0.264555
577.656823	0.264470
578.011047	0.264014
578.365216	0.265192
578.719330	0.267267
579.073389	0.266552
579.427394	0.268298
579.781344	0.269115
580.135239	0.270226
580.489080	0.270202
580.842866	0.272847
581.196597	0.273346
581.550273	0.271677
581.903895	0.272532
582.257463	0.270483
582.610975	0.273992
582.964434	0.273555
583.317837	0.275810
583.671186	0.276609
584.024481	0.276256
584.377721	0.278895
584.730906	0.280004
585.084037	0.278721
585.437113	0.280685
585.790135	0.279982
586.143103	0.283296
586.496016	0.283804
586.848874	0.281720
587.201679	0.282354
587.554428	0.285813
587.907124	0.284343
588.259765	0.285099
588.612352	0.285447
588.964884	0.289350
589.317362	0.288897
589.669786	0.288864
590.022155	0.287563
590.374470	0.286837
590.726731	0.288828
591.078937	0.293829
591.431090	0.290020
591.783188	0.294153
592.135232	0.294907
592.487222	0.294679
592.839157	0.292801
593.191038	0.294720
593.542866	0.296981
593.894639	0.300365
594.246358	0.298623
594.598022	0.298272
594.949633	0.301620
595.301190	0.302584
595.652692	0.301586
596.004141	0.297440
596.355535	0.305733
596.706876	0.306466
597.058162	0.308710
597.409395	0.305700
597.760573	0.303477
598.111698	0.306670
598.462768	0.307155
598.813785	0.308501
599.164748	0.309700
599.515657	0.310096
599.866511	0.313828
600.217312	0.309064
600.568060	0.314015
600.918753	0.310680
601.269392	0.311534
601.619978	0.314797
601.970510	0.312557
602.320988	0.312640
602.671412	0.310669
603.021783	0.313225
603.372100	0.313963
603.722363	0.313676
604.072572	0.314960
604.422728	0.314477
604.772830	0.316566
605.122878	0.316599
605.472872	0.316973
605.822813	0.315206
606.172701	0.317650
606.522534	0.315358
606.872314	0.315123
607.222041	0.316057
607.571714	0.314031
607.921333	0.315656
608.270899	0.315466
608.620411	0.311826
608.969870	0.316137
609.319276	0.315978
609.668627	0.316211
610.017926	0.314729
610.367171	0.312960
610.716362	0.314155
611.065500	0.314015
611.414585	0.312932
611.763616	0.313101
612.112594	0.313812
612.461518	0.313073
612.810389	0.310566
613.159207	0.313065
613.507971	0.315126
613.856682	0.310956
614.205340	0.311990
614.553945	0.309378
614.902496	0.313048
615.250994	0.311091
615.599439	0.311695
615.947830	0.310886
616.296169	0.312104
616.644454	0.311996
616.992686	0.311644
617.340864	0.309517
617.688990	0.313038
618.037063	0.309428
618.385082	0.311733
618.733048	0.308083
619.080961	0.311075
619.428821	0.310479
619.776628	0.310014
620.124382	0.312188
620.472083	0.312568
620.819731	0.312137
621.167326	0.315902
621.514868	0.315533
621.862357	0.319684
622.209793	0.319161
622.557176	0.321787
622.904506	0.322776
623.251783	0.324664
623.599007	0.327106
623.946179	0.326666
624.293297	0.328778
624.640363	0.332388
624.987376	0.333577
625.334336	0.335448
625.681243	0.337782
626.028097	0.338290
626.374899	0.339416
626.721647	0.340462
627.068343	0.343034
627.414987	0.344328
627.761577	0.346038
628.108115	0.344305
628.454600	0.350143
628.801032	0.347376
629.147412	0.349052
629.493739	0.349705
629.840014	0.352528
630.186236	0.349650
630.532405	0.355794
630.878521	0.352762
631.224585	0.355764
631.570597	0.358886
631.916556	0.357310
632.262462	0.357289
632.608316	0.359559
632.954117	0.360632
633.299866	0.361342
633.645562	0.361775
633.991206	0.365965
634.336797	0.368837
634.682336	0.371366
635.027823	0.372781
635.373257	0.373272
635.718639	0.377251
636.063968	0.376215
636.409245	0.382641
636.754470	0.382587
637.099642	0.384669
637.444762	0.388479
637.789829	0.387695
638.134845	0.390638
638.479808	0.392188
638.824719	0.392551
639.169577	0.396534
639.514383	0.395073
639.859137	0.399722
640.203839	0.398800
640.548489	0.399786
640.893086	0.400525
641.237632	0.402224
641.582125	0.400835
641.926566	0.403255
642.270955	0.402685
642.615292	0.403058
642.959576	0.401951
643.303809	0.402595
643.647990	0.402824
643.992118	0.402859
644.336195	0.405904
644.680219	0.405081
645.024192	0.405166
645.368112	0.399124
645.711981	0.398033
646.055797	0.393263
646.399562	0.395299
646.743274	0.388232
647.086935	0.384802
647.430544	0.385319
647.774101	0.383725
648.117606	0.383784
648.461059	0.384425
648.804460	0.386985
649.147810	0.391962
649.491108	0.393536
649.834354	0.395417
650.177548	0.400691
650.520690	0.405881
650.863781	0.407138
651.206820	0.406332
651.549807	0.411166
651.892742	0.415070
652.235626	0.414785
652.578458	0.415216
652.921238	0.422146
653.263967	0.419714
653.606644	0.423350
653.949269	0.423312
654.291843	0.427463
654.634365	0.424001
654.976836	0.426940
655.319255	0.427653
655.661622	0.429177
656.003938	0.429155
656.346203	0.431852
656.688416	0.429925
657.030577	0.433132
657.372687	0.435287
657.714746	0.436236
658.056753	0.433036
658.398708	0.436591
658.740612	0.438410
659.082465	0.434337
659.424266	0.434887
659.766016	0.434308
660.107715	0.437427
660.449362	0.436202
660.790958	0.436168
661.132503	0.437860
661.473996	0.434778
661.815438	0.436090
662.156829	0.436188
662.498168	0.436840
662.839456	0.438613
663.180693	0.436063
663.521879	0.435668
663.863013	0.436846
664.204097	0.435530
664.545129	0.432036
664.886110	0.432881
665.227040	0.430320
665.567918	0.432907
665.908746	0.430446
666.249522	0.429614
666.590248	0.431020
666.930922	0.429228
667.271545	0.428302
667.612118	0.428200
667.952639	0.430055
668.293109	0.428899
668.633528	0.431356
668.973896	0.431417
669.314213	0.431926
669.654480	0.433695
669.994695	0.433775
670.334859	0.434753
670.674973	0.435624
671.015035	0.435223
671.355047	0.435818
671.695008	0.436115
672.034918	0.438072
672.374777	0.437872
672.714585	0.438742
673.054342	0.438935
673.394049	0.438745
673.733705	0.436860
674.073310	0.438179
674.412864	0.440984
674.752368	0.441183
675.091820	0.442008
675.431223	0.446498
675.770574	0.445678
676.109875	0.449141
676.449125	0.449133
676.788324	0.451340
677.127473	0.457177
677.466571	0.456945
677.805619	0.458534
678.144616	0.460007
678.483562	0.460966
678.822458	0.463776
679.161303	0.464858
679.500098	0.465740
679.838842	0.467129
680.177535	0.466732
680.516179	0.464793
680.854771	0.464793
681.193314	0.458082
681.531805	0.449206
681.870247	0.438350
682.208638	0.430464
682.546978	0.429677
682.885268	0.431274
683.223508	0.437672
683.561697	0.441765
683.899836	0.444272
684.237925	0.447029
684.575963	0.450594
684.913951	0.453903
685.251889	0.449368
685.589776	0.451632
685.927614	0.454074
686.265401	0.448882
686.603137	0.449725
686.940824	0.444662
687.278460	0.443431
687.616046	0.442458
687.953582	0.437868
688.291068	0.439666
688.628504	0.435626
688.965889	0.437647
689.303224	0.441831
689.640510	0.445561
689.977745	0.451065
690.314930	0.459219
690.652065	0.464087
690.989150	0.471240
691.326185	0.477779
691.663170	0.482442
692.000105	0.489650
692.336990	0.496805
692.673825	0.499260
693.010610	0.505791
693.347345	0.511094
693.684030	0.513155
694.020665	0.518322
694.357251	0.526569
694.693786	0.526443
695.030272	0.529347
695.366707	0.534381
695.703093	0.538390
696.039429	0.535507
696.375716	0.538397
696.711952	0.539903
697.048139	0.542154
697.384276	0.544904
697.720363	0.543411
698.056400	0.542262
698.392388	0.547965
698.728326	0.550120
699.064214	0.553760
699.400053	0.554414
699.735842	0.559187
700.071581	0.561318
700.407270	0.564166
700.742910	0.567155
701.078501	0.572930
701.414042	0.574022
701.749533	0.576532
702.084974	0.585558
702.420366	0.578799
702.755709	0.585626
703.091002	0.593402
703.426246	0.587427
703.761440	0.592962
704.096584	0.597265
704.431679	0.595003
704.766725	0.597949
705.101721	0.599425
705.436668	0.596184
705.771565	0.602185
706.106413	0.598854
706.441212	0.594766
706.775961	0.594515
707.110661	0.595775
707.445311	0.593370
707.779913	0.591730
708.114465	0.589844
708.448967	0.586908
708.783421	0.579425
709.117825	0.574064
709.452180	0.573840
709.786485	0.568417
710.120742	0.558488
710.454949	0.560330
710.789107	0.552823
711.123216	0.544543
711.457275	0.545394
711.791286	0.538360
712.125247	0.537683
712.459159	0.547572
712.793023	0.539765
713.126837	0.545398
713.460602	0.545714
713.794318	0.553463
714.127985	0.553190
714.461602	0.563573
714.795171	0.566616
715.128691	0.574400
715.462162	0.582054
715.795584	0.587527
716.128957	0.591212
716.462281	0.597304
716.795556	0.600123
717.128782	0.606067
717.461960	0.614579
717.795088	0.613759
718.128167	0.620105
718.461198	0.627624
718.794180	0.628533
719.127113	0.631213
719.459997	0.634607
719.792833	0.640850
720.125619	0.642421
720.458357	0.648664
720.791046	0.647701
721.123686	0.652036
721.456278	0.658304
721.788821	0.656093
722.121315	0.660905
722.453761	0.663660
722.786158	0.661777
723.118506	0.659210
723.450805	0.666741
723.783056	0.663283
724.115259	0.660813
724.447412	0.661240
724.779518	0.661679
725.111574	0.661212
725.443582	0.657008
725.775542	0.660372
726.107453	0.652227
726.439315	0.652998
726.771129	0.651595
727.102895	0.645107
727.434612	0.638499
727.766281	0.636365
728.097901	0.635782
728.429473	0.635493
728.760996	0.634234
729.092471	0.634012
729.423897	0.638823
729.755276	0.637982
730.086606	0.638251
730.417887	0.632614
730.749120	0.624478
731.080305	0.616857
731.411442	0.613211
731.742530	0.615526
732.073570	0.615856
732.404562	0.610046
732.735506	0.611152
733.066401	0.615817
733.397249	0.623902
733.728048	0.634973
734.058798	0.648443
734.389501	0.658872
734.720156	0.667195
735.050762	0.675126
735.381320	0.676423
735.711831	0.682593
736.042293	0.688221
736.372707	0.687003
736.703073	0.690916
737.033391	0.692425
737.363661	0.689318
737.693883	0.685977
738.024056	0.685162
738.354182	0.684996
738.684260	0.674800
739.014290	0.672339
739.344272	0.672590
739.674207	0.667023
740.004093	0.665808
740.333931	0.667615
740.663722	0.667844
740.993464	0.668143
741.323159	0.671369
741.652806	0.677505
741.982405	0.681791
742.311956	0.686428
742.641460	0.688456
742.970915	0.692369
743.300323	0.697753
743.629683	0.703900
743.958996	0.707093
744.288260	0.709942
744.617477	0.716411
744.946647	0.717797
745.275768	0.724822
745.604842	0.725004
745.933869	0.732445
746.262847	0.734462
746.591778	0.728933
746.920662	0.734189
747.249498	0.739216
747.578286	0.732945
747.907027	0.729417
748.235720	0.728547
748.564365	0.726017
748.892963	0.725701
749.221514	0.729305
749.550017	0.732938
749.878473	0.734312
750.206881	0.739580
750.535242	0.739427
750.863555	0.739699
751.191821	0.741477
751.520039	0.743301
751.848210	0.745967
752.176334	0.742517
752.504411	0.741581
752.832440	0.748672
753.160421	0.750907
753.488356	0.750790
753.816243	0.749445
754.144082	0.756338
754.471875	0.758818
754.799620	0.756409
755.127318	0.757456
755.454969	0.757666
755.782572	0.758677
756.110129	0.761899
756.437638	0.764196
756.765100	0.761771
757.092515	0.761139
757.419882	0.759527
757.747203	0.763146
758.074477	0.763714
758.401703	0.761817
758.728882	0.756296
759.056014	0.755962
759.383099	0.754493
759.710138	0.754766
760.037129	0.752037
760.364073	0.747710
760.690970	0.749595
761.017820	0.752194
761.344623	0.750040
761.671379	0.742877
761.998088	0.732640
762.324751	0.711392
762.651366	0.670583
762.977935	0.608164
763.304456	0.563719
763.630931	0.557358
763.957359	0.592188
764.283740	0.632098
764.610074	0.659082
764.936362	0.688971
765.262602	0.713126
765.588796	0.733280
765.914943	0.747657
766.241044	0.763821
766.567097	0.769922
766.893104	0.779707
767.219064	0.785568
767.544978	0.791008
767.870845	0.802707
768.196665	0.806804
768.522438	0.805213
768.848165	0.807594
769.173846	0.814810
769.499479	0.818301
769.825066	0.823038
770.150607	0.826976
770.476101	0.823163
770.801548	0.825642
771.126949	0.834622
771.452303	0.837244
771.777611	0.837408
772.102872	0.836581
772.428087	0.841970
772.753256	0.845594
773.078378	0.847538
773.403453	0.855554
773.728482	0.858396
774.053465	0.853306
774.378401	0.856720
774.703291	0.863159
775.028135	0.864198
775.352932	0.864032
775.677683	0.867264
776.002388	0.868729
776.327046	0.867653
776.651658	0.871415
776.976224	0.873463
777.300743	0.874195
777.625216	0.875655
777.949643	0.878422
778.274024	0.876837
778.598359	0.879941
778.922647	0.878252
779.246889	0.879807
779.571086	0.882440
779.895236	0.883798
780.219339	0.882241
780.543397	0.880156
780.867409	0.878856
781.191374	0.880137
781.515294	0.882367
781.839167	0.881862
782.162995	0.882350
782.486776	0.880428
782.810511	0.882648
783.134201	0.886668
783.457844	0.884352
783.781441	0.886377
784.104993	0.889506
784.428498	0.890949
784.751958	0.888703
785.075372	0.889123
785.398739	0.892478
785.722061	0.889660
786.045337	0.886798
786.368568	0.890309
786.691752	0.892136
787.014891	0.880385
787.337983	0.873034
787.661030	0.864133
787.984031	0.849922
788.306987	0.840306
788.629897	0.839782
788.952760	0.844930
789.275579	0.850685
789.598351	0.862680
789.921078	0.874920
790.243759	0.876536
790.566395	0.881113
790.888984	0.888044
791.211529	0.891683
791.534027	0.894993
791.856480	0.897477
792.178888	0.898804
792.501249	0.901800
792.823566	0.905266
793.145836	0.904899
793.468062	0.905528
793.790241	0.906077
794.112375	0.903658
794.434464	0.901380
794.756507	0.899910
795.078505	0.899547
795.400457	0.893934
795.722364	0.883747
796.044226	0.878867
796.366042	0.877114
796.687812	0.878743
797.009538	0.876840
797.331218	0.881348
797.652852	0.883914
797.974442	0.887288
798.295986	0.889700
798.617484	0.890294
798.938938	0.894311
799.260346	0.897547
799.581709	0.899295
799.903026	0.903160
800.224299	0.904174
800.545526	0.905146
800.866708	0.908974
801.187845	0.912203
801.508936	0.911917
801.829983	0.910932
802.150984	0.914258
802.471940	0.916840
802.792851	0.916690
803.113717	0.918437
803.434538	0.917019
803.755314	0.919740
804.076045	0.920023
804.396731	0.919245
804.717372	0.917856
805.037967	0.921551
805.358518	0.920120
805.679024	0.915921
805.999485	0.918472
806.319901	0.915994
806.640272	0.918416
806.960598	0.915897
807.280879	0.913225
807.601115	0.914039
807.921306	0.917116
808.241453	0.916672
808.561554	0.916141
808.881611	0.915100
809.201623	0.918034
809.521590	0.917784
809.841513	0.919116
810.161390	0.916776
810.481223	0.918353
810.801011	0.921988
811.120755	0.923674
811.440453	0.923192
811.760107	0.921859
812.079716	0.922015
812.399281	0.924435
812.718801	0.926660
813.038276	0.926662
813.357707	0.927263
813.677093	0.926462
813.996434	0.928155
814.315731	0.929307
814.634983	0.931293
814.954191	0.930439
815.273354	0.925982
815.592473	0.923578
815.911547	0.923493
816.230577	0.922916
816.549562	0.919891
816.868502	0.918479
817.187399	0.917696
817.506250	0.914040
817.825058	0.915286
818.143821	0.912387
818.462539	0.907438
818.781213	0.902145
819.099843	0.892827
819.418429	0.877257
819.736970	0.864259
820.055466	0.847277
820.373919	0.827515
820.692327	0.801236
821.010691	0.769769
821.329011	0.697770
821.647286	0.591895
821.965517	0.488004
822.283704	0.448096
822.601847	0.451012
822.919945	0.491235
823.237999	0.531586
823.556010	0.574331
823.873976	0.624914
824.191897	0.669303
824.509775	0.707417
824.827609	0.743658
825.145398	0.762795
825.463144	0.764383
825.780845	0.750187
826.098502	0.731963
826.416116	0.692342
826.733685	0.653369
827.051210	0.646699
827.368692	0.660954
827.686129	0.698001
828.003522	0.743294
828.320872	0.783632
828.638177	0.818578
828.955439	0.844585
829.272656	0.861907
829.589830	0.876266
829.906960	0.889516
830.224046	0.899015
830.541088	0.907302
830.858086	0.911876
831.175041	0.916541
831.491952	0.914710
831.808819	0.912566
832.125642	0.906581
832.442421	0.896277
832.759157	0.877341
833.075849	0.838031
833.392497	0.784000
833.709101	0.751765
834.025662	0.762252
834.342179	0.790724
834.658653	0.822935
834.975083	0.851981
835.291469	0.874859
835.607811	0.892412
835.924110	0.904781
836.240366	0.918347
836.556578	0.928130
836.872746	0.933745
837.188871	0.939234
837.504952	0.943116
837.820990	0.945357
838.136984	0.948024
838.452935	0.951008
838.768842	0.950732
839.084706	0.945874
839.400526	0.925999
839.716303	0.890532
840.032037	0.873204
840.347727	0.877266
840.663373	0.894187
840.978977	0.911662
841.294537	0.928768
841.610054	0.940870
841.925527	0.949381
842.240957	0.953398
842.556344	0.959228
842.871687	0.962900
843.186987	0.965431
843.502244	0.966907
843.817458	0.967904
844.132629	0.969886
844.447756	0.974027
844.762840	0.973589
845.077881	0.974497
845.392879	0.973880
845.707833	0.974688
846.022745	0.977060
846.337613	0.977590
846.652438	0.978100
846.967221	0.978544
847.281960	0.978597
847.596656	0.980166
847.911309	0.978661
848.225919	0.978421
848.540485	0.980709
848.855009	0.980677
849.169490	0.980470
849.483928	0.980156
849.798323	0.979451
850.112675	0.982856
850.426984	0.980921
850.741251	0.982703
851.055474	0.981907
851.369654	0.981672
851.683792	0.980339
851.997887	0.980908
852.311938	0.982871
852.625947	0.981626
852.939914	0.979476
853.253837	0.981504
853.567718	0.982895
853.881555	0.982667
854.195350	0.981359
854.509103	0.981344
854.822812	0.982058
855.136479	0.982274
855.450103	0.981586
855.763685	0.981565
856.077224	0.981347
856.390720	0.982260
856.704173	0.982456
857.017584	0.981756
857.330953	0.980217
857.644278	0.978990
857.957561	0.980141
858.270802	0.981268
858.584000	0.981073
858.897155	0.980142
859.210268	0.980115
859.523339	0.982755
859.836367	0.982707
860.149352	0.981664
860.462295	0.982403
860.775195	0.981632
861.088054	0.981112
861.400869	0.982575
861.713642	0.981949
862.026373	0.983331
862.339062	0.984377
862.651708	0.982243
862.964312	0.982092
863.276873	0.980559
863.589392	0.980495
863.901869	0.978804
864.214303	0.977986
864.526696	0.978710
864.839045	0.977340
865.151353	0.977300
865.463619	0.976564
865.775842	0.977340
866.088023	0.977259
866.400162	0.977212
866.712258	0.977302
867.024313	0.977685
867.336325	0.979225
867.648296	0.978529
867.960224	0.977735
868.272110	0.977815
868.583954	0.978755
868.895755	0.978803
869.207515	0.976691
869.519233	0.977309
869.830909	0.975795
870.142542	0.977011
870.454134	0.977305
870.765684	0.974939
871.077191	0.976825
871.388657	0.974188
871.700081	0.975201
872.011463	0.974935
872.322803	0.974108
872.634101	0.972969
872.945357	0.971093
873.256571	0.970056
873.567744	0.970693
873.878874	0.971343
874.189963	0.970530
874.501010	0.972396
874.812015	0.968646
875.122979	0.969620
875.433900	0.970387
875.744780	0.971225
876.055618	0.969530
876.366415	0.969794
876.677169	0.969822
876.987882	0.970125
877.298554	0.971048
877.609183	0.968450
877.919771	0.967200
878.230317	0.965320
878.540822	0.963117
878.851285	0.960804
879.161707	0.956345
879.472087	0.948266
879.782425	0.935142
880.092722	0.909883
880.402977	0.868161
880.713191	0.813988
881.023363	0.759595
881.333494	0.725906
881.643583	0.706447
881.953631	0.711356
882.263637	0.738991
882.573602	0.773367
882.883526	0.797331
883.193408	0.818415
883.503248	0.837584
883.813048	0.859183
884.122806	0.881658
884.432522	0.899688
884.742197	0.913505
885.051831	0.922390
885.361424	0.930658
885.670975	0.939356
885.980485	0.945467
886.289954	0.948841
886.599382	0.951449
886.908768	0.956555
887.218113	0.957887
887.527417	0.963025
887.836680	0.964725
888.145901	0.967183
888.455082	0.969690
888.764221	0.972157
889.073319	0.972151
889.382376	0.972732
889.691392	0.972337
890.000366	0.973404
890.309300	0.972811
890.618193	0.972909
890.927044	0.970942
891.235855	0.971421
891.544625	0.971852
891.853353	0.972027
892.162041	0.969412
892.470687	0.967119
892.779293	0.961871
893.087858	0.957531
893.396381	0.953368
893.704864	0.943321
894.013306	0.924415
894.321707	0.905532
894.630068	0.894450
894.938387	0.891280
895.246665	0.894224
895.554903	0.903822
895.863100	0.916098
896.171256	0.928416
896.479371	0.940175
896.787446	0.949876
897.095480	0.954286
897.403473	0.956793
897.711425	0.959017
898.019336	0.964021
898.327207	0.967361
898.635038	0.966396
898.942827	0.969301
899.250576	0.971225
899.558284	0.972981
899.865952	0.972380
900.173579	0.975159
900.481165	0.975530
900.788711	0.976696
901.096216	0.977755
901.403681	0.979336
901.711105	0.979425
902.018489	0.979275
902.325832	0.978827
902.633135	0.978159
902.940397	0.975341
903.247619	0.965956
903.554800	0.948387
903.861941	0.917701
904.169041	0.888504
904.476101	0.876050
904.783121	0.877554
905.090100	0.891400
905.397039	0.909596
905.703938	0.925922
906.010796	0.940667
906.317614	0.952711
906.624391	0.960797
906.931129	0.966740
907.237826	0.972385
907.544483	0.976619
907.851099	0.979238
908.157675	0.981372
908.464211	0.984767
908.770707	0.984894
909.077163	0.986769
909.383578	0.987591
909.689954	0.986741
909.996289	0.988692
910.302584	0.989437
910.608839	0.990066
910.915054	0.990283
911.221229	0.990216
911.527363	0.988490
911.833458	0.989696
912.139513	0.988148
912.445527	0.988000
912.751502	0.987303
913.057436	0.985172
913.363331	0.984819
913.669186	0.982057
913.975000	0.979217
914.280775	0.974470
914.586510	0.968829
914.892205	0.958502
915.197859	0.943653
915.503475	0.924859
915.809050	0.908454
916.114585	0.904804
916.420081	0.902722
916.725536	0.903282
917.030952	0.909752
917.336328	0.918843
917.641665	0.930726
917.946961	0.940653
918.252218	0.948809
918.557435	0.954737
918.862612	0.960512
919.167750	0.964758
919.472848	0.968540
919.777906	0.973582
920.082925	0.976337
920.387904	0.979016
920.692843	0.979294
920.997743	0.980518
921.302603	0.982800
921.607423	0.983667
921.912204	0.985665
922.216946	0.986240
922.521647	0.986042
922.826310	0.987152
923.130932	0.989029
923.435516	0.990063
923.740059	0.989999
924.044564	0.991453
924.349028	0.990326
924.653454	0.992957
924.957840	0.992227
925.262186	0.991829
925.566493	0.994087
925.870761	0.993217
926.174989	0.994364
926.479178	0.996278
926.783328	0.995852
927.087438	0.994952
927.391509	0.995245
927.695541	0.995614
927.999533	0.997042
928.303486	0.996948
928.607400	0.996945
928.911275	0.997911
929.215110	0.997532
929.518906	0.997993
929.822663	0.998100
930.126381	0.997819
930.430060	0.996945
930.733699	0.998078
931.037299	0.997158
931.340861	0.998148
931.644383	0.995724
931.947866	0.997790
932.251309	0.996573
932.554714	0.998119
932.858080	0.998221
933.161407	0.996109
933.464694	0.997354
933.767943	0.996892
934.071153	0.997939
934.374323	0.998052
934.677455	0.998075
934.980548	0.997223
935.283602	0.998560
935.586617	0.998069
935.889593	0.999959
936.192530	0.998146
936.495428	0.998420
936.798287	0.998250
937.101108	0.998207
937.403890	0.995686
937.706632	0.997596
938.009336	0.994882
938.312002	0.993851
938.614628	0.993665
938.917216	0.992981
939.219765	0.991534
939.522275	0.992599
939.824747	0.992703
940.127179	0.992893
940.429573	0.994454
940.731929	0.991776
941.034246	0.994006
941.336524	0.993274
941.638763	0.994014
941.940964	0.994742
942.243126	0.995390
942.545250	0.996296
942.847335	0.995286
943.149381	0.996100
943.451389	0.995644
943.753359	0.996107
944.055290	0.998363
944.357182	0.997365
944.659036	0.997231
944.960851	0.997784
945.262628	0.997748
945.564367	0.996863
945.866067	0.997031
946.167729	0.997207
946.469352	0.997003
946.770937	0.995578
947.072484	0.997762
947.373992	0.997296
947.675462	0.997283
947.976893	0.997195
948.278286	0.999255
948.579641	0.998603
948.880958	0.997629
949.182236	0.998300
949.483476	0.999649
949.784678	0.998099
950.085841	0.997864
950.386967	0.997585
950.688054	0.998319
950.989103	0.996000
951.290114	0.996517
951.591087	0.997007
951.892021	0.996287
952.192917	0.996857
952.493776	0.997038
952.794596	0.994836
953.095378	0.995707
953.396122	0.995728
953.696828	0.997391
953.997496	0.996702
954.298126	0.998453
954.598718	0.997599
954.899272	0.997463
955.199788	0.998103
955.500266	0.999822
955.800706	0.997371
956.101108	0.998556
956.401472	1.000771
956.701798	0.999235
957.002087	0.998725
957.302337	0.999771
957.602550	1.000152
957.902724	1.000570
958.202861	0.999870
958.502960	1.000114
958.803022	1.001873
959.103045	1.001357
959.403031	1.002001
959.702979	1.001474
960.002889	1.001535
960.302762	1.000392
960.602596	1.002371
960.902393	1.001648
961.202153	1.002014
961.501875	1.001057
961.801559	1.002359
962.101205	1.000236
962.400814	1.003026
962.700385	1.002354
962.999918	1.003069
963.299414	1.000560
963.598873	1.001889
963.898293	1.001938
964.197677	1.001472
964.497022	1.001472
964.796331	1.002131
965.095601	1.002352
965.394835	1.002396
965.694030	1.002831
965.993189	1.001514
966.292309	1.001849
966.591393	1.001854
966.890439	1.002890
967.189447	1.001579
967.488419	1.001950
967.787353	1.002573
968.086249	1.002429
968.385108	1.000817
968.683930	1.002431
968.982714	1.001789
969.281462	1.001347
969.580172	1.002140
969.878844	1.002520
970.177480	1.001643
970.476078	1.003843
970.774639	1.002820
971.073162	1.001431
971.371649	1.002466
971.670098	1.001268
971.968510	1.001709
972.266885	1.001588
972.565223	1.002600
972.863524	1.001315
973.161788	1.000761
973.460014	1.003195
973.758204	1.000488
974.056356	1.001426
974.354471	1.002085
974.652550	1.001369
974.950591	1.000646
975.248595	1.001267
975.546563	1.002996
975.844493	1.002933
976.142386	1.002127
976.440243	1.003652
976.738062	1.003358
977.035845	1.000891
977.333590	1.003796
977.631299	1.001127
977.928971	1.002381
978.226606	1.001357
978.524204	1.001192
978.821765	1.002200
979.119290	1.002561
979.416777	1.001260
979.714228	1.002081
980.011642	1.003340
980.309020	1.002411
980.606360	1.001996
980.903664	1.001584
981.200931	1.001003
981.498162	1.001979
981.795356	1.000879
982.092513	1.000649
982.389633	1.001136
982.686717	0.997424
982.983764	0.999110
983.280775	0.998449
983.577749	0.999911
983.874686	0.997378
984.171587	0.998267
984.468451	0.999453
984.765279	1.000397
985.062070	1.001090
985.358824	1.001222
985.655543	1.000810
985.952224	1.002788
986.248869	1.002692
986.545478	1.003818
986.842050	1.002738
987.138586	1.001080
987.435086	1.002818
987.731549	1.003053
988.027975	1.003561
988.324366	1.002428
988.620719	1.002768
988.917037	1.002852
989.213318	1.002116
989.509563	1.003366
989.805772	1.003530
990.101944	1.004401
990.398080	1.002690
990.694180	1.004302
990.990244	1.002966
991.286271	1.002664
991.582262	1.004135
991.878217	1.002341
992.174136	1.004054
992.470019	1.003850
992.765865	1.004423
993.061676	1.003107
993.357450	1.004419
993.653188	1.004760
993.948890	1.002243
994.244556	1.003527
994.540186	1.002552
994.835780	1.002093
995.131337	1.003323
995.426859	1.003045
995.722345	1.003179
996.017795	1.001348
996.313208	1.003510
996.608586	1.001124
996.903928	1.003296
997.199234	1.002771
997.494504	1.002691
997.789738	1.001163
998.084936	1.002515
998.380099	1.002393
998.675225	1.003705
998.970316	1.002884
999.265371	1.002579
999.560390	1.003141
999.855373	1.002303
1000.150320	1.003273
1000.445232	1.003790
1000.740108	1.003098
1001.034948	1.003115
1001.329752	1.004934
1001.624521	1.003011
1001.919254	1.001569
1002.213951	1.003590
1002.508613	1.002807
1002.803239	1.003250
1003.097829	1.004641
1003.392384	1.004215
1003.686903	1.004226
1003.981386	1.002632
1004.275834	1.004460
1004.570246	1.001874
1004.864623	1.004461
1005.158964	1.004040
1005.453270	1.003513
1005.747540	1.002430
1006.041775	1.003322
1006.335974	1.004911
1006.630138	1.004649
1006.924266	1.002251
1007.218359	1.001845
1007.512416	1.004384
1007.806438	1.002985
1008.100425	1.003949
1008.394376	1.003831
1008.688292	1.002990
1008.982172	1.002820
1009.276017	1.004941
1009.569827	1.004633
1009.863602	1.002793
1010.157341	1.004220
1010.451045	1.003558
1010.744714	1.005564
1011.038347	1.005466
1011.331945	1.002829
1011.625508	1.004609
1011.919036	1.003996
1012.212528	1.005229
1012.505986	1.002932
1012.799408	1.004741
1013.092795	1.004308
1013.386147	1.003651
1013.679464	1.005318
1013.972745	1.003354
1014.265992	1.003093
1014.559204	1.002640
1014.852380	1.004317
1015.145521	1.003006
1015.438628	1.003722
1015.731699	1.003444
1016.024736	1.003825
1016.317737	1.004090
1016.610703	1.003836
1016.903635	1.002861
1017.196531	1.003168
1017.489393	1.003319
1017.782219	1.004118
1018.075011	1.003169
1018.367768	1.003656
1018.660490	1.003371
1018.953177	1.003371
1019.245829	1.003371
