Dividing Wavelength (nm)	Counts (n)	Blue Motor Position (mm): 8.600000	Red Motor Position (mm): 0.000000	
326.493990	1.004442
326.888308	1.004442
327.282561	1.004442
327.676750	1.005591
328.070874	1.005637
328.464933	1.006454
328.858929	1.005012
329.252859	1.004192
329.646726	1.003544
330.040528	1.002994
330.434265	1.004892
330.827938	1.002800
331.221547	1.004376
331.615091	1.005248
332.008571	1.004857
332.401986	1.003273
332.795338	1.003490
333.188625	1.004825
333.581847	1.004052
333.975006	1.004594
334.368100	1.005127
334.761129	1.002982
335.154095	1.005348
335.546996	1.003020
335.939833	0.997675
336.332606	0.999295
336.725315	0.996849
337.117960	0.999262
337.510540	0.997884
337.903056	0.999164
338.295508	1.000028
338.687896	0.997963
339.080220	0.998554
339.472480	0.998625
339.864676	0.998844
340.256807	0.997174
340.648875	0.998757
341.040879	0.998736
341.432818	0.998879
341.824694	0.998737
342.216506	0.999639
342.608253	0.998245
342.999937	0.998987
343.391557	0.998995
343.783113	0.999333
344.174605	0.998879
344.566033	0.997525
344.957397	0.998610
345.348697	0.999884
345.739934	0.999734
346.131106	0.997801
346.522215	0.998310
346.913260	0.998038
347.304241	0.998087
347.695159	0.998905
348.086012	0.998915
348.476802	0.997870
348.867528	0.997109
349.258191	0.998142
349.648789	0.997452
350.039324	0.998400
350.429796	0.997935
350.820203	0.997515
351.210548	0.998736
351.600828	0.998200
351.991045	0.997156
352.381198	0.999237
352.771288	0.996778
353.161314	0.998203
353.551276	0.997113
353.941175	0.996792
354.331010	0.998219
354.720782	0.996825
355.110490	0.996956
355.500135	0.996762
355.889717	0.997334
356.279235	0.996997
356.668689	0.999134
357.058080	0.996343
357.447408	0.997518
357.836672	0.998017
358.225873	0.996607
358.615010	0.997584
359.004084	0.996256
359.393095	0.997395
359.782043	0.996950
360.170927	0.997385
360.559748	0.998176
360.948505	0.997246
361.337199	0.997063
361.725830	0.996809
362.114398	0.997305
362.502903	0.996068
362.891344	0.995838
363.279722	0.995653
363.668037	0.997016
364.056289	0.996412
364.444478	0.997143
364.832603	0.995975
365.220665	0.997129
365.608665	0.995712
365.996601	0.996187
366.384474	0.995334
366.772284	0.995011
367.160031	0.994291
367.547715	0.994614
367.935336	0.994843
368.322893	0.993839
368.710388	0.992128
369.097820	0.989749
369.485189	0.988034
369.872495	0.986126
370.259738	0.984276
370.646918	0.980458
371.034035	0.977515
371.421090	0.975406
371.808081	0.970686
372.195010	0.969242
372.581875	0.962999
372.968678	0.959211
373.355418	0.955169
373.742096	0.947356
374.128710	0.943157
374.515262	0.938807
374.901751	0.932804
375.288177	0.928160
375.674540	0.921857
376.060841	0.914824
376.447079	0.908516
376.833254	0.901951
377.219367	0.896270
377.605417	0.885483
377.991404	0.882208
378.377329	0.876255
378.763191	0.868940
379.148991	0.860682
379.534727	0.852813
379.920402	0.845223
380.306013	0.841670
380.691563	0.828191
381.077049	0.822630
381.462474	0.817727
381.847835	0.806168
382.233134	0.801826
382.618371	0.801614
383.003545	0.784726
383.388657	0.783612
383.773706	0.774465
384.158693	0.770736
384.543618	0.765575
384.928480	0.756817
385.313280	0.747428
385.698017	0.746525
386.082692	0.735488
386.467305	0.733668
386.851856	0.728012
387.236344	0.722792
387.620770	0.716993
388.005133	0.711812
388.389435	0.705487
388.773674	0.703014
389.157851	0.694563
389.541965	0.692671
389.926018	0.699244
390.310008	0.685686
390.693936	0.682759
391.077802	0.675004
391.461606	0.676886
391.845348	0.665784
392.229027	0.665675
392.612645	0.663775
392.996200	0.650819
393.379694	0.643715
393.763125	0.633829
394.146494	0.638520
394.529801	0.628928
394.913047	0.621019
395.296230	0.626340
395.679351	0.618811
396.062410	0.615106
396.445408	0.617870
396.828343	0.612914
397.211217	0.607924
397.594028	0.620458
397.976778	0.611438
398.359466	0.607196
398.742092	0.602932
399.124656	0.614677
399.507158	0.602435
399.889598	0.600493
400.271977	0.591358
400.654294	0.594471
401.036549	0.594171
401.418742	0.598779
401.800874	0.583740
402.182944	0.580505
402.564952	0.572262
402.946898	0.574606
403.328783	0.574944
403.710606	0.586333
404.092367	0.561978
404.474067	0.567077
404.855705	0.565861
405.237282	0.574547
405.618797	0.560491
406.000250	0.556012
406.381642	0.546481
406.762972	0.551853
407.144240	0.549513
407.525447	0.549980
407.906593	0.542888
408.287677	0.538484
408.668700	0.546360
409.049661	0.540630
409.430560	0.535411
409.811399	0.544062
410.192176	0.526285
410.572891	0.532927
410.953545	0.521408
411.334138	0.535335
411.714669	0.527370
412.095139	0.539466
412.475547	0.523256
412.855894	0.525323
413.236180	0.524336
413.616405	0.529807
413.996568	0.520279
414.376670	0.526343
414.756711	0.531164
415.136691	0.528113
415.516609	0.519295
415.896466	0.515133
416.276262	0.512056
416.655997	0.513711
417.035670	0.495319
417.415283	0.486771
417.794834	0.491513
418.174324	0.497324
418.553753	0.505896
418.933121	0.488346
419.312428	0.482480
419.691674	0.487992
420.070859	0.476980
420.449983	0.484353
420.829045	0.473625
421.208047	0.482314
421.586988	0.475357
421.965867	0.474836
422.344686	0.463268
422.723444	0.475392
423.102141	0.492538
423.480777	0.465340
423.859352	0.486491
424.237866	0.463409
424.616319	0.464251
424.994712	0.454935
425.373044	0.465207
425.751314	0.453353
426.129524	0.470025
426.507673	0.453105
426.885762	0.446873
427.263789	0.452646
427.641756	0.462318
428.019662	0.452564
428.397508	0.452215
428.775292	0.456036
429.153016	0.447836
429.530679	0.455032
429.908282	0.447418
430.285824	0.457795
430.663305	0.436459
431.040726	0.457237
431.418086	0.457189
431.795385	0.448947
432.172624	0.448099
432.549802	0.448297
432.926920	0.446791
433.303977	0.446650
433.680974	0.443669
434.057910	0.443078
434.434786	0.441546
434.811601	0.444290
435.188355	0.427082
435.565050	0.435945
435.941683	0.437456
436.318257	0.421167
436.694770	0.422277
437.071222	0.420289
437.447614	0.424759
437.823946	0.431338
438.200218	0.420552
438.576429	0.430176
438.952580	0.423501
439.328670	0.419661
439.704700	0.426299
440.080670	0.427635
440.456580	0.408706
440.832429	0.417214
441.208218	0.427716
441.583947	0.416617
441.959616	0.416061
442.335224	0.422106
442.710773	0.412527
443.086261	0.410878
443.461689	0.424314
443.837057	0.414230
444.212365	0.404404
444.587612	0.411674
444.962800	0.400837
445.337927	0.403005
445.712995	0.428937
446.088002	0.390887
446.462949	0.401294
446.837837	0.406806
447.212664	0.394846
447.587431	0.386068
447.962139	0.356915
448.336786	0.315877
448.711374	0.326039
449.085901	0.370660
449.460369	0.374717
449.834776	0.378190
450.209124	0.357774
450.583412	0.350357
450.957640	0.343156
451.331808	0.354571
451.705917	0.378087
452.079965	0.382509
452.453954	0.370683
452.827883	0.377715
453.201752	0.372052
453.575562	0.383603
453.949311	0.372694
454.323001	0.378170
454.696632	0.374368
455.070202	0.366702
455.443713	0.358777
455.817164	0.353271
456.190556	0.349774
456.563888	0.346643
456.937160	0.343595
457.310373	0.361024
457.683526	0.359771
458.056619	0.366069
458.429653	0.365801
458.802628	0.369678
459.175542	0.363633
459.548398	0.346492
459.921194	0.338867
460.293930	0.339027
460.666607	0.316683
461.039224	0.304747
461.411782	0.300381
461.784280	0.299343
462.156719	0.304001
462.529099	0.308144
462.901419	0.324182
463.273680	0.328565
463.645882	0.328250
464.018024	0.334111
464.390106	0.326685
464.762130	0.311307
465.134094	0.294189
465.505999	0.263293
465.877845	0.233431
466.249631	0.220588
466.621358	0.228049
466.993026	0.241847
467.364634	0.248046
467.736184	0.256999
468.107674	0.265488
468.479105	0.264762
468.850477	0.271509
469.221790	0.278565
469.593043	0.288456
469.964238	0.293440
470.335373	0.292800
470.706449	0.290949
471.077467	0.291651
471.448425	0.253465
471.819324	0.229051
472.190164	0.228609
472.560945	0.257430
472.931667	0.279843
473.302330	0.284120
473.672934	0.295943
474.043479	0.284369
474.413965	0.285928
474.784393	0.289178
475.154761	0.284371
475.525070	0.281639
475.895321	0.287429
476.265513	0.281305
476.635645	0.276600
477.005719	0.276527
477.375734	0.273324
477.745691	0.266541
478.115588	0.263082
478.485427	0.256203
478.855207	0.243215
479.224928	0.225583
479.594591	0.213826
479.964194	0.217279
480.333739	0.218334
480.703226	0.219876
481.072653	0.218029
481.442022	0.213854
481.811333	0.210427
482.180584	0.213861
482.549777	0.219211
482.918912	0.222727
483.287988	0.222140
483.657005	0.221768
484.025964	0.228533
484.394864	0.225648
484.763706	0.226281
485.132489	0.231604
485.501213	0.232367
485.869879	0.230617
486.238487	0.233612
486.607036	0.231643
486.975527	0.236346
487.343959	0.232074
487.712333	0.231145
488.080648	0.232380
488.448905	0.231831
488.817104	0.233112
489.185244	0.227547
489.553326	0.224511
489.921350	0.214337
490.289315	0.196572
490.657222	0.191674
491.025070	0.193023
491.392861	0.194749
491.760593	0.200487
492.128267	0.206516
492.495883	0.212044
492.863440	0.218252
493.230939	0.224542
493.598380	0.226143
493.965763	0.228015
494.333088	0.230298
494.700354	0.231937
495.067563	0.231029
495.434713	0.234240
495.801805	0.232006
496.168839	0.233692
496.535815	0.235072
496.902733	0.235149
497.269593	0.236474
497.636395	0.233983
498.003139	0.234402
498.369825	0.237338
498.736453	0.234016
499.103023	0.235508
499.469535	0.234954
499.835989	0.235124
500.202385	0.236014
500.568723	0.239256
500.935003	0.234485
501.301226	0.238644
501.667390	0.232830
502.033497	0.231005
502.399546	0.234014
502.765537	0.235783
503.131470	0.234281
503.497345	0.230434
503.863163	0.239315
504.228923	0.232447
504.594625	0.231019
504.960269	0.236303
505.325856	0.231944
505.691385	0.236251
506.056856	0.232664
506.422270	0.232196
506.787625	0.234857
507.152924	0.232061
507.518164	0.232612
507.883347	0.233985
508.248472	0.236023
508.613540	0.230677
508.978550	0.233559
509.343503	0.233816
509.708398	0.231704
510.073236	0.229125
510.438016	0.228934
510.802738	0.230288
511.167403	0.229042
511.532010	0.231021
511.896561	0.226163
512.261053	0.225154
512.625488	0.227395
512.989866	0.227436
513.354186	0.227802
513.718449	0.229783
514.082655	0.226033
514.446803	0.228463
514.810894	0.226016
515.174927	0.228687
515.538904	0.228246
515.902822	0.225147
516.266684	0.227472
516.630488	0.228834
516.994235	0.227629
517.357925	0.226461
517.721558	0.224607
518.085133	0.223871
518.448651	0.223955
518.812112	0.226345
519.175516	0.226219
519.538863	0.223735
519.902152	0.225562
520.265385	0.222079
520.628560	0.223571
520.991678	0.224250
521.354739	0.223151
521.717743	0.224057
522.080690	0.224573
522.443580	0.222337
522.806413	0.222954
523.169189	0.222367
523.531908	0.221094
523.894569	0.224930
524.257174	0.224578
524.619722	0.222242
524.982213	0.223594
525.344647	0.222156
525.707025	0.223342
526.069345	0.221177
526.431608	0.223389
526.793815	0.221158
527.155964	0.225310
527.518057	0.224175
527.880093	0.225102
528.242072	0.223656
528.603995	0.225711
528.965860	0.227439
529.327669	0.226599
529.689421	0.227166
530.051117	0.227969
530.412755	0.225679
530.774337	0.228058
531.135862	0.228517
531.497331	0.227793
531.858743	0.230656
532.220098	0.227217
532.581396	0.229860
532.942638	0.230320
533.303824	0.231552
533.664953	0.230994
534.026025	0.233207
534.387040	0.230984
534.747999	0.230729
535.108902	0.229966
535.469748	0.234977
535.830537	0.232746
536.191270	0.233056
536.551947	0.232584
536.912567	0.232634
537.273131	0.234498
537.633638	0.234399
537.994089	0.234906
538.354483	0.236269
538.714821	0.233022
539.075103	0.233158
539.435328	0.233646
539.795497	0.237367
540.155609	0.234168
540.515665	0.232121
540.875665	0.237961
541.235609	0.236246
541.595496	0.236256
541.955328	0.232927
542.315102	0.235618
542.674821	0.236755
543.034483	0.236817
543.394090	0.236613
543.753640	0.238384
544.113134	0.233285
544.472571	0.236767
544.831953	0.233438
545.191278	0.237951
545.550548	0.236935
545.909761	0.234158
546.268918	0.234728
546.628019	0.232935
546.987064	0.235713
547.346053	0.237398
547.704986	0.235519
548.063863	0.235565
548.422684	0.235961
548.781449	0.237693
549.140158	0.235588
549.498811	0.238216
549.857408	0.241239
550.215949	0.236199
550.574434	0.239316
550.932864	0.237178
551.291237	0.235665
551.649555	0.237454
552.007817	0.237126
552.366022	0.237732
552.724173	0.238212
553.082267	0.238113
553.440305	0.235159
553.798288	0.239565
554.156215	0.235993
554.514086	0.237025
554.871902	0.239991
555.229661	0.239340
555.587365	0.239701
555.945014	0.242293
556.302606	0.239623
556.660143	0.242072
557.017625	0.238509
557.375050	0.240396
557.732421	0.237589
558.089735	0.239665
558.446994	0.239673
558.804197	0.238896
559.161345	0.238612
559.518437	0.241898
559.875474	0.239993
560.232455	0.239574
560.589381	0.240698
560.946251	0.240871
561.303065	0.238426
561.659825	0.239530
562.016528	0.241359
562.373177	0.244063
562.729770	0.241254
563.086307	0.243308
563.442789	0.241339
563.799216	0.244071
564.155587	0.242819
564.511904	0.244218
564.868164	0.243825
565.224370	0.243866
565.580520	0.245576
565.936615	0.245581
566.292654	0.248580
566.648638	0.245617
567.004567	0.246183
567.360441	0.247093
567.716260	0.248978
568.072023	0.246368
568.427732	0.247397
568.783385	0.249967
569.138982	0.248007
569.494525	0.247561
569.850013	0.250435
570.205445	0.248922
570.560823	0.251509
570.916145	0.253448
571.271412	0.251624
571.626625	0.253233
571.981782	0.254097
572.336884	0.254623
572.691931	0.254290
573.046923	0.255702
573.401860	0.256773
573.756743	0.258255
574.111570	0.257399
574.466342	0.257879
574.821059	0.256903
575.175722	0.260073
575.530330	0.259437
575.884882	0.259796
576.239380	0.261858
576.593823	0.262218
576.948211	0.261863
577.302544	0.264879
577.656823	0.264862
578.011047	0.264847
578.365216	0.265423
578.719330	0.267115
579.073389	0.267037
579.427394	0.268404
579.781344	0.269379
580.135239	0.270351
580.489080	0.270211
580.842866	0.273498
581.196597	0.273088
581.550273	0.271644
581.903895	0.272785
582.257463	0.271173
582.610975	0.274279
582.964434	0.273889
583.317837	0.276443
583.671186	0.276771
584.024481	0.276441
584.377721	0.279016
584.730906	0.279604
585.084037	0.279018
585.437113	0.280814
585.790135	0.280282
586.143103	0.283368
586.496016	0.284296
586.848874	0.281680
587.201679	0.282557
587.554428	0.285721
587.907124	0.284655
588.259765	0.285185
588.612352	0.286034
588.964884	0.289849
589.317362	0.289297
589.669786	0.288877
590.022155	0.287489
590.374470	0.286644
590.726731	0.289047
591.078937	0.293936
591.431090	0.290399
591.783188	0.294440
592.135232	0.295212
592.487222	0.294782
592.839157	0.292959
593.191038	0.295100
593.542866	0.297175
593.894639	0.300430
594.246358	0.298947
594.598022	0.298384
594.949633	0.302075
595.301190	0.302568
595.652692	0.301674
596.004141	0.297662
596.355535	0.305946
596.706876	0.306346
597.058162	0.308897
597.409395	0.305767
597.760573	0.303991
598.111698	0.307128
598.462768	0.307394
598.813785	0.309037
599.164748	0.310189
599.515657	0.310192
599.866511	0.314057
600.217312	0.308898
600.568060	0.314694
600.918753	0.310789
601.269392	0.311429
601.619978	0.314872
601.970510	0.312738
602.320988	0.313186
602.671412	0.310628
603.021783	0.313006
603.372100	0.314338
603.722363	0.313997
604.072572	0.314843
604.422728	0.314661
604.772830	0.316731
605.122878	0.316864
605.472872	0.316992
605.822813	0.315125
606.172701	0.318076
606.522534	0.315428
606.872314	0.315856
607.222041	0.316415
607.571714	0.314220
607.921333	0.316243
608.270899	0.315697
608.620411	0.312367
608.969870	0.316181
609.319276	0.316638
609.668627	0.316458
610.017926	0.315054
610.367171	0.313521
610.716362	0.314100
611.065500	0.314482
611.414585	0.313348
611.763616	0.313476
612.112594	0.314305
612.461518	0.313269
612.810389	0.311201
613.159207	0.313515
613.507971	0.315237
613.856682	0.311092
614.205340	0.312657
614.553945	0.309653
614.902496	0.313159
615.250994	0.311583
615.599439	0.312167
615.947830	0.311452
616.296169	0.312674
616.644454	0.312297
616.992686	0.312136
617.340864	0.310437
617.688990	0.313178
618.037063	0.310511
618.385082	0.311952
618.733048	0.309000
619.080961	0.311185
619.428821	0.310819
619.776628	0.310126
620.124382	0.312408
620.472083	0.312909
620.819731	0.312097
621.167326	0.316097
621.514868	0.315893
621.862357	0.320301
622.209793	0.319052
622.557176	0.322337
622.904506	0.323133
623.251783	0.326007
623.599007	0.327699
623.946179	0.327194
624.293297	0.329328
624.640363	0.333561
624.987376	0.333916
625.334336	0.335955
625.681243	0.338645
626.028097	0.339298
626.374899	0.339845
626.721647	0.340367
627.068343	0.343365
627.414987	0.344788
627.761577	0.346570
628.108115	0.345073
628.454600	0.350354
628.801032	0.347993
629.147412	0.349617
629.493739	0.350503
629.840014	0.353295
630.186236	0.350548
630.532405	0.356515
630.878521	0.353742
631.224585	0.356156
631.570597	0.359274
631.916556	0.358412
632.262462	0.357628
632.608316	0.360182
632.954117	0.361550
633.299866	0.362214
633.645562	0.362244
633.991206	0.366859
634.336797	0.369479
634.682336	0.372204
635.027823	0.373827
635.373257	0.374149
635.718639	0.378167
636.063968	0.377150
636.409245	0.383125
636.754470	0.383556
637.099642	0.385926
637.444762	0.389216
637.789829	0.388653
638.134845	0.391872
638.479808	0.392747
638.824719	0.393060
639.169577	0.396801
639.514383	0.395870
639.859137	0.400490
640.203839	0.399756
640.548489	0.400772
640.893086	0.401583
641.237632	0.403190
641.582125	0.402633
641.926566	0.404570
642.270955	0.403893
642.615292	0.404066
642.959576	0.403350
643.303809	0.404452
643.647990	0.403923
643.992118	0.404189
644.336195	0.407729
644.680219	0.406337
645.024192	0.407041
645.368112	0.400638
645.711981	0.399715
646.055797	0.394741
646.399562	0.397310
646.743274	0.390695
647.086935	0.387203
647.430544	0.387249
647.774101	0.386300
648.117606	0.386147
648.461059	0.387049
648.804460	0.388794
649.147810	0.394018
649.491108	0.396080
649.834354	0.397595
650.177548	0.403325
650.520690	0.408245
650.863781	0.409817
651.206820	0.409079
651.549807	0.413694
651.892742	0.418553
652.235626	0.417707
652.578458	0.418445
652.921238	0.425687
653.263967	0.422846
653.606644	0.426383
653.949269	0.426475
654.291843	0.430421
654.634365	0.427560
654.976836	0.430967
655.319255	0.431149
655.661622	0.432402
656.003938	0.433076
656.346203	0.435860
656.688416	0.434201
657.030577	0.437207
657.372687	0.439598
657.714746	0.440106
658.056753	0.437445
658.398708	0.441483
658.740612	0.442442
659.082465	0.438575
659.424266	0.440197
659.766016	0.439671
660.107715	0.442425
660.449362	0.441298
660.790958	0.441251
661.132503	0.443464
661.473996	0.440544
661.815438	0.442182
662.156829	0.442104
662.498168	0.443016
662.839456	0.444290
663.180693	0.442223
663.521879	0.442258
663.863013	0.443723
664.204097	0.442351
664.545129	0.439178
664.886110	0.440225
665.227040	0.438037
665.567918	0.440583
665.908746	0.439200
666.249522	0.438611
666.590248	0.439548
666.930922	0.438132
667.271545	0.437506
667.612118	0.438240
667.952639	0.439419
668.293109	0.438985
668.633528	0.441667
668.973896	0.441201
669.314213	0.442194
669.654480	0.444547
669.994695	0.444412
670.334859	0.445205
670.674973	0.446601
671.015035	0.446605
671.355047	0.447080
671.695008	0.448101
672.034918	0.449804
672.374777	0.450082
672.714585	0.451444
673.054342	0.451825
673.394049	0.452003
673.733705	0.450286
674.073310	0.452247
674.412864	0.454495
674.752368	0.455481
675.091820	0.455797
675.431223	0.460059
675.770574	0.460486
676.109875	0.463519
676.449125	0.463822
676.788324	0.466258
677.127473	0.471648
677.466571	0.472265
677.805619	0.473672
678.144616	0.475621
678.483562	0.477530
678.822458	0.480188
679.161303	0.480589
679.500098	0.482724
679.838842	0.483869
680.177535	0.483479
680.516179	0.481974
680.854771	0.482435
681.193314	0.476492
681.531805	0.468283
681.870247	0.458881
682.208638	0.452226
682.546978	0.451294
682.885268	0.452963
683.223508	0.459530
683.561697	0.463901
683.899836	0.466541
684.237925	0.469846
684.575963	0.473560
684.913951	0.476442
685.251889	0.473447
685.589776	0.475451
685.927614	0.477541
686.265401	0.473590
686.603137	0.475373
686.940824	0.471009
687.278460	0.469345
687.616046	0.469465
687.953582	0.465363
688.291068	0.467000
688.628504	0.464575
688.965889	0.466686
689.303224	0.470322
689.640510	0.474472
689.977745	0.480500
690.314930	0.488140
690.652065	0.492750
690.989150	0.499242
691.326185	0.506139
691.663170	0.510974
692.000105	0.518303
692.336990	0.524482
692.673825	0.527667
693.010610	0.533858
693.347345	0.539431
693.684030	0.542161
694.020665	0.546462
694.357251	0.554382
694.693786	0.554994
695.030272	0.558827
695.366707	0.562352
695.703093	0.566176
696.039429	0.563834
696.375716	0.568328
696.711952	0.570288
697.048139	0.571274
697.384276	0.574091
697.720363	0.573630
698.056400	0.573020
698.392388	0.578894
698.728326	0.580764
699.064214	0.584474
699.400053	0.584949
699.735842	0.591011
700.071581	0.592711
700.407270	0.595592
700.742910	0.598039
701.078501	0.603904
701.414042	0.606398
701.749533	0.608778
702.084974	0.616223
702.420366	0.610407
702.755709	0.617998
703.091002	0.625782
703.426246	0.621608
703.761440	0.624198
704.096584	0.628364
704.431679	0.628059
704.766725	0.630761
705.101721	0.633010
705.436668	0.629589
705.771565	0.634340
706.106413	0.631236
706.441212	0.630409
706.775961	0.630006
707.110661	0.631536
707.445311	0.627807
707.779913	0.628994
708.114465	0.627188
708.448967	0.623437
708.783421	0.617920
709.117825	0.613741
709.452180	0.613598
709.786485	0.608440
710.120742	0.600299
710.454949	0.602210
710.789107	0.596050
711.123216	0.588421
711.457275	0.589357
711.791286	0.584387
712.125247	0.585578
712.459159	0.591799
712.793023	0.583871
713.126837	0.593399
713.460602	0.593628
713.794318	0.598592
714.127985	0.599036
714.461602	0.610266
714.795171	0.610828
715.128691	0.619049
715.462162	0.626458
715.795584	0.633256
716.128957	0.635896
716.462281	0.639972
716.795556	0.643335
717.128782	0.650546
717.461960	0.658924
717.795088	0.657598
718.128167	0.664104
718.461198	0.668981
718.794180	0.670520
719.127113	0.674595
719.459997	0.677636
719.792833	0.683292
720.125619	0.683822
720.458357	0.690169
720.791046	0.691770
721.123686	0.694397
721.456278	0.700337
721.788821	0.699421
722.121315	0.703976
722.453761	0.705555
722.786158	0.706366
723.118506	0.703710
723.450805	0.707618
723.783056	0.705861
724.115259	0.706054
724.447412	0.706772
724.779518	0.705417
725.111574	0.705522
725.443582	0.703007
725.775542	0.705507
726.107453	0.699542
726.439315	0.701018
726.771129	0.697152
727.102895	0.692531
727.434612	0.688635
727.766281	0.686827
728.097901	0.685456
728.429473	0.685897
728.760996	0.684919
729.092471	0.685020
729.423897	0.689794
729.755276	0.690375
730.086606	0.688568
730.417887	0.683938
730.749120	0.678019
731.080305	0.673375
731.411442	0.669249
731.742530	0.671497
732.073570	0.671700
732.404562	0.668440
732.735506	0.669518
733.066401	0.673496
733.397249	0.679933
733.728048	0.688590
734.058798	0.702440
734.389501	0.712795
734.720156	0.717894
735.050762	0.724912
735.381320	0.728176
735.711831	0.732273
736.042293	0.737414
736.372707	0.737808
736.703073	0.740560
737.033391	0.740364
737.363661	0.739177
737.693883	0.736713
738.024056	0.736183
738.354182	0.735084
738.684260	0.728070
739.014290	0.725634
739.344272	0.725224
739.674207	0.721696
740.004093	0.720470
740.333931	0.721958
740.663722	0.722487
740.993464	0.723756
741.323159	0.725896
741.652806	0.730859
741.982405	0.735927
742.311956	0.740840
742.641460	0.741945
742.970915	0.745377
743.300323	0.750598
743.629683	0.755344
743.958996	0.759666
744.288260	0.761862
744.617477	0.767614
744.946647	0.768280
745.275768	0.774347
745.604842	0.775831
745.933869	0.780983
746.262847	0.782394
746.591778	0.780450
746.920662	0.784775
747.249498	0.788048
747.578286	0.784303
747.907027	0.780956
748.235720	0.777875
748.564365	0.778104
748.892963	0.779201
749.221514	0.781561
749.550017	0.782242
749.878473	0.783907
750.206881	0.790183
750.535242	0.790725
750.863555	0.791147
751.191821	0.792702
751.520039	0.792747
751.848210	0.795064
752.176334	0.794063
752.504411	0.794143
752.832440	0.798949
753.160421	0.800530
753.488356	0.801601
753.816243	0.800897
754.144082	0.805988
754.471875	0.808010
754.799620	0.807076
755.127318	0.806740
755.454969	0.808181
755.782572	0.809866
756.110129	0.810024
756.437638	0.812442
756.765100	0.811741
757.092515	0.810619
757.419882	0.811470
757.747203	0.812844
758.074477	0.812323
758.401703	0.811503
758.728882	0.808350
759.056014	0.807677
759.383099	0.806977
759.710138	0.805436
760.037129	0.803323
760.364073	0.802788
760.690970	0.804313
761.017820	0.805684
761.344623	0.803793
761.671379	0.798848
761.998088	0.793051
762.324751	0.775750
762.651366	0.743702
762.977935	0.691307
763.304456	0.656679
763.630931	0.655014
763.957359	0.681996
764.283740	0.714626
764.610074	0.737776
764.936362	0.762205
765.262602	0.780105
765.588796	0.795174
765.914943	0.806785
766.241044	0.818692
766.567097	0.824509
766.893104	0.831844
767.219064	0.836498
767.544978	0.841659
767.870845	0.848951
768.196665	0.851064
768.522438	0.852505
768.848165	0.855151
769.173846	0.860138
769.499479	0.862764
769.825066	0.865304
770.150607	0.868970
770.476101	0.867799
770.801548	0.869833
771.126949	0.875379
771.452303	0.877931
771.777611	0.878882
772.102872	0.879319
772.428087	0.882232
772.753256	0.886139
773.078378	0.886353
773.403453	0.891155
773.728482	0.895433
774.053465	0.892358
774.378401	0.894340
774.703291	0.899244
775.028135	0.900939
775.352932	0.899129
775.677683	0.903638
776.002388	0.903397
776.327046	0.903773
776.651658	0.906419
776.976224	0.908470
777.300743	0.907060
777.625216	0.909941
777.949643	0.911557
778.274024	0.909588
778.598359	0.913243
778.922647	0.911769
779.246889	0.913392
779.571086	0.915006
779.895236	0.915867
780.219339	0.914902
780.543397	0.913844
780.867409	0.913086
781.191374	0.913310
781.515294	0.915092
781.839167	0.914454
782.162995	0.915981
782.486776	0.915355
782.810511	0.916173
783.134201	0.918344
783.457844	0.918301
783.781441	0.919826
784.104993	0.921643
784.428498	0.922921
784.751958	0.921562
785.075372	0.922300
785.398739	0.923381
785.722061	0.921570
786.045337	0.921248
786.368568	0.922120
786.691752	0.923013
787.014891	0.916290
787.337983	0.910139
787.661030	0.902818
787.984031	0.892153
788.306987	0.884773
788.629897	0.885026
788.952760	0.889520
789.275579	0.895054
789.598351	0.903263
789.921078	0.911953
790.243759	0.914414
790.566395	0.917669
790.888984	0.923302
791.211529	0.924551
791.534027	0.927536
791.856480	0.929475
792.178888	0.931965
792.501249	0.932348
792.823566	0.935418
793.145836	0.935701
793.468062	0.936531
793.790241	0.936739
794.112375	0.934344
794.434464	0.932847
794.756507	0.932375
795.078505	0.931016
795.400457	0.926898
795.722364	0.920024
796.044226	0.915465
796.366042	0.913993
796.687812	0.915335
797.009538	0.915309
797.331218	0.918722
797.652852	0.921211
797.974442	0.922246
798.295986	0.925094
798.617484	0.925932
798.938938	0.929676
799.260346	0.931311
799.581709	0.932741
799.903026	0.934967
800.224299	0.935075
800.545526	0.938253
800.866708	0.939411
801.187845	0.940868
801.508936	0.941656
801.829983	0.941763
802.150984	0.943987
802.471940	0.945019
802.792851	0.944819
803.113717	0.946555
803.434538	0.946070
803.755314	0.947667
804.076045	0.947308
804.396731	0.947015
804.717372	0.945273
805.037967	0.948108
805.358518	0.947862
805.679024	0.945371
805.999485	0.946455
806.319901	0.944919
806.640272	0.946660
806.960598	0.944913
807.280879	0.944532
807.601115	0.943219
807.921306	0.945601
808.241453	0.945845
808.561554	0.944531
808.881611	0.944744
809.201623	0.946280
809.521590	0.946653
809.841513	0.947523
810.161390	0.945714
810.481223	0.947943
810.801011	0.950161
811.120755	0.951499
811.440453	0.949722
811.760107	0.951436
812.079716	0.951687
812.399281	0.953210
812.718801	0.954138
813.038276	0.953529
813.357707	0.955079
813.677093	0.955431
813.996434	0.955367
814.315731	0.957282
814.634983	0.957212
814.954191	0.957389
815.273354	0.955544
815.592473	0.953541
815.911547	0.953868
816.230577	0.950951
816.549562	0.950556
816.868502	0.949534
817.187399	0.950678
817.506250	0.947840
817.825058	0.946422
818.143821	0.945730
818.462539	0.944352
818.781213	0.940647
819.099843	0.935252
819.418429	0.924350
819.736970	0.915325
820.055466	0.903411
820.373919	0.893868
820.692327	0.878864
821.010691	0.858126
821.329011	0.806524
821.647286	0.721490
821.965517	0.640543
822.283704	0.611163
822.601847	0.615863
822.919945	0.649499
823.237999	0.688355
823.556010	0.726238
823.873976	0.761311
824.191897	0.793351
824.509775	0.820251
824.827609	0.842045
825.145398	0.855219
825.463144	0.854577
825.780845	0.846904
826.098502	0.835381
826.416116	0.807409
826.733685	0.777863
827.051210	0.771394
827.368692	0.786538
827.686129	0.813965
828.003522	0.844222
828.320872	0.869963
828.638177	0.890730
828.955439	0.907316
829.272656	0.919157
829.589830	0.926562
829.906960	0.934579
830.224046	0.940570
830.541088	0.945924
830.858086	0.947673
831.175041	0.951333
831.491952	0.951417
831.808819	0.951379
832.125642	0.947452
832.442421	0.942087
832.759157	0.928463
833.075849	0.902395
833.392497	0.871260
833.709101	0.851774
834.025662	0.856883
834.342179	0.874161
834.658653	0.897464
834.975083	0.914426
835.291469	0.927947
835.607811	0.938946
835.924110	0.947192
836.240366	0.954386
836.556578	0.959556
836.872746	0.962845
837.188871	0.965833
837.504952	0.968600
837.820990	0.971111
838.136984	0.971099
838.452935	0.972255
838.768842	0.973504
839.084706	0.971464
839.400526	0.959701
839.716303	0.936495
840.032037	0.925672
840.347727	0.928680
840.663373	0.939282
840.978977	0.950320
841.294537	0.962153
841.610054	0.967764
841.925527	0.972626
842.240957	0.974750
842.556344	0.977871
842.871687	0.979800
843.186987	0.981308
843.502244	0.983401
843.817458	0.983673
844.132629	0.984400
844.447756	0.985863
844.762840	0.985589
845.077881	0.986666
845.392879	0.985336
845.707833	0.987234
846.022745	0.987756
846.337613	0.988623
846.652438	0.988628
846.967221	0.989219
847.281960	0.988737
847.596656	0.990163
847.911309	0.989980
848.225919	0.988983
848.540485	0.990057
848.855009	0.989967
849.169490	0.989941
849.483928	0.990825
849.798323	0.990078
850.112675	0.990885
850.426984	0.991150
850.741251	0.990727
851.055474	0.990684
851.369654	0.989548
851.683792	0.989636
851.997887	0.989878
852.311938	0.990876
852.625947	0.990692
852.939914	0.989345
853.253837	0.991294
853.567718	0.989735
853.881555	0.991442
854.195350	0.990388
854.509103	0.990956
854.822812	0.990841
855.136479	0.990711
855.450103	0.990768
855.763685	0.990940
856.077224	0.990526
856.390720	0.990120
856.704173	0.991421
857.017584	0.990260
857.330953	0.989610
857.644278	0.989922
857.957561	0.989828
858.270802	0.990741
858.584000	0.990635
858.897155	0.988782
859.210268	0.989986
859.523339	0.991213
859.836367	0.991978
860.149352	0.990825
860.462295	0.991524
860.775195	0.991734
861.088054	0.990872
861.400869	0.990370
861.713642	0.990907
862.026373	0.992205
862.339062	0.992093
862.651708	0.990144
862.964312	0.990827
863.276873	0.990198
863.589392	0.991100
863.901869	0.989363
864.214303	0.990273
864.526696	0.989077
864.839045	0.988353
865.151353	0.987963
865.463619	0.988059
865.775842	0.989254
866.088023	0.990209
866.400162	0.989711
866.712258	0.989342
867.024313	0.989165
867.336325	0.990415
867.648296	0.989595
867.960224	0.989002
868.272110	0.989925
868.583954	0.988982
868.895755	0.989730
869.207515	0.987706
869.519233	0.989444
869.830909	0.987756
870.142542	0.988226
870.454134	0.988942
870.765684	0.987950
871.077191	0.987879
871.388657	0.987814
871.700081	0.988138
872.011463	0.988533
872.322803	0.987191
872.634101	0.986036
872.945357	0.986138
873.256571	0.985106
873.567744	0.985337
873.878874	0.984492
874.189963	0.984592
874.501010	0.986139
874.812015	0.985265
875.122979	0.984914
875.433900	0.985303
875.744780	0.986080
876.055618	0.984998
876.366415	0.984284
876.677169	0.984244
876.987882	0.985671
877.298554	0.986355
877.609183	0.984334
877.919771	0.983807
878.230317	0.983895
878.540822	0.981920
878.851285	0.981911
879.161707	0.978551
879.472087	0.976256
879.782425	0.967929
880.092722	0.954496
880.402977	0.931446
880.713191	0.896337
881.023363	0.856847
881.333494	0.833440
881.643583	0.825826
881.953631	0.833863
882.263637	0.850189
882.573602	0.871043
882.883526	0.886673
883.193408	0.901571
883.503248	0.913639
883.813048	0.924323
884.122806	0.937200
884.432522	0.947107
884.742197	0.954548
885.051831	0.960053
885.361424	0.964731
885.670975	0.969620
885.980485	0.971338
886.289954	0.974309
886.599382	0.974840
886.908768	0.978230
887.218113	0.979367
887.527417	0.981458
887.836680	0.982696
888.145901	0.984067
888.455082	0.985475
888.764221	0.986396
889.073319	0.986030
889.382376	0.988456
889.691392	0.986191
890.000366	0.987246
890.309300	0.986519
890.618193	0.986461
890.927044	0.986825
891.235855	0.985655
891.544625	0.987010
891.853353	0.985907
892.162041	0.984378
892.470687	0.983793
892.779293	0.980759
893.087858	0.978745
893.396381	0.976280
893.704864	0.971017
894.013306	0.962454
894.321707	0.953632
894.630068	0.945591
894.938387	0.943461
895.246665	0.945459
895.554903	0.950872
895.863100	0.957685
896.171256	0.963479
896.479371	0.969529
896.787446	0.974223
897.095480	0.977063
897.403473	0.978855
897.711425	0.980760
898.019336	0.982805
898.327207	0.983529
898.635038	0.982595
898.942827	0.983768
899.250576	0.985030
899.558284	0.985711
899.865952	0.985845
900.173579	0.987554
900.481165	0.987823
900.788711	0.987643
901.096216	0.989322
901.403681	0.990209
901.711105	0.990160
902.018489	0.990553
902.325832	0.990613
902.633135	0.988371
902.940397	0.987301
903.247619	0.983132
903.554800	0.973906
903.861941	0.958154
904.169041	0.941126
904.476101	0.934942
904.783121	0.936497
905.090100	0.943101
905.397039	0.952510
905.703938	0.962297
906.010796	0.968683
906.317614	0.974978
906.624391	0.979359
906.931129	0.983679
907.237826	0.985597
907.544483	0.988532
907.851099	0.989003
908.157675	0.990141
908.464211	0.992196
908.770707	0.991077
909.077163	0.992423
909.383578	0.993707
909.689954	0.992202
909.996289	0.994448
910.302584	0.994620
910.608839	0.996143
910.915054	0.994399
911.221229	0.995246
911.527363	0.993562
911.833458	0.994512
912.139513	0.994510
912.445527	0.994420
912.751502	0.994181
913.057436	0.993591
913.363331	0.992231
913.669186	0.991041
913.975000	0.989347
914.280775	0.987238
914.586510	0.983354
914.892205	0.977867
915.197859	0.971106
915.503475	0.961866
915.809050	0.952850
916.114585	0.948053
916.420081	0.947730
916.725536	0.948295
917.030952	0.952146
917.336328	0.957988
917.641665	0.962540
917.946961	0.967797
918.252218	0.972050
918.557435	0.975186
918.862612	0.979434
919.167750	0.982004
919.472848	0.984248
919.777906	0.987620
920.082925	0.987669
920.387904	0.988312
920.692843	0.989600
920.997743	0.989372
921.302603	0.991087
921.607423	0.990777
921.912204	0.993279
922.216946	0.994103
922.521647	0.993189
922.826310	0.992246
923.130932	0.995394
923.435516	0.994495
923.740059	0.995730
924.044564	0.995486
924.349028	0.994893
924.653454	0.997157
924.957840	0.995604
925.262186	0.997078
925.566493	0.996405
925.870761	0.997349
926.174989	0.996997
926.479178	0.999154
926.783328	0.996713
927.087438	0.998394
927.391509	0.996353
927.695541	0.999760
927.999533	0.998284
928.303486	0.998736
928.607400	0.998636
928.911275	0.999435
929.215110	0.999917
929.518906	0.999368
929.822663	1.000318
930.126381	1.000350
930.430060	0.999148
930.733699	0.998929
931.037299	0.998820
931.340861	0.999117
931.644383	0.996690
931.947866	0.998886
932.251309	0.999704
932.554714	0.999446
932.858080	0.998993
933.161407	0.997698
933.464694	0.999700
933.767943	0.999303
934.071153	0.999102
934.374323	0.999663
934.677455	0.999504
934.980548	0.998633
935.283602	0.999305
935.586617	0.998327
935.889593	1.000705
936.192530	0.999841
936.495428	0.999827
936.798287	0.997699
937.101108	0.998220
937.403890	0.998227
937.706632	1.000116
938.009336	0.996717
938.312002	0.996702
938.614628	0.997219
938.917216	0.996717
939.219765	0.995729
939.522275	0.996821
939.824747	0.996632
940.127179	0.996050
940.429573	0.997311
940.731929	0.996590
941.034246	0.995974
941.336524	0.995367
941.638763	0.997451
941.940964	0.997695
942.243126	0.997735
942.545250	0.999166
942.847335	0.998557
943.149381	0.997962
943.451389	0.998296
943.753359	0.998775
944.055290	0.999534
944.357182	0.999106
944.659036	0.998744
944.960851	0.998375
945.262628	0.998666
945.564367	0.999334
945.866067	0.999423
946.167729	0.999691
946.469352	0.998719
946.770937	0.996631
947.072484	1.000284
947.373992	0.998843
947.675462	0.998140
947.976893	0.998256
948.278286	1.000092
948.579641	1.000308
948.880958	0.998450
949.182236	0.999626
949.483476	0.999232
949.784678	0.999159
950.085841	1.000089
950.386967	0.998776
950.688054	0.998732
950.989103	0.998480
951.290114	0.996585
951.591087	0.999716
951.892021	0.998556
952.192917	0.999620
952.493776	0.998079
952.794596	0.999628
953.095378	0.997884
953.396122	0.998371
953.696828	0.998664
953.997496	0.998206
954.298126	0.999504
954.598718	0.998740
954.899272	0.998963
955.199788	0.999547
955.500266	0.999622
955.800706	0.998570
956.101108	1.000939
956.401472	1.001260
956.701798	1.000152
957.002087	1.000171
957.302337	1.001089
957.602550	1.000060
957.902724	1.000588
958.202861	1.001294
958.502960	0.999440
958.803022	1.002607
959.103045	1.000483
959.403031	1.001963
959.702979	1.001614
960.002889	1.001250
960.302762	1.001193
960.602596	1.001104
960.902393	1.001636
961.202153	1.000459
961.501875	1.001504
961.801559	1.001770
962.101205	1.000856
962.400814	1.003115
962.700385	1.002604
962.999918	1.000954
963.299414	0.999912
963.598873	1.002006
963.898293	1.001225
964.197677	1.000923
964.497022	1.002289
964.796331	1.002219
965.095601	1.002187
965.394835	1.001028
965.694030	1.002479
965.993189	1.001508
966.292309	1.002083
966.591393	1.000549
966.890439	1.003039
967.189447	0.999344
967.488419	1.001775
967.787353	1.002039
968.086249	1.002260
968.385108	1.001768
968.683930	1.002372
968.982714	1.000625
969.281462	1.002258
969.580172	1.002217
969.878844	1.002175
970.177480	1.002158
970.476078	1.003013
970.774639	1.002540
971.073162	1.002642
971.371649	1.001394
971.670098	1.002348
971.968510	1.001886
972.266885	1.001264
972.565223	1.001500
972.863524	1.001223
973.161788	1.001098
973.460014	1.002676
973.758204	1.000423
974.056356	1.001568
974.354471	1.001092
974.652550	1.002394
974.950591	1.001997
975.248595	1.001534
975.546563	1.002368
975.844493	1.002416
976.142386	1.001879
976.440243	1.002311
976.738062	1.002604
977.035845	1.001662
977.333590	1.002013
977.631299	1.001922
977.928971	1.001255
978.226606	1.002062
978.524204	1.000806
978.821765	1.002357
979.119290	1.002787
979.416777	1.002466
979.714228	1.002483
980.011642	1.002582
980.309020	1.001556
980.606360	1.000977
980.903664	1.001510
981.200931	1.002259
981.498162	1.000775
981.795356	1.000754
982.092513	1.001579
982.389633	1.001468
982.686717	0.999825
982.983764	1.000061
983.280775	0.999212
983.577749	1.001815
983.874686	0.999489
984.171587	0.999444
984.468451	1.000252
984.765279	1.001884
985.062070	1.002264
985.358824	1.000082
985.655543	1.002758
985.952224	1.002818
986.248869	1.001155
986.545478	1.003601
986.842050	1.001505
987.138586	1.001552
987.435086	1.002264
987.731549	1.003328
988.027975	1.003815
988.324366	1.002536
988.620719	1.004021
988.917037	1.002503
989.213318	1.003037
989.509563	1.001919
989.805772	1.002736
990.101944	1.003469
990.398080	1.002689
990.694180	1.003376
990.990244	1.001897
991.286271	1.002603
991.582262	1.002906
991.878217	1.001608
992.174136	1.003712
992.470019	1.001893
992.765865	1.004282
993.061676	1.002361
993.357450	1.003055
993.653188	1.003668
993.948890	1.003130
994.244556	1.002844
994.540186	1.002557
994.835780	1.002793
995.131337	1.003542
995.426859	1.001646
995.722345	1.002729
996.017795	1.002655
996.313208	1.002238
996.608586	1.001153
996.903928	1.001777
997.199234	1.001926
997.494504	1.002891
997.789738	1.001092
998.084936	1.002347
998.380099	1.001518
998.675225	1.003351
998.970316	1.002498
999.265371	1.002514
999.560390	1.002423
999.855373	1.002831
1000.150320	1.002642
1000.445232	1.003132
1000.740108	1.003207
1001.034948	1.002681
1001.329752	1.002826
1001.624521	1.002279
1001.919254	1.002091
1002.213951	1.002659
1002.508613	1.001155
1002.803239	1.003339
1003.097829	1.003265
1003.392384	1.003169
1003.686903	1.002641
1003.981386	1.003819
1004.275834	1.002933
1004.570246	1.002611
1004.864623	1.003240
1005.158964	1.003406
1005.453270	1.002316
1005.747540	1.002255
1006.041775	1.003624
1006.335974	1.002742
1006.630138	1.002849
1006.924266	1.002239
1007.218359	1.001496
1007.512416	1.003755
1007.806438	1.003896
1008.100425	1.001942
1008.394376	1.003495
1008.688292	1.002130
1008.982172	1.003049
1009.276017	1.003404
1009.569827	1.004005
1009.863602	1.001921
1010.157341	1.003312
1010.451045	1.003179
1010.744714	1.003618
1011.038347	1.003982
1011.331945	1.001624
1011.625508	1.002147
1011.919036	1.002277
1012.212528	1.003318
1012.505986	1.003277
1012.799408	1.003171
1013.092795	1.004099
1013.386147	1.003547
1013.679464	1.003901
1013.972745	1.003172
1014.265992	1.003127
1014.559204	1.002096
1014.852380	1.003701
1015.145521	1.003007
1015.438628	1.002571
1015.731699	1.003636
1016.024736	1.004035
1016.317737	1.004093
1016.610703	1.004027
1016.903635	1.003591
1017.196531	1.002817
1017.489393	1.003190
1017.782219	1.002577
1018.075011	1.003380
1018.367768	1.002320
1018.660490	1.003105
1018.953177	1.003105
1019.245829	1.003105
