Dividing Wavelength (nm)	Counts (n)	Blue Motor Position (mm): 38.500000	Red Motor Position (mm): 0.000000	
326.493990	1.000017
326.888308	1.000017
327.282561	1.000017
327.676750	1.000549
328.070874	1.000329
328.464933	1.001915
328.858929	1.001450
329.252859	0.999805
329.646726	0.998949
330.040528	0.999974
330.434265	1.000004
330.827938	0.999109
331.221547	0.999352
331.615091	1.000851
332.008571	1.002412
332.401986	0.999349
332.795338	1.000049
333.188625	1.000551
333.581847	0.999596
333.975006	1.000363
334.368100	1.000817
334.761129	0.999113
335.154095	1.000254
335.546996	0.999718
335.939833	0.998515
336.332606	1.000819
336.725315	0.998484
337.117960	1.001170
337.510540	0.999669
337.903056	1.000287
338.295508	1.000377
338.687896	0.999533
339.080220	0.999798
339.472480	0.999529
339.864676	1.000951
340.256807	0.998850
340.648875	1.000271
341.040879	0.999547
341.432818	0.999326
341.824694	0.999544
342.216506	1.000952
342.608253	0.999260
342.999937	0.999015
343.391557	0.999147
343.783113	1.001101
344.174605	0.999887
344.566033	1.000189
344.957397	1.000201
345.348697	0.999848
345.739934	1.000426
346.131106	0.999146
346.522215	0.999465
346.913260	1.000110
347.304241	0.999288
347.695159	0.999823
348.086012	0.998989
348.476802	0.999479
348.867528	0.998225
349.258191	1.000096
349.648789	0.999146
350.039324	0.998458
350.429796	0.999150
350.820203	0.998020
351.210548	0.998120
351.600828	0.999571
351.991045	0.999600
352.381198	1.000537
352.771288	0.998610
353.161314	0.999792
353.551276	0.997707
353.941175	0.998099
354.331010	1.000299
354.720782	0.999149
355.110490	0.999491
355.500135	0.999562
355.889717	0.998132
356.279235	0.998592
356.668689	0.999310
357.058080	0.999278
357.447408	0.998784
357.836672	0.998685
358.225873	0.999244
358.615010	0.998594
359.004084	0.997462
359.393095	0.999581
359.782043	0.997818
360.170927	0.998822
360.559748	0.997939
360.948505	0.996728
361.337199	0.998656
361.725830	0.998844
362.114398	0.998185
362.502903	0.998245
362.891344	0.997234
363.279722	0.997227
363.668037	0.999056
364.056289	0.997735
364.444478	0.999821
364.832603	0.998134
365.220665	0.998884
365.608665	0.998108
365.996601	0.997308
366.384474	0.996233
366.772284	0.997377
367.160031	0.996548
367.547715	0.996067
367.935336	0.994507
368.322893	0.993725
368.710388	0.993475
369.097820	0.990971
369.485189	0.988894
369.872495	0.987459
370.259738	0.986074
370.646918	0.982933
371.034035	0.981224
371.421090	0.978403
371.808081	0.973116
372.195010	0.970970
372.581875	0.965145
372.968678	0.960569
373.355418	0.957560
373.742096	0.949882
374.128710	0.945347
374.515262	0.940926
374.901751	0.934961
375.288177	0.930208
375.674540	0.923477
376.060841	0.916627
376.447079	0.910040
376.833254	0.903958
377.219367	0.899362
377.605417	0.887335
377.991404	0.884986
378.377329	0.878755
378.763191	0.872451
379.148991	0.864000
379.534727	0.856044
379.920402	0.847740
380.306013	0.843463
380.691563	0.831168
381.077049	0.824582
381.462474	0.820939
381.847835	0.808492
382.233134	0.804857
382.618371	0.805493
383.003545	0.788260
383.388657	0.785902
383.773706	0.778130
384.158693	0.773861
384.543618	0.767833
384.928480	0.760324
385.313280	0.749993
385.698017	0.750034
386.082692	0.738530
386.467305	0.736843
386.851856	0.730951
387.236344	0.725781
387.620770	0.720600
388.005133	0.714465
388.389435	0.709320
388.773674	0.708122
389.157851	0.698760
389.541965	0.696716
389.926018	0.703603
390.310008	0.689395
390.693936	0.687245
391.077802	0.679695
391.461606	0.681142
391.845348	0.671006
392.229027	0.671547
392.612645	0.670497
392.996200	0.658475
393.379694	0.653208
393.763125	0.645719
394.146494	0.651608
394.529801	0.644919
394.913047	0.639853
395.296230	0.648368
395.679351	0.642503
396.062410	0.643287
396.445408	0.649874
396.828343	0.648221
397.211217	0.648147
397.594028	0.663582
397.976778	0.659156
398.359466	0.660012
398.742092	0.662022
399.124656	0.678179
399.507158	0.672905
399.889598	0.676228
400.271977	0.675144
400.654294	0.684444
401.036549	0.691410
401.418742	0.700654
401.800874	0.697497
402.182944	0.702676
402.564952	0.704773
402.946898	0.712493
403.328783	0.722282
403.710606	0.738093
404.092367	0.729894
404.474067	0.742166
404.855705	0.749206
405.237282	0.762282
405.618797	0.763295
406.000250	0.769451
406.381642	0.772506
406.762972	0.785509
407.144240	0.792701
407.525447	0.800918
407.906593	0.805899
408.287677	0.813907
408.668700	0.825312
409.049661	0.831335
409.430560	0.838634
409.811399	0.850310
410.192176	0.851548
410.572891	0.861775
410.953545	0.866498
411.334138	0.878116
411.714669	0.882658
412.095139	0.893385
412.475547	0.896241
412.855894	0.904354
413.236180	0.910631
413.616405	0.917514
413.996568	0.921450
414.376670	0.928431
414.756711	0.933793
415.136691	0.938564
415.516609	0.941580
415.896466	0.947265
416.276262	0.949061
416.655997	0.955347
417.035670	0.957563
417.415283	0.960233
417.794834	0.964164
418.174324	0.967655
418.553753	0.970844
418.933121	0.972869
419.312428	0.975816
419.691674	0.979087
420.070859	0.980662
420.449983	0.982642
420.829045	0.983998
421.208047	0.986421
421.586988	0.986692
421.965867	0.988572
422.344686	0.989949
422.723444	0.989983
423.102141	0.992036
423.480777	0.992595
423.859352	0.993175
424.237866	0.993475
424.616319	0.995054
424.994712	0.994935
425.373044	0.995585
425.751314	0.996508
426.129524	0.997203
426.507673	0.995944
426.885762	0.996882
427.263789	0.996374
427.641756	0.997307
428.019662	0.997341
428.397508	0.997787
428.775292	0.996996
429.153016	0.997374
429.530679	0.998061
429.908282	0.998186
430.285824	0.998369
430.663305	0.998527
431.040726	0.998769
431.418086	0.998956
431.795385	0.998986
432.172624	0.999893
432.549802	0.998580
432.926920	0.998526
433.303977	0.998764
433.680974	0.999280
434.057910	0.999191
434.434786	0.998770
434.811601	0.999044
435.188355	0.998794
435.565050	0.998460
435.941683	0.999055
436.318257	0.998715
436.694770	0.998419
437.071222	0.999452
437.447614	0.998722
437.823946	0.999053
438.200218	0.999163
438.576429	0.998689
438.952580	0.999269
439.328670	0.997479
439.704700	0.999340
440.080670	0.999298
440.456580	0.999330
440.832429	0.999448
441.208218	0.999213
441.583947	0.998449
441.959616	0.998357
442.335224	0.999311
442.710773	0.999591
443.086261	0.999198
443.461689	0.998258
443.837057	0.999222
444.212365	0.999910
444.587612	1.000618
444.962800	0.999597
445.337927	0.999556
445.712995	0.998958
446.088002	0.998697
446.462949	0.998916
446.837837	1.000612
447.212664	0.998012
447.587431	0.998893
447.962139	0.998664
448.336786	0.999406
448.711374	0.999332
449.085901	0.999268
449.460369	0.998904
449.834776	0.999313
450.209124	0.999573
450.583412	0.999244
450.957640	0.998485
451.331808	0.999244
451.705917	0.998920
452.079965	0.999556
452.453954	1.000064
452.827883	0.999106
453.201752	0.999227
453.575562	0.998598
453.949311	0.999768
454.323001	0.999148
454.696632	0.999123
455.070202	0.998341
455.443713	0.998663
455.817164	0.999959
456.190556	0.998917
456.563888	1.000117
456.937160	0.999046
457.310373	0.999304
457.683526	0.999163
458.056619	0.999352
458.429653	0.998853
458.802628	0.999505
459.175542	0.999686
459.548398	0.999229
459.921194	0.999403
460.293930	0.999764
460.666607	0.998612
461.039224	0.999126
461.411782	0.999315
461.784280	0.999209
462.156719	0.999637
462.529099	0.998490
462.901419	0.999141
463.273680	0.999508
463.645882	0.998441
464.018024	0.999481
464.390106	0.999271
464.762130	0.999043
465.134094	0.999144
465.505999	0.999118
465.877845	0.998718
466.249631	0.998620
466.621358	0.997998
466.993026	0.998252
467.364634	0.999115
467.736184	0.998946
468.107674	0.998720
468.479105	0.998791
468.850477	0.998765
469.221790	0.998903
469.593043	0.998809
469.964238	0.999058
470.335373	0.998432
470.706449	0.998337
471.077467	0.998848
471.448425	0.999501
471.819324	0.998495
472.190164	0.998535
472.560945	0.998359
472.931667	0.998857
473.302330	0.998696
473.672934	0.999621
474.043479	0.998700
474.413965	0.998408
474.784393	0.998934
475.154761	0.998306
475.525070	0.998364
475.895321	0.999469
476.265513	0.998926
476.635645	0.998905
477.005719	0.998711
477.375734	0.998546
477.745691	0.997981
478.115588	0.998307
478.485427	0.998322
478.855207	0.998967
479.224928	0.998554
479.594591	0.998399
479.964194	0.998729
480.333739	0.998826
480.703226	0.998420
481.072653	0.998132
481.442022	0.999340
481.811333	0.998952
482.180584	0.998829
482.549777	0.998879
482.918912	0.998253
483.287988	0.998899
483.657005	0.999198
484.025964	0.998587
484.394864	0.998372
484.763706	0.998696
485.132489	0.999306
485.501213	0.999242
485.869879	0.998358
486.238487	0.997450
486.607036	0.999522
486.975527	0.998346
487.343959	0.998336
487.712333	0.998960
488.080648	0.998231
488.448905	0.999025
488.817104	0.998422
489.185244	0.999146
489.553326	0.998858
489.921350	0.998996
490.289315	0.998601
490.657222	0.998537
491.025070	0.998690
491.392861	0.998522
491.760593	0.999004
492.128267	0.998261
492.495883	0.997988
492.863440	0.998872
493.230939	0.998993
493.598380	0.999578
493.965763	0.998754
494.333088	0.998425
494.700354	0.998107
495.067563	0.998480
495.434713	0.998886
495.801805	0.998669
496.168839	0.999273
496.535815	0.998969
496.902733	0.998801
497.269593	0.998812
497.636395	0.998027
498.003139	0.998444
498.369825	0.998613
498.736453	0.998428
499.103023	0.998225
499.469535	0.998867
499.835989	0.999034
500.202385	0.998526
500.568723	0.998211
500.935003	0.998858
501.301226	0.998851
501.667390	0.998434
502.033497	0.998579
502.399546	0.998937
502.765537	0.997985
503.131470	0.999029
503.497345	0.998467
503.863163	0.998779
504.228923	0.998136
504.594625	0.998602
504.960269	0.998894
505.325856	0.999280
505.691385	0.998509
506.056856	0.998480
506.422270	0.999289
506.787625	0.998830
507.152924	0.999079
507.518164	0.998389
507.883347	0.998297
508.248472	0.998344
508.613540	0.998648
508.978550	0.999089
509.343503	0.998995
509.708398	0.998732
510.073236	0.999150
510.438016	0.998068
510.802738	0.998535
511.167403	0.997659
511.532010	0.999430
511.896561	0.998973
512.261053	0.998508
512.625488	0.998511
512.989866	0.998710
513.354186	0.998063
513.718449	0.998738
514.082655	0.998692
514.446803	0.998835
514.810894	0.998871
515.174927	0.999435
515.538904	0.999447
515.902822	0.998922
516.266684	0.998528
516.630488	0.999123
516.994235	0.999147
517.357925	0.999091
517.721558	0.998359
518.085133	0.998684
518.448651	0.998573
518.812112	0.999559
519.175516	0.998414
519.538863	0.998792
519.902152	0.998513
520.265385	0.998969
520.628560	0.998871
520.991678	0.998657
521.354739	0.999589
521.717743	0.999225
522.080690	0.998522
522.443580	0.998368
522.806413	0.998414
523.169189	0.998742
523.531908	0.997995
523.894569	0.999252
524.257174	0.999097
524.619722	0.998701
524.982213	0.998718
525.344647	0.998871
525.707025	0.998042
526.069345	0.998322
526.431608	0.998919
526.793815	0.999436
527.155964	0.998855
527.518057	0.998983
527.880093	0.998981
528.242072	0.998678
528.603995	0.998070
528.965860	0.998914
529.327669	0.999109
529.689421	0.998755
530.051117	0.999209
530.412755	0.998642
530.774337	0.998365
531.135862	0.999794
531.497331	0.998873
531.858743	0.998827
532.220098	0.998488
532.581396	0.999061
532.942638	0.999068
533.303824	0.999394
533.664953	0.998497
534.026025	0.999503
534.387040	0.999055
534.747999	0.998409
535.108902	0.998978
535.469748	0.999325
535.830537	0.999028
536.191270	0.998922
536.551947	0.998883
536.912567	0.999110
537.273131	0.999516
537.633638	0.998888
537.994089	0.999012
538.354483	0.998785
538.714821	0.998673
539.075103	0.999120
539.435328	0.999442
539.795497	0.999211
540.155609	0.998365
540.515665	0.999198
540.875665	0.998753
541.235609	0.999292
541.595496	0.997902
541.955328	0.998922
542.315102	0.999574
542.674821	0.998820
543.034483	0.999101
543.394090	0.998746
543.753640	0.998660
544.113134	0.998739
544.472571	0.999661
544.831953	0.999234
545.191278	0.998846
545.550548	0.998840
545.909761	0.998180
546.268918	0.999610
546.628019	0.998900
546.987064	0.998579
547.346053	0.998390
547.704986	0.999216
548.063863	0.998358
548.422684	0.999546
548.781449	0.999169
549.140158	0.999211
549.498811	0.999028
549.857408	0.997996
550.215949	0.998390
550.574434	0.998915
550.932864	0.999284
551.291237	0.998792
551.649555	0.999375
552.007817	0.998599
552.366022	0.999432
552.724173	0.999661
553.082267	0.998841
553.440305	0.999173
553.798288	0.998148
554.156215	0.999118
554.514086	0.998853
554.871902	0.999182
555.229661	0.998103
555.587365	0.999170
555.945014	0.999266
556.302606	0.998346
556.660143	0.999397
557.017625	0.999462
557.375050	0.998807
557.732421	0.999017
558.089735	0.998733
558.446994	0.999035
558.804197	0.998987
559.161345	0.998225
559.518437	0.998856
559.875474	0.998937
560.232455	0.998848
560.589381	0.999433
560.946251	0.999154
561.303065	0.999828
561.659825	0.998115
562.016528	0.999470
562.373177	0.999245
562.729770	0.998859
563.086307	0.998836
563.442789	0.998601
563.799216	0.998172
564.155587	0.998995
564.511904	1.000216
564.868164	0.997898
565.224370	0.998807
565.580520	0.998583
565.936615	0.998683
566.292654	0.998750
566.648638	0.998774
567.004567	0.998707
567.360441	0.999156
567.716260	0.998803
568.072023	0.998536
568.427732	0.999074
568.783385	0.999013
569.138982	0.998763
569.494525	0.999289
569.850013	0.999738
570.205445	0.999409
570.560823	0.998871
570.916145	0.998786
571.271412	0.999391
571.626625	0.999183
571.981782	0.999151
572.336884	0.998838
572.691931	0.998877
573.046923	0.999148
573.401860	0.998721
573.756743	0.998534
574.111570	0.998661
574.466342	0.999041
574.821059	0.998926
575.175722	0.999162
575.530330	0.999127
575.884882	0.999405
576.239380	0.999069
576.593823	0.998906
576.948211	0.999266
577.302544	0.999104
577.656823	0.999397
578.011047	0.998284
578.365216	1.000139
578.719330	0.999623
579.073389	0.998849
579.427394	0.998579
579.781344	0.999840
580.135239	0.998200
580.489080	0.998714
580.842866	1.000268
581.196597	0.999150
581.550273	0.998953
581.903895	0.999136
582.257463	0.998859
582.610975	0.999110
582.964434	0.999178
583.317837	0.999761
583.671186	0.999822
584.024481	0.999020
584.377721	0.999195
584.730906	0.998729
585.084037	0.999430
585.437113	0.999692
585.790135	0.999009
586.143103	0.998935
586.496016	0.999413
586.848874	0.999063
587.201679	0.999908
587.554428	0.998716
587.907124	0.999847
588.259765	1.000089
588.612352	0.999417
588.964884	0.999562
589.317362	0.998860
589.669786	0.998592
590.022155	0.998604
590.374470	0.999168
590.726731	0.998581
591.078937	0.999933
591.431090	0.999212
591.783188	0.998860
592.135232	1.000029
592.487222	0.998842
592.839157	0.999420
593.191038	0.998752
593.542866	0.999665
593.894639	0.998566
594.246358	0.999997
594.598022	0.999773
594.949633	0.999885
595.301190	0.999541
595.652692	0.998634
596.004141	0.998935
596.355535	0.999787
596.706876	0.999818
597.058162	0.999079
597.409395	0.999440
597.760573	0.999202
598.111698	0.999343
598.462768	0.998268
598.813785	0.998833
599.164748	0.999396
599.515657	0.998547
599.866511	0.999899
600.217312	0.999506
600.568060	0.999195
600.918753	1.000199
601.269392	0.998976
601.619978	0.999211
601.970510	0.999202
602.320988	0.998938
602.671412	0.999059
603.021783	0.999590
603.372100	0.999679
603.722363	0.999711
604.072572	0.999571
604.422728	0.998843
604.772830	0.998847
605.122878	1.000119
605.472872	0.999968
605.822813	0.999552
606.172701	0.999975
606.522534	1.000084
606.872314	0.999701
607.222041	0.999619
607.571714	0.999286
607.921333	0.998718
608.270899	0.999486
608.620411	0.999493
608.969870	0.999875
609.319276	0.998858
609.668627	1.000229
610.017926	0.999225
610.367171	0.999469
610.716362	0.999156
611.065500	0.999337
611.414585	0.999827
611.763616	0.998845
612.112594	0.999486
612.461518	0.998598
612.810389	1.000148
613.159207	0.999166
613.507971	0.998832
613.856682	1.000251
614.205340	0.998602
614.553945	0.999893
614.902496	0.999745
615.250994	0.999354
615.599439	1.000043
615.947830	0.999032
616.296169	0.999556
616.644454	1.000293
616.992686	0.999481
617.340864	0.999163
617.688990	0.998455
618.037063	0.999040
618.385082	0.999302
618.733048	0.998343
619.080961	0.998695
619.428821	0.999723
619.776628	0.999116
620.124382	1.000219
620.472083	1.000282
620.819731	1.000114
621.167326	0.999637
621.514868	1.000078
621.862357	1.000113
622.209793	0.999466
622.557176	0.999430
622.904506	0.999218
623.251783	0.999888
623.599007	0.999594
623.946179	0.998576
624.293297	1.000062
624.640363	0.999886
624.987376	0.999547
625.334336	0.999627
625.681243	0.999777
626.028097	0.999347
626.374899	0.999759
626.721647	1.000343
627.068343	0.999334
627.414987	0.999675
627.761577	0.998862
628.108115	0.998588
628.454600	0.999585
628.801032	0.999757
629.147412	0.999812
629.493739	1.000428
629.840014	0.999826
630.186236	0.999322
630.532405	0.999582
630.878521	0.999271
631.224585	0.999333
631.570597	0.998928
631.916556	0.999282
632.262462	0.998923
632.608316	0.999808
632.954117	0.999312
633.299866	0.999528
633.645562	0.999933
633.991206	0.999876
634.336797	0.998741
634.682336	1.000902
635.027823	0.999801
635.373257	0.999730
635.718639	0.999931
636.063968	0.999660
636.409245	0.998865
636.754470	1.000164
637.099642	0.999753
637.444762	0.999379
637.789829	1.000005
638.134845	0.999298
638.479808	0.999677
638.824719	0.999628
639.169577	0.999642
639.514383	0.999693
639.859137	0.999275
640.203839	0.999741
640.548489	0.998800
640.893086	0.998893
641.237632	0.999720
641.582125	0.999291
641.926566	1.000324
642.270955	0.999935
642.615292	0.999016
642.959576	0.999753
643.303809	1.000394
643.647990	0.999433
643.992118	1.000634
644.336195	0.998084
644.680219	0.999852
645.024192	0.999037
645.368112	0.999185
645.711981	0.999306
646.055797	1.000009
646.399562	0.998824
646.743274	1.000786
647.086935	0.998947
647.430544	0.998969
647.774101	0.998914
648.117606	0.999992
648.461059	1.000207
648.804460	0.999494
649.147810	0.999039
649.491108	0.999643
649.834354	0.999474
650.177548	0.999768
650.520690	0.999533
650.863781	0.998857
651.206820	0.999909
651.549807	1.000284
651.892742	1.000025
652.235626	1.000576
652.578458	0.999754
652.921238	1.000196
653.263967	0.999870
653.606644	0.999724
653.949269	1.000609
654.291843	0.998737
654.634365	0.999896
654.976836	0.999661
655.319255	1.000422
655.661622	0.999998
656.003938	0.999183
656.346203	0.998309
656.688416	1.000132
657.030577	0.999656
657.372687	0.999350
657.714746	0.999691
658.056753	0.999768
658.398708	0.999640
658.740612	1.000655
659.082465	0.999950
659.424266	0.999961
659.766016	0.998637
660.107715	0.999744
660.449362	0.999509
660.790958	0.999549
661.132503	0.999458
661.473996	0.998673
661.815438	0.999922
662.156829	0.999822
662.498168	1.000504
662.839456	0.997946
663.180693	0.999597
663.521879	0.999789
663.863013	0.999467
664.204097	0.998902
664.545129	0.999372
664.886110	0.999546
665.227040	0.999855
665.567918	0.999108
665.908746	0.998547
666.249522	0.999301
666.590248	0.998925
666.930922	0.998537
667.271545	0.999488
667.612118	0.999382
667.952639	0.999581
668.293109	0.999281
668.633528	0.998672
668.973896	0.998628
669.314213	0.998754
669.654480	0.999948
669.994695	0.998773
670.334859	0.998761
670.674973	0.999086
671.015035	0.999264
671.355047	0.999894
671.695008	0.999252
672.034918	0.998526
672.374777	1.000000
672.714585	0.998355
673.054342	0.998972
673.394049	0.999206
673.733705	0.998459
674.073310	0.999795
674.412864	0.999410
674.752368	0.999076
675.091820	1.000468
675.431223	1.000343
675.770574	0.998623
676.109875	0.998694
676.449125	0.998830
676.788324	0.998876
677.127473	0.999453
677.466571	0.998770
677.805619	0.999452
678.144616	1.000281
678.483562	1.000449
678.822458	0.999514
679.161303	0.998709
679.500098	0.999452
679.838842	0.999506
680.177535	0.998286
680.516179	0.998556
680.854771	0.999038
681.193314	0.998827
681.531805	0.998425
681.870247	0.999762
682.208638	0.999868
682.546978	0.998109
682.885268	0.998976
683.223508	0.998704
683.561697	0.998511
683.899836	0.999161
684.237925	0.999141
684.575963	0.998652
684.913951	0.998836
685.251889	0.998084
685.589776	0.999101
685.927614	0.998603
686.265401	0.998103
686.603137	0.999189
686.940824	0.998991
687.278460	0.999318
687.616046	0.998796
687.953582	0.999392
688.291068	0.998680
688.628504	0.999113
688.965889	0.998483
689.303224	0.997267
689.640510	0.998423
689.977745	0.998585
690.314930	0.998643
690.652065	0.998753
690.989150	0.998320
691.326185	0.998944
691.663170	0.999729
692.000105	0.998955
692.336990	0.998744
692.673825	0.998823
693.010610	1.000109
693.347345	0.998249
693.684030	0.998771
694.020665	0.997293
694.357251	0.997776
694.693786	0.998906
695.030272	0.996667
695.366707	0.997654
695.703093	0.998346
696.039429	0.998027
696.375716	0.998743
696.711952	0.997829
697.048139	0.998620
697.384276	0.998424
697.720363	0.997984
698.056400	0.997006
698.392388	0.997915
698.728326	0.998574
699.064214	0.999206
699.400053	0.999044
699.735842	0.999585
700.071581	0.997725
700.407270	0.998114
700.742910	0.999438
701.078501	0.998651
701.414042	0.999495
701.749533	0.998060
702.084974	0.997973
702.420366	0.998868
702.755709	0.997967
703.091002	0.998547
703.426246	0.998843
703.761440	0.997966
704.096584	0.997673
704.431679	0.998019
704.766725	0.997956
705.101721	0.999210
705.436668	0.999433
705.771565	0.998344
706.106413	0.997922
706.441212	0.998351
706.775961	0.998645
707.110661	0.998442
707.445311	0.998974
707.779913	0.998367
708.114465	0.999469
708.448967	0.999284
708.783421	0.998984
709.117825	0.998853
709.452180	0.998789
709.786485	0.998008
710.120742	0.998258
710.454949	0.997408
710.789107	0.998692
711.123216	0.997830
711.457275	0.997140
711.791286	0.998385
712.125247	0.998664
712.459159	0.998296
712.793023	0.997040
713.126837	0.998118
713.460602	0.997477
713.794318	0.996981
714.127985	0.997316
714.461602	0.997640
714.795171	0.997939
715.128691	0.997750
715.462162	0.998896
715.795584	0.998696
716.128957	0.998949
716.462281	0.998288
716.795556	0.997895
717.128782	0.999545
717.461960	0.998151
717.795088	0.997384
718.128167	0.998844
718.461198	0.997537
718.794180	0.998353
719.127113	0.999174
719.459997	0.998600
719.792833	0.998151
720.125619	0.998552
720.458357	0.998192
720.791046	0.998892
721.123686	0.997826
721.456278	0.998430
721.788821	0.997510
722.121315	0.999352
722.453761	0.998388
722.786158	0.997793
723.118506	0.997814
723.450805	0.997082
723.783056	0.998672
724.115259	0.997778
724.447412	0.999524
724.779518	0.997985
725.111574	0.997407
725.443582	0.997877
725.775542	0.998579
726.107453	0.997470
726.439315	0.998740
726.771129	0.998593
727.102895	0.998368
727.434612	0.998457
727.766281	0.997875
728.097901	0.997347
728.429473	0.999005
728.760996	0.997573
729.092471	0.998112
729.423897	0.998460
729.755276	0.998567
730.086606	0.997886
730.417887	0.998451
730.749120	0.997689
731.080305	0.998285
731.411442	0.997679
731.742530	0.996821
732.073570	0.997832
732.404562	0.997623
732.735506	0.998152
733.066401	0.997450
733.397249	0.998310
733.728048	0.997573
734.058798	0.998139
734.389501	0.999413
734.720156	0.998787
735.050762	0.999436
735.381320	0.998069
735.711831	0.997610
736.042293	0.997779
736.372707	0.999107
736.703073	0.997842
737.033391	0.997283
737.363661	0.998283
737.693883	0.997422
738.024056	0.997940
738.354182	0.997912
738.684260	0.997937
739.014290	0.997873
739.344272	0.996485
739.674207	0.998077
740.004093	0.998438
740.333931	0.998521
740.663722	0.997888
740.993464	0.998222
741.323159	0.997566
741.652806	0.997955
741.982405	0.999066
742.311956	0.998167
742.641460	0.998532
742.970915	0.997833
743.300323	0.997584
743.629683	0.997017
743.958996	0.999425
744.288260	0.997372
744.617477	0.997962
744.946647	0.998923
745.275768	0.999357
745.604842	0.998078
745.933869	0.998527
746.262847	0.998500
746.591778	0.997637
746.920662	0.999378
747.249498	0.999684
747.578286	0.999724
747.907027	0.998356
748.235720	0.998850
748.564365	0.997559
748.892963	0.997646
749.221514	0.998482
749.550017	0.997624
749.878473	0.998608
750.206881	0.998863
750.535242	0.998015
750.863555	0.997002
751.191821	0.998574
751.520039	0.998172
751.848210	0.996665
752.176334	0.997908
752.504411	0.997976
752.832440	0.997716
753.160421	0.997486
753.488356	0.999777
753.816243	0.997969
754.144082	0.997260
754.471875	0.998462
754.799620	0.998197
755.127318	0.998565
755.454969	0.998026
755.782572	0.999607
756.110129	0.997788
756.437638	0.998682
756.765100	0.999654
757.092515	0.998609
757.419882	0.998927
757.747203	0.998286
758.074477	0.998059
758.401703	0.998679
758.728882	0.998526
759.056014	0.998211
759.383099	0.998055
759.710138	0.997831
760.037129	0.998273
760.364073	0.998729
760.690970	0.997311
761.017820	0.997133
761.344623	0.998334
761.671379	0.998707
761.998088	0.998650
762.324751	0.998076
762.651366	0.997790
762.977935	0.996993
763.304456	0.997868
763.630931	0.996543
763.957359	0.995500
764.283740	0.996220
764.610074	0.996863
764.936362	0.997901
765.262602	0.998888
765.588796	0.998000
765.914943	0.997364
766.241044	0.998159
766.567097	0.997782
766.893104	0.997511
767.219064	0.997761
767.544978	0.997940
767.870845	0.998555
768.196665	0.997684
768.522438	0.998786
768.848165	0.998797
769.173846	0.997974
769.499479	0.999963
769.825066	0.998827
770.150607	0.999882
770.476101	0.998733
770.801548	0.998532
771.126949	0.998596
771.452303	0.999062
771.777611	0.998534
772.102872	0.998980
772.428087	0.998657
772.753256	0.998364
773.078378	0.998204
773.403453	0.998824
773.728482	0.999409
774.053465	0.997926
774.378401	0.999622
774.703291	0.999648
775.028135	1.000011
775.352932	0.997325
775.677683	0.998874
776.002388	0.998148
776.327046	0.998632
776.651658	1.000566
776.976224	0.998411
777.300743	0.997775
777.625216	0.998882
777.949643	0.998316
778.274024	0.998042
778.598359	0.999147
778.922647	0.998133
779.246889	0.998704
779.571086	0.998454
779.895236	0.998865
780.219339	0.999449
780.543397	0.997956
780.867409	0.998454
781.191374	0.998685
781.515294	0.998385
781.839167	0.999629
782.162995	0.998612
782.486776	0.999058
782.810511	0.998541
783.134201	0.999010
783.457844	0.998697
783.781441	0.998309
784.104993	0.998191
784.428498	0.998652
784.751958	0.999204
785.075372	0.999110
785.398739	0.998176
785.722061	0.998141
786.045337	0.998639
786.368568	0.998403
786.691752	0.998697
787.014891	0.997356
787.337983	0.997230
787.661030	0.999162
787.984031	0.998832
788.306987	0.998593
788.629897	0.997122
788.952760	0.997976
789.275579	0.998848
789.598351	0.997818
789.921078	0.998895
790.243759	0.998877
790.566395	0.998272
790.888984	0.998721
791.211529	0.998794
791.534027	0.998968
791.856480	0.999173
792.178888	0.998835
792.501249	0.998466
792.823566	0.999347
793.145836	0.998772
793.468062	0.998457
793.790241	0.999772
794.112375	0.998017
794.434464	0.998960
794.756507	0.998715
795.078505	0.999349
795.400457	0.998711
795.722364	0.998293
796.044226	0.999146
796.366042	0.998461
796.687812	0.997344
797.009538	0.997879
797.331218	0.999223
797.652852	0.999745
797.974442	0.997772
798.295986	0.998203
798.617484	0.998308
798.938938	0.998974
799.260346	0.998297
799.581709	0.998533
799.903026	0.999111
800.224299	0.997769
800.545526	0.998692
800.866708	0.998461
801.187845	0.998867
801.508936	0.998987
801.829983	0.998107
802.150984	0.999660
802.471940	0.998824
802.792851	0.997697
803.113717	1.000634
803.434538	0.999871
803.755314	0.999468
804.076045	0.999153
804.396731	0.998173
804.717372	0.997864
805.037967	0.999291
805.358518	1.000061
805.679024	0.997523
805.999485	0.998586
806.319901	0.998646
806.640272	0.999074
806.960598	0.998126
807.280879	0.998203
807.601115	0.999295
807.921306	0.999274
808.241453	0.998273
808.561554	0.997329
808.881611	0.998760
809.201623	0.998587
809.521590	0.998528
809.841513	0.999529
810.161390	0.999362
810.481223	0.997779
810.801011	0.999530
811.120755	0.999524
811.440453	0.997815
811.760107	0.998630
812.079716	0.998374
812.399281	0.998663
812.718801	0.999434
813.038276	0.999159
813.357707	0.998766
813.677093	0.999927
813.996434	0.998735
814.315731	1.000311
814.634983	0.998396
814.954191	0.999111
815.273354	0.998689
815.592473	0.998761
815.911547	0.999890
816.230577	0.998307
816.549562	0.999411
816.868502	0.997617
817.187399	1.000909
817.506250	0.999422
817.825058	0.997788
818.143821	0.998657
818.462539	0.998741
818.781213	0.997721
819.099843	0.998209
819.418429	0.998619
819.736970	0.999077
820.055466	0.997405
820.373919	0.998193
820.692327	0.996846
821.010691	0.996866
821.329011	0.995314
821.647286	0.993207
821.965517	0.992560
822.283704	0.991873
822.601847	0.990980
822.919945	0.992410
823.237999	0.992767
823.556010	0.992838
823.873976	0.993700
824.191897	0.994084
824.509775	0.995157
824.827609	0.995834
825.145398	0.995651
825.463144	0.994536
825.780845	0.995257
826.098502	0.996194
826.416116	0.995567
826.733685	0.994844
827.051210	0.993229
827.368692	0.993920
827.686129	0.993996
828.003522	0.995213
828.320872	0.995527
828.638177	0.996340
828.955439	0.997668
829.272656	0.997733
829.589830	0.997051
829.906960	0.998379
830.224046	0.998056
830.541088	0.998274
830.858086	0.998209
831.175041	0.998943
831.491952	0.998827
831.808819	0.996957
832.125642	0.998467
832.442421	0.997511
832.759157	0.998566
833.075849	0.997350
833.392497	0.996057
833.709101	0.996097
834.025662	0.996311
834.342179	0.996084
834.658653	0.997928
834.975083	0.997002
835.291469	0.999098
835.607811	0.996641
835.924110	0.998026
836.240366	0.999698
836.556578	0.999039
836.872746	0.998364
837.188871	0.998836
837.504952	0.997670
837.820990	0.999455
838.136984	0.998223
838.452935	0.998485
838.768842	0.998712
839.084706	0.998733
839.400526	0.998426
839.716303	0.997908
840.032037	0.998002
840.347727	0.997980
840.663373	0.998328
840.978977	0.998358
841.294537	0.999475
841.610054	0.998787
841.925527	1.000339
842.240957	0.998432
842.556344	0.998764
842.871687	0.999594
843.186987	0.998448
843.502244	0.999631
843.817458	0.998454
844.132629	0.999365
844.447756	0.999440
844.762840	0.998882
845.077881	0.999960
845.392879	0.998538
845.707833	0.999012
846.022745	0.998801
846.337613	0.999716
846.652438	0.998929
846.967221	0.999171
847.281960	0.999506
847.596656	0.999781
847.911309	0.999592
848.225919	0.998449
848.540485	0.999991
848.855009	0.999180
849.169490	0.999281
849.483928	0.998858
849.798323	0.998713
850.112675	1.000747
850.426984	0.999792
850.741251	1.000109
851.055474	0.998632
851.369654	1.000759
851.683792	0.999057
851.997887	0.999204
852.311938	0.998730
852.625947	0.998814
852.939914	0.999053
853.253837	1.000361
853.567718	0.999641
853.881555	0.998622
854.195350	0.999083
854.509103	0.999491
854.822812	1.000537
855.136479	1.000294
855.450103	1.000470
855.763685	0.999553
856.077224	0.999050
856.390720	0.999341
856.704173	0.999744
857.017584	1.000168
857.330953	1.000487
857.644278	0.999765
857.957561	1.001139
858.270802	0.999684
858.584000	0.999864
858.897155	0.999242
859.210268	0.999102
859.523339	0.999860
859.836367	0.999218
860.149352	0.998591
860.462295	0.999583
860.775195	0.999374
861.088054	0.998110
861.400869	0.999127
861.713642	0.999240
862.026373	1.000262
862.339062	0.999049
862.651708	0.999308
862.964312	0.999855
863.276873	0.998957
863.589392	0.998574
863.901869	0.997959
864.214303	1.000193
864.526696	1.000104
864.839045	0.999762
865.151353	0.999878
865.463619	0.998463
865.775842	0.999215
866.088023	1.000033
866.400162	0.999483
866.712258	1.000063
867.024313	1.000631
867.336325	1.000238
867.648296	1.000019
867.960224	0.999549
868.272110	0.999626
868.583954	0.998707
868.895755	0.999528
869.207515	0.999376
869.519233	1.000626
869.830909	0.999275
870.142542	0.999253
870.454134	0.999903
870.765684	0.999115
871.077191	0.999261
871.388657	0.999505
871.700081	0.999412
872.011463	0.999366
872.322803	0.999754
872.634101	0.999281
872.945357	0.998868
873.256571	0.999787
873.567744	0.998671
873.878874	0.999081
874.189963	0.998973
874.501010	1.000794
874.812015	0.999143
875.122979	0.998918
875.433900	0.998234
875.744780	0.999765
876.055618	0.998103
876.366415	0.998788
876.677169	0.998634
876.987882	0.999588
877.298554	0.999398
877.609183	0.999227
877.919771	0.999016
878.230317	0.999224
878.540822	0.997629
878.851285	0.998033
879.161707	0.998159
879.472087	0.999199
879.782425	0.998900
880.092722	0.997965
880.402977	0.995882
880.713191	0.994570
881.023363	0.994232
881.333494	0.992270
881.643583	0.993896
881.953631	0.993272
882.263637	0.992526
882.573602	0.993478
882.883526	0.992927
883.193408	0.994573
883.503248	0.994520
883.813048	0.994494
884.122806	0.996341
884.432522	0.996138
884.742197	0.998286
885.051831	0.996804
885.361424	0.997631
885.670975	0.998570
885.980485	0.998515
886.289954	0.998591
886.599382	0.997905
886.908768	0.998653
887.218113	0.998984
887.527417	0.998747
887.836680	0.998620
888.145901	0.999777
888.455082	1.000400
888.764221	0.998894
889.073319	0.998173
889.382376	0.999345
889.691392	0.998156
890.000366	0.998304
890.309300	0.999731
890.618193	0.999476
890.927044	0.999435
891.235855	0.998398
891.544625	0.999300
891.853353	0.999161
892.162041	0.998543
892.470687	0.999414
892.779293	0.998124
893.087858	0.997559
893.396381	0.999268
893.704864	0.997037
894.013306	0.997128
894.321707	0.995907
894.630068	0.996449
894.938387	0.995941
895.246665	0.995810
895.554903	0.995982
895.863100	0.997635
896.171256	0.997336
896.479371	0.998319
896.787446	0.997421
897.095480	0.998292
897.403473	0.997948
897.711425	0.997826
898.019336	0.999423
898.327207	0.998764
898.635038	0.997286
898.942827	0.998969
899.250576	0.998452
899.558284	0.999068
899.865952	0.997334
900.173579	0.998535
900.481165	0.999235
900.788711	0.999227
901.096216	0.999603
901.403681	1.000215
901.711105	0.998360
902.018489	0.999037
902.325832	0.998508
902.633135	0.999667
902.940397	0.998925
903.247619	0.999309
903.554800	0.998074
903.861941	0.997445
904.169041	0.996569
904.476101	0.996199
904.783121	0.995671
905.090100	0.996410
905.397039	0.996828
905.703938	0.996734
906.010796	0.996956
906.317614	0.998025
906.624391	0.997799
906.931129	0.999522
907.237826	0.999185
907.544483	0.998215
907.851099	0.998424
908.157675	0.998935
908.464211	0.999622
908.770707	0.998796
909.077163	0.999269
909.383578	0.999868
909.689954	0.998865
909.996289	0.999524
910.302584	1.000388
910.608839	1.000823
910.915054	0.998381
911.221229	1.000054
911.527363	0.999312
911.833458	0.999406
912.139513	0.999376
912.445527	1.000519
912.751502	0.999536
913.057436	0.999380
913.363331	1.000172
913.669186	0.998677
913.975000	0.999119
914.280775	0.998674
914.586510	0.997879
914.892205	0.997748
915.197859	0.997054
915.503475	0.996718
915.809050	0.996582
916.114585	0.994645
916.420081	0.995849
916.725536	0.996288
917.030952	0.996085
917.336328	0.996141
917.641665	0.995956
917.946961	0.996534
918.252218	0.997311
918.557435	0.997397
918.862612	0.998983
919.167750	0.998132
919.472848	0.998356
919.777906	0.999724
920.082925	0.999680
920.387904	0.998810
920.692843	0.999219
920.997743	0.997861
921.302603	0.999885
921.607423	0.997378
921.912204	0.998308
922.216946	1.000040
922.521647	0.998820
922.826310	0.999326
923.130932	0.999230
923.435516	0.999305
923.740059	0.999639
924.044564	1.000632
924.349028	0.998413
924.653454	0.999752
924.957840	0.999380
925.262186	0.999076
925.566493	0.998108
925.870761	0.999635
926.174989	0.999305
926.479178	1.000348
926.783328	1.000051
927.087438	0.999602
927.391509	0.999447
927.695541	0.999829
927.999533	0.999926
928.303486	0.998920
928.607400	0.999995
928.911275	1.000180
929.215110	0.999800
929.518906	0.999976
929.822663	1.001602
930.126381	1.000134
930.430060	0.999965
930.733699	1.000837
931.037299	1.000176
931.340861	0.999757
931.644383	0.999493
931.947866	0.999936
932.251309	0.999665
932.554714	0.999571
932.858080	1.000183
933.161407	0.999148
933.464694	0.999359
933.767943	1.000212
934.071153	1.000078
934.374323	1.000986
934.677455	0.998729
934.980548	0.998625
935.283602	0.999770
935.586617	0.999120
935.889593	0.999772
936.192530	1.000523
936.495428	0.999114
936.798287	1.000094
937.101108	0.999625
937.403890	0.998729
937.706632	1.001140
938.009336	1.000195
938.312002	0.998656
938.614628	0.998868
938.917216	0.999640
939.219765	0.998430
939.522275	1.000026
939.824747	0.999086
940.127179	0.999299
940.429573	0.999573
940.731929	0.998363
941.034246	0.998840
941.336524	0.998240
941.638763	0.999814
941.940964	1.000713
942.243126	0.999792
942.545250	0.999701
942.847335	0.999725
943.149381	0.999961
943.451389	0.998371
943.753359	0.999869
944.055290	1.000324
944.357182	1.000612
944.659036	1.000887
944.960851	0.999783
945.262628	0.999948
945.564367	1.000020
945.866067	0.999571
946.167729	1.000264
946.469352	0.999437
946.770937	0.998480
947.072484	1.000987
947.373992	1.000076
947.675462	1.000370
947.976893	0.998098
948.278286	1.000439
948.579641	1.001253
948.880958	0.999004
949.182236	0.999743
949.483476	1.001028
949.784678	0.999183
950.085841	0.999893
950.386967	0.999328
950.688054	0.999888
950.989103	0.998667
951.290114	0.998549
951.591087	1.000245
951.892021	0.999961
952.192917	0.999720
952.493776	1.000409
952.794596	0.999922
953.095378	0.998675
953.396122	0.999363
953.696828	1.000339
953.997496	0.999279
954.298126	1.000004
954.598718	0.999655
954.899272	1.000368
955.199788	0.999006
955.500266	1.001207
955.800706	0.999284
956.101108	0.999471
956.401472	1.000721
956.701798	0.999542
957.002087	0.998674
957.302337	0.999650
957.602550	1.000207
957.902724	0.999695
958.202861	0.999727
958.502960	1.000603
958.803022	0.999765
959.103045	1.000246
959.403031	1.001107
959.702979	1.000855
960.002889	1.000947
960.302762	0.998950
960.602596	1.000466
960.902393	0.999325
961.202153	1.000286
961.501875	1.000676
961.801559	0.999996
962.101205	1.000158
962.400814	1.001118
962.700385	1.001391
962.999918	1.000403
963.299414	0.999885
963.598873	1.001272
963.898293	0.999718
964.197677	0.999403
964.497022	0.999054
964.796331	0.999846
965.095601	1.001829
965.394835	0.999177
965.694030	1.001766
965.993189	0.999780
966.292309	1.000137
966.591393	0.998731
966.890439	1.000433
967.189447	1.000401
967.488419	1.000327
967.787353	0.999737
968.086249	1.000167
968.385108	1.000898
968.683930	1.001359
968.982714	0.999275
969.281462	1.000060
969.580172	0.999927
969.878844	1.001222
970.177480	1.000934
970.476078	1.001492
970.774639	1.000335
971.073162	0.999291
971.371649	0.999969
971.670098	0.998935
971.968510	1.000902
972.266885	0.999492
972.565223	1.000022
972.863524	0.998693
973.161788	0.998788
973.460014	1.000060
973.758204	0.999284
974.056356	0.999952
974.354471	0.999707
974.652550	1.000652
974.950591	0.999810
975.248595	0.998938
975.546563	1.000135
975.844493	0.999193
976.142386	0.998797
976.440243	1.000583
976.738062	1.000405
977.035845	0.998412
977.333590	1.001122
977.631299	0.998746
977.928971	1.000144
978.226606	0.999805
978.524204	1.000212
978.821765	1.000207
979.119290	1.001219
979.416777	0.999662
979.714228	0.998718
980.011642	0.999879
980.309020	0.999022
980.606360	0.999365
980.903664	1.000480
981.200931	1.000363
981.498162	1.000605
981.795356	0.999934
982.092513	1.000495
982.389633	1.001571
982.686717	0.998700
982.983764	0.999112
983.280775	0.999321
983.577749	1.001341
983.874686	0.998710
984.171587	0.999375
984.468451	0.999353
984.765279	1.001269
985.062070	1.000023
985.358824	0.999168
985.655543	0.999848
985.952224	0.999490
986.248869	0.999436
986.545478	1.000013
986.842050	0.999341
987.138586	0.998883
987.435086	0.999171
987.731549	1.000960
988.027975	1.000183
988.324366	0.998868
988.620719	1.000982
988.917037	0.999632
989.213318	1.000548
989.509563	0.999619
989.805772	1.001142
990.101944	1.001132
990.398080	1.000788
990.694180	1.000916
990.990244	0.998263
991.286271	0.999724
991.582262	1.000911
991.878217	1.000548
992.174136	1.000800
992.470019	0.999821
992.765865	1.001007
993.061676	1.001985
993.357450	0.999690
993.653188	1.001598
993.948890	1.000090
994.244556	0.999668
994.540186	1.000379
994.835780	0.998639
995.131337	1.000829
995.426859	1.000509
995.722345	1.000842
996.017795	0.999306
996.313208	1.000307
996.608586	0.999184
996.903928	1.001195
997.199234	0.999514
997.494504	1.001217
997.789738	0.998847
998.084936	1.000438
998.380099	0.999585
998.675225	1.000967
998.970316	1.000892
999.265371	1.000235
999.560390	0.999480
999.855373	0.999608
1000.150320	1.000141
1000.445232	1.000141
1000.740108	1.000382
1001.034948	0.999296
1001.329752	1.001001
1001.624521	0.999880
1001.919254	0.999425
1002.213951	0.999502
1002.508613	0.999133
1002.803239	0.998965
1003.097829	1.000733
1003.392384	1.000187
1003.686903	1.000538
1003.981386	0.999753
1004.275834	1.000195
1004.570246	0.999004
1004.864623	0.999603
1005.158964	1.000752
1005.453270	0.999289
1005.747540	0.999546
1006.041775	1.000700
1006.335974	0.999611
1006.630138	1.000403
1006.924266	0.998202
1007.218359	0.998558
1007.512416	1.000357
1007.806438	0.999872
1008.100425	0.999872
1008.394376	1.000236
1008.688292	1.000236
1008.982172	0.998936
1009.276017	1.000835
1009.569827	1.000420
1009.863602	0.998952
1010.157341	1.001829
1010.451045	0.999943
1010.744714	1.000491
1011.038347	1.000634
1011.331945	0.999506
1011.625508	0.999529
1011.919036	1.000476
1012.212528	1.000672
1012.505986	0.999462
1012.799408	1.000920
1013.092795	0.999061
1013.386147	0.999496
1013.679464	1.000910
1013.972745	0.999042
1014.265992	1.000237
1014.559204	0.998382
1014.852380	1.001054
1015.145521	0.999857
1015.438628	0.999414
1015.731699	1.000218
1016.024736	1.000987
1016.317737	1.000403
1016.610703	1.001171
1016.903635	1.000536
1017.196531	1.000022
1017.489393	1.000077
1017.782219	1.000242
1018.075011	0.999501
1018.367768	0.999952
1018.660490	0.999906
1018.953177	0.999906
1019.245829	0.999906
