Dividing Wavelength (nm)	Counts (n)	Blue Motor Position (mm): 12.100000	Red Motor Position (mm): 0.000000	
326.493990	1.003533
326.888308	1.003533
327.282561	1.003533
327.676750	1.003945
328.070874	1.004339
328.464933	1.004991
328.858929	1.005346
329.252859	1.003312
329.646726	1.003950
330.040528	1.004031
330.434265	1.003431
330.827938	1.003397
331.221547	1.004193
331.615091	1.004328
332.008571	1.005314
332.401986	1.002321
332.795338	1.003672
333.188625	1.004519
333.581847	1.003178
333.975006	1.004264
334.368100	1.003463
334.761129	1.002374
335.154095	1.003078
335.546996	1.002947
335.939833	0.998260
336.332606	1.000167
336.725315	0.999000
337.117960	0.999235
337.510540	0.997784
337.903056	1.000142
338.295508	1.000004
338.687896	1.000788
339.080220	0.999877
339.472480	0.999491
339.864676	0.999574
340.256807	0.998458
340.648875	0.999126
341.040879	0.998755
341.432818	1.000723
341.824694	0.997783
342.216506	0.999647
342.608253	0.998406
342.999937	0.998187
343.391557	0.999553
343.783113	1.000115
344.174605	0.999039
344.566033	0.998563
344.957397	0.999771
345.348697	0.999193
345.739934	0.999396
346.131106	0.998177
346.522215	0.997884
346.913260	0.999508
347.304241	0.999330
347.695159	0.998882
348.086012	0.998626
348.476802	0.998314
348.867528	0.998110
349.258191	0.998968
349.648789	0.997945
350.039324	0.998789
350.429796	0.997749
350.820203	0.998027
351.210548	0.998530
351.600828	0.998391
351.991045	0.998565
352.381198	0.998473
352.771288	0.998105
353.161314	0.998383
353.551276	0.998919
353.941175	0.997230
354.331010	0.998576
354.720782	0.998932
355.110490	0.998090
355.500135	0.998947
355.889717	0.997537
356.279235	0.997927
356.668689	0.998308
357.058080	0.997594
357.447408	0.997778
357.836672	0.996890
358.225873	0.998548
358.615010	0.997306
359.004084	0.997511
359.393095	0.997778
359.782043	0.997484
360.170927	0.997354
360.559748	0.997346
360.948505	0.997234
361.337199	0.996539
361.725830	0.997343
362.114398	0.997641
362.502903	0.996315
362.891344	0.997004
363.279722	0.997122
363.668037	0.998303
364.056289	0.996462
364.444478	0.998654
364.832603	0.997603
365.220665	0.997627
365.608665	0.995359
365.996601	0.996517
366.384474	0.995470
366.772284	0.996639
367.160031	0.995575
367.547715	0.995376
367.935336	0.995020
368.322893	0.993343
368.710388	0.991773
369.097820	0.989232
369.485189	0.987473
369.872495	0.986278
370.259738	0.983975
370.646918	0.981889
371.034035	0.979653
371.421090	0.977337
371.808081	0.971519
372.195010	0.969675
372.581875	0.964010
372.968678	0.960000
373.355418	0.955527
373.742096	0.948394
374.128710	0.944154
374.515262	0.939289
374.901751	0.934463
375.288177	0.928617
375.674540	0.922075
376.060841	0.916058
376.447079	0.909884
376.833254	0.902930
377.219367	0.897422
377.605417	0.885740
377.991404	0.882550
378.377329	0.876601
378.763191	0.870147
379.148991	0.861291
379.534727	0.853362
379.920402	0.845019
380.306013	0.841426
380.691563	0.829293
381.077049	0.821993
381.462474	0.817930
381.847835	0.806822
382.233134	0.802897
382.618371	0.802709
383.003545	0.785061
383.388657	0.783235
383.773706	0.774887
384.158693	0.771546
384.543618	0.766741
384.928480	0.756818
385.313280	0.747277
385.698017	0.746651
386.082692	0.734993
386.467305	0.733553
386.851856	0.728727
387.236344	0.723611
387.620770	0.718000
388.005133	0.711549
388.389435	0.705195
388.773674	0.704370
389.157851	0.694640
389.541965	0.693892
389.926018	0.699059
390.310008	0.686473
390.693936	0.683366
391.077802	0.675645
391.461606	0.676647
391.845348	0.666732
392.229027	0.665911
392.612645	0.664439
392.996200	0.651102
393.379694	0.643566
393.763125	0.634209
394.146494	0.638513
394.529801	0.629266
394.913047	0.621358
395.296230	0.627902
395.679351	0.618293
396.062410	0.615534
396.445408	0.617825
396.828343	0.613757
397.211217	0.608035
397.594028	0.621363
397.976778	0.610752
398.359466	0.608383
398.742092	0.602594
399.124656	0.614852
399.507158	0.603376
399.889598	0.600151
400.271977	0.591788
400.654294	0.595865
401.036549	0.594500
401.418742	0.598891
401.800874	0.584376
402.182944	0.581916
402.564952	0.572830
402.946898	0.575678
403.328783	0.576372
403.710606	0.587038
404.092367	0.561810
404.474067	0.567216
404.855705	0.565743
405.237282	0.575002
405.618797	0.561153
406.000250	0.556252
406.381642	0.546561
406.762972	0.551824
407.144240	0.550446
407.525447	0.550756
407.906593	0.542986
408.287677	0.538713
408.668700	0.546515
409.049661	0.540928
409.430560	0.535950
409.811399	0.544743
410.192176	0.525970
410.572891	0.533890
410.953545	0.521427
411.334138	0.534907
411.714669	0.527421
412.095139	0.540081
412.475547	0.523482
412.855894	0.525890
413.236180	0.524506
413.616405	0.529860
413.996568	0.520534
414.376670	0.526956
414.756711	0.531189
415.136691	0.528193
415.516609	0.519279
415.896466	0.516178
416.276262	0.512399
416.655997	0.513765
417.035670	0.495369
417.415283	0.487110
417.794834	0.492161
418.174324	0.497388
418.553753	0.506524
418.933121	0.488535
419.312428	0.482783
419.691674	0.488288
420.070859	0.476777
420.449983	0.484432
420.829045	0.474222
421.208047	0.483004
421.586988	0.475695
421.965867	0.474157
422.344686	0.463237
422.723444	0.476563
423.102141	0.492877
423.480777	0.465628
423.859352	0.486714
424.237866	0.463573
424.616319	0.464608
424.994712	0.455275
425.373044	0.465422
425.751314	0.454029
426.129524	0.470625
426.507673	0.453521
426.885762	0.447014
427.263789	0.453193
427.641756	0.462464
428.019662	0.452846
428.397508	0.451796
428.775292	0.456509
429.153016	0.448425
429.530679	0.454732
429.908282	0.447768
430.285824	0.457696
430.663305	0.435960
431.040726	0.457597
431.418086	0.457146
431.795385	0.448977
432.172624	0.448103
432.549802	0.448166
432.926920	0.447563
433.303977	0.447033
433.680974	0.444350
434.057910	0.442674
434.434786	0.441526
434.811601	0.444588
435.188355	0.427251
435.565050	0.436550
435.941683	0.437471
436.318257	0.421250
436.694770	0.422409
437.071222	0.420782
437.447614	0.424882
437.823946	0.431321
438.200218	0.420908
438.576429	0.430566
438.952580	0.423713
439.328670	0.420031
439.704700	0.426739
440.080670	0.427528
440.456580	0.408777
440.832429	0.417195
441.208218	0.427652
441.583947	0.417218
441.959616	0.416629
442.335224	0.421929
442.710773	0.412639
443.086261	0.410856
443.461689	0.424631
443.837057	0.414704
444.212365	0.404684
444.587612	0.411565
444.962800	0.401442
445.337927	0.403014
445.712995	0.429556
446.088002	0.390776
446.462949	0.401900
446.837837	0.406818
447.212664	0.395037
447.587431	0.386788
447.962139	0.356924
448.336786	0.316145
448.711374	0.326578
449.085901	0.370775
449.460369	0.375269
449.834776	0.378495
450.209124	0.357656
450.583412	0.350331
450.957640	0.343437
451.331808	0.354982
451.705917	0.378060
452.079965	0.382958
452.453954	0.370851
452.827883	0.378047
453.201752	0.372860
453.575562	0.383868
453.949311	0.372523
454.323001	0.378195
454.696632	0.374560
455.070202	0.366877
455.443713	0.359058
455.817164	0.353767
456.190556	0.349400
456.563888	0.346550
456.937160	0.343997
457.310373	0.360856
457.683526	0.360099
458.056619	0.365677
458.429653	0.366208
458.802628	0.369632
459.175542	0.363620
459.548398	0.346370
459.921194	0.339195
460.293930	0.339160
460.666607	0.316585
461.039224	0.305030
461.411782	0.300432
461.784280	0.299981
462.156719	0.303941
462.529099	0.308191
462.901419	0.324477
463.273680	0.328819
463.645882	0.328236
464.018024	0.334178
464.390106	0.326572
464.762130	0.311568
465.134094	0.294364
465.505999	0.263270
465.877845	0.233738
466.249631	0.220654
466.621358	0.228103
466.993026	0.242162
467.364634	0.248126
467.736184	0.256847
468.107674	0.265893
468.479105	0.264957
468.850477	0.271686
469.221790	0.278783
469.593043	0.288944
469.964238	0.293433
470.335373	0.292920
470.706449	0.291170
471.077467	0.291883
471.448425	0.254085
471.819324	0.229502
472.190164	0.228813
472.560945	0.257850
472.931667	0.280294
473.302330	0.284301
473.672934	0.296429
474.043479	0.283937
474.413965	0.286081
474.784393	0.289509
475.154761	0.284456
475.525070	0.281633
475.895321	0.287556
476.265513	0.281883
476.635645	0.277002
477.005719	0.276642
477.375734	0.273290
477.745691	0.266725
478.115588	0.263175
478.485427	0.256540
478.855207	0.243655
479.224928	0.225654
479.594591	0.214137
479.964194	0.217424
480.333739	0.218647
480.703226	0.219746
481.072653	0.218543
481.442022	0.214012
481.811333	0.210862
482.180584	0.214307
482.549777	0.219742
482.918912	0.222953
483.287988	0.222643
483.657005	0.222265
484.025964	0.228788
484.394864	0.225986
484.763706	0.226428
485.132489	0.231823
485.501213	0.232610
485.869879	0.230881
486.238487	0.233808
486.607036	0.231698
486.975527	0.236222
487.343959	0.232350
487.712333	0.231593
488.080648	0.232556
488.448905	0.231875
488.817104	0.233030
489.185244	0.227518
489.553326	0.224587
489.921350	0.214397
490.289315	0.196859
490.657222	0.191820
491.025070	0.193242
491.392861	0.195245
491.760593	0.200888
492.128267	0.206650
492.495883	0.211929
492.863440	0.218391
493.230939	0.225106
493.598380	0.226390
493.965763	0.228542
494.333088	0.230700
494.700354	0.232237
495.067563	0.231124
495.434713	0.234595
495.801805	0.232538
496.168839	0.233638
496.535815	0.235396
496.902733	0.235113
497.269593	0.236493
497.636395	0.234337
498.003139	0.234413
498.369825	0.237959
498.736453	0.234368
499.103023	0.235815
499.469535	0.235121
499.835989	0.235641
500.202385	0.236283
500.568723	0.239569
500.935003	0.234614
501.301226	0.239090
501.667390	0.233439
502.033497	0.231218
502.399546	0.234132
502.765537	0.236228
503.131470	0.234667
503.497345	0.231070
503.863163	0.239274
504.228923	0.232632
504.594625	0.231182
504.960269	0.236709
505.325856	0.232192
505.691385	0.236427
506.056856	0.233229
506.422270	0.232594
506.787625	0.234994
507.152924	0.232542
507.518164	0.232929
507.883347	0.234617
508.248472	0.236473
508.613540	0.231424
508.978550	0.233753
509.343503	0.234670
509.708398	0.232195
510.073236	0.229638
510.438016	0.229164
510.802738	0.230282
511.167403	0.229361
511.532010	0.231524
511.896561	0.226912
512.261053	0.225514
512.625488	0.227975
512.989866	0.227857
513.354186	0.228260
513.718449	0.230118
514.082655	0.226468
514.446803	0.228699
514.810894	0.226483
515.174927	0.229045
515.538904	0.228575
515.902822	0.225493
516.266684	0.227717
516.630488	0.229107
516.994235	0.228217
517.357925	0.226825
517.721558	0.225050
518.085133	0.224693
518.448651	0.224467
518.812112	0.227144
519.175516	0.226665
519.538863	0.223963
519.902152	0.225849
520.265385	0.222627
520.628560	0.224421
520.991678	0.224957
521.354739	0.223766
521.717743	0.224978
522.080690	0.225518
522.443580	0.222890
522.806413	0.223749
523.169189	0.223247
523.531908	0.222037
523.894569	0.225708
524.257174	0.225598
524.619722	0.223252
524.982213	0.224104
525.344647	0.223185
525.707025	0.224305
526.069345	0.222327
526.431608	0.224470
526.793815	0.222059
527.155964	0.226225
527.518057	0.225156
527.880093	0.226037
528.242072	0.224907
528.603995	0.226696
528.965860	0.228594
529.327669	0.227331
529.689421	0.228230
530.051117	0.229196
530.412755	0.227112
530.774337	0.229241
531.135862	0.229714
531.497331	0.228972
531.858743	0.232111
532.220098	0.228466
532.581396	0.231175
532.942638	0.231702
533.303824	0.233101
533.664953	0.232398
534.026025	0.234476
534.387040	0.232433
534.747999	0.232013
535.108902	0.231015
535.469748	0.236362
535.830537	0.234029
536.191270	0.234399
536.551947	0.234002
536.912567	0.233943
537.273131	0.235742
537.633638	0.235947
537.994089	0.236416
538.354483	0.237632
538.714821	0.234490
539.075103	0.234301
539.435328	0.234874
539.795497	0.238539
540.155609	0.235527
540.515665	0.233568
540.875665	0.239265
541.235609	0.237663
541.595496	0.237809
541.955328	0.234521
542.315102	0.237305
542.674821	0.238253
543.034483	0.238269
543.394090	0.237736
543.753640	0.239588
544.113134	0.234696
544.472571	0.238263
544.831953	0.235029
545.191278	0.239210
545.550548	0.238455
545.909761	0.235503
546.268918	0.236137
546.628019	0.234588
546.987064	0.237432
547.346053	0.238962
547.704986	0.236972
548.063863	0.237138
548.422684	0.237383
548.781449	0.239256
549.140158	0.237021
549.498811	0.239769
549.857408	0.242642
550.215949	0.237514
550.574434	0.240774
550.932864	0.238919
551.291237	0.237299
551.649555	0.238761
552.007817	0.238475
552.366022	0.239733
552.724173	0.239361
553.082267	0.239902
553.440305	0.236677
553.798288	0.241034
554.156215	0.237921
554.514086	0.238450
554.871902	0.241614
555.229661	0.240847
555.587365	0.241718
555.945014	0.243805
556.302606	0.240894
556.660143	0.243462
557.017625	0.240125
557.375050	0.241973
557.732421	0.239169
558.089735	0.241064
558.446994	0.241005
558.804197	0.240359
559.161345	0.240336
559.518437	0.243721
559.875474	0.241848
560.232455	0.241022
560.589381	0.242475
560.946251	0.242478
561.303065	0.239869
561.659825	0.241231
562.016528	0.243064
562.373177	0.245717
562.729770	0.242832
563.086307	0.244534
563.442789	0.242788
563.799216	0.245547
564.155587	0.244326
564.511904	0.245722
564.868164	0.245609
565.224370	0.245664
565.580520	0.247177
565.936615	0.247444
566.292654	0.250029
566.648638	0.247470
567.004567	0.247999
567.360441	0.248919
567.716260	0.250631
568.072023	0.248337
568.427732	0.249372
568.783385	0.251573
569.138982	0.249954
569.494525	0.249407
569.850013	0.252772
570.205445	0.250996
570.560823	0.253531
570.916145	0.255632
571.271412	0.254201
571.626625	0.255681
571.981782	0.255885
572.336884	0.256717
572.691931	0.256433
573.046923	0.258092
573.401860	0.258962
573.756743	0.260970
574.111570	0.259795
574.466342	0.260430
574.821059	0.259450
575.175722	0.262404
575.530330	0.262425
575.884882	0.262322
576.239380	0.264393
576.593823	0.264842
576.948211	0.264660
577.302544	0.267711
577.656823	0.267765
578.011047	0.267483
578.365216	0.268562
578.719330	0.270512
579.073389	0.270023
579.427394	0.271479
579.781344	0.272655
580.135239	0.273726
580.489080	0.273819
580.842866	0.276971
581.196597	0.276580
581.550273	0.275468
581.903895	0.276765
582.257463	0.274737
582.610975	0.278633
582.964434	0.278031
583.317837	0.280608
583.671186	0.280862
584.024481	0.280956
584.377721	0.283660
584.730906	0.284388
585.084037	0.284065
585.437113	0.285976
585.790135	0.285493
586.143103	0.288568
586.496016	0.289494
586.848874	0.287331
587.201679	0.288007
587.554428	0.291857
587.907124	0.290808
588.259765	0.291774
588.612352	0.292618
588.964884	0.296437
589.317362	0.296206
589.669786	0.296374
590.022155	0.294705
590.374470	0.294699
590.726731	0.296724
591.078937	0.302020
591.431090	0.298333
591.783188	0.302172
592.135232	0.303709
592.487222	0.303374
592.839157	0.301945
593.191038	0.304506
593.542866	0.306435
593.894639	0.310080
594.246358	0.309008
594.598022	0.308576
594.949633	0.312425
595.301190	0.313412
595.652692	0.312688
596.004141	0.309187
596.355535	0.317137
596.706876	0.318381
597.058162	0.321265
597.409395	0.318489
597.760573	0.316783
598.111698	0.320301
598.462768	0.321106
598.813785	0.322231
599.164748	0.324230
599.515657	0.324796
599.866511	0.329193
600.217312	0.324382
600.568060	0.329755
600.918753	0.326688
601.269392	0.328321
601.619978	0.331840
601.970510	0.330275
602.320988	0.330667
602.671412	0.329189
603.021783	0.331808
603.372100	0.333588
603.722363	0.333883
604.072572	0.335511
604.422728	0.335421
604.772830	0.338590
605.122878	0.338790
605.472872	0.339433
605.822813	0.338595
606.172701	0.341806
606.522534	0.339885
606.872314	0.340690
607.222041	0.342531
607.571714	0.341422
607.921333	0.343468
608.270899	0.343522
608.620411	0.340588
608.969870	0.345791
609.319276	0.346670
609.668627	0.347227
610.017926	0.346875
610.367171	0.346425
610.716362	0.347620
611.065500	0.349243
611.414585	0.348967
611.763616	0.349657
612.112594	0.351749
612.461518	0.352211
612.810389	0.350922
613.159207	0.354106
613.507971	0.357001
613.856682	0.354599
614.205340	0.356336
614.553945	0.354825
614.902496	0.359264
615.250994	0.359126
615.599439	0.360802
615.947830	0.361526
616.296169	0.363849
616.644454	0.364886
616.992686	0.366231
617.340864	0.366178
617.688990	0.370751
618.037063	0.368933
618.385082	0.372095
618.733048	0.370949
619.080961	0.374527
619.428821	0.375257
619.776628	0.376356
620.124382	0.380229
620.472083	0.381671
620.819731	0.382003
621.167326	0.386822
621.514868	0.387455
621.862357	0.392658
622.209793	0.392875
622.557176	0.397017
622.904506	0.398781
623.251783	0.402064
623.599007	0.405765
623.946179	0.406439
624.293297	0.409790
624.640363	0.414692
624.987376	0.416650
625.334336	0.419668
625.681243	0.424040
626.028097	0.425903
626.374899	0.427977
626.721647	0.430567
627.068343	0.434300
627.414987	0.436844
627.761577	0.440042
628.108115	0.440522
628.454600	0.446508
628.801032	0.446899
629.147412	0.449195
629.493739	0.452179
629.840014	0.456153
630.186236	0.455683
630.532405	0.462195
630.878521	0.461150
631.224585	0.465611
631.570597	0.469723
631.916556	0.471276
632.262462	0.471908
632.608316	0.476286
632.954117	0.478579
633.299866	0.480541
633.645562	0.483017
633.991206	0.488277
634.336797	0.492258
634.682336	0.496092
635.027823	0.498763
635.373257	0.500336
635.718639	0.505448
636.063968	0.506085
636.409245	0.512323
636.754470	0.514333
637.099642	0.517936
637.444762	0.522764
637.789829	0.523392
638.134845	0.527873
638.479808	0.530549
638.824719	0.531686
639.169577	0.536893
639.514383	0.538372
639.859137	0.542858
640.203839	0.544088
640.548489	0.546994
640.893086	0.549528
641.237632	0.552734
641.582125	0.553030
641.926566	0.556935
642.270955	0.558489
642.615292	0.559478
642.959576	0.562112
643.303809	0.564714
643.647990	0.566126
643.992118	0.568031
644.336195	0.571879
644.680219	0.573792
645.024192	0.575176
645.368112	0.572591
645.711981	0.574151
646.055797	0.572501
646.399562	0.577022
646.743274	0.574485
647.086935	0.573293
647.430544	0.575943
647.774101	0.578235
648.117606	0.578475
648.461059	0.580918
648.804460	0.584657
649.147810	0.588255
649.491108	0.592121
649.834354	0.594920
650.177548	0.600567
650.520690	0.605805
650.863781	0.608227
651.206820	0.610153
651.549807	0.614508
651.892742	0.619844
652.235626	0.620723
652.578458	0.623956
652.921238	0.629252
653.263967	0.630173
653.606644	0.633205
653.949269	0.636369
654.291843	0.639094
654.634365	0.640358
654.976836	0.644857
655.319255	0.645349
655.661622	0.648951
656.003938	0.650759
656.346203	0.653476
656.688416	0.655431
657.030577	0.657785
657.372687	0.661619
657.714746	0.662949
658.056753	0.662986
658.398708	0.668228
658.740612	0.669518
659.082465	0.670042
659.424266	0.671480
659.766016	0.672861
660.107715	0.677280
660.449362	0.677814
660.790958	0.680627
661.132503	0.683167
661.473996	0.683396
661.815438	0.685618
662.156829	0.687696
662.498168	0.690073
662.839456	0.690933
663.180693	0.692576
663.521879	0.693665
663.863013	0.696125
664.204097	0.697757
664.545129	0.697220
664.886110	0.700574
665.227040	0.700355
665.567918	0.702087
665.908746	0.703733
666.249522	0.704422
666.590248	0.706255
666.930922	0.707243
667.271545	0.709424
667.612118	0.710749
667.952639	0.712778
668.293109	0.715329
668.633528	0.716887
668.973896	0.718721
669.314213	0.720394
669.654480	0.724060
669.994695	0.724505
670.334859	0.726749
670.674973	0.729793
671.015035	0.729750
671.355047	0.732229
671.695008	0.734304
672.034918	0.736577
672.374777	0.737884
672.714585	0.740277
673.054342	0.741724
673.394049	0.743087
673.733705	0.743795
674.073310	0.747610
674.412864	0.748176
674.752368	0.750366
675.091820	0.753507
675.431223	0.755827
675.770574	0.757652
676.109875	0.760243
676.449125	0.762668
676.788324	0.764897
677.127473	0.768852
677.466571	0.770648
677.805619	0.772931
678.144616	0.775578
678.483562	0.777730
678.822458	0.779976
679.161303	0.781657
679.500098	0.783232
679.838842	0.785183
680.177535	0.786114
680.516179	0.786728
680.854771	0.788192
681.193314	0.786625
681.531805	0.783816
681.870247	0.781461
682.208638	0.778747
682.546978	0.779424
682.885268	0.783055
683.223508	0.787135
683.561697	0.790196
683.899836	0.792303
684.237925	0.794882
684.575963	0.796901
684.913951	0.799322
685.251889	0.800247
685.589776	0.799353
685.927614	0.801420
686.265401	0.801449
686.603137	0.801496
686.940824	0.801038
687.278460	0.802392
687.616046	0.802935
687.953582	0.800797
688.291068	0.802330
688.628504	0.802140
688.965889	0.803606
689.303224	0.805323
689.640510	0.809595
689.977745	0.812593
690.314930	0.818070
690.652065	0.820615
690.989150	0.824514
691.326185	0.830231
691.663170	0.832836
692.000105	0.837628
692.336990	0.840892
692.673825	0.843881
693.010610	0.845987
693.347345	0.849305
693.684030	0.852548
694.020665	0.854916
694.357251	0.857881
694.693786	0.858789
695.030272	0.860442
695.366707	0.863281
695.703093	0.865241
696.039429	0.865159
696.375716	0.868062
696.711952	0.869170
697.048139	0.870973
697.384276	0.872090
697.720363	0.872626
698.056400	0.872535
698.392388	0.874368
698.728326	0.876414
699.064214	0.878855
699.400053	0.879919
699.735842	0.883188
700.071581	0.884229
700.407270	0.886084
700.742910	0.888691
701.078501	0.889805
701.414042	0.892367
701.749533	0.893098
702.084974	0.896776
702.420366	0.897334
702.755709	0.899050
703.091002	0.901948
703.426246	0.903139
703.761440	0.903095
704.096584	0.903900
704.431679	0.905093
704.766725	0.907064
705.101721	0.908649
705.436668	0.908236
705.771565	0.909737
706.106413	0.909558
706.441212	0.910512
706.775961	0.911332
707.110661	0.910935
707.445311	0.911049
707.779913	0.913031
708.114465	0.912135
708.448967	0.912421
708.783421	0.910304
709.117825	0.908896
709.452180	0.909228
709.786485	0.908702
710.120742	0.905345
710.454949	0.905421
710.789107	0.905075
711.123216	0.901885
711.457275	0.902041
711.791286	0.901430
712.125247	0.902661
712.459159	0.902253
712.793023	0.901615
713.126837	0.905713
713.460602	0.905770
713.794318	0.907123
714.127985	0.909398
714.461602	0.913057
714.795171	0.914617
715.128691	0.918590
715.462162	0.920987
715.795584	0.924113
716.128957	0.925672
716.462281	0.927186
716.795556	0.927778
717.128782	0.930703
717.461960	0.933377
717.795088	0.933434
718.128167	0.935981
718.461198	0.937961
718.794180	0.939077
719.127113	0.939867
719.459997	0.940577
719.792833	0.942110
720.125619	0.942363
720.458357	0.944816
720.791046	0.945031
721.123686	0.945536
721.456278	0.947579
721.788821	0.947496
722.121315	0.948733
722.453761	0.949967
722.786158	0.949059
723.118506	0.949682
723.450805	0.950224
723.783056	0.950770
724.115259	0.950935
724.447412	0.951983
724.779518	0.951002
725.111574	0.951216
725.443582	0.951095
725.775542	0.952456
726.107453	0.951307
726.439315	0.951990
726.771129	0.950339
727.102895	0.949379
727.434612	0.948703
727.766281	0.948307
728.097901	0.948445
728.429473	0.948982
728.760996	0.948146
729.092471	0.950175
729.423897	0.950959
729.755276	0.951224
730.086606	0.951999
730.417887	0.951402
730.749120	0.951009
731.080305	0.949803
731.411442	0.949376
731.742530	0.950623
732.073570	0.951251
732.404562	0.950712
732.735506	0.951083
733.066401	0.951615
733.397249	0.953499
733.728048	0.956372
734.058798	0.958713
734.389501	0.961305
734.720156	0.962237
735.050762	0.964358
735.381320	0.964822
735.711831	0.964185
736.042293	0.966044
736.372707	0.967656
736.703073	0.966038
737.033391	0.967553
737.363661	0.967416
737.693883	0.966423
738.024056	0.965959
738.354182	0.966442
738.684260	0.964373
739.014290	0.964960
739.344272	0.963861
739.674207	0.964389
740.004093	0.963982
740.333931	0.963771
740.663722	0.963973
740.993464	0.964504
741.323159	0.965591
741.652806	0.965639
741.982405	0.967698
742.311956	0.968494
742.641460	0.968514
742.970915	0.969244
743.300323	0.970389
743.629683	0.971395
743.958996	0.972815
744.288260	0.972433
744.617477	0.974200
744.946647	0.973761
745.275768	0.976108
745.604842	0.975111
745.933869	0.976592
746.262847	0.978559
746.591778	0.976189
746.920662	0.976778
747.249498	0.978097
747.578286	0.978889
747.907027	0.976907
748.235720	0.977131
748.564365	0.977485
748.892963	0.976409
749.221514	0.977060
749.550017	0.976887
749.878473	0.977419
750.206881	0.978469
750.535242	0.978915
750.863555	0.977812
751.191821	0.979108
751.520039	0.978904
751.848210	0.977578
752.176334	0.978525
752.504411	0.979445
752.832440	0.980289
753.160421	0.980105
753.488356	0.981303
753.816243	0.980714
754.144082	0.979595
754.471875	0.981062
754.799620	0.982022
755.127318	0.980534
755.454969	0.981680
755.782572	0.983288
756.110129	0.981004
756.437638	0.983457
756.765100	0.982184
757.092515	0.981759
757.419882	0.982100
757.747203	0.981259
758.074477	0.982181
758.401703	0.982779
758.728882	0.981983
759.056014	0.981048
759.383099	0.981497
759.710138	0.980722
760.037129	0.980727
760.364073	0.981762
760.690970	0.981094
761.017820	0.980048
761.344623	0.981923
761.671379	0.982018
761.998088	0.981298
762.324751	0.981170
762.651366	0.977748
762.977935	0.972706
763.304456	0.969269
763.630931	0.966793
763.957359	0.967873
764.283740	0.972294
764.610074	0.974527
764.936362	0.976938
765.262602	0.979509
765.588796	0.981260
765.914943	0.981863
766.241044	0.983388
766.567097	0.984514
766.893104	0.985203
767.219064	0.985393
767.544978	0.986464
767.870845	0.986652
768.196665	0.986756
768.522438	0.988137
768.848165	0.987871
769.173846	0.987604
769.499479	0.988481
769.825066	0.989715
770.150607	0.990618
770.476101	0.989267
770.801548	0.989701
771.126949	0.990432
771.452303	0.989938
771.777611	0.990394
772.102872	0.989723
772.428087	0.989223
772.753256	0.990826
773.078378	0.991319
773.403453	0.990047
773.728482	0.993304
774.053465	0.990691
774.378401	0.991938
774.703291	0.993241
775.028135	0.992702
775.352932	0.990828
775.677683	0.992532
776.002388	0.992653
776.327046	0.990793
776.651658	0.994042
776.976224	0.992284
777.300743	0.991722
777.625216	0.993305
777.949643	0.993483
778.274024	0.992048
778.598359	0.993029
778.922647	0.992534
779.246889	0.993509
779.571086	0.993196
779.895236	0.992972
780.219339	0.994630
780.543397	0.993014
780.867409	0.993768
781.191374	0.992889
781.515294	0.993540
781.839167	0.993198
782.162995	0.994155
782.486776	0.993566
782.810511	0.993854
783.134201	0.994270
783.457844	0.994472
783.781441	0.994062
784.104993	0.993477
784.428498	0.994315
784.751958	0.995082
785.075372	0.994923
785.398739	0.994192
785.722061	0.993453
786.045337	0.994620
786.368568	0.994006
786.691752	0.994105
787.014891	0.994113
787.337983	0.992788
787.661030	0.992501
787.984031	0.992407
788.306987	0.991413
788.629897	0.990474
788.952760	0.991944
789.275579	0.992496
789.598351	0.991830
789.921078	0.994196
790.243759	0.993301
790.566395	0.992679
790.888984	0.994068
791.211529	0.994229
791.534027	0.995134
791.856480	0.994782
792.178888	0.994799
792.501249	0.994198
792.823566	0.995990
793.145836	0.994386
793.468062	0.995231
793.790241	0.995436
794.112375	0.994054
794.434464	0.995569
794.756507	0.995197
795.078505	0.995231
795.400457	0.995104
795.722364	0.993499
796.044226	0.993614
796.366042	0.992326
796.687812	0.992823
797.009538	0.993127
797.331218	0.993842
797.652852	0.994616
797.974442	0.992772
798.295986	0.994409
798.617484	0.993055
798.938938	0.994840
799.260346	0.993752
799.581709	0.994531
799.903026	0.995284
800.224299	0.993964
800.545526	0.994004
800.866708	0.994282
801.187845	0.995290
801.508936	0.995576
801.829983	0.994657
802.150984	0.995040
802.471940	0.996378
802.792851	0.994975
803.113717	0.995955
803.434538	0.995678
803.755314	0.996477
804.076045	0.996068
804.396731	0.996396
804.717372	0.995245
805.037967	0.996139
805.358518	0.995602
805.679024	0.994593
805.999485	0.996283
806.319901	0.996442
806.640272	0.996305
806.960598	0.995514
807.280879	0.996254
807.601115	0.995630
807.921306	0.996694
808.241453	0.993946
808.561554	0.995646
808.881611	0.995526
809.201623	0.996365
809.521590	0.995344
809.841513	0.996557
810.161390	0.995003
810.481223	0.995321
810.801011	0.995627
811.120755	0.997017
811.440453	0.995059
811.760107	0.995430
812.079716	0.996098
812.399281	0.995523
812.718801	0.995457
813.038276	0.994841
813.357707	0.996544
813.677093	0.997043
813.996434	0.996064
814.315731	0.997117
814.634983	0.995920
814.954191	0.997325
815.273354	0.996959
815.592473	0.995918
815.911547	0.996062
816.230577	0.995045
816.549562	0.995397
816.868502	0.994210
817.187399	0.995355
817.506250	0.995188
817.825058	0.995300
818.143821	0.994987
818.462539	0.994801
818.781213	0.994438
819.099843	0.994450
819.418429	0.992547
819.736970	0.992170
820.055466	0.990089
820.373919	0.990135
820.692327	0.987498
821.010691	0.985692
821.329011	0.980496
821.647286	0.974677
821.965517	0.967910
822.283704	0.961643
822.601847	0.958963
822.919945	0.960677
823.237999	0.964862
823.556010	0.967466
823.873976	0.971109
824.191897	0.974983
824.509775	0.978490
824.827609	0.980942
825.145398	0.982455
825.463144	0.982134
825.780845	0.982535
826.098502	0.982635
826.416116	0.981754
826.733685	0.977472
827.051210	0.974588
827.368692	0.975559
827.686129	0.977474
828.003522	0.981718
828.320872	0.982537
828.638177	0.985897
828.955439	0.988498
829.272656	0.989725
829.589830	0.990800
829.906960	0.992556
830.224046	0.993128
830.541088	0.993451
830.858086	0.993606
831.175041	0.994624
831.491952	0.993291
831.808819	0.993741
832.125642	0.993598
832.442421	0.994345
832.759157	0.992625
833.075849	0.989564
833.392497	0.987078
833.709101	0.983697
834.025662	0.983001
834.342179	0.983803
834.658653	0.986789
834.975083	0.988685
835.291469	0.989296
835.607811	0.992359
835.924110	0.992792
836.240366	0.995499
836.556578	0.994875
836.872746	0.995932
837.188871	0.995546
837.504952	0.995255
837.820990	0.996110
838.136984	0.995900
838.452935	0.997327
838.768842	0.997012
839.084706	0.996641
839.400526	0.995399
839.716303	0.993091
840.032037	0.992030
840.347727	0.990312
840.663373	0.992436
840.978977	0.992648
841.294537	0.994485
841.610054	0.996330
841.925527	0.996671
842.240957	0.997394
842.556344	0.997246
842.871687	0.996911
843.186987	0.999001
843.502244	0.998391
843.817458	0.997231
844.132629	0.997356
844.447756	0.999100
844.762840	0.999186
845.077881	0.999464
845.392879	0.997203
845.707833	0.998458
846.022745	0.999119
846.337613	0.999265
846.652438	0.998857
846.967221	0.998806
847.281960	0.999976
847.596656	0.999761
847.911309	0.999131
848.225919	0.997501
848.540485	0.999740
848.855009	0.999785
849.169490	0.999572
849.483928	0.999720
849.798323	0.998386
850.112675	1.000971
850.426984	0.998791
850.741251	0.999396
851.055474	0.998531
851.369654	0.999583
851.683792	0.998630
851.997887	0.998883
852.311938	0.999316
852.625947	0.998260
852.939914	0.998651
853.253837	1.000514
853.567718	0.999842
853.881555	0.999501
854.195350	0.998563
854.509103	0.998627
854.822812	0.999456
855.136479	0.999755
855.450103	0.999515
855.763685	0.998079
856.077224	0.999293
856.390720	0.999225
856.704173	1.000741
857.017584	1.000262
857.330953	0.999793
857.644278	0.999622
857.957561	0.998029
858.270802	0.999369
858.584000	0.997947
858.897155	0.998642
859.210268	0.998829
859.523339	0.999515
859.836367	0.998198
860.149352	0.998374
860.462295	0.998841
860.775195	0.998945
861.088054	0.998323
861.400869	0.998397
861.713642	0.998779
862.026373	0.998850
862.339062	1.000293
862.651708	0.999194
862.964312	0.998540
863.276873	0.998533
863.589392	0.997823
863.901869	0.998228
864.214303	0.999442
864.526696	0.998598
864.839045	0.999070
865.151353	0.998486
865.463619	0.998093
865.775842	0.998690
866.088023	1.000248
866.400162	0.998982
866.712258	0.998924
867.024313	0.998659
867.336325	0.999419
867.648296	0.998948
867.960224	0.998845
868.272110	0.998796
868.583954	0.998199
868.895755	0.999510
869.207515	0.998285
869.519233	0.999393
869.830909	0.997697
870.142542	0.995818
870.454134	0.997850
870.765684	0.997929
871.077191	0.998307
871.388657	0.997935
871.700081	0.998709
872.011463	0.999414
872.322803	0.997383
872.634101	0.997838
872.945357	0.997305
873.256571	0.996804
873.567744	0.997405
873.878874	0.997653
874.189963	0.996511
874.501010	0.998745
874.812015	0.997476
875.122979	0.997928
875.433900	0.995966
875.744780	0.998584
876.055618	0.995766
876.366415	0.996545
876.677169	0.997530
876.987882	0.997156
877.298554	0.998193
877.609183	0.996713
877.919771	0.997298
878.230317	0.996112
878.540822	0.995320
878.851285	0.995081
879.161707	0.994759
879.472087	0.995480
879.782425	0.991420
880.092722	0.988783
880.402977	0.985646
880.713191	0.979637
881.023363	0.973557
881.333494	0.970653
881.643583	0.970643
881.953631	0.970147
882.263637	0.969680
882.573602	0.971380
882.883526	0.975502
883.193408	0.977766
883.503248	0.979879
883.813048	0.981576
884.122806	0.985339
884.432522	0.987402
884.742197	0.989396
885.051831	0.989908
885.361424	0.991810
885.670975	0.993116
885.980485	0.992949
886.289954	0.992089
886.599382	0.992902
886.908768	0.994270
887.218113	0.994332
887.527417	0.995289
887.836680	0.996376
888.145901	0.996435
888.455082	0.996897
888.764221	0.996924
889.073319	0.996841
889.382376	0.997975
889.691392	0.996583
890.000366	0.997920
890.309300	0.997106
890.618193	0.997589
890.927044	0.995800
891.235855	0.996587
891.544625	0.996907
891.853353	0.996263
892.162041	0.996577
892.470687	0.996642
892.779293	0.995165
893.087858	0.994306
893.396381	0.993443
893.704864	0.991917
894.013306	0.990929
894.321707	0.989194
894.630068	0.985931
894.938387	0.984275
895.246665	0.985229
895.554903	0.985521
895.863100	0.989172
896.171256	0.989451
896.479371	0.990652
896.787446	0.992030
897.095480	0.992368
897.403473	0.993843
897.711425	0.994097
898.019336	0.993935
898.327207	0.995592
898.635038	0.995600
898.942827	0.996134
899.250576	0.995979
899.558284	0.996462
899.865952	0.996237
900.173579	0.997269
900.481165	0.996474
900.788711	0.996652
901.096216	0.997567
901.403681	0.997711
901.711105	0.997505
902.018489	0.997189
902.325832	0.998276
902.633135	0.996335
902.940397	0.996873
903.247619	0.995788
903.554800	0.993013
903.861941	0.988709
904.169041	0.983991
904.476101	0.982414
904.783121	0.980948
905.090100	0.984040
905.397039	0.985600
905.703938	0.988163
906.010796	0.989653
906.317614	0.991817
906.624391	0.992834
906.931129	0.995101
907.237826	0.996100
907.544483	0.996437
907.851099	0.995762
908.157675	0.996098
908.464211	0.997371
908.770707	0.997238
909.077163	0.997018
909.383578	0.998439
909.689954	0.996837
909.996289	0.998579
910.302584	0.998278
910.608839	0.999441
910.915054	0.998409
911.221229	0.999151
911.527363	0.996770
911.833458	0.998060
912.139513	0.998852
912.445527	0.997378
912.751502	0.998099
913.057436	0.997072
913.363331	0.998512
913.669186	0.998081
913.975000	0.996346
914.280775	0.996617
914.586510	0.994627
914.892205	0.991850
915.197859	0.990832
915.503475	0.988327
915.809050	0.985834
916.114585	0.982287
916.420081	0.981968
916.725536	0.982335
917.030952	0.984334
917.336328	0.985532
917.641665	0.986824
917.946961	0.988495
918.252218	0.990735
918.557435	0.991239
918.862612	0.992869
919.167750	0.993808
919.472848	0.994784
919.777906	0.995559
920.082925	0.996487
920.387904	0.996120
920.692843	0.996290
920.997743	0.995297
921.302603	0.997116
921.607423	0.995545
921.912204	0.998179
922.216946	0.998981
922.521647	0.998608
922.826310	0.997374
923.130932	0.998556
923.435516	0.997568
923.740059	0.997408
924.044564	0.997621
924.349028	0.997615
924.653454	0.998800
924.957840	0.998826
925.262186	0.999622
925.566493	0.998315
925.870761	0.998924
926.174989	0.998341
926.479178	1.000260
926.783328	0.999532
927.087438	0.999281
927.391509	0.999301
927.695541	0.999400
927.999533	1.000241
928.303486	0.999543
928.607400	1.000086
928.911275	0.999701
929.215110	1.001536
929.518906	1.000541
929.822663	1.001031
930.126381	1.000542
930.430060	0.999305
930.733699	1.000785
931.037299	0.999779
931.340861	1.001639
931.644383	0.999251
931.947866	1.000656
932.251309	1.000239
932.554714	0.999552
932.858080	1.000335
933.161407	0.999579
933.464694	1.000471
933.767943	1.000043
934.071153	1.000267
934.374323	1.000967
934.677455	0.999955
934.980548	0.999766
935.283602	1.000051
935.586617	0.999611
935.889593	1.000914
936.192530	1.001615
936.495428	1.000010
936.798287	0.999710
937.101108	0.999636
937.403890	0.999398
937.706632	1.000862
938.009336	1.000121
938.312002	0.998301
938.614628	1.000387
938.917216	0.998875
939.219765	0.997909
939.522275	0.999428
939.824747	0.999547
940.127179	0.999486
940.429573	0.999517
940.731929	0.997792
941.034246	0.998346
941.336524	0.997823
941.638763	0.998457
941.940964	0.998311
942.243126	0.999159
942.545250	0.999994
942.847335	0.999791
943.149381	0.999663
943.451389	0.999381
943.753359	1.000223
944.055290	1.001295
944.357182	0.999831
944.659036	1.000532
944.960851	1.000022
945.262628	0.999471
945.564367	0.999638
945.866067	1.000254
946.167729	1.000108
946.469352	0.999930
946.770937	0.998374
947.072484	1.000323
947.373992	0.999297
947.675462	0.998763
947.976893	1.000191
948.278286	1.001144
948.579641	1.001367
948.880958	0.999931
949.182236	1.000087
949.483476	1.001065
949.784678	1.000703
950.085841	0.998838
950.386967	1.000169
950.688054	1.000226
950.989103	0.999289
951.290114	0.999787
951.591087	0.999786
951.892021	0.999187
952.192917	1.000210
952.493776	0.999848
952.794596	0.999874
953.095378	1.000016
953.396122	0.999710
953.696828	0.999759
953.997496	1.000219
954.298126	1.001202
954.598718	0.999449
954.899272	1.000412
955.199788	0.999064
955.500266	1.000696
955.800706	1.000554
956.101108	1.000552
956.401472	1.001753
956.701798	1.000831
957.002087	1.001820
957.302337	1.000239
957.602550	1.001122
957.902724	0.999914
958.202861	1.001209
958.502960	0.999729
958.803022	1.002691
959.103045	1.000457
959.403031	1.002869
959.702979	1.001800
960.002889	1.000425
960.302762	1.001098
960.602596	1.001795
960.902393	1.002578
961.202153	1.002119
961.501875	1.001540
961.801559	1.001296
962.101205	1.000479
962.400814	1.002096
962.700385	1.002219
962.999918	1.001929
963.299414	1.001007
963.598873	1.001585
963.898293	1.000782
964.197677	1.000999
964.497022	1.002285
964.796331	1.001900
965.095601	1.001961
965.394835	1.000101
965.694030	1.003078
965.993189	1.000878
966.292309	1.002038
966.591393	0.998942
966.890439	1.002567
967.189447	1.001143
967.488419	1.002349
967.787353	1.001406
968.086249	1.001060
968.385108	1.001224
968.683930	1.002630
968.982714	1.000876
969.281462	1.002643
969.580172	1.001449
969.878844	1.002619
970.177480	1.002094
970.476078	1.002230
970.774639	1.001950
971.073162	1.001560
971.371649	1.001904
971.670098	1.002034
971.968510	1.002585
972.266885	1.001412
972.565223	1.000894
972.863524	1.000325
973.161788	1.000811
973.460014	1.002334
973.758204	1.001265
974.056356	1.001356
974.354471	1.002484
974.652550	1.002417
974.950591	0.999931
975.248595	1.001038
975.546563	1.001845
975.844493	1.001684
976.142386	1.001370
976.440243	1.002509
976.738062	1.002228
977.035845	1.001201
977.333590	1.002463
977.631299	1.001193
977.928971	1.001732
978.226606	1.001726
978.524204	1.001161
978.821765	1.002297
979.119290	1.002228
979.416777	1.000543
979.714228	1.001621
980.011642	1.001905
980.309020	1.001313
980.606360	1.002010
980.903664	1.001122
981.200931	1.000771
981.498162	1.002035
981.795356	1.000904
982.092513	1.001087
982.389633	1.002026
982.686717	0.999994
982.983764	1.000787
983.280775	1.000602
983.577749	1.001277
983.874686	1.000058
984.171587	1.000432
984.468451	1.001226
984.765279	1.002788
985.062070	1.002146
985.358824	1.001816
985.655543	1.002172
985.952224	1.002648
986.248869	1.001503
986.545478	1.002962
986.842050	1.000598
987.138586	1.001083
987.435086	1.000676
987.731549	1.002611
988.027975	1.001408
988.324366	1.000977
988.620719	1.002383
988.917037	1.001811
989.213318	1.002041
989.509563	1.001140
989.805772	1.002982
990.101944	1.002768
990.398080	1.002578
990.694180	1.002449
990.990244	1.002077
991.286271	1.000236
991.582262	1.003401
991.878217	1.001594
992.174136	1.002102
992.470019	1.001496
992.765865	1.003144
993.061676	1.003485
993.357450	1.003009
993.653188	1.003102
993.948890	1.002756
994.244556	1.001015
994.540186	1.002409
994.835780	1.000252
995.131337	1.002645
995.426859	1.001530
995.722345	1.001888
996.017795	1.000856
996.313208	1.002179
996.608586	1.001815
996.903928	1.001741
997.199234	1.002556
997.494504	1.003350
997.789738	1.001639
998.084936	1.002165
998.380099	1.000162
998.675225	1.002563
998.970316	1.002714
999.265371	1.003260
999.560390	1.001799
999.855373	1.002853
1000.150320	1.002889
1000.445232	1.002227
1000.740108	1.002175
1001.034948	1.001924
1001.329752	1.002999
1001.624521	1.001651
1001.919254	1.001882
1002.213951	1.002366
1002.508613	1.002045
1002.803239	1.002676
1003.097829	1.002086
1003.392384	1.002103
1003.686903	1.002477
1003.981386	1.002791
1004.275834	1.004603
1004.570246	1.001526
1004.864623	1.004059
1005.158964	1.002730
1005.453270	1.002248
1005.747540	1.001528
1006.041775	1.002933
1006.335974	1.002523
1006.630138	1.003143
1006.924266	1.001068
1007.218359	1.001963
1007.512416	1.003993
1007.806438	1.002017
1008.100425	1.002456
1008.394376	1.003321
1008.688292	1.002064
1008.982172	1.002970
1009.276017	1.003450
1009.569827	1.003712
1009.863602	1.001520
1010.157341	1.003169
1010.451045	1.002575
1010.744714	1.004825
1011.038347	1.002969
1011.331945	1.001929
1011.625508	1.002722
1011.919036	1.003381
1012.212528	1.003036
1012.505986	1.002549
1012.799408	1.003438
1013.092795	1.003358
1013.386147	1.001468
1013.679464	1.002954
1013.972745	1.002787
1014.265992	1.002233
1014.559204	1.002526
1014.852380	1.003573
1015.145521	1.001874
1015.438628	1.003436
1015.731699	1.002594
1016.024736	1.002514
1016.317737	1.003182
1016.610703	1.003197
1016.903635	1.003674
1017.196531	1.003145
1017.489393	1.003060
1017.782219	1.001297
1018.075011	1.003687
1018.367768	1.002516
1018.660490	1.003048
1018.953177	1.003048
1019.245829	1.003048
