Dividing Wavelength (nm)	Counts (n)	Blue Motor Position (mm): 25.800000	Red Motor Position (mm): 0.000000	
326.493990	1.001352
326.888308	1.001352
327.282561	1.001352
327.676750	1.001200
328.070874	1.002160
328.464933	1.002193
328.858929	1.001838
329.252859	1.001122
329.646726	1.000953
330.040528	1.001272
330.434265	1.000821
330.827938	1.000224
331.221547	1.001643
331.615091	1.002156
332.008571	1.001694
332.401986	1.000580
332.795338	1.000962
333.188625	1.001852
333.581847	1.001347
333.975006	1.000758
334.368100	1.001899
334.761129	1.000877
335.154095	1.001694
335.546996	0.999641
335.939833	0.998433
336.332606	0.999625
336.725315	0.997789
337.117960	1.001551
337.510540	0.999119
337.903056	0.999927
338.295508	1.000742
338.687896	1.000828
339.080220	1.001411
339.472480	0.999160
339.864676	1.000118
340.256807	0.999005
340.648875	1.000556
341.040879	0.999096
341.432818	1.000666
341.824694	0.999134
342.216506	1.000041
342.608253	0.999358
342.999937	1.000387
343.391557	0.999553
343.783113	1.001035
344.174605	0.999752
344.566033	1.000015
344.957397	1.000151
345.348697	1.000984
345.739934	1.000075
346.131106	0.999553
346.522215	0.999565
346.913260	1.000228
347.304241	0.998512
347.695159	1.000276
348.086012	0.998767
348.476802	0.998648
348.867528	0.999304
349.258191	0.999359
349.648789	1.000135
350.039324	0.998806
350.429796	0.999637
350.820203	0.998509
351.210548	0.999693
351.600828	0.998792
351.991045	0.998669
352.381198	0.999598
352.771288	0.999149
353.161314	0.999342
353.551276	0.998800
353.941175	0.997240
354.331010	0.999245
354.720782	0.998595
355.110490	0.999580
355.500135	0.999214
355.889717	0.997905
356.279235	0.998363
356.668689	0.999347
357.058080	0.999113
357.447408	0.997693
357.836672	0.999017
358.225873	0.998594
358.615010	0.997946
359.004084	0.997643
359.393095	0.998546
359.782043	0.998069
360.170927	0.997709
360.559748	0.997920
360.948505	0.997213
361.337199	0.997825
361.725830	0.997940
362.114398	0.997488
362.502903	0.997630
362.891344	0.996610
363.279722	0.996991
363.668037	0.997563
364.056289	0.996682
364.444478	0.999696
364.832603	0.997658
365.220665	0.997816
365.608665	0.997287
365.996601	0.997181
366.384474	0.996459
366.772284	0.996783
367.160031	0.996258
367.547715	0.995770
367.935336	0.995795
368.322893	0.994862
368.710388	0.992235
369.097820	0.991934
369.485189	0.990000
369.872495	0.987931
370.259738	0.985143
370.646918	0.981617
371.034035	0.980816
371.421090	0.976233
371.808081	0.971126
372.195010	0.970516
372.581875	0.965148
372.968678	0.960223
373.355418	0.955513
373.742096	0.948797
374.128710	0.943820
374.515262	0.940339
374.901751	0.934185
375.288177	0.929699
375.674540	0.923043
376.060841	0.916492
376.447079	0.909769
376.833254	0.903400
377.219367	0.897638
377.605417	0.886609
377.991404	0.883868
378.377329	0.877657
378.763191	0.870487
379.148991	0.861552
379.534727	0.853705
379.920402	0.846754
380.306013	0.842732
380.691563	0.829612
381.077049	0.823947
381.462474	0.819808
381.847835	0.808314
382.233134	0.802860
382.618371	0.803244
383.003545	0.785809
383.388657	0.783898
383.773706	0.776328
384.158693	0.772281
384.543618	0.767356
384.928480	0.758166
385.313280	0.748219
385.698017	0.748020
386.082692	0.735915
386.467305	0.734488
386.851856	0.729188
387.236344	0.724047
387.620770	0.718327
388.005133	0.712729
388.389435	0.706705
388.773674	0.704799
389.157851	0.696349
389.541965	0.694264
389.926018	0.700553
390.310008	0.686433
390.693936	0.684030
391.077802	0.676301
391.461606	0.677361
391.845348	0.666813
392.229027	0.666766
392.612645	0.664117
392.996200	0.651571
393.379694	0.644863
393.763125	0.634941
394.146494	0.640102
394.529801	0.629854
394.913047	0.622659
395.296230	0.627544
395.679351	0.619270
396.062410	0.616362
396.445408	0.618591
396.828343	0.614133
397.211217	0.609737
397.594028	0.622371
397.976778	0.612380
398.359466	0.608618
398.742092	0.604022
399.124656	0.615720
399.507158	0.603623
399.889598	0.601219
400.271977	0.591749
400.654294	0.595693
401.036549	0.595579
401.418742	0.599924
401.800874	0.585093
402.182944	0.582324
402.564952	0.574186
402.946898	0.576403
403.328783	0.576903
403.710606	0.587772
404.092367	0.563001
404.474067	0.567624
404.855705	0.565847
405.237282	0.574869
405.618797	0.561573
406.000250	0.557069
406.381642	0.547113
406.762972	0.552789
407.144240	0.551697
407.525447	0.551135
407.906593	0.543843
408.287677	0.539302
408.668700	0.547719
409.049661	0.541837
409.430560	0.537128
409.811399	0.545515
410.192176	0.526675
410.572891	0.534321
410.953545	0.521935
411.334138	0.535557
411.714669	0.527651
412.095139	0.540271
412.475547	0.524668
412.855894	0.526786
413.236180	0.525795
413.616405	0.530582
413.996568	0.521144
414.376670	0.527100
414.756711	0.532764
415.136691	0.529132
415.516609	0.521011
415.896466	0.517021
416.276262	0.512774
416.655997	0.515249
417.035670	0.496786
417.415283	0.487491
417.794834	0.492747
418.174324	0.498301
418.553753	0.507848
418.933121	0.489686
419.312428	0.483772
419.691674	0.489349
420.070859	0.477019
420.449983	0.485583
420.829045	0.475005
421.208047	0.483658
421.586988	0.476987
421.965867	0.475673
422.344686	0.464476
422.723444	0.477588
423.102141	0.494752
423.480777	0.466520
423.859352	0.487547
424.237866	0.464793
424.616319	0.465646
424.994712	0.456711
425.373044	0.467083
425.751314	0.455355
426.129524	0.471575
426.507673	0.454611
426.885762	0.448336
427.263789	0.454013
427.641756	0.463482
428.019662	0.453507
428.397508	0.453772
428.775292	0.457543
429.153016	0.449133
429.530679	0.455678
429.908282	0.448611
430.285824	0.459135
430.663305	0.436911
431.040726	0.458511
431.418086	0.458351
431.795385	0.449943
432.172624	0.449602
432.549802	0.449879
432.926920	0.448328
433.303977	0.448455
433.680974	0.445549
434.057910	0.443855
434.434786	0.443126
434.811601	0.446393
435.188355	0.428238
435.565050	0.438422
435.941683	0.439310
436.318257	0.423089
436.694770	0.423969
437.071222	0.422493
437.447614	0.426445
437.823946	0.432977
438.200218	0.422654
438.576429	0.432339
438.952580	0.425224
439.328670	0.421804
439.704700	0.428006
440.080670	0.429808
440.456580	0.411277
440.832429	0.419021
441.208218	0.430538
441.583947	0.419215
441.959616	0.418339
442.335224	0.424480
442.710773	0.415322
443.086261	0.413044
443.461689	0.427870
443.837057	0.417285
444.212365	0.407883
444.587612	0.414954
444.962800	0.405397
445.337927	0.406795
445.712995	0.433306
446.088002	0.395285
446.462949	0.406661
446.837837	0.412324
447.212664	0.400861
447.587431	0.393131
447.962139	0.364469
448.336786	0.324279
448.711374	0.335317
449.085901	0.380123
449.460369	0.384623
449.834776	0.389072
450.209124	0.369828
450.583412	0.364389
450.957640	0.357783
451.331808	0.370870
451.705917	0.395108
452.079965	0.400464
452.453954	0.390270
452.827883	0.398011
453.201752	0.394499
453.575562	0.407216
453.949311	0.398221
454.323001	0.405346
454.696632	0.403172
455.070202	0.397834
455.443713	0.392614
455.817164	0.389743
456.190556	0.387623
456.563888	0.387417
456.937160	0.386960
457.310373	0.405598
457.683526	0.407184
458.056619	0.415575
458.429653	0.418999
458.802628	0.424812
459.175542	0.422678
459.548398	0.410122
459.921194	0.407253
460.293930	0.411417
460.666607	0.396403
461.039224	0.390897
461.411782	0.390468
461.784280	0.393244
462.156719	0.400735
462.529099	0.408452
462.901419	0.426802
463.273680	0.434629
463.645882	0.438059
464.018024	0.449506
464.390106	0.447489
464.762130	0.440581
465.134094	0.434418
465.505999	0.417972
465.877845	0.401939
466.249631	0.395637
466.621358	0.405927
466.993026	0.423338
467.364634	0.433212
467.736184	0.447035
468.107674	0.460814
468.479105	0.468051
468.850477	0.478750
469.221790	0.490945
469.593043	0.505406
469.964238	0.517017
470.335373	0.523774
470.706449	0.529579
471.077467	0.537308
471.448425	0.520307
471.819324	0.512100
472.190164	0.517753
472.560945	0.544875
472.931667	0.568515
473.302330	0.577054
473.672934	0.592820
474.043479	0.593193
474.413965	0.602058
474.784393	0.612825
475.154761	0.617455
475.525070	0.623863
475.895321	0.634357
476.265513	0.639407
476.635645	0.644262
477.005719	0.652755
477.375734	0.659042
477.745691	0.663379
478.115588	0.670177
478.485427	0.675626
478.855207	0.676148
479.224928	0.676639
479.594591	0.678128
479.964194	0.688791
480.333739	0.697253
480.703226	0.707657
481.072653	0.714641
481.442022	0.721312
481.811333	0.726254
482.180584	0.735843
482.549777	0.746698
482.918912	0.754836
483.287988	0.762373
483.657005	0.769002
484.025964	0.778574
484.394864	0.785549
484.763706	0.793351
485.132489	0.801640
485.501213	0.808843
485.869879	0.814033
486.238487	0.822150
486.607036	0.827244
486.975527	0.835717
487.343959	0.840249
487.712333	0.846003
488.080648	0.851959
488.448905	0.858053
488.817104	0.862870
489.185244	0.867779
489.553326	0.872969
489.921350	0.875238
490.289315	0.874049
490.657222	0.876389
491.025070	0.882878
491.392861	0.887739
491.760593	0.895815
492.128267	0.902277
492.495883	0.907030
492.863440	0.913087
493.230939	0.918072
493.598380	0.922315
493.965763	0.926097
494.333088	0.928725
494.700354	0.932562
495.067563	0.935464
495.434713	0.939829
495.801805	0.942197
496.168839	0.945082
496.535815	0.948056
496.902733	0.950672
497.269593	0.952911
497.636395	0.954648
498.003139	0.957815
498.369825	0.961289
498.736453	0.962136
499.103023	0.964513
499.469535	0.966044
499.835989	0.968246
500.202385	0.969896
500.568723	0.971301
500.935003	0.972786
501.301226	0.974758
501.667390	0.974354
502.033497	0.976732
502.399546	0.978088
502.765537	0.979362
503.131470	0.981055
503.497345	0.981597
503.863163	0.982962
504.228923	0.982909
504.594625	0.983841
504.960269	0.984813
505.325856	0.986431
505.691385	0.985990
506.056856	0.986356
506.422270	0.986885
506.787625	0.987257
507.152924	0.988733
507.518164	0.988337
507.883347	0.989288
508.248472	0.989338
508.613540	0.989688
508.978550	0.990280
509.343503	0.990021
509.708398	0.991830
510.073236	0.991669
510.438016	0.990568
510.802738	0.991491
511.167403	0.991579
511.532010	0.992501
511.896561	0.992386
512.261053	0.992321
512.625488	0.992545
512.989866	0.992424
513.354186	0.992141
513.718449	0.993067
514.082655	0.992180
514.446803	0.993445
514.810894	0.993743
515.174927	0.993996
515.538904	0.994341
515.902822	0.993812
516.266684	0.993998
516.630488	0.993948
516.994235	0.994081
517.357925	0.995053
517.721558	0.994145
518.085133	0.993963
518.448651	0.994752
518.812112	0.995214
519.175516	0.994783
519.538863	0.994022
519.902152	0.994902
520.265385	0.995393
520.628560	0.994049
520.991678	0.994515
521.354739	0.995562
521.717743	0.994864
522.080690	0.994544
522.443580	0.994700
522.806413	0.994398
523.169189	0.994857
523.531908	0.994270
523.894569	0.994819
524.257174	0.995283
524.619722	0.994577
524.982213	0.994822
525.344647	0.994965
525.707025	0.994911
526.069345	0.995069
526.431608	0.995528
526.793815	0.995911
527.155964	0.995530
527.518057	0.995935
527.880093	0.995814
528.242072	0.995486
528.603995	0.995722
528.965860	0.995922
529.327669	0.995889
529.689421	0.995197
530.051117	0.995602
530.412755	0.995582
530.774337	0.995235
531.135862	0.996133
531.497331	0.995951
531.858743	0.996056
532.220098	0.995030
532.581396	0.995680
532.942638	0.996414
533.303824	0.996345
533.664953	0.995834
534.026025	0.996280
534.387040	0.995885
534.747999	0.995810
535.108902	0.995369
535.469748	0.996095
535.830537	0.995729
536.191270	0.996080
536.551947	0.995284
536.912567	0.995997
537.273131	0.996282
537.633638	0.995627
537.994089	0.996425
538.354483	0.995547
538.714821	0.995646
539.075103	0.995953
539.435328	0.995771
539.795497	0.996152
540.155609	0.995691
540.515665	0.996151
540.875665	0.995891
541.235609	0.995879
541.595496	0.995181
541.955328	0.995205
542.315102	0.995671
542.674821	0.996002
543.034483	0.995677
543.394090	0.996075
543.753640	0.995808
544.113134	0.995795
544.472571	0.996737
544.831953	0.995789
545.191278	0.996127
545.550548	0.995797
545.909761	0.995834
546.268918	0.996948
546.628019	0.996513
546.987064	0.996274
547.346053	0.995072
547.704986	0.995520
548.063863	0.996100
548.422684	0.996351
548.781449	0.996112
549.140158	0.996221
549.498811	0.995667
549.857408	0.995316
550.215949	0.994892
550.574434	0.995264
550.932864	0.995785
551.291237	0.995194
551.649555	0.996502
552.007817	0.995701
552.366022	0.996136
552.724173	0.995304
553.082267	0.995128
553.440305	0.995743
553.798288	0.995343
554.156215	0.995709
554.514086	0.996333
554.871902	0.995448
555.229661	0.995514
555.587365	0.996171
555.945014	0.996657
556.302606	0.995681
556.660143	0.996395
557.017625	0.996208
557.375050	0.995364
557.732421	0.995551
558.089735	0.995113
558.446994	0.995130
558.804197	0.995464
559.161345	0.995656
559.518437	0.995587
559.875474	0.995861
560.232455	0.995775
560.589381	0.996188
560.946251	0.995931
561.303065	0.995553
561.659825	0.995253
562.016528	0.996052
562.373177	0.995793
562.729770	0.995197
563.086307	0.994930
563.442789	0.995589
563.799216	0.994878
564.155587	0.995859
564.511904	0.995320
564.868164	0.994915
565.224370	0.995356
565.580520	0.995331
565.936615	0.995699
566.292654	0.995355
566.648638	0.995706
567.004567	0.995259
567.360441	0.996295
567.716260	0.994808
568.072023	0.995081
568.427732	0.995606
568.783385	0.995344
569.138982	0.996230
569.494525	0.995237
569.850013	0.995548
570.205445	0.995513
570.560823	0.995469
570.916145	0.996000
571.271412	0.995616
571.626625	0.995684
571.981782	0.995841
572.336884	0.996157
572.691931	0.996082
573.046923	0.996731
573.401860	0.995582
573.756743	0.996274
574.111570	0.995153
574.466342	0.996330
574.821059	0.995362
575.175722	0.995940
575.530330	0.996084
575.884882	0.995352
576.239380	0.995940
576.593823	0.994852
576.948211	0.995549
577.302544	0.996136
577.656823	0.996119
578.011047	0.994345
578.365216	0.995953
578.719330	0.995579
579.073389	0.994941
579.427394	0.995979
579.781344	0.995774
580.135239	0.994503
580.489080	0.995881
580.842866	0.995760
581.196597	0.995171
581.550273	0.995940
581.903895	0.995900
582.257463	0.995811
582.610975	0.995083
582.964434	0.995607
583.317837	0.995937
583.671186	0.995564
584.024481	0.995446
584.377721	0.994775
584.730906	0.995795
585.084037	0.996672
585.437113	0.996122
585.790135	0.995857
586.143103	0.995340
586.496016	0.995747
586.848874	0.995573
587.201679	0.995788
587.554428	0.995443
587.907124	0.995538
588.259765	0.995739
588.612352	0.996344
588.964884	0.996283
589.317362	0.995688
589.669786	0.995466
590.022155	0.995337
590.374470	0.994910
590.726731	0.995445
591.078937	0.996028
591.431090	0.995985
591.783188	0.995556
592.135232	0.996350
592.487222	0.995901
592.839157	0.995006
593.191038	0.995531
593.542866	0.995204
593.894639	0.993955
594.246358	0.995559
594.598022	0.995696
594.949633	0.995642
595.301190	0.994709
595.652692	0.994922
596.004141	0.994360
596.355535	0.995146
596.706876	0.995992
597.058162	0.995098
597.409395	0.996070
597.760573	0.995327
598.111698	0.995260
598.462768	0.994679
598.813785	0.994227
599.164748	0.995384
599.515657	0.994653
599.866511	0.995383
600.217312	0.996291
600.568060	0.995358
600.918753	0.996060
601.269392	0.995532
601.619978	0.995110
601.970510	0.995086
602.320988	0.995698
602.671412	0.995559
603.021783	0.995752
603.372100	0.995583
603.722363	0.995133
604.072572	0.994539
604.422728	0.995217
604.772830	0.994910
605.122878	0.995330
605.472872	0.995697
605.822813	0.994547
606.172701	0.995715
606.522534	0.995991
606.872314	0.996100
607.222041	0.994959
607.571714	0.995177
607.921333	0.995668
608.270899	0.995553
608.620411	0.995227
608.969870	0.996574
609.319276	0.995411
609.668627	0.996442
610.017926	0.995918
610.367171	0.994984
610.716362	0.995286
611.065500	0.995268
611.414585	0.996026
611.763616	0.994917
612.112594	0.995432
612.461518	0.994526
612.810389	0.995406
613.159207	0.995056
613.507971	0.994846
613.856682	0.996060
614.205340	0.994588
614.553945	0.995180
614.902496	0.995358
615.250994	0.995309
615.599439	0.995472
615.947830	0.995299
616.296169	0.995901
616.644454	0.995156
616.992686	0.995018
617.340864	0.995556
617.688990	0.995084
618.037063	0.995130
618.385082	0.994659
618.733048	0.994443
619.080961	0.995178
619.428821	0.995275
619.776628	0.994479
620.124382	0.995293
620.472083	0.995530
620.819731	0.995569
621.167326	0.995454
621.514868	0.995059
621.862357	0.995281
622.209793	0.995041
622.557176	0.994769
622.904506	0.995044
623.251783	0.995111
623.599007	0.995290
623.946179	0.994723
624.293297	0.995832
624.640363	0.995439
624.987376	0.994854
625.334336	0.994330
625.681243	0.995056
626.028097	0.995234
626.374899	0.995319
626.721647	0.995755
627.068343	0.995644
627.414987	0.994952
627.761577	0.994349
628.108115	0.994421
628.454600	0.995402
628.801032	0.995173
629.147412	0.995736
629.493739	0.996298
629.840014	0.994464
630.186236	0.995254
630.532405	0.995176
630.878521	0.994721
631.224585	0.994990
631.570597	0.994990
631.916556	0.995619
632.262462	0.994496
632.608316	0.995967
632.954117	0.994638
633.299866	0.994696
633.645562	0.994967
633.991206	0.995792
634.336797	0.994840
634.682336	0.995547
635.027823	0.995168
635.373257	0.995032
635.718639	0.996125
636.063968	0.994632
636.409245	0.995431
636.754470	0.995179
637.099642	0.995533
637.444762	0.995388
637.789829	0.995209
638.134845	0.995265
638.479808	0.995520
638.824719	0.995358
639.169577	0.995397
639.514383	0.995017
639.859137	0.995584
640.203839	0.994725
640.548489	0.994572
640.893086	0.994545
641.237632	0.995265
641.582125	0.994934
641.926566	0.995883
642.270955	0.995590
642.615292	0.995896
642.959576	0.995581
643.303809	0.995390
643.647990	0.995232
643.992118	0.995888
644.336195	0.995243
644.680219	0.995299
645.024192	0.995498
645.368112	0.994791
645.711981	0.995475
646.055797	0.995065
646.399562	0.994941
646.743274	0.995659
647.086935	0.994405
647.430544	0.994591
647.774101	0.995260
648.117606	0.995444
648.461059	0.995767
648.804460	0.995082
649.147810	0.995246
649.491108	0.994671
649.834354	0.994569
650.177548	0.995336
650.520690	0.994367
650.863781	0.994803
651.206820	0.994716
651.549807	0.994588
651.892742	0.995100
652.235626	0.995225
652.578458	0.995315
652.921238	0.996342
653.263967	0.995307
653.606644	0.994406
653.949269	0.996509
654.291843	0.994608
654.634365	0.996049
654.976836	0.994396
655.319255	0.995268
655.661622	0.995117
656.003938	0.994686
656.346203	0.994896
656.688416	0.995305
657.030577	0.995097
657.372687	0.995191
657.714746	0.994390
658.056753	0.995137
658.398708	0.994395
658.740612	0.995940
659.082465	0.995091
659.424266	0.995666
659.766016	0.995024
660.107715	0.995082
660.449362	0.995024
660.790958	0.995359
661.132503	0.995566
661.473996	0.995318
661.815438	0.994935
662.156829	0.995806
662.498168	0.995736
662.839456	0.994867
663.180693	0.994682
663.521879	0.995122
663.863013	0.996182
664.204097	0.994739
664.545129	0.994494
664.886110	0.995143
665.227040	0.995147
665.567918	0.995182
665.908746	0.994403
666.249522	0.994938
666.590248	0.996041
666.930922	0.994631
667.271545	0.995730
667.612118	0.995119
667.952639	0.994115
668.293109	0.995240
668.633528	0.994572
668.973896	0.995163
669.314213	0.994135
669.654480	0.995560
669.994695	0.995000
670.334859	0.995314
670.674973	0.994678
671.015035	0.995347
671.355047	0.994432
671.695008	0.994872
672.034918	0.994586
672.374777	0.995398
672.714585	0.995015
673.054342	0.994913
673.394049	0.993795
673.733705	0.993968
674.073310	0.995346
674.412864	0.994622
674.752368	0.994904
675.091820	0.994606
675.431223	0.995723
675.770574	0.994713
676.109875	0.994727
676.449125	0.994367
676.788324	0.994512
677.127473	0.995234
677.466571	0.994513
677.805619	0.995183
678.144616	0.995318
678.483562	0.995928
678.822458	0.995381
679.161303	0.994776
679.500098	0.995683
679.838842	0.995630
680.177535	0.994668
680.516179	0.994452
680.854771	0.994959
681.193314	0.994804
681.531805	0.994971
681.870247	0.995214
682.208638	0.994181
682.546978	0.994099
682.885268	0.994631
683.223508	0.993938
683.561697	0.994110
683.899836	0.994403
684.237925	0.994299
684.575963	0.994467
684.913951	0.995374
685.251889	0.994552
685.589776	0.994695
685.927614	0.994179
686.265401	0.994147
686.603137	0.994251
686.940824	0.994654
687.278460	0.995131
687.616046	0.994791
687.953582	0.994698
688.291068	0.995583
688.628504	0.995047
688.965889	0.993888
689.303224	0.993267
689.640510	0.994577
689.977745	0.994637
690.314930	0.993750
690.652065	0.993993
690.989150	0.994175
691.326185	0.994863
691.663170	0.993865
692.000105	0.994172
692.336990	0.995688
692.673825	0.994167
693.010610	0.994763
693.347345	0.994605
693.684030	0.994397
694.020665	0.994907
694.357251	0.994344
694.693786	0.994822
695.030272	0.994794
695.366707	0.993895
695.703093	0.994674
696.039429	0.994410
696.375716	0.995403
696.711952	0.993871
697.048139	0.995123
697.384276	0.995310
697.720363	0.995379
698.056400	0.994390
698.392388	0.995136
698.728326	0.994887
699.064214	0.995344
699.400053	0.994807
699.735842	0.996056
700.071581	0.995325
700.407270	0.995326
700.742910	0.995653
701.078501	0.994287
701.414042	0.996040
701.749533	0.994803
702.084974	0.995235
702.420366	0.995734
702.755709	0.995079
703.091002	0.995164
703.426246	0.996062
703.761440	0.994737
704.096584	0.994849
704.431679	0.994775
704.766725	0.994266
705.101721	0.996120
705.436668	0.995377
705.771565	0.995330
706.106413	0.994571
706.441212	0.995730
706.775961	0.995669
707.110661	0.994897
707.445311	0.995782
707.779913	0.996241
708.114465	0.996002
708.448967	0.996559
708.783421	0.995636
709.117825	0.996084
709.452180	0.996196
709.786485	0.995381
710.120742	0.995370
710.454949	0.995278
710.789107	0.995453
711.123216	0.993132
711.457275	0.994271
711.791286	0.994669
712.125247	0.996780
712.459159	0.993829
712.793023	0.994162
713.126837	0.995453
713.460602	0.994280
713.794318	0.994293
714.127985	0.994314
714.461602	0.994931
714.795171	0.994721
715.128691	0.994365
715.462162	0.994820
715.795584	0.995390
716.128957	0.995399
716.462281	0.995898
716.795556	0.994148
717.128782	0.994759
717.461960	0.994830
717.795088	0.995594
718.128167	0.996161
718.461198	0.995583
718.794180	0.995645
719.127113	0.995842
719.459997	0.994311
719.792833	0.995308
720.125619	0.995754
720.458357	0.994974
720.791046	0.995465
721.123686	0.995619
721.456278	0.994770
721.788821	0.995453
722.121315	0.996657
722.453761	0.995692
722.786158	0.995449
723.118506	0.996130
723.450805	0.994820
723.783056	0.995557
724.115259	0.995260
724.447412	0.996099
724.779518	0.995409
725.111574	0.994612
725.443582	0.995357
725.775542	0.996018
726.107453	0.996364
726.439315	0.995748
726.771129	0.995140
727.102895	0.996174
727.434612	0.994906
727.766281	0.995193
728.097901	0.995075
728.429473	0.996258
728.760996	0.994312
729.092471	0.994460
729.423897	0.995823
729.755276	0.994972
730.086606	0.994865
730.417887	0.996053
730.749120	0.996089
731.080305	0.995629
731.411442	0.993997
731.742530	0.994662
732.073570	0.995352
732.404562	0.995621
732.735506	0.994696
733.066401	0.994926
733.397249	0.994149
733.728048	0.994828
734.058798	0.995348
734.389501	0.996305
734.720156	0.995628
735.050762	0.996794
735.381320	0.995434
735.711831	0.994910
736.042293	0.995468
736.372707	0.996266
736.703073	0.994828
737.033391	0.995866
737.363661	0.996738
737.693883	0.994528
738.024056	0.995467
738.354182	0.995126
738.684260	0.995166
739.014290	0.996219
739.344272	0.994385
739.674207	0.995078
740.004093	0.995121
740.333931	0.996232
740.663722	0.994817
740.993464	0.995465
741.323159	0.995439
741.652806	0.995539
741.982405	0.995108
742.311956	0.995768
742.641460	0.995322
742.970915	0.995731
743.300323	0.995339
743.629683	0.995308
743.958996	0.996603
744.288260	0.994559
744.617477	0.995406
744.946647	0.995312
745.275768	0.996181
745.604842	0.994836
745.933869	0.995182
746.262847	0.996153
746.591778	0.994518
746.920662	0.996225
747.249498	0.996662
747.578286	0.996265
747.907027	0.996982
748.235720	0.995757
748.564365	0.995768
748.892963	0.995716
749.221514	0.995877
749.550017	0.995991
749.878473	0.995364
750.206881	0.996242
750.535242	0.996225
750.863555	0.995094
751.191821	0.995713
751.520039	0.996352
751.848210	0.994401
752.176334	0.996016
752.504411	0.996001
752.832440	0.995726
753.160421	0.995621
753.488356	0.996947
753.816243	0.996146
754.144082	0.995528
754.471875	0.997262
754.799620	0.996354
755.127318	0.995358
755.454969	0.996001
755.782572	0.997834
756.110129	0.995225
756.437638	0.996756
756.765100	0.997867
757.092515	0.995527
757.419882	0.996101
757.747203	0.995735
758.074477	0.997252
758.401703	0.995683
758.728882	0.996338
759.056014	0.995561
759.383099	0.996007
759.710138	0.995389
760.037129	0.995258
760.364073	0.996294
760.690970	0.995447
761.017820	0.994771
761.344623	0.996952
761.671379	0.996502
761.998088	0.996736
762.324751	0.995694
762.651366	0.995654
762.977935	0.994166
763.304456	0.994100
763.630931	0.991772
763.957359	0.991286
764.283740	0.991960
764.610074	0.993959
764.936362	0.994060
765.262602	0.995103
765.588796	0.994078
765.914943	0.995637
766.241044	0.995365
766.567097	0.996174
766.893104	0.995612
767.219064	0.995819
767.544978	0.996535
767.870845	0.996398
768.196665	0.995707
768.522438	0.997477
768.848165	0.996381
769.173846	0.996551
769.499479	0.997422
769.825066	0.996204
770.150607	0.997151
770.476101	0.996982
770.801548	0.997304
771.126949	0.997403
771.452303	0.996509
771.777611	0.997593
772.102872	0.996833
772.428087	0.997245
772.753256	0.997035
773.078378	0.996988
773.403453	0.996614
773.728482	0.999073
774.053465	0.997602
774.378401	0.997690
774.703291	0.998165
775.028135	0.999200
775.352932	0.995173
775.677683	0.998800
776.002388	0.998115
776.327046	0.997358
776.651658	0.998258
776.976224	0.997539
777.300743	0.997615
777.625216	0.997855
777.949643	0.998523
778.274024	0.996482
778.598359	0.998254
778.922647	0.998126
779.246889	0.998989
779.571086	0.998203
779.895236	0.997404
780.219339	0.998622
780.543397	0.997228
780.867409	0.997723
781.191374	0.998283
781.515294	0.998587
781.839167	0.998667
782.162995	0.997329
782.486776	0.997440
782.810511	0.997600
783.134201	0.998890
783.457844	0.998280
783.781441	0.997413
784.104993	0.996420
784.428498	0.997754
784.751958	0.999027
785.075372	0.998430
785.398739	0.998064
785.722061	0.997978
786.045337	0.997963
786.368568	0.996739
786.691752	0.998334
787.014891	0.998751
787.337983	0.997357
787.661030	0.997106
787.984031	0.997411
788.306987	0.997531
788.629897	0.995704
788.952760	0.996565
789.275579	0.997733
789.598351	0.997650
789.921078	0.997549
790.243759	0.997945
790.566395	0.996109
790.888984	0.998730
791.211529	0.997554
791.534027	0.997506
791.856480	0.998045
792.178888	0.997462
792.501249	0.998171
792.823566	0.999010
793.145836	0.997420
793.468062	0.997323
793.790241	0.999032
794.112375	0.996819
794.434464	0.997448
794.756507	0.997989
795.078505	0.997649
795.400457	0.998863
795.722364	0.997273
796.044226	0.997045
796.366042	0.996046
796.687812	0.996331
797.009538	0.996875
797.331218	0.998931
797.652852	0.998586
797.974442	0.996720
798.295986	0.999061
798.617484	0.996318
798.938938	0.997076
799.260346	0.997479
799.581709	0.997703
799.903026	0.998990
800.224299	0.997986
800.545526	0.997056
800.866708	0.997056
801.187845	0.998838
801.508936	0.998451
801.829983	0.997008
802.150984	0.998240
802.471940	0.998570
802.792851	0.997223
803.113717	0.998088
803.434538	0.999611
803.755314	0.999768
804.076045	0.997916
804.396731	0.998153
804.717372	0.997336
805.037967	0.999137
805.358518	0.998546
805.679024	0.996776
805.999485	0.997827
806.319901	0.998587
806.640272	0.999416
806.960598	0.998594
807.280879	0.997538
807.601115	0.997605
807.921306	0.998894
808.241453	0.996489
808.561554	0.998755
808.881611	0.998361
809.201623	0.998059
809.521590	0.997659
809.841513	0.998134
810.161390	0.997582
810.481223	0.998273
810.801011	0.997612
811.120755	0.999225
811.440453	0.996783
811.760107	0.997302
812.079716	0.997840
812.399281	0.998215
812.718801	0.998523
813.038276	0.997113
813.357707	0.998510
813.677093	1.000000
813.996434	0.998401
814.315731	0.999281
814.634983	0.998594
814.954191	0.998921
815.273354	0.997696
815.592473	0.997977
815.911547	0.998822
816.230577	0.997187
816.549562	0.998163
816.868502	0.996979
817.187399	0.999006
817.506250	0.998581
817.825058	0.997186
818.143821	0.998639
818.462539	0.997289
818.781213	0.997554
819.099843	0.997454
819.418429	0.998001
819.736970	0.996209
820.055466	0.995092
820.373919	0.993947
820.692327	0.993884
821.010691	0.992222
821.329011	0.990565
821.647286	0.987604
821.965517	0.985316
822.283704	0.982491
822.601847	0.980984
822.919945	0.981633
823.237999	0.983302
823.556010	0.984147
823.873976	0.986241
824.191897	0.988502
824.509775	0.988998
824.827609	0.990504
825.145398	0.991710
825.463144	0.989898
825.780845	0.990751
826.098502	0.990118
826.416116	0.991163
826.733685	0.989372
827.051210	0.987389
827.368692	0.987793
827.686129	0.988507
828.003522	0.991317
828.320872	0.991817
828.638177	0.992891
828.955439	0.994329
829.272656	0.995086
829.589830	0.995324
829.906960	0.996843
830.224046	0.997360
830.541088	0.996393
830.858086	0.997075
831.175041	0.997633
831.491952	0.996459
831.808819	0.997172
832.125642	0.997727
832.442421	0.996788
832.759157	0.996309
833.075849	0.995018
833.392497	0.993291
833.709101	0.992001
834.025662	0.991423
834.342179	0.992527
834.658653	0.994563
834.975083	0.995396
835.291469	0.994528
835.607811	0.995732
835.924110	0.996203
836.240366	0.998073
836.556578	0.996919
836.872746	0.997291
837.188871	0.997328
837.504952	0.997300
837.820990	0.998821
838.136984	0.998138
838.452935	0.998185
838.768842	0.997793
839.084706	0.998751
839.400526	0.997848
839.716303	0.996237
840.032037	0.996434
840.347727	0.995365
840.663373	0.995747
840.978977	0.996789
841.294537	0.997782
841.610054	0.998314
841.925527	0.997988
842.240957	0.999117
842.556344	0.998767
842.871687	0.998392
843.186987	0.998938
843.502244	1.000226
843.817458	0.998624
844.132629	0.998827
844.447756	0.999027
844.762840	0.998773
845.077881	1.000451
845.392879	0.998478
845.707833	0.999172
846.022745	0.999454
846.337613	1.000232
846.652438	0.999449
846.967221	0.999465
847.281960	1.000471
847.596656	1.001277
847.911309	0.999391
848.225919	0.998988
848.540485	0.999908
848.855009	1.001171
849.169490	0.999601
849.483928	0.998888
849.798323	0.998274
850.112675	1.001117
850.426984	0.999959
850.741251	0.999691
851.055474	0.998781
851.369654	0.999880
851.683792	0.999083
851.997887	1.000264
852.311938	0.999550
852.625947	0.998266
852.939914	0.998192
853.253837	0.999426
853.567718	1.000379
853.881555	1.000194
854.195350	0.999721
854.509103	0.999134
854.822812	1.000532
855.136479	0.999518
855.450103	0.999685
855.763685	0.999568
856.077224	0.999470
856.390720	0.999603
856.704173	1.000536
857.017584	1.000292
857.330953	0.999574
857.644278	0.999022
857.957561	0.998758
858.270802	0.999730
858.584000	0.999757
858.897155	0.999442
859.210268	1.000155
859.523339	1.000563
859.836367	0.999428
860.149352	0.999192
860.462295	0.999623
860.775195	1.001039
861.088054	0.998647
861.400869	0.999049
861.713642	0.998492
862.026373	1.000057
862.339062	1.000244
862.651708	0.999756
862.964312	0.999823
863.276873	0.998171
863.589392	0.999655
863.901869	0.999427
864.214303	1.000017
864.526696	0.998799
864.839045	0.999866
865.151353	0.998971
865.463619	0.999194
865.775842	0.999542
866.088023	0.999750
866.400162	0.999788
866.712258	1.000363
867.024313	1.000072
867.336325	1.000368
867.648296	1.000469
867.960224	0.999235
868.272110	1.000063
868.583954	0.999933
868.895755	1.000820
869.207515	0.999260
869.519233	0.999883
869.830909	0.998674
870.142542	0.998530
870.454134	0.999152
870.765684	0.998491
871.077191	0.999342
871.388657	0.999336
871.700081	0.999931
872.011463	0.999560
872.322803	0.999026
872.634101	0.998698
872.945357	0.999059
873.256571	0.997965
873.567744	0.999156
873.878874	0.998731
874.189963	0.999357
874.501010	0.999568
874.812015	0.999606
875.122979	0.999922
875.433900	0.997436
875.744780	0.998639
876.055618	0.997921
876.366415	0.998229
876.677169	0.997838
876.987882	0.997954
877.298554	0.999718
877.609183	0.997961
877.919771	0.998293
878.230317	0.999216
878.540822	0.997043
878.851285	0.998299
879.161707	0.997121
879.472087	0.998102
879.782425	0.995943
880.092722	0.994291
880.402977	0.991306
880.713191	0.988591
881.023363	0.985412
881.333494	0.983221
881.643583	0.984013
881.953631	0.984510
882.263637	0.983082
882.573602	0.984410
882.883526	0.986221
883.193408	0.988029
883.503248	0.988663
883.813048	0.990413
884.122806	0.991351
884.432522	0.992615
884.742197	0.993797
885.051831	0.994939
885.361424	0.995587
885.670975	0.996732
885.980485	0.996265
886.289954	0.996549
886.599382	0.996834
886.908768	0.997723
887.218113	0.997171
887.527417	0.998290
887.836680	0.998095
888.145901	0.998669
888.455082	0.999223
888.764221	0.999705
889.073319	0.998776
889.382376	0.997735
889.691392	0.997406
890.000366	0.998326
890.309300	0.998613
890.618193	0.998562
890.927044	0.997763
891.235855	0.998303
891.544625	0.997783
891.853353	0.999044
892.162041	0.998842
892.470687	0.998617
892.779293	0.997271
893.087858	0.996538
893.396381	0.996488
893.704864	0.995154
894.013306	0.995213
894.321707	0.993555
894.630068	0.992350
894.938387	0.990980
895.246665	0.990815
895.554903	0.992773
895.863100	0.995178
896.171256	0.994451
896.479371	0.994861
896.787446	0.995149
897.095480	0.996217
897.403473	0.997887
897.711425	0.997858
898.019336	0.998078
898.327207	0.998779
898.635038	0.997539
898.942827	0.997483
899.250576	0.996598
899.558284	0.997582
899.865952	0.997901
900.173579	0.998938
900.481165	0.999027
900.788711	0.998036
901.096216	0.998436
901.403681	0.998909
901.711105	0.998456
902.018489	0.998494
902.325832	0.998780
902.633135	0.998549
902.940397	0.998826
903.247619	0.997230
903.554800	0.996370
903.861941	0.994325
904.169041	0.991414
904.476101	0.991279
904.783121	0.989670
905.090100	0.990999
905.397039	0.992935
905.703938	0.994093
906.010796	0.994822
906.317614	0.995667
906.624391	0.996209
906.931129	0.997309
907.237826	0.997776
907.544483	0.998413
907.851099	0.998436
908.157675	0.998758
908.464211	0.999231
908.770707	0.998103
909.077163	0.999913
909.383578	0.999175
909.689954	0.997828
909.996289	0.999062
910.302584	0.999869
910.608839	1.000718
910.915054	0.998575
911.221229	1.001227
911.527363	0.997607
911.833458	1.000226
912.139513	0.999615
912.445527	0.999487
912.751502	0.998371
913.057436	0.998654
913.363331	0.999748
913.669186	0.998999
913.975000	0.998119
914.280775	0.997560
914.586510	0.997236
914.892205	0.996445
915.197859	0.995095
915.503475	0.994915
915.809050	0.992948
916.114585	0.989563
916.420081	0.991036
916.725536	0.990924
917.030952	0.991349
917.336328	0.992067
917.641665	0.992275
917.946961	0.993905
918.252218	0.994358
918.557435	0.994642
918.862612	0.997252
919.167750	0.996880
919.472848	0.996274
919.777906	0.998233
920.082925	0.998667
920.387904	0.998108
920.692843	0.998072
920.997743	0.997333
921.302603	0.999256
921.607423	0.998169
921.912204	0.999158
922.216946	1.000047
922.521647	0.999787
922.826310	0.998854
923.130932	1.000717
923.435516	1.000168
923.740059	0.998412
924.044564	0.999717
924.349028	0.999969
924.653454	1.000414
924.957840	0.999322
925.262186	1.000096
925.566493	0.998813
925.870761	0.998886
926.174989	0.999812
926.479178	0.999843
926.783328	1.000171
927.087438	0.999672
927.391509	0.999542
927.695541	1.000113
927.999533	1.000753
928.303486	1.000960
928.607400	0.999743
928.911275	1.000239
929.215110	1.000880
929.518906	0.999885
929.822663	1.001312
930.126381	1.001309
930.430060	1.000292
930.733699	1.001056
931.037299	1.000992
931.340861	1.000593
931.644383	1.000309
931.947866	1.000217
932.251309	0.999665
932.554714	1.001911
932.858080	1.000546
933.161407	1.000431
933.464694	1.000623
933.767943	1.000619
934.071153	0.999783
934.374323	1.001921
934.677455	0.999239
934.980548	1.000628
935.283602	1.001683
935.586617	1.000120
935.889593	1.001719
936.192530	0.999561
936.495428	1.000702
936.798287	0.999740
937.101108	1.001344
937.403890	1.000468
937.706632	1.001676
938.009336	0.999231
938.312002	0.999671
938.614628	1.000141
938.917216	0.999438
939.219765	0.999599
939.522275	0.999065
939.824747	0.999080
940.127179	0.999743
940.429573	0.999808
940.731929	0.999517
941.034246	0.999086
941.336524	0.998349
941.638763	0.998587
941.940964	0.999239
942.243126	0.999879
942.545250	1.000134
942.847335	0.999538
943.149381	1.000726
943.451389	0.998926
943.753359	1.000287
944.055290	1.001211
944.357182	1.000651
944.659036	1.000554
944.960851	1.001078
945.262628	1.000434
945.564367	1.000081
945.866067	0.999825
946.167729	0.999592
946.469352	1.000992
946.770937	0.999170
947.072484	1.000027
947.373992	1.000789
947.675462	1.000271
947.976893	1.000378
948.278286	1.002406
948.579641	1.000585
948.880958	1.000301
949.182236	0.999234
949.483476	1.001556
949.784678	1.000756
950.085841	0.999844
950.386967	0.999076
950.688054	1.001182
950.989103	0.999513
951.290114	0.999790
951.591087	0.999891
951.892021	1.000248
952.192917	1.001040
952.493776	1.001263
952.794596	0.999925
953.095378	1.000031
953.396122	0.999939
953.696828	1.000332
953.997496	0.999775
954.298126	1.001065
954.598718	0.999235
954.899272	1.001027
955.199788	1.000630
955.500266	1.000781
955.800706	1.000327
956.101108	1.000417
956.401472	1.001046
956.701798	1.000287
957.002087	1.001227
957.302337	1.000474
957.602550	1.001385
957.902724	1.000474
958.202861	1.000499
958.502960	1.000361
958.803022	1.002132
959.103045	1.000728
959.403031	1.001455
959.702979	1.000554
960.002889	1.001100
960.302762	1.000245
960.602596	1.000985
960.902393	1.002413
961.202153	1.000754
961.501875	1.001201
961.801559	1.001376
962.101205	0.999426
962.400814	1.001651
962.700385	1.001355
962.999918	1.001445
963.299414	1.000489
963.598873	1.002216
963.898293	1.000658
964.197677	1.000457
964.497022	1.001530
964.796331	1.002341
965.095601	1.002094
965.394835	1.001629
965.694030	1.000628
965.993189	1.001638
966.292309	1.001230
966.591393	0.999707
966.890439	1.001397
967.189447	1.000830
967.488419	1.000892
967.787353	1.001544
968.086249	1.002251
968.385108	1.000631
968.683930	1.000389
968.982714	1.000249
969.281462	1.000757
969.580172	1.000206
969.878844	1.001781
970.177480	1.001153
970.476078	1.001699
970.774639	1.001809
971.073162	0.999882
971.371649	1.000118
971.670098	1.001487
971.968510	1.000285
972.266885	1.000047
972.565223	1.000929
972.863524	1.000030
973.161788	1.001079
973.460014	1.001255
973.758204	1.000106
974.056356	1.001709
974.354471	1.001140
974.652550	1.002106
974.950591	1.001218
975.248595	0.999693
975.546563	1.001200
975.844493	1.001631
976.142386	1.000345
976.440243	1.001704
976.738062	1.001537
977.035845	1.000620
977.333590	1.001611
977.631299	1.000338
977.928971	1.000513
978.226606	0.999617
978.524204	1.000792
978.821765	1.000654
979.119290	1.002632
979.416777	0.999840
979.714228	1.000582
980.011642	1.001234
980.309020	1.000608
980.606360	0.999774
980.903664	1.000101
981.200931	0.999706
981.498162	1.001158
981.795356	1.000814
982.092513	1.000435
982.389633	1.001437
982.686717	0.999764
982.983764	1.000512
983.280775	1.001084
983.577749	1.001166
983.874686	0.999807
984.171587	0.999633
984.468451	0.998923
984.765279	1.002489
985.062070	1.000922
985.358824	1.000186
985.655543	1.001177
985.952224	1.002020
986.248869	1.000600
986.545478	1.001839
986.842050	1.000133
987.138586	1.001652
987.435086	1.000467
987.731549	1.001573
988.027975	1.001540
988.324366	1.000113
988.620719	1.001671
988.917037	1.000951
989.213318	1.001814
989.509563	1.001118
989.805772	1.001097
990.101944	1.001098
990.398080	1.000890
990.694180	1.001853
990.990244	1.000551
991.286271	1.000087
991.582262	1.001632
991.878217	1.000541
992.174136	1.001639
992.470019	1.002222
992.765865	1.002624
993.061676	1.000836
993.357450	1.001949
993.653188	1.002022
993.948890	1.001592
994.244556	1.000884
994.540186	1.000674
994.835780	0.999830
995.131337	1.003262
995.426859	1.000095
995.722345	1.001496
996.017795	1.000942
996.313208	1.000435
996.608586	0.999720
996.903928	1.000903
997.199234	1.000466
997.494504	1.001431
997.789738	0.999711
998.084936	1.002424
998.380099	1.000539
998.675225	1.001895
998.970316	1.000953
999.265371	1.000374
999.560390	1.000629
999.855373	1.000989
1000.150320	1.001037
1000.445232	1.001302
1000.740108	1.000625
1001.034948	0.999952
1001.329752	1.002135
1001.624521	1.001096
1001.919254	1.000480
1002.213951	1.001351
1002.508613	0.999894
1002.803239	1.001084
1003.097829	1.001576
1003.392384	1.001098
1003.686903	1.000881
1003.981386	1.001074
1004.275834	1.002235
1004.570246	1.000775
1004.864623	1.000786
1005.158964	1.001131
1005.453270	1.001047
1005.747540	1.000707
1006.041775	1.001176
1006.335974	1.002119
1006.630138	1.001829
1006.924266	1.000129
1007.218359	0.999584
1007.512416	1.001774
1007.806438	0.999913
1008.100425	1.001491
1008.394376	1.001963
1008.688292	0.999844
1008.982172	1.000202
1009.276017	1.001905
1009.569827	1.001911
1009.863602	1.001101
1010.157341	1.001183
1010.451045	1.000707
1010.744714	1.002592
1011.038347	1.000905
1011.331945	1.000723
1011.625508	0.999912
1011.919036	1.000989
1012.212528	1.001065
1012.505986	1.001326
1012.799408	1.001271
1013.092795	1.001287
1013.386147	1.001523
1013.679464	1.002050
1013.972745	1.000761
1014.265992	1.000387
1014.559204	1.000266
1014.852380	1.001938
1015.145521	1.001167
1015.438628	1.001118
1015.731699	1.002186
1016.024736	1.000931
1016.317737	1.001659
1016.610703	1.001165
1016.903635	1.000739
1017.196531	1.001039
1017.489393	1.001486
1017.782219	1.000660
1018.075011	1.001204
1018.367768	1.000162
1018.660490	1.000898
1018.953177	1.000898
1019.245829	1.000898
