Dividing Wavelength (nm)	Counts (n)	Blue Motor Position (mm): 14.000000	Red Motor Position (mm): 0.000000	
326.493990	1.002430
326.888308	1.002430
327.282561	1.002430
327.676750	1.004646
328.070874	1.003603
328.464933	1.004389
328.858929	1.004277
329.252859	1.004434
329.646726	1.002147
330.040528	1.002405
330.434265	1.003549
330.827938	1.003158
331.221547	1.003606
331.615091	1.003861
332.008571	1.003904
332.401986	1.002067
332.795338	1.002384
333.188625	1.003146
333.581847	1.002979
333.975006	1.003386
334.368100	1.003089
334.761129	1.002121
335.154095	1.002568
335.546996	1.002867
335.939833	0.997398
336.332606	0.999046
336.725315	0.997642
337.117960	0.999398
337.510540	0.997934
337.903056	0.998295
338.295508	0.999391
338.687896	0.999624
339.080220	0.998799
339.472480	0.997455
339.864676	0.998975
340.256807	0.997848
340.648875	0.998378
341.040879	0.998521
341.432818	0.999006
341.824694	0.998554
342.216506	0.999134
342.608253	0.997689
342.999937	0.997979
343.391557	0.999117
343.783113	0.999986
344.174605	0.998653
344.566033	0.998040
344.957397	0.999062
345.348697	0.999680
345.739934	0.998077
346.131106	0.998197
346.522215	0.997781
346.913260	0.998236
347.304241	0.997903
347.695159	0.998601
348.086012	0.997064
348.476802	0.998621
348.867528	0.998082
349.258191	0.998728
349.648789	0.998145
350.039324	0.998063
350.429796	0.998095
350.820203	0.996904
351.210548	0.998744
351.600828	0.997843
351.991045	0.997787
352.381198	0.999419
352.771288	0.997887
353.161314	0.998531
353.551276	0.996390
353.941175	0.996051
354.331010	0.997748
354.720782	0.998533
355.110490	0.997306
355.500135	0.997806
355.889717	0.997296
356.279235	0.997311
356.668689	0.998206
357.058080	0.997464
357.447408	0.996959
357.836672	0.997236
358.225873	0.997040
358.615010	0.997564
359.004084	0.996431
359.393095	0.998640
359.782043	0.997641
360.170927	0.998107
360.559748	0.996847
360.948505	0.997818
361.337199	0.997238
361.725830	0.998293
362.114398	0.997038
362.502903	0.997094
362.891344	0.996223
363.279722	0.996324
363.668037	0.997244
364.056289	0.997028
364.444478	0.997771
364.832603	0.995655
365.220665	0.996794
365.608665	0.995886
365.996601	0.995660
366.384474	0.995173
366.772284	0.994920
367.160031	0.995100
367.547715	0.993821
367.935336	0.993580
368.322893	0.993217
368.710388	0.991663
369.097820	0.990403
369.485189	0.988027
369.872495	0.985796
370.259738	0.984454
370.646918	0.981542
371.034035	0.979548
371.421090	0.975350
371.808081	0.970267
372.195010	0.968501
372.581875	0.964019
372.968678	0.958650
373.355418	0.955273
373.742096	0.947812
374.128710	0.943815
374.515262	0.938991
374.901751	0.932801
375.288177	0.927545
375.674540	0.922938
376.060841	0.915202
376.447079	0.908550
376.833254	0.901676
377.219367	0.898111
377.605417	0.885302
377.991404	0.883406
378.377329	0.876394
378.763191	0.870354
379.148991	0.861100
379.534727	0.853370
379.920402	0.845994
380.306013	0.841179
380.691563	0.828612
381.077049	0.822383
381.462474	0.818152
381.847835	0.806612
382.233134	0.801741
382.618371	0.801931
383.003545	0.785359
383.388657	0.782682
383.773706	0.775820
384.158693	0.771103
384.543618	0.765672
384.928480	0.757285
385.313280	0.747616
385.698017	0.746637
386.082692	0.735412
386.467305	0.733305
386.851856	0.728126
387.236344	0.722634
387.620770	0.717263
388.005133	0.711143
388.389435	0.706769
388.773674	0.702940
389.157851	0.695294
389.541965	0.693225
389.926018	0.699039
390.310008	0.685949
390.693936	0.683607
391.077802	0.675242
391.461606	0.676146
391.845348	0.666565
392.229027	0.665130
392.612645	0.663944
392.996200	0.650461
393.379694	0.643388
393.763125	0.634158
394.146494	0.638576
394.529801	0.628839
394.913047	0.621101
395.296230	0.627368
395.679351	0.617932
396.062410	0.615449
396.445408	0.617298
396.828343	0.612659
397.211217	0.607861
397.594028	0.621136
397.976778	0.610445
398.359466	0.607413
398.742092	0.602873
399.124656	0.614876
399.507158	0.603140
399.889598	0.599835
400.271977	0.591413
400.654294	0.595571
401.036549	0.594315
401.418742	0.597789
401.800874	0.583854
402.182944	0.581074
402.564952	0.572706
402.946898	0.574540
403.328783	0.575652
403.710606	0.587010
404.092367	0.561429
404.474067	0.566249
404.855705	0.565752
405.237282	0.574478
405.618797	0.560553
406.000250	0.556476
406.381642	0.546060
406.762972	0.551346
407.144240	0.550552
407.525447	0.549924
407.906593	0.542881
408.287677	0.538442
408.668700	0.546340
409.049661	0.540502
409.430560	0.535267
409.811399	0.544329
410.192176	0.526765
410.572891	0.533551
410.953545	0.521295
411.334138	0.534993
411.714669	0.527219
412.095139	0.539285
412.475547	0.523310
412.855894	0.525644
413.236180	0.524394
413.616405	0.529756
413.996568	0.520310
414.376670	0.526303
414.756711	0.531513
415.136691	0.528503
415.516609	0.518841
415.896466	0.515647
416.276262	0.511474
416.655997	0.513879
417.035670	0.495673
417.415283	0.486269
417.794834	0.492216
418.174324	0.497051
418.553753	0.506160
418.933121	0.488596
419.312428	0.482586
419.691674	0.487849
420.070859	0.476445
420.449983	0.484211
420.829045	0.473141
421.208047	0.482654
421.586988	0.475591
421.965867	0.474604
422.344686	0.462902
422.723444	0.476275
423.102141	0.492390
423.480777	0.465344
423.859352	0.486295
424.237866	0.463647
424.616319	0.464046
424.994712	0.455718
425.373044	0.465684
425.751314	0.453506
426.129524	0.470200
426.507673	0.453413
426.885762	0.446694
427.263789	0.452382
427.641756	0.462160
428.019662	0.452768
428.397508	0.451937
428.775292	0.456051
429.153016	0.448432
429.530679	0.454542
429.908282	0.447531
430.285824	0.457180
430.663305	0.435919
431.040726	0.457426
431.418086	0.456953
431.795385	0.448933
432.172624	0.447481
432.549802	0.448607
432.926920	0.446945
433.303977	0.446873
433.680974	0.443574
434.057910	0.442076
434.434786	0.441692
434.811601	0.444217
435.188355	0.426425
435.565050	0.436532
435.941683	0.437451
436.318257	0.421068
436.694770	0.422374
437.071222	0.420612
437.447614	0.424998
437.823946	0.430986
438.200218	0.420422
438.576429	0.430268
438.952580	0.423362
439.328670	0.419818
439.704700	0.426564
440.080670	0.427733
440.456580	0.408843
440.832429	0.417458
441.208218	0.427991
441.583947	0.417141
441.959616	0.416434
442.335224	0.421836
442.710773	0.412381
443.086261	0.410762
443.461689	0.424523
443.837057	0.414424
444.212365	0.404243
444.587612	0.411455
444.962800	0.401138
445.337927	0.402750
445.712995	0.428850
446.088002	0.390748
446.462949	0.401139
446.837837	0.406073
447.212664	0.394922
447.587431	0.386682
447.962139	0.357027
448.336786	0.315858
448.711374	0.326534
449.085901	0.371076
449.460369	0.375081
449.834776	0.378052
450.209124	0.357813
450.583412	0.350244
450.957640	0.343357
451.331808	0.355351
451.705917	0.378109
452.079965	0.382993
452.453954	0.371078
452.827883	0.377902
453.201752	0.372832
453.575562	0.383796
453.949311	0.372384
454.323001	0.378447
454.696632	0.374056
455.070202	0.366984
455.443713	0.358801
455.817164	0.353705
456.190556	0.349287
456.563888	0.346208
456.937160	0.343529
457.310373	0.361120
457.683526	0.360116
458.056619	0.365924
458.429653	0.365772
458.802628	0.369416
459.175542	0.364218
459.548398	0.346504
459.921194	0.338687
460.293930	0.338958
460.666607	0.316421
461.039224	0.305126
461.411782	0.300445
461.784280	0.299950
462.156719	0.303827
462.529099	0.308420
462.901419	0.324215
463.273680	0.328414
463.645882	0.327858
464.018024	0.334520
464.390106	0.326659
464.762130	0.311378
465.134094	0.294290
465.505999	0.263161
465.877845	0.233571
466.249631	0.220610
466.621358	0.228140
466.993026	0.241906
467.364634	0.248558
467.736184	0.257114
468.107674	0.266140
468.479105	0.265161
468.850477	0.271617
469.221790	0.278569
469.593043	0.288768
469.964238	0.293528
470.335373	0.293137
470.706449	0.291157
471.077467	0.291747
471.448425	0.253882
471.819324	0.229440
472.190164	0.228948
472.560945	0.257696
472.931667	0.279936
473.302330	0.284338
473.672934	0.296384
474.043479	0.284128
474.413965	0.286137
474.784393	0.289319
475.154761	0.284578
475.525070	0.281624
475.895321	0.287327
476.265513	0.281563
476.635645	0.276789
477.005719	0.276629
477.375734	0.273495
477.745691	0.266598
478.115588	0.263054
478.485427	0.256289
478.855207	0.243464
479.224928	0.225751
479.594591	0.214048
479.964194	0.217096
480.333739	0.218551
480.703226	0.220026
481.072653	0.218282
481.442022	0.214134
481.811333	0.210916
482.180584	0.214184
482.549777	0.219510
482.918912	0.222990
483.287988	0.222535
483.657005	0.222133
484.025964	0.228839
484.394864	0.225850
484.763706	0.226507
485.132489	0.231639
485.501213	0.232575
485.869879	0.230858
486.238487	0.233983
486.607036	0.232065
486.975527	0.236522
487.343959	0.232379
487.712333	0.231364
488.080648	0.232672
488.448905	0.232045
488.817104	0.232961
489.185244	0.227753
489.553326	0.224587
489.921350	0.214602
490.289315	0.197007
490.657222	0.191741
491.025070	0.193492
491.392861	0.195181
491.760593	0.200758
492.128267	0.206802
492.495883	0.212139
492.863440	0.218450
493.230939	0.224828
493.598380	0.226299
493.965763	0.228669
494.333088	0.230394
494.700354	0.232211
495.067563	0.230935
495.434713	0.234580
495.801805	0.232167
496.168839	0.233892
496.535815	0.235203
496.902733	0.235238
497.269593	0.236665
497.636395	0.234247
498.003139	0.234792
498.369825	0.237886
498.736453	0.234026
499.103023	0.235862
499.469535	0.235292
499.835989	0.235394
500.202385	0.236147
500.568723	0.239525
500.935003	0.234870
501.301226	0.239012
501.667390	0.233297
502.033497	0.231482
502.399546	0.234327
502.765537	0.236220
503.131470	0.234721
503.497345	0.231087
503.863163	0.239689
504.228923	0.232705
504.594625	0.231514
504.960269	0.236817
505.325856	0.232134
505.691385	0.236401
506.056856	0.233434
506.422270	0.232815
506.787625	0.235058
507.152924	0.232549
507.518164	0.233103
507.883347	0.234604
508.248472	0.236541
508.613540	0.231466
508.978550	0.234074
509.343503	0.234424
509.708398	0.232242
510.073236	0.229789
510.438016	0.229461
510.802738	0.230495
511.167403	0.229481
511.532010	0.231820
511.896561	0.227288
512.261053	0.225510
512.625488	0.227998
512.989866	0.228233
513.354186	0.228623
513.718449	0.230569
514.082655	0.226620
514.446803	0.229116
514.810894	0.226792
515.174927	0.229685
515.538904	0.229140
515.902822	0.225911
516.266684	0.228299
516.630488	0.229470
516.994235	0.228348
517.357925	0.227118
517.721558	0.225570
518.085133	0.225149
518.448651	0.224797
518.812112	0.227467
519.175516	0.226839
519.538863	0.224451
519.902152	0.226370
520.265385	0.223164
520.628560	0.224975
520.991678	0.225166
521.354739	0.224392
521.717743	0.225276
522.080690	0.226052
522.443580	0.223191
522.806413	0.224168
523.169189	0.223845
523.531908	0.222526
523.894569	0.226051
524.257174	0.226134
524.619722	0.223785
524.982213	0.224925
525.344647	0.223738
525.707025	0.224907
526.069345	0.222737
526.431608	0.224598
526.793815	0.222420
527.155964	0.226673
527.518057	0.225755
527.880093	0.226772
528.242072	0.225294
528.603995	0.227386
528.965860	0.228882
529.327669	0.228090
529.689421	0.229082
530.051117	0.229802
530.412755	0.227515
530.774337	0.229825
531.135862	0.230374
531.497331	0.229521
531.858743	0.232408
532.220098	0.229393
532.581396	0.231771
532.942638	0.232134
533.303824	0.233482
533.664953	0.232977
534.026025	0.234730
534.387040	0.232964
534.747999	0.232853
535.108902	0.231648
535.469748	0.236792
535.830537	0.234655
536.191270	0.234897
536.551947	0.234430
536.912567	0.234590
537.273131	0.236296
537.633638	0.236605
537.994089	0.236959
538.354483	0.237980
538.714821	0.235070
539.075103	0.234962
539.435328	0.235982
539.795497	0.239710
540.155609	0.236231
540.515665	0.234228
540.875665	0.239992
541.235609	0.238535
541.595496	0.238429
541.955328	0.235476
542.315102	0.238100
542.674821	0.239206
543.034483	0.239139
543.394090	0.239008
543.753640	0.240580
544.113134	0.235655
544.472571	0.239291
544.831953	0.236201
545.191278	0.240334
545.550548	0.239304
545.909761	0.236723
546.268918	0.237417
546.628019	0.235694
546.987064	0.238668
547.346053	0.240436
547.704986	0.238218
548.063863	0.238562
548.422684	0.239005
548.781449	0.240758
549.140158	0.238828
549.498811	0.241150
549.857408	0.244759
550.215949	0.239398
550.574434	0.242599
550.932864	0.240829
551.291237	0.239411
551.649555	0.241304
552.007817	0.240735
552.366022	0.241860
552.724173	0.242118
553.082267	0.242270
553.440305	0.239597
553.798288	0.244063
554.156215	0.240858
554.514086	0.241566
554.871902	0.244811
555.229661	0.243967
555.587365	0.245107
555.945014	0.247757
556.302606	0.244769
556.660143	0.247529
557.017625	0.244223
557.375050	0.246553
557.732421	0.243895
558.089735	0.245957
558.446994	0.246137
558.804197	0.245707
559.161345	0.245654
559.518437	0.248964
559.875474	0.247439
560.232455	0.247082
560.589381	0.248222
560.946251	0.249131
561.303065	0.246785
561.659825	0.248159
562.016528	0.250253
562.373177	0.253049
562.729770	0.250991
563.086307	0.253112
563.442789	0.251356
563.799216	0.254626
564.155587	0.253654
564.511904	0.255229
564.868164	0.255551
565.224370	0.255590
565.580520	0.257697
565.936615	0.257878
566.292654	0.261524
566.648638	0.258911
567.004567	0.260245
567.360441	0.261252
567.716260	0.263871
568.072023	0.261917
568.427732	0.263302
568.783385	0.266069
569.138982	0.264748
569.494525	0.265000
569.850013	0.268517
570.205445	0.267501
570.560823	0.270504
570.916145	0.273248
571.271412	0.272314
571.626625	0.274453
571.981782	0.275202
572.336884	0.276954
572.691931	0.277036
573.046923	0.279598
573.401860	0.280885
573.756743	0.283655
574.111570	0.283276
574.466342	0.284557
574.821059	0.284185
575.175722	0.288317
575.530330	0.288572
575.884882	0.289684
576.239380	0.292611
576.593823	0.293467
576.948211	0.294261
577.302544	0.297557
577.656823	0.298912
578.011047	0.299543
578.365216	0.302055
578.719330	0.304751
579.073389	0.305492
579.427394	0.307642
579.781344	0.309501
580.135239	0.312145
580.489080	0.312914
580.842866	0.317067
581.196597	0.318336
581.550273	0.317851
581.903895	0.320733
582.257463	0.319937
582.610975	0.325198
582.964434	0.325559
583.317837	0.329507
583.671186	0.330862
584.024481	0.332472
584.377721	0.336103
584.730906	0.338186
585.084037	0.339451
585.437113	0.342513
585.790135	0.343476
586.143103	0.347549
586.496016	0.349874
586.848874	0.349945
587.201679	0.351920
587.554428	0.356827
587.907124	0.357967
588.259765	0.359383
588.612352	0.362536
588.964884	0.367108
589.317362	0.369090
589.669786	0.370615
590.022155	0.370451
590.374470	0.372379
590.726731	0.375498
591.078937	0.382244
591.431090	0.381256
591.783188	0.386200
592.135232	0.389559
592.487222	0.390174
592.839157	0.391013
593.191038	0.395044
593.542866	0.398318
593.894639	0.403309
594.246358	0.404034
594.598022	0.405659
594.949633	0.410861
595.301190	0.413419
595.652692	0.414317
596.004141	0.413768
596.355535	0.422206
596.706876	0.424764
597.058162	0.429748
597.409395	0.429103
597.760573	0.429608
598.111698	0.433777
598.462768	0.436501
598.813785	0.439528
599.164748	0.443691
599.515657	0.445453
599.866511	0.451617
600.217312	0.449038
600.568060	0.456001
600.918753	0.455217
601.269392	0.458820
601.619978	0.463930
601.970510	0.464566
602.320988	0.466589
602.671412	0.468354
603.021783	0.472190
603.372100	0.475717
603.722363	0.478454
604.072572	0.481319
604.422728	0.483500
604.772830	0.487620
605.122878	0.490314
605.472872	0.492589
605.822813	0.494583
606.172701	0.498669
606.522534	0.499324
606.872314	0.502234
607.222041	0.505473
607.571714	0.506363
607.921333	0.509957
608.270899	0.513186
608.620411	0.512935
608.969870	0.519121
609.319276	0.521478
609.668627	0.523703
610.017926	0.524885
610.367171	0.527773
610.716362	0.529895
611.065500	0.533267
611.414585	0.535976
611.763616	0.537830
612.112594	0.541677
612.461518	0.543331
612.810389	0.545335
613.159207	0.549361
613.507971	0.552835
613.856682	0.554134
614.205340	0.556986
614.553945	0.557942
614.902496	0.564023
615.250994	0.565099
615.599439	0.568555
615.947830	0.570994
616.296169	0.574313
616.644454	0.576786
616.992686	0.579681
617.340864	0.581863
617.688990	0.586579
618.037063	0.586799
618.385082	0.591021
618.733048	0.592256
619.080961	0.595840
619.428821	0.598890
619.776628	0.601710
620.124382	0.606252
620.472083	0.608834
620.819731	0.610785
621.167326	0.616644
621.514868	0.618869
621.862357	0.624314
622.209793	0.625814
622.557176	0.630013
622.904506	0.633993
623.251783	0.637188
623.599007	0.641622
623.946179	0.643432
624.293297	0.648117
624.640363	0.652501
624.987376	0.655232
625.334336	0.659101
625.681243	0.664103
626.028097	0.666340
626.374899	0.669461
626.721647	0.673134
627.068343	0.676716
627.414987	0.680166
627.761577	0.683595
628.108115	0.685210
628.454600	0.690657
628.801032	0.693092
629.147412	0.694524
629.493739	0.699312
629.840014	0.702257
630.186236	0.703785
630.532405	0.708919
630.878521	0.709823
631.224585	0.713379
631.570597	0.717280
631.916556	0.719160
632.262462	0.720744
632.608316	0.725311
632.954117	0.726831
633.299866	0.729787
633.645562	0.732906
633.991206	0.736881
634.336797	0.740827
634.682336	0.745017
635.027823	0.747289
635.373257	0.749903
635.718639	0.754151
636.063968	0.755895
636.409245	0.760425
636.754470	0.763733
637.099642	0.766976
637.444762	0.770790
637.789829	0.772973
638.134845	0.776195
638.479808	0.779197
638.824719	0.780925
639.169577	0.784150
639.514383	0.786197
639.859137	0.790420
640.203839	0.791527
640.548489	0.794823
640.893086	0.796509
641.237632	0.799886
641.582125	0.800982
641.926566	0.804200
642.270955	0.806073
642.615292	0.807585
642.959576	0.809626
643.303809	0.811214
643.647990	0.813497
643.992118	0.815631
644.336195	0.817333
644.680219	0.819302
645.024192	0.820862
645.368112	0.820458
645.711981	0.822612
646.055797	0.822205
646.399562	0.824695
646.743274	0.824762
647.086935	0.824357
647.430544	0.826177
647.774101	0.828525
648.117606	0.828937
648.461059	0.831852
648.804460	0.834579
649.147810	0.837180
649.491108	0.840527
649.834354	0.842799
650.177548	0.845891
650.520690	0.849256
650.863781	0.851510
651.206820	0.852618
651.549807	0.855805
651.892742	0.859901
652.235626	0.861882
652.578458	0.863243
652.921238	0.866838
653.263967	0.867465
653.606644	0.868585
653.949269	0.872046
654.291843	0.872279
654.634365	0.874178
654.976836	0.875992
655.319255	0.877926
655.661622	0.880251
656.003938	0.881580
656.346203	0.882687
656.688416	0.884958
657.030577	0.886204
657.372687	0.888207
657.714746	0.889348
658.056753	0.889804
658.398708	0.891504
658.740612	0.893513
659.082465	0.894548
659.424266	0.895196
659.766016	0.896360
660.107715	0.898287
660.449362	0.898779
660.790958	0.900965
661.132503	0.902254
661.473996	0.902725
661.815438	0.904731
662.156829	0.905714
662.498168	0.907662
662.839456	0.906712
663.180693	0.908921
663.521879	0.909560
663.863013	0.910990
664.204097	0.911643
664.545129	0.912404
664.886110	0.914170
665.227040	0.914778
665.567918	0.914377
665.908746	0.915157
666.249522	0.916184
666.590248	0.918264
666.930922	0.918163
667.271545	0.919379
667.612118	0.919623
667.952639	0.921096
668.293109	0.923661
668.633528	0.923484
668.973896	0.925348
669.314213	0.926301
669.654480	0.926910
669.994695	0.927873
670.334859	0.929719
670.674973	0.930808
671.015035	0.931412
671.355047	0.932595
671.695008	0.932137
672.034918	0.934416
672.374777	0.935359
672.714585	0.935630
673.054342	0.936524
673.394049	0.936197
673.733705	0.937678
674.073310	0.938896
674.412864	0.940101
674.752368	0.940889
675.091820	0.941640
675.431223	0.943468
675.770574	0.943570
676.109875	0.945053
676.449125	0.945023
676.788324	0.946504
677.127473	0.948784
677.466571	0.949509
677.805619	0.949765
678.144616	0.951527
678.483562	0.951564
678.822458	0.953125
679.161303	0.952865
679.500098	0.953596
679.838842	0.955550
680.177535	0.954544
680.516179	0.955309
680.854771	0.956049
681.193314	0.956555
681.531805	0.955531
681.870247	0.954951
682.208638	0.953414
682.546978	0.953939
682.885268	0.956101
683.223508	0.956022
683.561697	0.957628
683.899836	0.958752
684.237925	0.958498
684.575963	0.958816
684.913951	0.959477
685.251889	0.960166
685.589776	0.960014
685.927614	0.959968
686.265401	0.959812
686.603137	0.961105
686.940824	0.961122
687.278460	0.960893
687.616046	0.960466
687.953582	0.960037
688.291068	0.960431
688.628504	0.960999
688.965889	0.960759
689.303224	0.960438
689.640510	0.963241
689.977745	0.963138
690.314930	0.964871
690.652065	0.965949
690.989150	0.966828
691.326185	0.968594
691.663170	0.969358
692.000105	0.971199
692.336990	0.970894
692.673825	0.972205
693.010610	0.971635
693.347345	0.972956
693.684030	0.974123
694.020665	0.973603
694.357251	0.974753
694.693786	0.975434
695.030272	0.974956
695.366707	0.976202
695.703093	0.975588
696.039429	0.975794
696.375716	0.977415
696.711952	0.977288
697.048139	0.977711
697.384276	0.978541
697.720363	0.977806
698.056400	0.977086
698.392388	0.978499
698.728326	0.978094
699.064214	0.979557
699.400053	0.979354
699.735842	0.981628
700.071581	0.980163
700.407270	0.980514
700.742910	0.981738
701.078501	0.981829
701.414042	0.982101
701.749533	0.981342
702.084974	0.983446
702.420366	0.982422
702.755709	0.982723
703.091002	0.983809
703.426246	0.984511
703.761440	0.982809
704.096584	0.983751
704.431679	0.983436
704.766725	0.984957
705.101721	0.985727
705.436668	0.984005
705.771565	0.984550
706.106413	0.984366
706.441212	0.986009
706.775961	0.985537
707.110661	0.985004
707.445311	0.986070
707.779913	0.986773
708.114465	0.986152
708.448967	0.986322
708.783421	0.985954
709.117825	0.985396
709.452180	0.985426
709.786485	0.985745
710.120742	0.984976
710.454949	0.984662
710.789107	0.984428
711.123216	0.983363
711.457275	0.983065
711.791286	0.984109
712.125247	0.985769
712.459159	0.983284
712.793023	0.983494
713.126837	0.985037
713.460602	0.983715
713.794318	0.984554
714.127985	0.984961
714.461602	0.986224
714.795171	0.985491
715.128691	0.986169
715.462162	0.986800
715.795584	0.986720
716.128957	0.987453
716.462281	0.987642
716.795556	0.986151
717.128782	0.988389
717.461960	0.988202
717.795088	0.987729
718.128167	0.989646
718.461198	0.988268
718.794180	0.989021
719.127113	0.989568
719.459997	0.989102
719.792833	0.989395
720.125619	0.988878
720.458357	0.989466
720.791046	0.989920
721.123686	0.990527
721.456278	0.989614
721.788821	0.990271
722.121315	0.990601
722.453761	0.989797
722.786158	0.990902
723.118506	0.990970
723.450805	0.989801
723.783056	0.991211
724.115259	0.990311
724.447412	0.990018
724.779518	0.990226
725.111574	0.990131
725.443582	0.990742
725.775542	0.990993
726.107453	0.990984
726.439315	0.991455
726.771129	0.990757
727.102895	0.989696
727.434612	0.989883
727.766281	0.989849
728.097901	0.989224
728.429473	0.990509
728.760996	0.989445
729.092471	0.989740
729.423897	0.990735
729.755276	0.990360
730.086606	0.988562
730.417887	0.989935
730.749120	0.989832
731.080305	0.989201
731.411442	0.988478
731.742530	0.988913
732.073570	0.988958
732.404562	0.989886
732.735506	0.989021
733.066401	0.988905
733.397249	0.989102
733.728048	0.990001
734.058798	0.991105
734.389501	0.992185
734.720156	0.990582
735.050762	0.991788
735.381320	0.991297
735.711831	0.991419
736.042293	0.990984
736.372707	0.992232
736.703073	0.991314
737.033391	0.990746
737.363661	0.992202
737.693883	0.991629
738.024056	0.991065
738.354182	0.991137
738.684260	0.991281
739.014290	0.990350
739.344272	0.990552
739.674207	0.991360
740.004093	0.992740
740.333931	0.991196
740.663722	0.990334
740.993464	0.991457
741.323159	0.991151
741.652806	0.991047
741.982405	0.991711
742.311956	0.991718
742.641460	0.991052
742.970915	0.990743
743.300323	0.990472
743.629683	0.991363
743.958996	0.992219
744.288260	0.991356
744.617477	0.992523
744.946647	0.991513
745.275768	0.992395
745.604842	0.992036
745.933869	0.992397
746.262847	0.993267
746.591778	0.991999
746.920662	0.993091
747.249498	0.993131
747.578286	0.994328
747.907027	0.992021
748.235720	0.992457
748.564365	0.993830
748.892963	0.992295
749.221514	0.992386
749.550017	0.992559
749.878473	0.992990
750.206881	0.993705
750.535242	0.993016
750.863555	0.991961
751.191821	0.992877
751.520039	0.991691
751.848210	0.991895
752.176334	0.992433
752.504411	0.993586
752.832440	0.992701
753.160421	0.992696
753.488356	0.993889
753.816243	0.992806
754.144082	0.992194
754.471875	0.992363
754.799620	0.992979
755.127318	0.992700
755.454969	0.992693
755.782572	0.994006
756.110129	0.993476
756.437638	0.993719
756.765100	0.993662
757.092515	0.992404
757.419882	0.993119
757.747203	0.992576
758.074477	0.995003
758.401703	0.992366
758.728882	0.992711
759.056014	0.993654
759.383099	0.992975
759.710138	0.993167
760.037129	0.992628
760.364073	0.993546
760.690970	0.993173
761.017820	0.992560
761.344623	0.993549
761.671379	0.993353
761.998088	0.992241
762.324751	0.992856
762.651366	0.990863
762.977935	0.989784
763.304456	0.988842
763.630931	0.985272
763.957359	0.986230
764.283740	0.987128
764.610074	0.988746
764.936362	0.989710
765.262602	0.991613
765.588796	0.992324
765.914943	0.991722
766.241044	0.993081
766.567097	0.992844
766.893104	0.993611
767.219064	0.992683
767.544978	0.993657
767.870845	0.993929
768.196665	0.993815
768.522438	0.994434
768.848165	0.993767
769.173846	0.993872
769.499479	0.994667
769.825066	0.995460
770.150607	0.995044
770.476101	0.994308
770.801548	0.994645
771.126949	0.995027
771.452303	0.995088
771.777611	0.995645
772.102872	0.994472
772.428087	0.994631
772.753256	0.995251
773.078378	0.995345
773.403453	0.994007
773.728482	0.996046
774.053465	0.994721
774.378401	0.995492
774.703291	0.995693
775.028135	0.995952
775.352932	0.994754
775.677683	0.995291
776.002388	0.996070
776.327046	0.995863
776.651658	0.997517
776.976224	0.996879
777.300743	0.994982
777.625216	0.996114
777.949643	0.996538
778.274024	0.994870
778.598359	0.996035
778.922647	0.996189
779.246889	0.996985
779.571086	0.995514
779.895236	0.996187
780.219339	0.996132
780.543397	0.995439
780.867409	0.996516
781.191374	0.996505
781.515294	0.996256
781.839167	0.996008
782.162995	0.996487
782.486776	0.995614
782.810511	0.995564
783.134201	0.996763
783.457844	0.996659
783.781441	0.996440
784.104993	0.994606
784.428498	0.995632
784.751958	0.997665
785.075372	0.997049
785.398739	0.995582
785.722061	0.995757
786.045337	0.996909
786.368568	0.995045
786.691752	0.996567
787.014891	0.996649
787.337983	0.994813
787.661030	0.995229
787.984031	0.995226
788.306987	0.995014
788.629897	0.993361
788.952760	0.994150
789.275579	0.994871
789.598351	0.994669
789.921078	0.995210
790.243759	0.995139
790.566395	0.994341
790.888984	0.995073
791.211529	0.995982
791.534027	0.995928
791.856480	0.996460
792.178888	0.994928
792.501249	0.996226
792.823566	0.998089
793.145836	0.996474
793.468062	0.996226
793.790241	0.997405
794.112375	0.995188
794.434464	0.996639
794.756507	0.995435
795.078505	0.996623
795.400457	0.996843
795.722364	0.996006
796.044226	0.995314
796.366042	0.994742
796.687812	0.993483
797.009538	0.994847
797.331218	0.995640
797.652852	0.995682
797.974442	0.994905
798.295986	0.996628
798.617484	0.994318
798.938938	0.995034
799.260346	0.994688
799.581709	0.995281
799.903026	0.996826
800.224299	0.995565
800.545526	0.995750
800.866708	0.995323
801.187845	0.995841
801.508936	0.996173
801.829983	0.996523
802.150984	0.996862
802.471940	0.996231
802.792851	0.996629
803.113717	0.997311
803.434538	0.996957
803.755314	0.997898
804.076045	0.997124
804.396731	0.996565
804.717372	0.995166
805.037967	0.996817
805.358518	0.997040
805.679024	0.996108
805.999485	0.996570
806.319901	0.997291
806.640272	0.997814
806.960598	0.996548
807.280879	0.995970
807.601115	0.997857
807.921306	0.997207
808.241453	0.995422
808.561554	0.995486
808.881611	0.996023
809.201623	0.995397
809.521590	0.995844
809.841513	0.997296
810.161390	0.995656
810.481223	0.996143
810.801011	0.997081
811.120755	0.997674
811.440453	0.995631
811.760107	0.997276
812.079716	0.996753
812.399281	0.996982
812.718801	0.996243
813.038276	0.996530
813.357707	0.997110
813.677093	0.998314
813.996434	0.997179
814.315731	0.997575
814.634983	0.996883
814.954191	0.996894
815.273354	0.995995
815.592473	0.995577
815.911547	0.996907
816.230577	0.996269
816.549562	0.995921
816.868502	0.995288
817.187399	0.997420
817.506250	0.996463
817.825058	0.994958
818.143821	0.995319
818.462539	0.994700
818.781213	0.995549
819.099843	0.995557
819.418429	0.993338
819.736970	0.993735
820.055466	0.991343
820.373919	0.991327
820.692327	0.989246
821.010691	0.987853
821.329011	0.984596
821.647286	0.980877
821.965517	0.975576
822.283704	0.970875
822.601847	0.968177
822.919945	0.969371
823.237999	0.972202
823.556010	0.974351
823.873976	0.977074
824.191897	0.979581
824.509775	0.982380
824.827609	0.984013
825.145398	0.986266
825.463144	0.984184
825.780845	0.985666
826.098502	0.984993
826.416116	0.984470
826.733685	0.981584
827.051210	0.978833
827.368692	0.979420
827.686129	0.980756
828.003522	0.984534
828.320872	0.986152
828.638177	0.987947
828.955439	0.991407
829.272656	0.992269
829.589830	0.992075
829.906960	0.994036
830.224046	0.992814
830.541088	0.994764
830.858086	0.992968
831.175041	0.995838
831.491952	0.994877
831.808819	0.994334
832.125642	0.994501
832.442421	0.994609
832.759157	0.994192
833.075849	0.990549
833.392497	0.988259
833.709101	0.985122
834.025662	0.985760
834.342179	0.986280
834.658653	0.989309
834.975083	0.990580
835.291469	0.991133
835.607811	0.992656
835.924110	0.993946
836.240366	0.995136
836.556578	0.995515
836.872746	0.995405
837.188871	0.995711
837.504952	0.996375
837.820990	0.997170
838.136984	0.995882
838.452935	0.997114
838.768842	0.996429
839.084706	0.996864
839.400526	0.996285
839.716303	0.992787
840.032037	0.991992
840.347727	0.992089
840.663373	0.993171
840.978977	0.994250
841.294537	0.995645
841.610054	0.996638
841.925527	0.996213
842.240957	0.996931
842.556344	0.996926
842.871687	0.997904
843.186987	0.997136
843.502244	0.998898
843.817458	0.997410
844.132629	0.997891
844.447756	0.998569
844.762840	0.998140
845.077881	0.999204
845.392879	0.997013
845.707833	0.998442
846.022745	0.998598
846.337613	0.999086
846.652438	0.999058
846.967221	0.999205
847.281960	0.997972
847.596656	0.999033
847.911309	0.999913
848.225919	0.997885
848.540485	0.999337
848.855009	0.999567
849.169490	0.998689
849.483928	0.999321
849.798323	0.998115
850.112675	1.000287
850.426984	0.998975
850.741251	0.998481
851.055474	0.998987
851.369654	0.999740
851.683792	0.999115
851.997887	0.998305
852.311938	0.999083
852.625947	0.997843
852.939914	0.998596
853.253837	0.999745
853.567718	0.999591
853.881555	0.999566
854.195350	0.999150
854.509103	0.998961
854.822812	0.998521
855.136479	0.999073
855.450103	0.999894
855.763685	0.999737
856.077224	0.999465
856.390720	0.998551
856.704173	1.000074
857.017584	0.999501
857.330953	0.999091
857.644278	0.998051
857.957561	0.999310
858.270802	0.999660
858.584000	0.998888
858.897155	0.998089
859.210268	0.998852
859.523339	0.999501
859.836367	0.998671
860.149352	0.997679
860.462295	0.998129
860.775195	0.998975
861.088054	0.996715
861.400869	0.997987
861.713642	0.998535
862.026373	0.999895
862.339062	0.999017
862.651708	0.999248
862.964312	0.999771
863.276873	0.999500
863.589392	0.998388
863.901869	0.998745
864.214303	0.998495
864.526696	0.998754
864.839045	0.999100
865.151353	0.997996
865.463619	0.997725
865.775842	0.998278
866.088023	0.999394
866.400162	0.998695
866.712258	0.999346
867.024313	0.998133
867.336325	0.998197
867.648296	0.999440
867.960224	0.998401
868.272110	0.998456
868.583954	0.998982
868.895755	0.998755
869.207515	0.998315
869.519233	0.999207
869.830909	0.997719
870.142542	0.997184
870.454134	0.998536
870.765684	0.997864
871.077191	0.998781
871.388657	0.998215
871.700081	0.998890
872.011463	0.998682
872.322803	0.996739
872.634101	0.997638
872.945357	0.996658
873.256571	0.997293
873.567744	0.997791
873.878874	0.997804
874.189963	0.997513
874.501010	0.998714
874.812015	0.997192
875.122979	0.997721
875.433900	0.996733
875.744780	0.997993
876.055618	0.995928
876.366415	0.997669
876.677169	0.997970
876.987882	0.996355
877.298554	0.997798
877.609183	0.996858
877.919771	0.996533
878.230317	0.997243
878.540822	0.994511
878.851285	0.994962
879.161707	0.994815
879.472087	0.995140
879.782425	0.991913
880.092722	0.990246
880.402977	0.985994
880.713191	0.981328
881.023363	0.976543
881.333494	0.972972
881.643583	0.973006
881.953631	0.972243
882.263637	0.972656
882.573602	0.973886
882.883526	0.977038
883.193408	0.978757
883.503248	0.981273
883.813048	0.983162
884.122806	0.985177
884.432522	0.986415
884.742197	0.989685
885.051831	0.989846
885.361424	0.990880
885.670975	0.992379
885.980485	0.992393
886.289954	0.992909
886.599382	0.993853
886.908768	0.995443
887.218113	0.994549
887.527417	0.995507
887.836680	0.995888
888.145901	0.996180
888.455082	0.997758
888.764221	0.997385
889.073319	0.996060
889.382376	0.997357
889.691392	0.995389
890.000366	0.996478
890.309300	0.996538
890.618193	0.997178
890.927044	0.996085
891.235855	0.995701
891.544625	0.996834
891.853353	0.996837
892.162041	0.995482
892.470687	0.995972
892.779293	0.995332
893.087858	0.995359
893.396381	0.994000
893.704864	0.991959
894.013306	0.991804
894.321707	0.989671
894.630068	0.987212
894.938387	0.985603
895.246665	0.985769
895.554903	0.986981
895.863100	0.989235
896.171256	0.989850
896.479371	0.991090
896.787446	0.991987
897.095480	0.993310
897.403473	0.994123
897.711425	0.993755
898.019336	0.994904
898.327207	0.995684
898.635038	0.994196
898.942827	0.995722
899.250576	0.994493
899.558284	0.996669
899.865952	0.995772
900.173579	0.997167
900.481165	0.996934
900.788711	0.995647
901.096216	0.996389
901.403681	0.996985
901.711105	0.996903
902.018489	0.996551
902.325832	0.996813
902.633135	0.996288
902.940397	0.996606
903.247619	0.995328
903.554800	0.992433
903.861941	0.989580
904.169041	0.985040
904.476101	0.982843
904.783121	0.982234
905.090100	0.983077
905.397039	0.986531
905.703938	0.988268
906.010796	0.989914
906.317614	0.992691
906.624391	0.993832
906.931129	0.995076
907.237826	0.996366
907.544483	0.996605
907.851099	0.996066
908.157675	0.996327
908.464211	0.998286
908.770707	0.996415
909.077163	0.998050
909.383578	0.998751
909.689954	0.998554
909.996289	0.998749
910.302584	0.998923
910.608839	0.999609
910.915054	0.998388
911.221229	0.999084
911.527363	0.997561
911.833458	0.998990
912.139513	0.998194
912.445527	0.998647
912.751502	0.998294
913.057436	0.997467
913.363331	0.998113
913.669186	0.997470
913.975000	0.997459
914.280775	0.996151
914.586510	0.994304
914.892205	0.992075
915.197859	0.991694
915.503475	0.989138
915.809050	0.985872
916.114585	0.983054
916.420081	0.983187
916.725536	0.985029
917.030952	0.984290
917.336328	0.985363
917.641665	0.987373
917.946961	0.988253
918.252218	0.989345
918.557435	0.991837
918.862612	0.992431
919.167750	0.993163
919.472848	0.994461
919.777906	0.996176
920.082925	0.996849
920.387904	0.996555
920.692843	0.997082
920.997743	0.995448
921.302603	0.997282
921.607423	0.996397
921.912204	0.997728
922.216946	0.998587
922.521647	0.997099
922.826310	0.997054
923.130932	0.998991
923.435516	0.998065
923.740059	0.998217
924.044564	0.997558
924.349028	0.997788
924.653454	1.000007
924.957840	0.998049
925.262186	0.999053
925.566493	0.999378
925.870761	0.998938
926.174989	0.998811
926.479178	1.000079
926.783328	0.999220
927.087438	0.999728
927.391509	0.998476
927.695541	0.999373
927.999533	0.999775
928.303486	1.000501
928.607400	1.000024
928.911275	0.999986
929.215110	0.999891
929.518906	1.000169
929.822663	1.000074
930.126381	1.001631
930.430060	0.999460
930.733699	0.999423
931.037299	1.000179
931.340861	1.000046
931.644383	0.999017
931.947866	1.000004
932.251309	1.000383
932.554714	0.999364
932.858080	0.999478
933.161407	0.999490
933.464694	0.999057
933.767943	0.999377
934.071153	1.000841
934.374323	0.999775
934.677455	1.000179
934.980548	0.999653
935.283602	1.001481
935.586617	0.999396
935.889593	1.001012
936.192530	1.000882
936.495428	0.998864
936.798287	0.999440
937.101108	0.999827
937.403890	0.999543
937.706632	1.001861
938.009336	0.998810
938.312002	0.999196
938.614628	0.999557
938.917216	0.998964
939.219765	0.997562
939.522275	0.999401
939.824747	0.999146
940.127179	0.999315
940.429573	1.000231
940.731929	0.998993
941.034246	0.998302
941.336524	0.997229
941.638763	0.997498
941.940964	0.999434
942.243126	0.998516
942.545250	0.999304
942.847335	0.999670
943.149381	0.999473
943.451389	0.997966
943.753359	0.999171
944.055290	1.001175
944.357182	1.000177
944.659036	1.000371
944.960851	1.000461
945.262628	0.999531
945.564367	0.999344
945.866067	0.999639
946.167729	1.000517
946.469352	0.999365
946.770937	0.997634
947.072484	1.001136
947.373992	0.999225
947.675462	0.998479
947.976893	0.998438
948.278286	1.000396
948.579641	1.000665
948.880958	1.000414
949.182236	0.999431
949.483476	1.000771
949.784678	0.999870
950.085841	0.999633
950.386967	0.998802
950.688054	0.999544
950.989103	0.998705
951.290114	0.999186
951.591087	1.000277
951.892021	0.999397
952.192917	0.999561
952.493776	0.999419
952.794596	0.998971
953.095378	0.998359
953.396122	1.000870
953.696828	0.999493
953.997496	0.999036
954.298126	1.000505
954.598718	0.998670
954.899272	1.000982
955.199788	0.999501
955.500266	1.000526
955.800706	1.000098
956.101108	0.998970
956.401472	1.001536
956.701798	0.999233
957.002087	0.999884
957.302337	0.999885
957.602550	1.001928
957.902724	0.999828
958.202861	1.000255
958.502960	1.000004
958.803022	1.002034
959.103045	0.999815
959.403031	1.001187
959.702979	1.001489
960.002889	1.001005
960.302762	0.999483
960.602596	1.002015
960.902393	1.000517
961.202153	1.000569
961.501875	1.000941
961.801559	1.001950
962.101205	1.001048
962.400814	1.001628
962.700385	1.001641
962.999918	1.001797
963.299414	0.999451
963.598873	1.001769
963.898293	1.001757
964.197677	1.000381
964.497022	1.001934
964.796331	1.000067
965.095601	1.002094
965.394835	1.001920
965.694030	1.002979
965.993189	1.000937
966.292309	1.000569
966.591393	1.000177
966.890439	1.001071
967.189447	1.001371
967.488419	1.001520
967.787353	1.001723
968.086249	1.001074
968.385108	1.001675
968.683930	1.001801
968.982714	1.001147
969.281462	1.001141
969.580172	1.001517
969.878844	1.001832
970.177480	1.001134
970.476078	1.003035
970.774639	1.000813
971.073162	1.001684
971.371649	0.999173
971.670098	1.000676
971.968510	1.001319
972.266885	1.000906
972.565223	1.001060
972.863524	1.000389
973.161788	1.000868
973.460014	1.003283
973.758204	0.999345
974.056356	1.000395
974.354471	0.999675
974.652550	1.003227
974.950591	1.000305
975.248595	1.001472
975.546563	1.000704
975.844493	0.999882
976.142386	1.000818
976.440243	1.002354
976.738062	1.002008
977.035845	1.000595
977.333590	1.002474
977.631299	1.000418
977.928971	1.000181
978.226606	1.002423
978.524204	1.000235
978.821765	1.001351
979.119290	1.002006
979.416777	1.000913
979.714228	1.000975
980.011642	1.002380
980.309020	1.000907
980.606360	1.000942
980.903664	1.001279
981.200931	1.001528
981.498162	1.001125
981.795356	1.002094
982.092513	1.002337
982.389633	1.001128
982.686717	0.999199
982.983764	1.000964
983.280775	0.999907
983.577749	1.000351
983.874686	1.000578
984.171587	1.000617
984.468451	1.000678
984.765279	1.001436
985.062070	1.000127
985.358824	1.000457
985.655543	1.001655
985.952224	1.000993
986.248869	1.001051
986.545478	1.002183
986.842050	1.001640
987.138586	1.000465
987.435086	1.001145
987.731549	1.002630
988.027975	1.001774
988.324366	1.001225
988.620719	1.002170
988.917037	1.000293
989.213318	1.000682
989.509563	1.001297
989.805772	1.001843
990.101944	1.002260
990.398080	1.002691
990.694180	1.001542
990.990244	1.001400
991.286271	1.001137
991.582262	1.002960
991.878217	1.001190
992.174136	1.002611
992.470019	1.002791
992.765865	1.002011
993.061676	1.000896
993.357450	1.002101
993.653188	1.003200
993.948890	1.000589
994.244556	1.000660
994.540186	1.002205
994.835780	1.001136
995.131337	1.002240
995.426859	1.002010
995.722345	1.002031
996.017795	1.001825
996.313208	1.001205
996.608586	1.001229
996.903928	1.003254
997.199234	1.001013
997.494504	1.003577
997.789738	1.000188
998.084936	1.001686
998.380099	1.000215
998.675225	1.002289
998.970316	1.001122
999.265371	1.001586
999.560390	1.001212
999.855373	1.002125
1000.150320	1.001737
1000.445232	1.002558
1000.740108	1.001452
1001.034948	1.000419
1001.329752	1.002896
1001.624521	1.000928
1001.919254	1.002063
1002.213951	1.002418
1002.508613	1.001247
1002.803239	1.000638
1003.097829	1.002952
1003.392384	1.001653
1003.686903	1.001953
1003.981386	1.001759
1004.275834	1.003435
1004.570246	1.000404
1004.864623	1.002588
1005.158964	1.001119
1005.453270	1.002756
1005.747540	1.001735
1006.041775	1.002569
1006.335974	1.001118
1006.630138	1.002763
1006.924266	0.999688
1007.218359	0.999970
1007.512416	1.002433
1007.806438	1.001178
1008.100425	1.002096
1008.394376	1.003190
1008.688292	1.000650
1008.982172	1.001506
1009.276017	1.002402
1009.569827	1.003352
1009.863602	1.002019
1010.157341	1.002252
1010.451045	1.002195
1010.744714	1.002948
1011.038347	1.002683
1011.331945	1.000568
1011.625508	1.001756
1011.919036	1.001466
1012.212528	1.001874
1012.505986	1.001810
1012.799408	1.002055
1013.092795	1.001531
1013.386147	1.002433
1013.679464	1.003590
1013.972745	1.002030
1014.265992	1.001521
1014.559204	1.001680
1014.852380	1.003032
1015.145521	1.001876
1015.438628	1.002597
1015.731699	1.001597
1016.024736	1.002625
1016.317737	1.002374
1016.610703	1.002669
1016.903635	1.001686
1017.196531	1.001279
1017.489393	1.001191
1017.782219	1.001558
1018.075011	1.001923
1018.367768	1.000571
1018.660490	1.001255
1018.953177	1.001255
1019.245829	1.001255
