Dividing Wavelength (nm)	Counts (n)	Blue Motor Position (mm): 37.700000	Red Motor Position (mm): 0.000000	
326.493990	0.998655
326.888308	0.998655
327.282561	0.998655
327.676750	1.000379
328.070874	1.002317
328.464933	1.001444
328.858929	1.000055
329.252859	1.001124
329.646726	0.999752
330.040528	0.999376
330.434265	0.999546
330.827938	1.000000
331.221547	1.000666
331.615091	1.000006
332.008571	1.001255
332.401986	1.000448
332.795338	1.000008
333.188625	1.001545
333.581847	0.999160
333.975006	0.999546
334.368100	1.000999
334.761129	0.999322
335.154095	0.999929
335.546996	1.000009
335.939833	0.998583
336.332606	0.999911
336.725315	0.998566
337.117960	1.000315
337.510540	0.998453
337.903056	0.999846
338.295508	1.000704
338.687896	1.000289
339.080220	0.999744
339.472480	0.999098
339.864676	1.000057
340.256807	0.998105
340.648875	0.999745
341.040879	1.000003
341.432818	0.999800
341.824694	0.999059
342.216506	1.001124
342.608253	0.999735
342.999937	0.998474
343.391557	0.998941
343.783113	1.001970
344.174605	1.000302
344.566033	0.999051
344.957397	1.000117
345.348697	1.000336
345.739934	1.000407
346.131106	0.999919
346.522215	1.000255
346.913260	0.999458
347.304241	0.998667
347.695159	0.999788
348.086012	0.999501
348.476802	0.999529
348.867528	0.999608
349.258191	1.000815
349.648789	0.999278
350.039324	1.000108
350.429796	0.998960
350.820203	0.996968
351.210548	1.000099
351.600828	0.999043
351.991045	0.999435
352.381198	0.999300
352.771288	0.999015
353.161314	0.999710
353.551276	0.998999
353.941175	0.997327
354.331010	1.000714
354.720782	0.999425
355.110490	0.998349
355.500135	0.999984
355.889717	0.997265
356.279235	0.997437
356.668689	0.998596
357.058080	0.999187
357.447408	0.998684
357.836672	0.999268
358.225873	0.998494
358.615010	0.998374
359.004084	0.997170
359.393095	0.998489
359.782043	0.998630
360.170927	0.998821
360.559748	0.999118
360.948505	0.998976
361.337199	0.998396
361.725830	0.999287
362.114398	0.998152
362.502903	0.997935
362.891344	0.997176
363.279722	0.998059
363.668037	0.998895
364.056289	0.997977
364.444478	0.998965
364.832603	0.997771
365.220665	0.997485
365.608665	0.997910
365.996601	0.996504
366.384474	0.996796
366.772284	0.997211
367.160031	0.996323
367.547715	0.996588
367.935336	0.995857
368.322893	0.994217
368.710388	0.993474
369.097820	0.990714
369.485189	0.989518
369.872495	0.988117
370.259738	0.985240
370.646918	0.982763
371.034035	0.980623
371.421090	0.978105
371.808081	0.973316
372.195010	0.970068
372.581875	0.964850
372.968678	0.960061
373.355418	0.957920
373.742096	0.949536
374.128710	0.945647
374.515262	0.941042
374.901751	0.934573
375.288177	0.930046
375.674540	0.924701
376.060841	0.916886
376.447079	0.910489
376.833254	0.904514
377.219367	0.899268
377.605417	0.887338
377.991404	0.884256
378.377329	0.878643
378.763191	0.871249
379.148991	0.863221
379.534727	0.855457
379.920402	0.847101
380.306013	0.844524
380.691563	0.832339
381.077049	0.824204
381.462474	0.820829
381.847835	0.808866
382.233134	0.804448
382.618371	0.804886
383.003545	0.787143
383.388657	0.785557
383.773706	0.778752
384.158693	0.773623
384.543618	0.768971
384.928480	0.759253
385.313280	0.749746
385.698017	0.750059
386.082692	0.737719
386.467305	0.736313
386.851856	0.731609
387.236344	0.726180
387.620770	0.720955
388.005133	0.714070
388.389435	0.708236
388.773674	0.705902
389.157851	0.698087
389.541965	0.696238
389.926018	0.702563
390.310008	0.688995
390.693936	0.686802
391.077802	0.678181
391.461606	0.680580
391.845348	0.670098
392.229027	0.668728
392.612645	0.667922
392.996200	0.654770
393.379694	0.648154
393.763125	0.639236
394.146494	0.643598
394.529801	0.635119
394.913047	0.627571
395.296230	0.634175
395.679351	0.627500
396.062410	0.625446
396.445408	0.630124
396.828343	0.627093
397.211217	0.624026
397.594028	0.638571
397.976778	0.632727
398.359466	0.632152
398.742092	0.630104
399.124656	0.645049
399.507158	0.637646
399.889598	0.638741
400.271977	0.635490
400.654294	0.643790
401.036549	0.648364
401.418742	0.655736
401.800874	0.649380
402.182944	0.651514
402.564952	0.651144
402.946898	0.658728
403.328783	0.665306
403.710606	0.680387
404.092367	0.668187
404.474067	0.679819
404.855705	0.685505
405.237282	0.698614
405.618797	0.697191
406.000250	0.702052
406.381642	0.702200
406.762972	0.714206
407.144240	0.722446
407.525447	0.730166
407.906593	0.735141
408.287677	0.740282
408.668700	0.753848
409.049661	0.759616
409.430560	0.765637
409.811399	0.778796
410.192176	0.778718
410.572891	0.790761
410.953545	0.794149
411.334138	0.809454
411.714669	0.813429
412.095139	0.827196
412.475547	0.829606
412.855894	0.839376
413.236180	0.847227
413.616405	0.857103
413.996568	0.861472
414.376670	0.871536
414.756711	0.879015
415.136691	0.886156
415.516609	0.890488
415.896466	0.896992
416.276262	0.901613
416.655997	0.909381
417.035670	0.912434
417.415283	0.917484
417.794834	0.923577
418.174324	0.929544
418.553753	0.935605
418.933121	0.938343
419.312428	0.943146
419.691674	0.949124
420.070859	0.952632
420.449983	0.955973
420.829045	0.958691
421.208047	0.963206
421.586988	0.966898
421.965867	0.968996
422.344686	0.971914
422.723444	0.974722
423.102141	0.978486
423.480777	0.979072
423.859352	0.982307
424.237866	0.983649
424.616319	0.986132
424.994712	0.986202
425.373044	0.988064
425.751314	0.988756
426.129524	0.991591
426.507673	0.990460
426.885762	0.992386
427.263789	0.992769
427.641756	0.993739
428.019662	0.994884
428.397508	0.995455
428.775292	0.994613
429.153016	0.995998
429.530679	0.996619
429.908282	0.997471
430.285824	0.997831
430.663305	0.996897
431.040726	0.997969
431.418086	0.998266
431.795385	0.997504
432.172624	0.998961
432.549802	0.998274
432.926920	0.999447
433.303977	0.998599
433.680974	0.999217
434.057910	0.998050
434.434786	0.998883
434.811601	0.999061
435.188355	0.999741
435.565050	0.999664
435.941683	0.998864
436.318257	0.998231
436.694770	0.998625
437.071222	0.999418
437.447614	0.999212
437.823946	0.999248
438.200218	0.998684
438.576429	0.999485
438.952580	0.999605
439.328670	0.998833
439.704700	0.999430
440.080670	1.000582
440.456580	0.998895
440.832429	0.999303
441.208218	0.999125
441.583947	0.998802
441.959616	0.998288
442.335224	1.000101
442.710773	1.000193
443.086261	0.999539
443.461689	0.999172
443.837057	0.998996
444.212365	1.000828
444.587612	0.999818
444.962800	0.999677
445.337927	0.999744
445.712995	0.998864
446.088002	0.999176
446.462949	0.999386
446.837837	1.001018
447.212664	0.999203
447.587431	0.999540
447.962139	1.000101
448.336786	0.998666
448.711374	0.999048
449.085901	0.999852
449.460369	1.000126
449.834776	0.999452
450.209124	0.999390
450.583412	0.999355
450.957640	0.998957
451.331808	1.000185
451.705917	0.999914
452.079965	0.999271
452.453954	0.999619
452.827883	0.999542
453.201752	0.999897
453.575562	0.999189
453.949311	1.000170
454.323001	0.999081
454.696632	0.999816
455.070202	0.999758
455.443713	0.999860
455.817164	0.999311
456.190556	0.999448
456.563888	0.999834
456.937160	0.999707
457.310373	0.999827
457.683526	1.000015
458.056619	0.999765
458.429653	0.998735
458.802628	0.998535
459.175542	0.999595
459.548398	0.999459
459.921194	1.000125
460.293930	1.000638
460.666607	1.000233
461.039224	1.000085
461.411782	0.999562
461.784280	0.998786
462.156719	1.000024
462.529099	0.999115
462.901419	0.999433
463.273680	0.998790
463.645882	0.998933
464.018024	0.999881
464.390106	0.999094
464.762130	0.999744
465.134094	0.999423
465.505999	0.999380
465.877845	0.999302
466.249631	0.999444
466.621358	0.998370
466.993026	0.998795
467.364634	0.998974
467.736184	0.999215
468.107674	0.999690
468.479105	0.998433
468.850477	0.998607
469.221790	0.999194
469.593043	0.999185
469.964238	0.999350
470.335373	0.998338
470.706449	0.999443
471.077467	0.997846
471.448425	0.999127
471.819324	0.999101
472.190164	0.998936
472.560945	0.998994
472.931667	0.998557
473.302330	0.999383
473.672934	0.999061
474.043479	0.998995
474.413965	0.998605
474.784393	0.998891
475.154761	0.998580
475.525070	0.998800
475.895321	0.999243
476.265513	0.998797
476.635645	0.999841
477.005719	0.998645
477.375734	0.998768
477.745691	0.998500
478.115588	0.998977
478.485427	0.998782
478.855207	0.998969
479.224928	0.997992
479.594591	0.998690
479.964194	0.998529
480.333739	0.998754
480.703226	0.998434
481.072653	0.998366
481.442022	0.998503
481.811333	0.998701
482.180584	0.998901
482.549777	0.998572
482.918912	0.998647
483.287988	0.999081
483.657005	0.998876
484.025964	0.998997
484.394864	0.998521
484.763706	0.998872
485.132489	0.999538
485.501213	0.998879
485.869879	0.998718
486.238487	0.998368
486.607036	0.999297
486.975527	0.998978
487.343959	0.998179
487.712333	0.999379
488.080648	0.998504
488.448905	0.999570
488.817104	0.998510
489.185244	0.999281
489.553326	0.999390
489.921350	0.999067
490.289315	0.998951
490.657222	0.998461
491.025070	0.999026
491.392861	0.999364
491.760593	0.998870
492.128267	0.999153
492.495883	0.998199
492.863440	0.998856
493.230939	0.998450
493.598380	0.998878
493.965763	0.998887
494.333088	0.998799
494.700354	0.998019
495.067563	0.998473
495.434713	0.999475
495.801805	0.998525
496.168839	0.999066
496.535815	0.999149
496.902733	0.998297
497.269593	0.998436
497.636395	0.998510
498.003139	0.998456
498.369825	0.999103
498.736453	0.998824
499.103023	0.998982
499.469535	0.999278
499.835989	0.998852
500.202385	0.999027
500.568723	0.998653
500.935003	0.998733
501.301226	0.999069
501.667390	0.998542
502.033497	0.998637
502.399546	0.998799
502.765537	0.998802
503.131470	0.998788
503.497345	0.998650
503.863163	0.998900
504.228923	0.999091
504.594625	0.998652
504.960269	0.999392
505.325856	1.000244
505.691385	0.999322
506.056856	0.999284
506.422270	0.999193
506.787625	0.999187
507.152924	0.998652
507.518164	0.998833
507.883347	0.998615
508.248472	0.999141
508.613540	0.998497
508.978550	0.999344
509.343503	0.999012
509.708398	0.999266
510.073236	0.999462
510.438016	0.998762
510.802738	0.998680
511.167403	0.998471
511.532010	0.999188
511.896561	0.999681
512.261053	0.998475
512.625488	0.999085
512.989866	0.998626
513.354186	0.998366
513.718449	0.999136
514.082655	0.998159
514.446803	0.998862
514.810894	0.999192
515.174927	0.999694
515.538904	0.999595
515.902822	0.999503
516.266684	0.999549
516.630488	0.999347
516.994235	0.998813
517.357925	0.999286
517.721558	0.999442
518.085133	0.998516
518.448651	0.998862
518.812112	0.999307
519.175516	0.998787
519.538863	0.998133
519.902152	0.999123
520.265385	0.999140
520.628560	0.998328
520.991678	0.998812
521.354739	0.999679
521.717743	0.998956
522.080690	0.999079
522.443580	0.999775
522.806413	0.998358
523.169189	0.999364
523.531908	0.998800
523.894569	0.998898
524.257174	0.998937
524.619722	0.998837
524.982213	0.999176
525.344647	0.999025
525.707025	0.998534
526.069345	0.998980
526.431608	0.999371
526.793815	1.000037
527.155964	0.999767
527.518057	0.999728
527.880093	0.999266
528.242072	0.998769
528.603995	0.998927
528.965860	0.999119
529.327669	0.999082
529.689421	0.998487
530.051117	0.999732
530.412755	0.998786
530.774337	0.998871
531.135862	0.999289
531.497331	0.999202
531.858743	0.999274
532.220098	0.998571
532.581396	0.998961
532.942638	0.999280
533.303824	0.999317
533.664953	0.998792
534.026025	0.999659
534.387040	0.998668
534.747999	0.998983
535.108902	0.999435
535.469748	0.999606
535.830537	0.999484
536.191270	0.998778
536.551947	0.998749
536.912567	0.999374
537.273131	0.999473
537.633638	0.999139
537.994089	0.999521
538.354483	0.998802
538.714821	0.999332
539.075103	0.999050
539.435328	0.999584
539.795497	0.999318
540.155609	0.999128
540.515665	0.999808
540.875665	0.998666
541.235609	0.999453
541.595496	0.999195
541.955328	0.999728
542.315102	0.999521
542.674821	0.999777
543.034483	0.999691
543.394090	0.999091
543.753640	0.999928
544.113134	0.999098
544.472571	0.999362
544.831953	0.999397
545.191278	0.999566
545.550548	0.998724
545.909761	0.999410
546.268918	0.999470
546.628019	0.999960
546.987064	0.999410
547.346053	0.998409
547.704986	0.999645
548.063863	0.999091
548.422684	0.999924
548.781449	0.999153
549.140158	0.999180
549.498811	0.999128
549.857408	0.998392
550.215949	0.998796
550.574434	0.999222
550.932864	0.999716
551.291237	0.999205
551.649555	0.999753
552.007817	0.999383
552.366022	1.000029
552.724173	0.999523
553.082267	0.999893
553.440305	0.998757
553.798288	0.998497
554.156215	0.999409
554.514086	0.999376
554.871902	0.999260
555.229661	0.998864
555.587365	0.999179
555.945014	0.999442
556.302606	0.999090
556.660143	1.000224
557.017625	0.999411
557.375050	0.999274
557.732421	0.999409
558.089735	0.998070
558.446994	0.998988
558.804197	0.999376
559.161345	0.998303
559.518437	0.999167
559.875474	0.999510
560.232455	0.999501
560.589381	0.999779
560.946251	0.999274
561.303065	0.999829
561.659825	0.998918
562.016528	0.999960
562.373177	0.999154
562.729770	0.998931
563.086307	0.998423
563.442789	0.999469
563.799216	0.998704
564.155587	0.999648
564.511904	0.999527
564.868164	0.998120
565.224370	0.999039
565.580520	0.999012
565.936615	0.999470
566.292654	0.999333
566.648638	0.999827
567.004567	0.999370
567.360441	0.999980
567.716260	0.998915
568.072023	0.999032
568.427732	0.999706
568.783385	0.999200
569.138982	0.999400
569.494525	0.999363
569.850013	0.999762
570.205445	0.999288
570.560823	0.998539
570.916145	0.998511
571.271412	0.999013
571.626625	1.000029
571.981782	0.999308
572.336884	0.998471
572.691931	0.999651
573.046923	0.999960
573.401860	0.998980
573.756743	0.999404
574.111570	0.998609
574.466342	0.999859
574.821059	0.999212
575.175722	0.999343
575.530330	0.998827
575.884882	0.999332
576.239380	1.000234
576.593823	0.998962
576.948211	0.998998
577.302544	0.999203
577.656823	0.999755
578.011047	0.998683
578.365216	1.000099
578.719330	0.999347
579.073389	0.998627
579.427394	0.999384
579.781344	0.999362
580.135239	0.997911
580.489080	0.998784
580.842866	0.999081
581.196597	0.998626
581.550273	0.999025
581.903895	0.999795
582.257463	0.999177
582.610975	0.998707
582.964434	0.999623
583.317837	0.999790
583.671186	0.999179
584.024481	0.998864
584.377721	0.999067
584.730906	0.998992
585.084037	0.999509
585.437113	1.000384
585.790135	0.999023
586.143103	0.998963
586.496016	0.998740
586.848874	0.999849
587.201679	0.999307
587.554428	0.998799
587.907124	1.000183
588.259765	0.999567
588.612352	1.000201
588.964884	0.999780
589.317362	0.999617
589.669786	0.998975
590.022155	0.998736
590.374470	0.999377
590.726731	0.999316
591.078937	0.999120
591.431090	0.998783
591.783188	0.999042
592.135232	0.999933
592.487222	0.998633
592.839157	0.998798
593.191038	0.999680
593.542866	0.999095
593.894639	0.999217
594.246358	0.999472
594.598022	0.999418
594.949633	0.999395
595.301190	0.999128
595.652692	0.998611
596.004141	0.999364
596.355535	0.998939
596.706876	0.999465
597.058162	0.999591
597.409395	0.999102
597.760573	0.999313
598.111698	0.999282
598.462768	0.998862
598.813785	0.998782
599.164748	0.998986
599.515657	0.999108
599.866511	0.999226
600.217312	0.999650
600.568060	0.999266
600.918753	0.999918
601.269392	0.999726
601.619978	0.998834
601.970510	0.998624
602.320988	0.999270
602.671412	0.999294
603.021783	0.999558
603.372100	0.999079
603.722363	0.999504
604.072572	0.999625
604.422728	0.998943
604.772830	0.999179
605.122878	0.999168
605.472872	0.999614
605.822813	0.998896
606.172701	0.999424
606.522534	0.999445
606.872314	1.000110
607.222041	0.998974
607.571714	0.998853
607.921333	0.999591
608.270899	0.998482
608.620411	0.999479
608.969870	1.000130
609.319276	0.999081
609.668627	0.999876
610.017926	0.999277
610.367171	0.999603
610.716362	0.999532
611.065500	0.998856
611.414585	0.999761
611.763616	0.998634
612.112594	0.998527
612.461518	0.998835
612.810389	0.999525
613.159207	0.999042
613.507971	0.998467
613.856682	0.999457
614.205340	0.998922
614.553945	0.998969
614.902496	0.998934
615.250994	0.999180
615.599439	0.999477
615.947830	0.998662
616.296169	0.999217
616.644454	0.998827
616.992686	0.999353
617.340864	0.999020
617.688990	0.999125
618.037063	0.999103
618.385082	0.998837
618.733048	0.998816
619.080961	0.999136
619.428821	0.998904
619.776628	0.998422
620.124382	1.000463
620.472083	0.998730
620.819731	1.000106
621.167326	0.999179
621.514868	0.999495
621.862357	0.998912
622.209793	0.998843
622.557176	0.999108
622.904506	0.998649
623.251783	0.999020
623.599007	0.999195
623.946179	0.999382
624.293297	0.999514
624.640363	0.999724
624.987376	0.998318
625.334336	0.999160
625.681243	0.999113
626.028097	0.999103
626.374899	0.998710
626.721647	0.999292
627.068343	0.998305
627.414987	0.999402
627.761577	0.998434
628.108115	0.998102
628.454600	1.000022
628.801032	0.999871
629.147412	0.999314
629.493739	0.999845
629.840014	0.998391
630.186236	0.998997
630.532405	0.999352
630.878521	0.998358
631.224585	0.999018
631.570597	0.998105
631.916556	0.999567
632.262462	0.997840
632.608316	0.999584
632.954117	0.998743
633.299866	0.998803
633.645562	0.999233
633.991206	0.999060
634.336797	0.998637
634.682336	0.999117
635.027823	0.999271
635.373257	0.999555
635.718639	0.999696
636.063968	0.998498
636.409245	0.998356
636.754470	0.998974
637.099642	0.999695
637.444762	0.999424
637.789829	0.998631
638.134845	0.998389
638.479808	0.999779
638.824719	0.999574
639.169577	0.999153
639.514383	0.998937
639.859137	0.999268
640.203839	0.999531
640.548489	0.998528
640.893086	0.998358
641.237632	0.998695
641.582125	0.998551
641.926566	0.999339
642.270955	0.998807
642.615292	0.998442
642.959576	0.998754
643.303809	0.999475
643.647990	0.999100
643.992118	0.999710
644.336195	0.998338
644.680219	0.998815
645.024192	0.998718
645.368112	0.998027
645.711981	0.998956
646.055797	0.998315
646.399562	0.998388
646.743274	0.999122
647.086935	0.998404
647.430544	0.998738
647.774101	0.998320
648.117606	0.999683
648.461059	0.999428
648.804460	0.999241
649.147810	0.998949
649.491108	0.998808
649.834354	0.999378
650.177548	0.998210
650.520690	0.998706
650.863781	0.998771
651.206820	0.999425
651.549807	0.998684
651.892742	0.998929
652.235626	0.999615
652.578458	0.998955
652.921238	0.999285
653.263967	0.999465
653.606644	0.997798
653.949269	0.999098
654.291843	0.998225
654.634365	0.999075
654.976836	0.998254
655.319255	0.999207
655.661622	0.999509
656.003938	0.999275
656.346203	0.998228
656.688416	0.999217
657.030577	0.999794
657.372687	0.998445
657.714746	0.998792
658.056753	0.998849
658.398708	0.998755
658.740612	0.999746
659.082465	0.998938
659.424266	0.998618
659.766016	0.998395
660.107715	0.998585
660.449362	0.998739
660.790958	0.998088
661.132503	0.998941
661.473996	0.998593
661.815438	0.999505
662.156829	0.999297
662.498168	0.998573
662.839456	0.998269
663.180693	0.998761
663.521879	0.998546
663.863013	0.999044
664.204097	0.998735
664.545129	0.999211
664.886110	0.998222
665.227040	0.998447
665.567918	0.998425
665.908746	0.998809
666.249522	0.998038
666.590248	0.998270
666.930922	0.999009
667.271545	0.999384
667.612118	0.998771
667.952639	0.997826
668.293109	0.998854
668.633528	0.997892
668.973896	0.998654
669.314213	0.998149
669.654480	0.998449
669.994695	0.997802
670.334859	0.998586
670.674973	0.999064
671.015035	0.998522
671.355047	0.998164
671.695008	0.998022
672.034918	0.998226
672.374777	0.998850
672.714585	0.998055
673.054342	0.998538
673.394049	0.998710
673.733705	0.998321
674.073310	0.998924
674.412864	0.998654
674.752368	0.997881
675.091820	0.999832
675.431223	0.998884
675.770574	0.998024
676.109875	0.997702
676.449125	0.998244
676.788324	0.998048
677.127473	0.998814
677.466571	0.998692
677.805619	0.998329
678.144616	0.999146
678.483562	0.998623
678.822458	0.999002
679.161303	0.997773
679.500098	0.998959
679.838842	0.998413
680.177535	0.998909
680.516179	0.997726
680.854771	0.997787
681.193314	0.998834
681.531805	0.998225
681.870247	0.998810
682.208638	0.998491
682.546978	0.997798
682.885268	0.997557
683.223508	0.998191
683.561697	0.997977
683.899836	0.998450
684.237925	0.998608
684.575963	0.998089
684.913951	0.998103
685.251889	0.997969
685.589776	0.998224
685.927614	0.998217
686.265401	0.999101
686.603137	0.998228
686.940824	0.998805
687.278460	0.998695
687.616046	0.998163
687.953582	0.998249
688.291068	0.999120
688.628504	0.998176
688.965889	0.998262
689.303224	0.997256
689.640510	0.998209
689.977745	0.997329
690.314930	0.997951
690.652065	0.997936
690.989150	0.997335
691.326185	0.998274
691.663170	0.998023
692.000105	0.998230
692.336990	0.998024
692.673825	0.997513
693.010610	0.997549
693.347345	0.997850
693.684030	0.998452
694.020665	0.997406
694.357251	0.997576
694.693786	0.998428
695.030272	0.997205
695.366707	0.997553
695.703093	0.997419
696.039429	0.996740
696.375716	0.998142
696.711952	0.997488
697.048139	0.998109
697.384276	0.997236
697.720363	0.998095
698.056400	0.996488
698.392388	0.998318
698.728326	0.997209
699.064214	0.999123
699.400053	0.997798
699.735842	0.999038
700.071581	0.997723
700.407270	0.998073
700.742910	0.998347
701.078501	0.998312
701.414042	0.998562
701.749533	0.997699
702.084974	0.998702
702.420366	0.998102
702.755709	0.997349
703.091002	0.998680
703.426246	0.998166
703.761440	0.997966
704.096584	0.997441
704.431679	0.997733
704.766725	0.997888
705.101721	0.998796
705.436668	0.998662
705.771565	0.998314
706.106413	0.997904
706.441212	0.999080
706.775961	0.998868
707.110661	0.997764
707.445311	0.998226
707.779913	0.998947
708.114465	0.998593
708.448967	0.998611
708.783421	0.998933
709.117825	0.997736
709.452180	0.998174
709.786485	0.998432
710.120742	0.997813
710.454949	0.996977
710.789107	0.997669
711.123216	0.996830
711.457275	0.996414
711.791286	0.998350
712.125247	0.998543
712.459159	0.997392
712.793023	0.998018
713.126837	0.998624
713.460602	0.996940
713.794318	0.996679
714.127985	0.996845
714.461602	0.998334
714.795171	0.997384
715.128691	0.997530
715.462162	0.997907
715.795584	0.997303
716.128957	0.998353
716.462281	0.997388
716.795556	0.998272
717.128782	0.998694
717.461960	0.998243
717.795088	0.997789
718.128167	0.998595
718.461198	0.997877
718.794180	0.997823
719.127113	0.997480
719.459997	0.996892
719.792833	0.998127
720.125619	0.997080
720.458357	0.998089
720.791046	0.998353
721.123686	0.996996
721.456278	0.997803
721.788821	0.997781
722.121315	0.998897
722.453761	0.998368
722.786158	0.996864
723.118506	0.998117
723.450805	0.996734
723.783056	0.998056
724.115259	0.998059
724.447412	0.998878
724.779518	0.997879
725.111574	0.996331
725.443582	0.998156
725.775542	0.998322
726.107453	0.998646
726.439315	0.998948
726.771129	0.998379
727.102895	0.998558
727.434612	0.997110
727.766281	0.998206
728.097901	0.997656
728.429473	0.998794
728.760996	0.998206
729.092471	0.997831
729.423897	0.997830
729.755276	0.997563
730.086606	0.997964
730.417887	0.998203
730.749120	0.998360
731.080305	0.997214
731.411442	0.996529
731.742530	0.997334
732.073570	0.997307
732.404562	0.997866
732.735506	0.997568
733.066401	0.997866
733.397249	0.997885
733.728048	0.998567
734.058798	0.996984
734.389501	0.998499
734.720156	0.998549
735.050762	0.997540
735.381320	0.997997
735.711831	0.997566
736.042293	0.997109
736.372707	0.998885
736.703073	0.996407
737.033391	0.997102
737.363661	0.998164
737.693883	0.997803
738.024056	0.997227
738.354182	0.997415
738.684260	0.998400
739.014290	0.998288
739.344272	0.998226
739.674207	0.998313
740.004093	0.997732
740.333931	0.998089
740.663722	0.997279
740.993464	0.998584
741.323159	0.997641
741.652806	0.997996
741.982405	0.998513
742.311956	0.998439
742.641460	0.997951
742.970915	0.998146
743.300323	0.996282
743.629683	0.996546
743.958996	0.999040
744.288260	0.996559
744.617477	0.997190
744.946647	0.997684
745.275768	0.998488
745.604842	0.997050
745.933869	0.998487
746.262847	0.998653
746.591778	0.996751
746.920662	0.999314
747.249498	0.999558
747.578286	0.999968
747.907027	0.997876
748.235720	0.998320
748.564365	0.998506
748.892963	0.997095
749.221514	0.998409
749.550017	0.996678
749.878473	0.998244
750.206881	0.998746
750.535242	0.998910
750.863555	0.998119
751.191821	0.998063
751.520039	0.997751
751.848210	0.996148
752.176334	0.997658
752.504411	0.997494
752.832440	0.996999
753.160421	0.997220
753.488356	0.997722
753.816243	0.997722
754.144082	0.997823
754.471875	0.997751
754.799620	0.998494
755.127318	0.997948
755.454969	0.998303
755.782572	0.999272
756.110129	0.997821
756.437638	0.998165
756.765100	0.998456
757.092515	0.997271
757.419882	0.998361
757.747203	0.997754
758.074477	0.999323
758.401703	0.998287
758.728882	0.997769
759.056014	0.997426
759.383099	0.998433
759.710138	0.997583
760.037129	0.998983
760.364073	0.998562
760.690970	0.998169
761.017820	0.997230
761.344623	0.998648
761.671379	0.999495
761.998088	0.997958
762.324751	0.997941
762.651366	0.997625
762.977935	0.996810
763.304456	0.997248
763.630931	0.995448
763.957359	0.995564
764.283740	0.995722
764.610074	0.996376
764.936362	0.996582
765.262602	0.998463
765.588796	0.997970
765.914943	0.997731
766.241044	0.997359
766.567097	0.998072
766.893104	0.998242
767.219064	0.997374
767.544978	0.998217
767.870845	0.998460
768.196665	0.997083
768.522438	0.997750
768.848165	0.998332
769.173846	0.998921
769.499479	0.998768
769.825066	0.998391
770.150607	0.999605
770.476101	0.998162
770.801548	0.998251
771.126949	0.999770
771.452303	0.999129
771.777611	0.999140
772.102872	0.998276
772.428087	0.996792
772.753256	0.999343
773.078378	0.998588
773.403453	0.998089
773.728482	0.999929
774.053465	0.997850
774.378401	0.997961
774.703291	0.999246
775.028135	0.999713
775.352932	0.997151
775.677683	0.999541
776.002388	0.998987
776.327046	0.998515
776.651658	0.999774
776.976224	0.998153
777.300743	0.998182
777.625216	0.997810
777.949643	0.999373
778.274024	0.997339
778.598359	0.998433
778.922647	0.998290
779.246889	0.999389
779.571086	0.998636
779.895236	0.998793
780.219339	0.999508
780.543397	0.997887
780.867409	0.999448
781.191374	0.998044
781.515294	1.000042
781.839167	0.998921
782.162995	0.997950
782.486776	0.998158
782.810511	0.998357
783.134201	0.999112
783.457844	0.998746
783.781441	0.998346
784.104993	0.998430
784.428498	0.999631
784.751958	0.999752
785.075372	1.000423
785.398739	0.999184
785.722061	0.996994
786.045337	0.999755
786.368568	0.997202
786.691752	0.998680
787.014891	0.998570
787.337983	0.997405
787.661030	0.997924
787.984031	0.998924
788.306987	0.998886
788.629897	0.997497
788.952760	0.999444
789.275579	0.998353
789.598351	0.998731
789.921078	0.998604
790.243759	0.997653
790.566395	0.998256
790.888984	0.999391
791.211529	0.998692
791.534027	0.998311
791.856480	0.998197
792.178888	0.998866
792.501249	0.998185
792.823566	1.000048
793.145836	0.998641
793.468062	0.998810
793.790241	0.999589
794.112375	0.998017
794.434464	0.998925
794.756507	0.998842
795.078505	0.998734
795.400457	0.998512
795.722364	0.998705
796.044226	0.998523
796.366042	0.997896
796.687812	0.997352
797.009538	0.997870
797.331218	0.999782
797.652852	0.999608
797.974442	0.998171
798.295986	0.998536
798.617484	0.997831
798.938938	0.998881
799.260346	0.997408
799.581709	0.998561
799.903026	0.998510
800.224299	0.998277
800.545526	0.998180
800.866708	0.998747
801.187845	0.998435
801.508936	0.998550
801.829983	0.998188
802.150984	0.998704
802.471940	0.998704
802.792851	0.998421
803.113717	0.999617
803.434538	0.999855
803.755314	0.999507
804.076045	0.999543
804.396731	0.998341
804.717372	0.996936
805.037967	0.998385
805.358518	0.999253
805.679024	0.997909
805.999485	0.999824
806.319901	0.998696
806.640272	0.999321
806.960598	0.998464
807.280879	0.998850
807.601115	1.000243
807.921306	1.000089
808.241453	0.998282
808.561554	0.998435
808.881611	0.999041
809.201623	0.999123
809.521590	0.999383
809.841513	0.998588
810.161390	0.997307
810.481223	0.998426
810.801011	0.999144
811.120755	0.999772
811.440453	0.997889
811.760107	0.999399
812.079716	0.999369
812.399281	0.997925
812.718801	0.998300
813.038276	0.998669
813.357707	0.999003
813.677093	0.999152
813.996434	0.998482
814.315731	0.999472
814.634983	0.998085
814.954191	0.999132
815.273354	0.998217
815.592473	0.999366
815.911547	0.999408
816.230577	0.998855
816.549562	0.998945
816.868502	0.998398
817.187399	0.998795
817.506250	0.999069
817.825058	0.996578
818.143821	0.999040
818.462539	0.998862
818.781213	0.998170
819.099843	0.998700
819.418429	0.998337
819.736970	0.998345
820.055466	0.997189
820.373919	0.997338
820.692327	0.996217
821.010691	0.996788
821.329011	0.995260
821.647286	0.994121
821.965517	0.992542
822.283704	0.990766
822.601847	0.990694
822.919945	0.991025
823.237999	0.991214
823.556010	0.991990
823.873976	0.993559
824.191897	0.993956
824.509775	0.993608
824.827609	0.996042
825.145398	0.995293
825.463144	0.994537
825.780845	0.994379
826.098502	0.994988
826.416116	0.994720
826.733685	0.994515
827.051210	0.992918
827.368692	0.993283
827.686129	0.994302
828.003522	0.995487
828.320872	0.995228
828.638177	0.996233
828.955439	0.996289
829.272656	0.997220
829.589830	0.997393
829.906960	0.998561
830.224046	0.997482
830.541088	0.998153
830.858086	0.997847
831.175041	0.999279
831.491952	0.997472
831.808819	0.997455
832.125642	0.997958
832.442421	0.997842
832.759157	0.999134
833.075849	0.997066
833.392497	0.995932
833.709101	0.994532
834.025662	0.997019
834.342179	0.996257
834.658653	0.996853
834.975083	0.996433
835.291469	0.997224
835.607811	0.997329
835.924110	0.997982
836.240366	0.999068
836.556578	0.998672
836.872746	0.998253
837.188871	0.999323
837.504952	0.998732
837.820990	0.999678
838.136984	0.998383
838.452935	0.997717
838.768842	0.999494
839.084706	0.998185
839.400526	0.998738
839.716303	0.997790
840.032037	0.998914
840.347727	0.997627
840.663373	0.998172
840.978977	0.997781
841.294537	0.998744
841.610054	0.999252
841.925527	0.999520
842.240957	0.998720
842.556344	0.998873
842.871687	0.999900
843.186987	0.999005
843.502244	0.998188
843.817458	0.998023
844.132629	0.999389
844.447756	0.999523
844.762840	1.000171
845.077881	1.000375
845.392879	0.997997
845.707833	0.999575
846.022745	0.999534
846.337613	0.999386
846.652438	0.998843
846.967221	0.999434
847.281960	0.999735
847.596656	0.999821
847.911309	1.000348
848.225919	0.998967
848.540485	0.999809
848.855009	1.000112
849.169490	0.998954
849.483928	0.998800
849.798323	0.998283
850.112675	0.999353
850.426984	0.999617
850.741251	1.000583
851.055474	0.999336
851.369654	0.999493
851.683792	0.998520
851.997887	0.999068
852.311938	1.000587
852.625947	0.998966
852.939914	0.998646
853.253837	1.000686
853.567718	1.001737
853.881555	0.999588
854.195350	1.000499
854.509103	1.000343
854.822812	1.001079
855.136479	0.999010
855.450103	0.999194
855.763685	0.999260
856.077224	1.000314
856.390720	0.998938
856.704173	0.999703
857.017584	1.000089
857.330953	1.000446
857.644278	1.000000
857.957561	1.000777
858.270802	1.000072
858.584000	0.999015
858.897155	0.998895
859.210268	0.999396
859.523339	0.999603
859.836367	0.999535
860.149352	0.999244
860.462295	0.999230
860.775195	0.999676
861.088054	0.997299
861.400869	0.999040
861.713642	0.998691
862.026373	0.999638
862.339062	1.000085
862.651708	0.999697
862.964312	0.999015
863.276873	0.998994
863.589392	0.999944
863.901869	0.998248
864.214303	1.000264
864.526696	0.999452
864.839045	0.998883
865.151353	0.999175
865.463619	0.998370
865.775842	0.999687
866.088023	0.999168
866.400162	0.999936
866.712258	1.001213
867.024313	1.000268
867.336325	1.000703
867.648296	0.999519
867.960224	0.999289
868.272110	1.000388
868.583954	0.999615
868.895755	0.999973
869.207515	0.999028
869.519233	0.999907
869.830909	0.998722
870.142542	0.998080
870.454134	0.998950
870.765684	0.998674
871.077191	1.000438
871.388657	1.000103
871.700081	0.999607
872.011463	0.999461
872.322803	0.999591
872.634101	0.998794
872.945357	0.998721
873.256571	0.998749
873.567744	0.999592
873.878874	0.997994
874.189963	0.998499
874.501010	1.000334
874.812015	1.000540
875.122979	1.000168
875.433900	0.999254
875.744780	0.999609
876.055618	0.998151
876.366415	0.999022
876.677169	0.998384
876.987882	0.999606
877.298554	0.999963
877.609183	0.999429
877.919771	0.998103
878.230317	0.999760
878.540822	0.998606
878.851285	0.997996
879.161707	0.998642
879.472087	0.999799
879.782425	0.997295
880.092722	0.997777
880.402977	0.995948
880.713191	0.993244
881.023363	0.991830
881.333494	0.991648
881.643583	0.992518
881.953631	0.991224
882.263637	0.991804
882.573602	0.992434
882.883526	0.991995
883.193408	0.993507
883.503248	0.994159
883.813048	0.994243
884.122806	0.994736
884.432522	0.995689
884.742197	0.997445
885.051831	0.996829
885.361424	0.996885
885.670975	0.998067
885.980485	0.997880
886.289954	0.998255
886.599382	0.997375
886.908768	0.998593
887.218113	0.997657
887.527417	0.998179
887.836680	0.998309
888.145901	0.999013
888.455082	0.999760
888.764221	0.999431
889.073319	0.998778
889.382376	0.999201
889.691392	0.998184
890.000366	0.998709
890.309300	0.998345
890.618193	0.999892
890.927044	0.999249
891.235855	0.998353
891.544625	0.998615
891.853353	0.998051
892.162041	0.998329
892.470687	0.999063
892.779293	0.998790
893.087858	0.997014
893.396381	0.998648
893.704864	0.997875
894.013306	0.997341
894.321707	0.995923
894.630068	0.996459
894.938387	0.994989
895.246665	0.995952
895.554903	0.995749
895.863100	0.996739
896.171256	0.997275
896.479371	0.996964
896.787446	0.997460
897.095480	0.997906
897.403473	0.997983
897.711425	0.997831
898.019336	0.998927
898.327207	0.999424
898.635038	0.998772
898.942827	0.998634
899.250576	0.998513
899.558284	0.999051
899.865952	0.998509
900.173579	0.998320
900.481165	0.998940
900.788711	0.999373
901.096216	0.999279
901.403681	0.999393
901.711105	0.998553
902.018489	0.999059
902.325832	0.998927
902.633135	0.998551
902.940397	1.000098
903.247619	0.999034
903.554800	0.997508
903.861941	0.997155
904.169041	0.996410
904.476101	0.995193
904.783121	0.994692
905.090100	0.995656
905.397039	0.996209
905.703938	0.996578
906.010796	0.996632
906.317614	0.997245
906.624391	0.998081
906.931129	0.998614
907.237826	0.998861
907.544483	0.997731
907.851099	0.998977
908.157675	0.998395
908.464211	1.000786
908.770707	0.999386
909.077163	0.999065
909.383578	1.000041
909.689954	0.999070
909.996289	0.999901
910.302584	1.000298
910.608839	1.000575
910.915054	0.999451
911.221229	1.000586
911.527363	0.998106
911.833458	1.000316
912.139513	0.999800
912.445527	0.999309
912.751502	0.999148
913.057436	0.998450
913.363331	0.999816
913.669186	1.000674
913.975000	0.999800
914.280775	0.998896
914.586510	0.998505
914.892205	0.998345
915.197859	0.997314
915.503475	0.996935
915.809050	0.995988
916.114585	0.994781
916.420081	0.995417
916.725536	0.996113
917.030952	0.995658
917.336328	0.994791
917.641665	0.995812
917.946961	0.996248
918.252218	0.996055
918.557435	0.996778
918.862612	0.997923
919.167750	0.997760
919.472848	0.998916
919.777906	0.999643
920.082925	0.999310
920.387904	0.998224
920.692843	0.998951
920.997743	0.998387
921.302603	0.998663
921.607423	0.998648
921.912204	0.998883
922.216946	0.998893
922.521647	1.000518
922.826310	0.998797
923.130932	1.000315
923.435516	1.000241
923.740059	0.998121
924.044564	0.998756
924.349028	0.998409
924.653454	0.999928
924.957840	0.998899
925.262186	0.998697
925.566493	0.999551
925.870761	0.998422
926.174989	0.998592
926.479178	1.000607
926.783328	1.000211
927.087438	1.000199
927.391509	0.998680
927.695541	0.999956
927.999533	0.999460
928.303486	0.998763
928.607400	0.999733
928.911275	0.999660
929.215110	1.001456
929.518906	0.999898
929.822663	1.000899
930.126381	1.001530
930.430060	0.999986
930.733699	1.000616
931.037299	1.000474
931.340861	1.000545
931.644383	0.998679
931.947866	1.000748
932.251309	0.999596
932.554714	0.998753
932.858080	1.000611
933.161407	0.999918
933.464694	0.998799
933.767943	1.000046
934.071153	0.999994
934.374323	1.001642
934.677455	0.999570
934.980548	0.999262
935.283602	1.000184
935.586617	0.998984
935.889593	1.000153
936.192530	1.000016
936.495428	0.999682
936.798287	1.000497
937.101108	1.000228
937.403890	0.999646
937.706632	1.000115
938.009336	0.999394
938.312002	0.998941
938.614628	0.999665
938.917216	0.999095
939.219765	0.998775
939.522275	0.999267
939.824747	1.000924
940.127179	0.999623
940.429573	1.001229
940.731929	0.998923
941.034246	0.999596
941.336524	0.999354
941.638763	0.998958
941.940964	0.999070
942.243126	0.998498
942.545250	1.000308
942.847335	0.999953
943.149381	1.000076
943.451389	0.999009
943.753359	0.998957
944.055290	1.000242
944.357182	0.999526
944.659036	0.999805
944.960851	1.000167
945.262628	0.999216
945.564367	1.000513
945.866067	0.998834
946.167729	1.000320
946.469352	1.000256
946.770937	0.998105
947.072484	1.000300
947.373992	0.999186
947.675462	0.999648
947.976893	0.999150
948.278286	1.001116
948.579641	1.000749
948.880958	0.998379
949.182236	1.000317
949.483476	1.000047
949.784678	0.999990
950.085841	0.998664
950.386967	0.999894
950.688054	0.999374
950.989103	0.999903
951.290114	0.998807
951.591087	1.000386
951.892021	0.999039
952.192917	1.000552
952.493776	0.998665
952.794596	0.999301
953.095378	0.999473
953.396122	0.999460
953.696828	1.000487
953.997496	0.999578
954.298126	1.000171
954.598718	0.998999
954.899272	0.999466
955.199788	0.998920
955.500266	1.001309
955.800706	0.998497
956.101108	0.998945
956.401472	1.000771
956.701798	0.999193
957.002087	1.000173
957.302337	0.999673
957.602550	0.999695
957.902724	0.999994
958.202861	1.000268
958.502960	0.998946
958.803022	1.001689
959.103045	1.000266
959.403031	1.001249
959.702979	1.000653
960.002889	0.999281
960.302762	0.998198
960.602596	1.000006
960.902393	1.000441
961.202153	0.999606
961.501875	1.001242
961.801559	0.999204
962.101205	0.999905
962.400814	1.001346
962.700385	1.001011
962.999918	1.000653
963.299414	1.000305
963.598873	1.000180
963.898293	1.000030
964.197677	0.999286
964.497022	0.999312
964.796331	1.000618
965.095601	1.000521
965.394835	0.999570
965.694030	1.000720
965.993189	0.999369
966.292309	1.000361
966.591393	0.999977
966.890439	0.999941
967.189447	0.998989
967.488419	0.999914
967.787353	1.000376
968.086249	0.999182
968.385108	1.000350
968.683930	1.000377
968.982714	1.000511
969.281462	1.000418
969.580172	0.999581
969.878844	1.001014
970.177480	1.000729
970.476078	1.001368
970.774639	0.999742
971.073162	1.000103
971.371649	1.000348
971.670098	0.999723
971.968510	1.000084
972.266885	1.000350
972.565223	1.000153
972.863524	0.998357
973.161788	0.999465
973.460014	1.000834
973.758204	0.999332
974.056356	0.999758
974.354471	1.000376
974.652550	1.000230
974.950591	1.000598
975.248595	0.999285
975.546563	1.001062
975.844493	1.000238
976.142386	0.999316
976.440243	1.000400
976.738062	0.999113
977.035845	0.998544
977.333590	1.001179
977.631299	1.000719
977.928971	0.999146
978.226606	0.998407
978.524204	1.000234
978.821765	1.000030
979.119290	1.001105
979.416777	1.000179
979.714228	0.998872
980.011642	1.001664
980.309020	0.998719
980.606360	1.000061
980.903664	1.000624
981.200931	1.000056
981.498162	1.000940
981.795356	0.999091
982.092513	1.000345
982.389633	1.001360
982.686717	0.998734
982.983764	1.000501
983.280775	1.000407
983.577749	1.000517
983.874686	0.999171
984.171587	0.998439
984.468451	0.999929
984.765279	1.000503
985.062070	1.000813
985.358824	1.000327
985.655543	1.000099
985.952224	0.999475
986.248869	0.999945
986.545478	1.001176
986.842050	0.999764
987.138586	0.999017
987.435086	0.999599
987.731549	1.000915
988.027975	1.001176
988.324366	1.000686
988.620719	1.000731
988.917037	0.999810
989.213318	1.001726
989.509563	1.000152
989.805772	1.000683
990.101944	1.001497
990.398080	1.000005
990.694180	1.001324
990.990244	0.999283
991.286271	1.000188
991.582262	1.000238
991.878217	1.000637
992.174136	1.001728
992.470019	1.000537
992.765865	1.001974
993.061676	1.000984
993.357450	1.000447
993.653188	1.001065
993.948890	0.999900
994.244556	0.999606
994.540186	0.999566
994.835780	0.999524
995.131337	1.000660
995.426859	0.999492
995.722345	1.000086
996.017795	0.999407
996.313208	0.999423
996.608586	0.999779
996.903928	1.000539
997.199234	0.999751
997.494504	1.001189
997.789738	0.998751
998.084936	1.001193
998.380099	0.999836
998.675225	1.001063
998.970316	1.001491
999.265371	0.999935
999.560390	1.000240
999.855373	0.999723
1000.150320	1.000109
1000.445232	1.001094
1000.740108	1.000124
1001.034948	1.000395
1001.329752	1.001078
1001.624521	1.000160
1001.919254	0.999353
1002.213951	1.000240
1002.508613	0.999586
1002.803239	0.999552
1003.097829	1.000121
1003.392384	1.000389
1003.686903	1.000701
1003.981386	0.999340
1004.275834	1.000770
1004.570246	0.999798
1004.864623	1.000507
1005.158964	1.001348
1005.453270	0.999706
1005.747540	0.999391
1006.041775	1.000246
1006.335974	1.000703
1006.630138	0.999762
1006.924266	0.998010
1007.218359	0.998936
1007.512416	1.001687
1007.806438	1.000292
1008.100425	1.001010
1008.394376	1.001343
1008.688292	0.999541
1008.982172	1.000254
1009.276017	1.000603
1009.569827	1.001232
1009.863602	0.998652
1010.157341	1.000355
1010.451045	1.000062
1010.744714	1.001824
1011.038347	1.001962
1011.331945	0.999112
1011.625508	0.999172
1011.919036	0.999379
1012.212528	0.999854
1012.505986	0.999810
1012.799408	0.999754
1013.092795	1.000549
1013.386147	1.000603
1013.679464	1.000710
1013.972745	1.000580
1014.265992	0.999746
1014.559204	0.999813
1014.852380	1.000918
1015.145521	0.999506
1015.438628	0.999907
1015.731699	0.999431
1016.024736	1.000503
1016.317737	1.001187
1016.610703	1.000527
1016.903635	1.000433
1017.196531	1.000102
1017.489393	0.999279
1017.782219	0.999569
1018.075011	1.000407
1018.367768	0.999941
1018.660490	1.000152
1018.953177	1.000152
1019.245829	1.000152
