Dividing Wavelength (nm)	Counts (n)	Blue Motor Position (mm): 30.600000	Red Motor Position (mm): 0.000000	
326.493990	0.999080
326.888308	0.999080
327.282561	0.999080
327.676750	1.001565
328.070874	1.002531
328.464933	1.000584
328.858929	1.001189
329.252859	1.000402
329.646726	1.000690
330.040528	0.999879
330.434265	1.000731
330.827938	0.999988
331.221547	1.001108
331.615091	1.002261
332.008571	1.001928
332.401986	1.000787
332.795338	1.000315
333.188625	1.001292
333.581847	1.001241
333.975006	1.001151
334.368100	1.001364
334.761129	0.999603
335.154095	1.000441
335.546996	1.001677
335.939833	0.998649
336.332606	0.999653
336.725315	0.998731
337.117960	1.001738
337.510540	0.998787
337.903056	0.999395
338.295508	1.001357
338.687896	1.000132
339.080220	1.000499
339.472480	0.999801
339.864676	1.000525
340.256807	1.000435
340.648875	1.000512
341.040879	0.999308
341.432818	1.001203
341.824694	0.999062
342.216506	1.000613
342.608253	0.999995
342.999937	1.000040
343.391557	1.000305
343.783113	1.000726
344.174605	0.999701
344.566033	0.999969
344.957397	0.999171
345.348697	1.001285
345.739934	1.000507
346.131106	0.999964
346.522215	0.999536
346.913260	1.000741
347.304241	0.998246
347.695159	0.999733
348.086012	0.999500
348.476802	0.998689
348.867528	0.998204
349.258191	0.999398
349.648789	1.000207
350.039324	0.999437
350.429796	0.998710
350.820203	0.998936
351.210548	1.000424
351.600828	0.998830
351.991045	0.999789
352.381198	1.001110
352.771288	0.999903
353.161314	1.000136
353.551276	0.998319
353.941175	0.997558
354.331010	0.999614
354.720782	0.998347
355.110490	0.999032
355.500135	1.000883
355.889717	0.999029
356.279235	0.998712
356.668689	0.999921
357.058080	0.999710
357.447408	0.998237
357.836672	0.998558
358.225873	0.998668
358.615010	0.999219
359.004084	0.997998
359.393095	0.999036
359.782043	0.998716
360.170927	0.999247
360.559748	0.998062
360.948505	0.999864
361.337199	0.997973
361.725830	0.998942
362.114398	0.998353
362.502903	0.998080
362.891344	0.997837
363.279722	0.998300
363.668037	0.998308
364.056289	0.998116
364.444478	0.998562
364.832603	0.997825
365.220665	0.998160
365.608665	0.998288
365.996601	0.996478
366.384474	0.995807
366.772284	0.998211
367.160031	0.996416
367.547715	0.996040
367.935336	0.995578
368.322893	0.994405
368.710388	0.993014
369.097820	0.991688
369.485189	0.988886
369.872495	0.987595
370.259738	0.986362
370.646918	0.981608
371.034035	0.981049
371.421090	0.977016
371.808081	0.972912
372.195010	0.969513
372.581875	0.964870
372.968678	0.960501
373.355418	0.957001
373.742096	0.949088
374.128710	0.944938
374.515262	0.940198
374.901751	0.934192
375.288177	0.928826
375.674540	0.922304
376.060841	0.917073
376.447079	0.909712
376.833254	0.904202
377.219367	0.897763
377.605417	0.887110
377.991404	0.884001
378.377329	0.877453
378.763191	0.871011
379.148991	0.862715
379.534727	0.855477
379.920402	0.845401
380.306013	0.842724
380.691563	0.830310
381.077049	0.823561
381.462474	0.819000
381.847835	0.808579
382.233134	0.803762
382.618371	0.803341
383.003545	0.786606
383.388657	0.784453
383.773706	0.777058
384.158693	0.772479
384.543618	0.766529
384.928480	0.758590
385.313280	0.748291
385.698017	0.748245
386.082692	0.736483
386.467305	0.734806
386.851856	0.730077
387.236344	0.723907
387.620770	0.718454
388.005133	0.713092
388.389435	0.707846
388.773674	0.704344
389.157851	0.696686
389.541965	0.694205
389.926018	0.700535
390.310008	0.686972
390.693936	0.684692
391.077802	0.677497
391.461606	0.678866
391.845348	0.667049
392.229027	0.667225
392.612645	0.665117
392.996200	0.651964
393.379694	0.644803
393.763125	0.635563
394.146494	0.640244
394.529801	0.630614
394.913047	0.622294
395.296230	0.628700
395.679351	0.620792
396.062410	0.617280
396.445408	0.619553
396.828343	0.614643
397.211217	0.609932
397.594028	0.622190
397.976778	0.612278
398.359466	0.609008
398.742092	0.603679
399.124656	0.616633
399.507158	0.603949
399.889598	0.601724
400.271977	0.592469
400.654294	0.596646
401.036549	0.596042
401.418742	0.599662
401.800874	0.585939
402.182944	0.582458
402.564952	0.574209
402.946898	0.576215
403.328783	0.576869
403.710606	0.588086
404.092367	0.563916
404.474067	0.567975
404.855705	0.567284
405.237282	0.576139
405.618797	0.562326
406.000250	0.557832
406.381642	0.548241
406.762972	0.553236
407.144240	0.551849
407.525447	0.551890
407.906593	0.545181
408.287677	0.540288
408.668700	0.549336
409.049661	0.542870
409.430560	0.537544
409.811399	0.546527
410.192176	0.528166
410.572891	0.534990
410.953545	0.524080
411.334138	0.537098
411.714669	0.529039
412.095139	0.541383
412.475547	0.525683
412.855894	0.527658
413.236180	0.526711
413.616405	0.532102
413.996568	0.522840
414.376670	0.529285
414.756711	0.533563
415.136691	0.530801
415.516609	0.522377
415.896466	0.518203
416.276262	0.514394
416.655997	0.516318
417.035670	0.497941
417.415283	0.489752
417.794834	0.494308
418.174324	0.500557
418.553753	0.509603
418.933121	0.491611
419.312428	0.486028
419.691674	0.491876
420.070859	0.480818
420.449983	0.488533
420.829045	0.478180
421.208047	0.487978
421.586988	0.481476
421.965867	0.480576
422.344686	0.470649
422.723444	0.484074
423.102141	0.501993
423.480777	0.475602
423.859352	0.497514
424.237866	0.476774
424.616319	0.478773
424.994712	0.471297
425.373044	0.483243
425.751314	0.472784
426.129524	0.492156
426.507673	0.477031
426.885762	0.472517
427.263789	0.480293
427.641756	0.492825
428.019662	0.485190
428.397508	0.487881
428.775292	0.494762
429.153016	0.490031
429.530679	0.499016
429.908282	0.495920
430.285824	0.509013
430.663305	0.492983
431.040726	0.515994
431.418086	0.519935
431.795385	0.516534
432.172624	0.520086
432.549802	0.524227
432.926920	0.528293
433.303977	0.533268
433.680974	0.535692
434.057910	0.539923
434.434786	0.544898
434.811601	0.552577
435.188355	0.543510
435.565050	0.557304
435.941683	0.564517
436.318257	0.558444
436.694770	0.566593
437.071222	0.572051
437.447614	0.582058
437.823946	0.593609
438.200218	0.592557
438.576429	0.606567
438.952580	0.609771
439.328670	0.614653
439.704700	0.627449
440.080670	0.635152
440.456580	0.631910
440.832429	0.645097
441.208218	0.660013
441.583947	0.660696
441.959616	0.668577
442.335224	0.680638
442.710773	0.683505
443.086261	0.691703
443.461689	0.706182
443.837057	0.709976
444.212365	0.713502
444.587612	0.725551
444.962800	0.728580
445.337927	0.739269
445.712995	0.758599
446.088002	0.750055
446.462949	0.763283
446.837837	0.774877
447.212664	0.775304
447.587431	0.783390
447.962139	0.779403
448.336786	0.770940
448.711374	0.782550
449.085901	0.807862
449.460369	0.817393
449.834776	0.825945
450.209124	0.826990
450.583412	0.833703
450.957640	0.836494
451.331808	0.847818
451.705917	0.860275
452.079965	0.868018
452.453954	0.873040
452.827883	0.880606
453.201752	0.885033
453.575562	0.892711
453.949311	0.897024
454.323001	0.902487
454.696632	0.906753
455.070202	0.910448
455.443713	0.913927
455.817164	0.918561
456.190556	0.923126
456.563888	0.928158
456.937160	0.931235
457.310373	0.936899
457.683526	0.942014
458.056619	0.946150
458.429653	0.949333
458.802628	0.952378
459.175542	0.955005
459.548398	0.957076
459.921194	0.959004
460.293930	0.961894
460.666607	0.961623
461.039224	0.963555
461.411782	0.965638
461.784280	0.967924
462.156719	0.971916
462.529099	0.974360
462.901419	0.975877
463.273680	0.977386
463.645882	0.979906
464.018024	0.981968
464.390106	0.982993
464.762130	0.984085
465.134094	0.984431
465.505999	0.984038
465.877845	0.983840
466.249631	0.984725
466.621358	0.985640
466.993026	0.987367
467.364634	0.988574
467.736184	0.989063
468.107674	0.989829
468.479105	0.989617
468.850477	0.991745
469.221790	0.992212
469.593043	0.992054
469.964238	0.992448
470.335373	0.992640
470.706449	0.992782
471.077467	0.993763
471.448425	0.993564
471.819324	0.993281
472.190164	0.993184
472.560945	0.993708
472.931667	0.993596
473.302330	0.993801
473.672934	0.995079
474.043479	0.994223
474.413965	0.995242
474.784393	0.994918
475.154761	0.994949
475.525070	0.994856
475.895321	0.995729
476.265513	0.995633
476.635645	0.996030
477.005719	0.995254
477.375734	0.994465
477.745691	0.995029
478.115588	0.994552
478.485427	0.994808
478.855207	0.995283
479.224928	0.995664
479.594591	0.995705
479.964194	0.995382
480.333739	0.995237
480.703226	0.995003
481.072653	0.994647
481.442022	0.995973
481.811333	0.995259
482.180584	0.995167
482.549777	0.995140
482.918912	0.995281
483.287988	0.995763
483.657005	0.995761
484.025964	0.995719
484.394864	0.994874
484.763706	0.995026
485.132489	0.995320
485.501213	0.995593
485.869879	0.995405
486.238487	0.994889
486.607036	0.995854
486.975527	0.996069
487.343959	0.994996
487.712333	0.996197
488.080648	0.994802
488.448905	0.996124
488.817104	0.995454
489.185244	0.995006
489.553326	0.996418
489.921350	0.996281
490.289315	0.995718
490.657222	0.995241
491.025070	0.995711
491.392861	0.995549
491.760593	0.995558
492.128267	0.995223
492.495883	0.994708
492.863440	0.996192
493.230939	0.995487
493.598380	0.996496
493.965763	0.995628
494.333088	0.995046
494.700354	0.994959
495.067563	0.995996
495.434713	0.996157
495.801805	0.995320
496.168839	0.996025
496.535815	0.996396
496.902733	0.995681
497.269593	0.996225
497.636395	0.995092
498.003139	0.995650
498.369825	0.996416
498.736453	0.996182
499.103023	0.996265
499.469535	0.996741
499.835989	0.996454
500.202385	0.995814
500.568723	0.996152
500.935003	0.996406
501.301226	0.996939
501.667390	0.996234
502.033497	0.996886
502.399546	0.996404
502.765537	0.996313
503.131470	0.996034
503.497345	0.996747
503.863163	0.996599
504.228923	0.995987
504.594625	0.995773
504.960269	0.996738
505.325856	0.997149
505.691385	0.996722
506.056856	0.996198
506.422270	0.996432
506.787625	0.996446
507.152924	0.997062
507.518164	0.996127
507.883347	0.996580
508.248472	0.996564
508.613540	0.995964
508.978550	0.996641
509.343503	0.996285
509.708398	0.996916
510.073236	0.996551
510.438016	0.995907
510.802738	0.995613
511.167403	0.996535
511.532010	0.996012
511.896561	0.996446
512.261053	0.996290
512.625488	0.996035
512.989866	0.996692
513.354186	0.996158
513.718449	0.996014
514.082655	0.996255
514.446803	0.996131
514.810894	0.996480
515.174927	0.996083
515.538904	0.996663
515.902822	0.996851
516.266684	0.996827
516.630488	0.996721
516.994235	0.996137
517.357925	0.996411
517.721558	0.995982
518.085133	0.995955
518.448651	0.995741
518.812112	0.996802
519.175516	0.996446
519.538863	0.996248
519.902152	0.996592
520.265385	0.996019
520.628560	0.996052
520.991678	0.996050
521.354739	0.997517
521.717743	0.996693
522.080690	0.995683
522.443580	0.996059
522.806413	0.995452
523.169189	0.997008
523.531908	0.995987
523.894569	0.996548
524.257174	0.996043
524.619722	0.996319
524.982213	0.996442
525.344647	0.995796
525.707025	0.995727
526.069345	0.995783
526.431608	0.996476
526.793815	0.996142
527.155964	0.996487
527.518057	0.996945
527.880093	0.996310
528.242072	0.995927
528.603995	0.995871
528.965860	0.996420
529.327669	0.995974
529.689421	0.996361
530.051117	0.996557
530.412755	0.996458
530.774337	0.996000
531.135862	0.996821
531.497331	0.995863
531.858743	0.996729
532.220098	0.996195
532.581396	0.996311
532.942638	0.996186
533.303824	0.997005
533.664953	0.996234
534.026025	0.996865
534.387040	0.996050
534.747999	0.996075
535.108902	0.996097
535.469748	0.996908
535.830537	0.996024
536.191270	0.996171
536.551947	0.995785
536.912567	0.995754
537.273131	0.996352
537.633638	0.996175
537.994089	0.996489
538.354483	0.996296
538.714821	0.996230
539.075103	0.996748
539.435328	0.996158
539.795497	0.997039
540.155609	0.996278
540.515665	0.996452
540.875665	0.996679
541.235609	0.996365
541.595496	0.995969
541.955328	0.996246
542.315102	0.996456
542.674821	0.996579
543.034483	0.996332
543.394090	0.996264
543.753640	0.996561
544.113134	0.995894
544.472571	0.997064
544.831953	0.996095
545.191278	0.996351
545.550548	0.995819
545.909761	0.995584
546.268918	0.997172
546.628019	0.996503
546.987064	0.995964
547.346053	0.995881
547.704986	0.996112
548.063863	0.995729
548.422684	0.996088
548.781449	0.996096
549.140158	0.996785
549.498811	0.995563
549.857408	0.995404
550.215949	0.995622
550.574434	0.995355
550.932864	0.996444
551.291237	0.995989
551.649555	0.996292
552.007817	0.996025
552.366022	0.996572
552.724173	0.996196
553.082267	0.995582
553.440305	0.995578
553.798288	0.995129
554.156215	0.995818
554.514086	0.996184
554.871902	0.996419
555.229661	0.995815
555.587365	0.996528
555.945014	0.996864
556.302606	0.995903
556.660143	0.996514
557.017625	0.996320
557.375050	0.995483
557.732421	0.996164
558.089735	0.995346
558.446994	0.995718
558.804197	0.996113
559.161345	0.996260
559.518437	0.995975
559.875474	0.996707
560.232455	0.996015
560.589381	0.995733
560.946251	0.995407
561.303065	0.996559
561.659825	0.996107
562.016528	0.996147
562.373177	0.995592
562.729770	0.995915
563.086307	0.995560
563.442789	0.996008
563.799216	0.995395
564.155587	0.995501
564.511904	0.996080
564.868164	0.995296
565.224370	0.995905
565.580520	0.995897
565.936615	0.995966
566.292654	0.996323
566.648638	0.996488
567.004567	0.995815
567.360441	0.996508
567.716260	0.996383
568.072023	0.995707
568.427732	0.996533
568.783385	0.996187
569.138982	0.996153
569.494525	0.996433
569.850013	0.996921
570.205445	0.996371
570.560823	0.995945
570.916145	0.995641
571.271412	0.996360
571.626625	0.996253
571.981782	0.996239
572.336884	0.996692
572.691931	0.995690
573.046923	0.996442
573.401860	0.995978
573.756743	0.995966
574.111570	0.996718
574.466342	0.996825
574.821059	0.995700
575.175722	0.996432
575.530330	0.996093
575.884882	0.996246
576.239380	0.996723
576.593823	0.995603
576.948211	0.996337
577.302544	0.995819
577.656823	0.996166
578.011047	0.995450
578.365216	0.996511
578.719330	0.996603
579.073389	0.995378
579.427394	0.996113
579.781344	0.996783
580.135239	0.995163
580.489080	0.996081
580.842866	0.996350
581.196597	0.996750
581.550273	0.995737
581.903895	0.996626
582.257463	0.995991
582.610975	0.996305
582.964434	0.996102
583.317837	0.996123
583.671186	0.996031
584.024481	0.996041
584.377721	0.995392
584.730906	0.995849
585.084037	0.996424
585.437113	0.996982
585.790135	0.996108
586.143103	0.995983
586.496016	0.996402
586.848874	0.996322
587.201679	0.996283
587.554428	0.996175
587.907124	0.996236
588.259765	0.996405
588.612352	0.996153
588.964884	0.997080
589.317362	0.996367
589.669786	0.995886
590.022155	0.995755
590.374470	0.995535
590.726731	0.995192
591.078937	0.996411
591.431090	0.996320
591.783188	0.995516
592.135232	0.997091
592.487222	0.996830
592.839157	0.995885
593.191038	0.996927
593.542866	0.996143
593.894639	0.995903
594.246358	0.996306
594.598022	0.996821
594.949633	0.996350
595.301190	0.996099
595.652692	0.995886
596.004141	0.995577
596.355535	0.995644
596.706876	0.996088
597.058162	0.996056
597.409395	0.996042
597.760573	0.996026
598.111698	0.995723
598.462768	0.995612
598.813785	0.994710
599.164748	0.995982
599.515657	0.995744
599.866511	0.996032
600.217312	0.996597
600.568060	0.996301
600.918753	0.996267
601.269392	0.996745
601.619978	0.995966
601.970510	0.995711
602.320988	0.996058
602.671412	0.995595
603.021783	0.996248
603.372100	0.996498
603.722363	0.996823
604.072572	0.996296
604.422728	0.995705
604.772830	0.995804
605.122878	0.996239
605.472872	0.996827
605.822813	0.995693
606.172701	0.996182
606.522534	0.996672
606.872314	0.996687
607.222041	0.995819
607.571714	0.996001
607.921333	0.996008
608.270899	0.995306
608.620411	0.995754
608.969870	0.996838
609.319276	0.996089
609.668627	0.996290
610.017926	0.995880
610.367171	0.996010
610.716362	0.995894
611.065500	0.996175
611.414585	0.996222
611.763616	0.995648
612.112594	0.996094
612.461518	0.995113
612.810389	0.996414
613.159207	0.995720
613.507971	0.995245
613.856682	0.996402
614.205340	0.995491
614.553945	0.996032
614.902496	0.995263
615.250994	0.995568
615.599439	0.996274
615.947830	0.995222
616.296169	0.995672
616.644454	0.995837
616.992686	0.995740
617.340864	0.996156
617.688990	0.995554
618.037063	0.996074
618.385082	0.995706
618.733048	0.995281
619.080961	0.995906
619.428821	0.996699
619.776628	0.995685
620.124382	0.996591
620.472083	0.995964
620.819731	0.996838
621.167326	0.995559
621.514868	0.996541
621.862357	0.995768
622.209793	0.995946
622.557176	0.995430
622.904506	0.995999
623.251783	0.995984
623.599007	0.996146
623.946179	0.995395
624.293297	0.996185
624.640363	0.996909
624.987376	0.995271
625.334336	0.995649
625.681243	0.995799
626.028097	0.996723
626.374899	0.995987
626.721647	0.996321
627.068343	0.995821
627.414987	0.996463
627.761577	0.995313
628.108115	0.995659
628.454600	0.996878
628.801032	0.996350
629.147412	0.996051
629.493739	0.996002
629.840014	0.995564
630.186236	0.995703
630.532405	0.996286
630.878521	0.995876
631.224585	0.995208
631.570597	0.995353
631.916556	0.995855
632.262462	0.995314
632.608316	0.996859
632.954117	0.995825
633.299866	0.995060
633.645562	0.995858
633.991206	0.996388
634.336797	0.995633
634.682336	0.996320
635.027823	0.995644
635.373257	0.996279
635.718639	0.996524
636.063968	0.996263
636.409245	0.995764
636.754470	0.996250
637.099642	0.996496
637.444762	0.996333
637.789829	0.995723
638.134845	0.996383
638.479808	0.996283
638.824719	0.996131
639.169577	0.995655
639.514383	0.996891
639.859137	0.996044
640.203839	0.995924
640.548489	0.995230
640.893086	0.995532
641.237632	0.995921
641.582125	0.996422
641.926566	0.996094
642.270955	0.995757
642.615292	0.995546
642.959576	0.996102
643.303809	0.996522
643.647990	0.996130
643.992118	0.996016
644.336195	0.995980
644.680219	0.995947
645.024192	0.995868
645.368112	0.994890
645.711981	0.996042
646.055797	0.995540
646.399562	0.994807
646.743274	0.996807
647.086935	0.995559
647.430544	0.995572
647.774101	0.995540
648.117606	0.996807
648.461059	0.996219
648.804460	0.996413
649.147810	0.995649
649.491108	0.995264
649.834354	0.996123
650.177548	0.995875
650.520690	0.996313
650.863781	0.995328
651.206820	0.995405
651.549807	0.995739
651.892742	0.995940
652.235626	0.997176
652.578458	0.995917
652.921238	0.996796
653.263967	0.996168
653.606644	0.995363
653.949269	0.996694
654.291843	0.995343
654.634365	0.997294
654.976836	0.995688
655.319255	0.996487
655.661622	0.995604
656.003938	0.996244
656.346203	0.995809
656.688416	0.996478
657.030577	0.996087
657.372687	0.995999
657.714746	0.995411
658.056753	0.995802
658.398708	0.995675
658.740612	0.996513
659.082465	0.996241
659.424266	0.995870
659.766016	0.995103
660.107715	0.995854
660.449362	0.995412
660.790958	0.994626
661.132503	0.995834
661.473996	0.995610
661.815438	0.995688
662.156829	0.996108
662.498168	0.996129
662.839456	0.995075
663.180693	0.996438
663.521879	0.996194
663.863013	0.995478
664.204097	0.994881
664.545129	0.995371
664.886110	0.995582
665.227040	0.995792
665.567918	0.995782
665.908746	0.994880
666.249522	0.995381
666.590248	0.995098
666.930922	0.994991
667.271545	0.995813
667.612118	0.995364
667.952639	0.995534
668.293109	0.995022
668.633528	0.995480
668.973896	0.995453
669.314213	0.994851
669.654480	0.996316
669.994695	0.995742
670.334859	0.995843
670.674973	0.995133
671.015035	0.995951
671.355047	0.995937
671.695008	0.995093
672.034918	0.995253
672.374777	0.996080
672.714585	0.995242
673.054342	0.996031
673.394049	0.996019
673.733705	0.994779
674.073310	0.996357
674.412864	0.995555
674.752368	0.995235
675.091820	0.996587
675.431223	0.996467
675.770574	0.994785
676.109875	0.995651
676.449125	0.995190
676.788324	0.995210
677.127473	0.996715
677.466571	0.995307
677.805619	0.995211
678.144616	0.995982
678.483562	0.995169
678.822458	0.995778
679.161303	0.995208
679.500098	0.995891
679.838842	0.995755
680.177535	0.995216
680.516179	0.995258
680.854771	0.994945
681.193314	0.995689
681.531805	0.994863
681.870247	0.995212
682.208638	0.995607
682.546978	0.995274
682.885268	0.994570
683.223508	0.995633
683.561697	0.995215
683.899836	0.995463
684.237925	0.994637
684.575963	0.995721
684.913951	0.994736
685.251889	0.995226
685.589776	0.995351
685.927614	0.995081
686.265401	0.995075
686.603137	0.994632
686.940824	0.995230
687.278460	0.996576
687.616046	0.995279
687.953582	0.995740
688.291068	0.995495
688.628504	0.995520
688.965889	0.994799
689.303224	0.993836
689.640510	0.994903
689.977745	0.995185
690.314930	0.994367
690.652065	0.994140
690.989150	0.994811
691.326185	0.995523
691.663170	0.995169
692.000105	0.995735
692.336990	0.995161
692.673825	0.995403
693.010610	0.995869
693.347345	0.995493
693.684030	0.995558
694.020665	0.994685
694.357251	0.995341
694.693786	0.996556
695.030272	0.994429
695.366707	0.995655
695.703093	0.995240
696.039429	0.995062
696.375716	0.995168
696.711952	0.994793
697.048139	0.995262
697.384276	0.996736
697.720363	0.995415
698.056400	0.994188
698.392388	0.995157
698.728326	0.995127
699.064214	0.996266
699.400053	0.995621
699.735842	0.995855
700.071581	0.994943
700.407270	0.995992
700.742910	0.996696
701.078501	0.995533
701.414042	0.996204
701.749533	0.994778
702.084974	0.995759
702.420366	0.995999
702.755709	0.995426
703.091002	0.996268
703.426246	0.995982
703.761440	0.996388
704.096584	0.994653
704.431679	0.995119
704.766725	0.995258
705.101721	0.996694
705.436668	0.995749
705.771565	0.995440
706.106413	0.994531
706.441212	0.996009
706.775961	0.996119
707.110661	0.995292
707.445311	0.996289
707.779913	0.996460
708.114465	0.996000
708.448967	0.996351
708.783421	0.996618
709.117825	0.995494
709.452180	0.995834
709.786485	0.995933
710.120742	0.994516
710.454949	0.995518
710.789107	0.995681
711.123216	0.994777
711.457275	0.994390
711.791286	0.995009
712.125247	0.996568
712.459159	0.995262
712.793023	0.995327
713.126837	0.995920
713.460602	0.995019
713.794318	0.995185
714.127985	0.994375
714.461602	0.995228
714.795171	0.994771
715.128691	0.995148
715.462162	0.995176
715.795584	0.995306
716.128957	0.995142
716.462281	0.995796
716.795556	0.995447
717.128782	0.995519
717.461960	0.995702
717.795088	0.995958
718.128167	0.996300
718.461198	0.995054
718.794180	0.996507
719.127113	0.996664
719.459997	0.995512
719.792833	0.995451
720.125619	0.995061
720.458357	0.996190
720.791046	0.996314
721.123686	0.995478
721.456278	0.996668
721.788821	0.995828
722.121315	0.996813
722.453761	0.996086
722.786158	0.995856
723.118506	0.996455
723.450805	0.995854
723.783056	0.997052
724.115259	0.996570
724.447412	0.996849
724.779518	0.995741
725.111574	0.996226
725.443582	0.996206
725.775542	0.996454
726.107453	0.996910
726.439315	0.996179
726.771129	0.996489
727.102895	0.995594
727.434612	0.995374
727.766281	0.996893
728.097901	0.995401
728.429473	0.995844
728.760996	0.995009
729.092471	0.995443
729.423897	0.996077
729.755276	0.996076
730.086606	0.994861
730.417887	0.996182
730.749120	0.995536
731.080305	0.995690
731.411442	0.994433
731.742530	0.995368
732.073570	0.995269
732.404562	0.995307
732.735506	0.996029
733.066401	0.995405
733.397249	0.994636
733.728048	0.995506
734.058798	0.995992
734.389501	0.996334
734.720156	0.996703
735.050762	0.996213
735.381320	0.995871
735.711831	0.995319
736.042293	0.995847
736.372707	0.995937
736.703073	0.995295
737.033391	0.995340
737.363661	0.995987
737.693883	0.995913
738.024056	0.995233
738.354182	0.996963
738.684260	0.995772
739.014290	0.997017
739.344272	0.995439
739.674207	0.995718
740.004093	0.995890
740.333931	0.995738
740.663722	0.994818
740.993464	0.996335
741.323159	0.994827
741.652806	0.995817
741.982405	0.996175
742.311956	0.996292
742.641460	0.996265
742.970915	0.995489
743.300323	0.996134
743.629683	0.996139
743.958996	0.996771
744.288260	0.995454
744.617477	0.996480
744.946647	0.996427
745.275768	0.996104
745.604842	0.995839
745.933869	0.997004
746.262847	0.996818
746.591778	0.995679
746.920662	0.997151
747.249498	0.997345
747.578286	0.997780
747.907027	0.996650
748.235720	0.997425
748.564365	0.996526
748.892963	0.995492
749.221514	0.997088
749.550017	0.995687
749.878473	0.996342
750.206881	0.997754
750.535242	0.995791
750.863555	0.996171
751.191821	0.996480
751.520039	0.996507
751.848210	0.994669
752.176334	0.995498
752.504411	0.995737
752.832440	0.996106
753.160421	0.996709
753.488356	0.996741
753.816243	0.995643
754.144082	0.996390
754.471875	0.996826
754.799620	0.997172
755.127318	0.996170
755.454969	0.996151
755.782572	0.998068
756.110129	0.997254
756.437638	0.997391
756.765100	0.997385
757.092515	0.995820
757.419882	0.996858
757.747203	0.996615
758.074477	0.997521
758.401703	0.996970
758.728882	0.997272
759.056014	0.996835
759.383099	0.997211
759.710138	0.995737
760.037129	0.995110
760.364073	0.996296
760.690970	0.996933
761.017820	0.995134
761.344623	0.996097
761.671379	0.997003
761.998088	0.997318
762.324751	0.996052
762.651366	0.995930
762.977935	0.994932
763.304456	0.994268
763.630931	0.993065
763.957359	0.991785
764.283740	0.993862
764.610074	0.993838
764.936362	0.994158
765.262602	0.995674
765.588796	0.996437
765.914943	0.995617
766.241044	0.996596
766.567097	0.996529
766.893104	0.996782
767.219064	0.996004
767.544978	0.996508
767.870845	0.996673
768.196665	0.996623
768.522438	0.997242
768.848165	0.996934
769.173846	0.997762
769.499479	0.998330
769.825066	0.998141
770.150607	0.998354
770.476101	0.998166
770.801548	0.997802
771.126949	0.998769
771.452303	0.997019
771.777611	0.998576
772.102872	0.998050
772.428087	0.997787
772.753256	0.998028
773.078378	0.998343
773.403453	0.996696
773.728482	0.999142
774.053465	0.997517
774.378401	0.996812
774.703291	0.998695
775.028135	0.999576
775.352932	0.997120
775.677683	0.998897
776.002388	0.997876
776.327046	0.997551
776.651658	0.998453
776.976224	0.997366
777.300743	0.997389
777.625216	0.997333
777.949643	0.998115
778.274024	0.997877
778.598359	0.997496
778.922647	0.998254
779.246889	0.999100
779.571086	0.997825
779.895236	0.997680
780.219339	0.998591
780.543397	0.997322
780.867409	0.997892
781.191374	0.997687
781.515294	0.998386
781.839167	0.998314
782.162995	0.998238
782.486776	0.997575
782.810511	0.997250
783.134201	0.998250
783.457844	0.999291
783.781441	0.996801
784.104993	0.997273
784.428498	0.998477
784.751958	0.998954
785.075372	0.998684
785.398739	0.996727
785.722061	0.998057
786.045337	0.998403
786.368568	0.997094
786.691752	0.997852
787.014891	0.997421
787.337983	0.996976
787.661030	0.998575
787.984031	0.997575
788.306987	0.997268
788.629897	0.996327
788.952760	0.997383
789.275579	0.998370
789.598351	0.997664
789.921078	0.998889
790.243759	0.997862
790.566395	0.997728
790.888984	0.998955
791.211529	0.997666
791.534027	0.997883
791.856480	0.998614
792.178888	0.998250
792.501249	0.997383
792.823566	0.998896
793.145836	0.998225
793.468062	0.999276
793.790241	0.998381
794.112375	0.997369
794.434464	0.998648
794.756507	0.998149
795.078505	0.998767
795.400457	0.998946
795.722364	0.998426
796.044226	0.997800
796.366042	0.997491
796.687812	0.996078
797.009538	0.997779
797.331218	0.998806
797.652852	0.999466
797.974442	0.997386
798.295986	0.999544
798.617484	0.997456
798.938938	0.997341
799.260346	0.997595
799.581709	0.997765
799.903026	0.998890
800.224299	0.999152
800.545526	0.998304
800.866708	0.998103
801.187845	0.998824
801.508936	0.998306
801.829983	0.998295
802.150984	0.998283
802.471940	0.997935
802.792851	0.997887
803.113717	1.000084
803.434538	0.998353
803.755314	0.998179
804.076045	0.998468
804.396731	0.997540
804.717372	0.997201
805.037967	0.998470
805.358518	0.998348
805.679024	0.998613
805.999485	0.998050
806.319901	0.998688
806.640272	0.999220
806.960598	0.998354
807.280879	0.997870
807.601115	0.998926
807.921306	0.999077
808.241453	0.998110
808.561554	0.998744
808.881611	0.999155
809.201623	0.998139
809.521590	0.998824
809.841513	0.998106
810.161390	0.997262
810.481223	0.998024
810.801011	0.999248
811.120755	0.998993
811.440453	0.998519
811.760107	0.998434
812.079716	0.998433
812.399281	0.998383
812.718801	0.997548
813.038276	0.998154
813.357707	0.998307
813.677093	0.998775
813.996434	0.998831
814.315731	1.000095
814.634983	0.998695
814.954191	0.999368
815.273354	0.997791
815.592473	0.997834
815.911547	0.998277
816.230577	0.998018
816.549562	0.998844
816.868502	0.997384
817.187399	0.999624
817.506250	0.998886
817.825058	0.996914
818.143821	0.998205
818.462539	0.997547
818.781213	0.998135
819.099843	0.998703
819.418429	0.997445
819.736970	0.996536
820.055466	0.995980
820.373919	0.995405
820.692327	0.994529
821.010691	0.994121
821.329011	0.991832
821.647286	0.990321
821.965517	0.988416
822.283704	0.987313
822.601847	0.985523
822.919945	0.985424
823.237999	0.986693
823.556010	0.987994
823.873976	0.988505
824.191897	0.989940
824.509775	0.991176
824.827609	0.992016
825.145398	0.992773
825.463144	0.991860
825.780845	0.992509
826.098502	0.992396
826.416116	0.992704
826.733685	0.992200
827.051210	0.990529
827.368692	0.991373
827.686129	0.991365
828.003522	0.993177
828.320872	0.993425
828.638177	0.993375
828.955439	0.995408
829.272656	0.996119
829.589830	0.995945
829.906960	0.997785
830.224046	0.996791
830.541088	0.996231
830.858086	0.998276
831.175041	0.997930
831.491952	0.997209
831.808819	0.996664
832.125642	0.996998
832.442421	0.996827
832.759157	0.997323
833.075849	0.994820
833.392497	0.994772
833.709101	0.993764
834.025662	0.993681
834.342179	0.993080
834.658653	0.995584
834.975083	0.996154
835.291469	0.995541
835.607811	0.997013
835.924110	0.995838
836.240366	0.998714
836.556578	0.997034
836.872746	0.998011
837.188871	0.997365
837.504952	0.999019
837.820990	0.998550
838.136984	0.997686
838.452935	0.998586
838.768842	0.999146
839.084706	0.997973
839.400526	0.999867
839.716303	0.995683
840.032037	0.997282
840.347727	0.996313
840.663373	0.997196
840.978977	0.997073
841.294537	0.998742
841.610054	0.998301
841.925527	0.998750
842.240957	0.998504
842.556344	0.998602
842.871687	0.999097
843.186987	0.999301
843.502244	1.000059
843.817458	0.997730
844.132629	0.999266
844.447756	0.998759
844.762840	0.999416
845.077881	1.000700
845.392879	0.998233
845.707833	0.999267
846.022745	1.000788
846.337613	0.999880
846.652438	0.999055
846.967221	0.999788
847.281960	0.999440
847.596656	0.999192
847.911309	1.000478
848.225919	0.998039
848.540485	1.000350
848.855009	1.000159
849.169490	0.999847
849.483928	0.998993
849.798323	0.997978
850.112675	1.000307
850.426984	1.000331
850.741251	1.001051
851.055474	0.999258
851.369654	0.999596
851.683792	0.999300
851.997887	0.999271
852.311938	1.000069
852.625947	0.999352
852.939914	0.998770
853.253837	1.000981
853.567718	0.999682
853.881555	0.999355
854.195350	0.999459
854.509103	0.999053
854.822812	1.000359
855.136479	0.999215
855.450103	0.999643
855.763685	0.999909
856.077224	0.999968
856.390720	0.999587
856.704173	0.999634
857.017584	1.000265
857.330953	1.000937
857.644278	0.999447
857.957561	0.999724
858.270802	0.999495
858.584000	1.000657
858.897155	0.999947
859.210268	0.998953
859.523339	1.000220
859.836367	0.999305
860.149352	0.998687
860.462295	0.999227
860.775195	1.000306
861.088054	0.997897
861.400869	0.999991
861.713642	0.998843
862.026373	1.000030
862.339062	1.000649
862.651708	1.000478
862.964312	1.000981
863.276873	0.998832
863.589392	0.999922
863.901869	0.999520
864.214303	0.999799
864.526696	1.000232
864.839045	0.999462
865.151353	1.000142
865.463619	0.998840
865.775842	0.999177
866.088023	1.000878
866.400162	0.999171
866.712258	1.001137
867.024313	0.999783
867.336325	1.000136
867.648296	1.000373
867.960224	0.999176
868.272110	0.999622
868.583954	0.999520
868.895755	1.000128
869.207515	0.998712
869.519233	1.000053
869.830909	0.998525
870.142542	0.998898
870.454134	0.999836
870.765684	0.998311
871.077191	0.998872
871.388657	1.000052
871.700081	0.999231
872.011463	1.000149
872.322803	0.999673
872.634101	0.999045
872.945357	0.999680
873.256571	0.998918
873.567744	0.999125
873.878874	0.999257
874.189963	0.998535
874.501010	1.000258
874.812015	1.000290
875.122979	0.999464
875.433900	0.998499
875.744780	0.998817
876.055618	0.998201
876.366415	0.998725
876.677169	0.998460
876.987882	0.998283
877.298554	0.999939
877.609183	0.998414
877.919771	0.998234
878.230317	0.998944
878.540822	0.997107
878.851285	0.998575
879.161707	0.996658
879.472087	0.999609
879.782425	0.995740
880.092722	0.996158
880.402977	0.993106
880.713191	0.990433
881.023363	0.989246
881.333494	0.988483
881.643583	0.988642
881.953631	0.988459
882.263637	0.987803
882.573602	0.987970
882.883526	0.989023
883.193408	0.991636
883.503248	0.991921
883.813048	0.992849
884.122806	0.993423
884.432522	0.993636
884.742197	0.996248
885.051831	0.995372
885.361424	0.997233
885.670975	0.997126
885.980485	0.997390
886.289954	0.996628
886.599382	0.996545
886.908768	0.998643
887.218113	0.997007
887.527417	0.998331
887.836680	0.997659
888.145901	0.997884
888.455082	1.000096
888.764221	0.998915
889.073319	0.998451
889.382376	0.998706
889.691392	0.998580
890.000366	0.998102
890.309300	0.998970
890.618193	0.998833
890.927044	0.998257
891.235855	0.997662
891.544625	0.999035
891.853353	0.998885
892.162041	0.998219
892.470687	0.999589
892.779293	0.998259
893.087858	0.996531
893.396381	0.997184
893.704864	0.996079
894.013306	0.994995
894.321707	0.995461
894.630068	0.994114
894.938387	0.993418
895.246665	0.994404
895.554903	0.994479
895.863100	0.995559
896.171256	0.995674
896.479371	0.996285
896.787446	0.996034
897.095480	0.996459
897.403473	0.996099
897.711425	0.998288
898.019336	0.997658
898.327207	0.997954
898.635038	0.996786
898.942827	0.998288
899.250576	0.998012
899.558284	0.998631
899.865952	0.999229
900.173579	0.998131
900.481165	0.998407
900.788711	0.998504
901.096216	0.998588
901.403681	0.998592
901.711105	0.997856
902.018489	0.999714
902.325832	0.998405
902.633135	0.998837
902.940397	0.998897
903.247619	0.997566
903.554800	0.997255
903.861941	0.994524
904.169041	0.993421
904.476101	0.992018
904.783121	0.991815
905.090100	0.993171
905.397039	0.993995
905.703938	0.994812
906.010796	0.996335
906.317614	0.995767
906.624391	0.997680
906.931129	0.998622
907.237826	0.998032
907.544483	0.997464
907.851099	0.998061
908.157675	0.996859
908.464211	0.998887
908.770707	0.998963
909.077163	0.999419
909.383578	0.999029
909.689954	0.998120
909.996289	0.999373
910.302584	0.999850
910.608839	1.000585
910.915054	0.999372
911.221229	1.000945
911.527363	0.998385
911.833458	0.999794
912.139513	0.999239
912.445527	1.000227
912.751502	0.998950
913.057436	0.999229
913.363331	0.998644
913.669186	0.999442
913.975000	0.998780
914.280775	0.998706
914.586510	0.997220
914.892205	0.996653
915.197859	0.996605
915.503475	0.996042
915.809050	0.994504
916.114585	0.991875
916.420081	0.992868
916.725536	0.993442
917.030952	0.993150
917.336328	0.994085
917.641665	0.994083
917.946961	0.994922
918.252218	0.995971
918.557435	0.996189
918.862612	0.996950
919.167750	0.997365
919.472848	0.997488
919.777906	0.998299
920.082925	0.998931
920.387904	0.999276
920.692843	0.997730
920.997743	0.998595
921.302603	0.998669
921.607423	0.998456
921.912204	0.998456
922.216946	0.999682
922.521647	0.998482
922.826310	0.997772
923.130932	0.999189
923.435516	0.999119
923.740059	0.998794
924.044564	0.999270
924.349028	0.997537
924.653454	0.999358
924.957840	0.999773
925.262186	0.999203
925.566493	1.000589
925.870761	0.999635
926.174989	0.998703
926.479178	1.001271
926.783328	0.999495
927.087438	1.000496
927.391509	0.999712
927.695541	1.000516
927.999533	1.000808
928.303486	0.999863
928.607400	1.000472
928.911275	1.000508
929.215110	1.000649
929.518906	1.000725
929.822663	1.000452
930.126381	1.001147
930.430060	1.000211
930.733699	1.001359
931.037299	1.001274
931.340861	1.000064
931.644383	0.999865
931.947866	0.999721
932.251309	1.000318
932.554714	0.999850
932.858080	0.999540
933.161407	0.999003
933.464694	0.999081
933.767943	1.001038
934.071153	1.001409
934.374323	1.000318
934.677455	1.000604
934.980548	1.000312
935.283602	1.000441
935.586617	0.999650
935.889593	1.000422
936.192530	1.001057
936.495428	1.000870
936.798287	1.000294
937.101108	1.000575
937.403890	1.000216
937.706632	1.000959
938.009336	1.000158
938.312002	1.000310
938.614628	0.999282
938.917216	1.000466
939.219765	0.998951
939.522275	1.000023
939.824747	0.999830
940.127179	0.999655
940.429573	0.999537
940.731929	0.998561
941.034246	0.998787
941.336524	0.999131
941.638763	0.998930
941.940964	0.999206
942.243126	1.000103
942.545250	0.999926
942.847335	1.000050
943.149381	1.000539
943.451389	0.997793
943.753359	1.000092
944.055290	1.000556
944.357182	1.001074
944.659036	1.000114
944.960851	0.999666
945.262628	0.998719
945.564367	1.000617
945.866067	0.999707
946.167729	0.999573
946.469352	0.999883
946.770937	0.997604
947.072484	1.000654
947.373992	1.001057
947.675462	0.998648
947.976893	0.998982
948.278286	1.001773
948.579641	1.000445
948.880958	0.999111
949.182236	1.000528
949.483476	1.000371
949.784678	1.000810
950.085841	1.000533
950.386967	0.999799
950.688054	0.999570
950.989103	0.998880
951.290114	0.998771
951.591087	1.000387
951.892021	0.999229
952.192917	0.999344
952.493776	1.000508
952.794596	1.000207
953.095378	1.000697
953.396122	1.000441
953.696828	0.998881
953.997496	1.000115
954.298126	0.999750
954.598718	0.999990
954.899272	1.000908
955.199788	0.999648
955.500266	0.999613
955.800706	1.000582
956.101108	0.999363
956.401472	1.001818
956.701798	1.000930
957.002087	1.000583
957.302337	1.000928
957.602550	0.999979
957.902724	0.999686
958.202861	1.000053
958.502960	1.000470
958.803022	1.000951
959.103045	1.000207
959.403031	1.000676
959.702979	1.001206
960.002889	0.999460
960.302762	0.999677
960.602596	1.001579
960.902393	1.001063
961.202153	1.001767
961.501875	1.001165
961.801559	1.001742
962.101205	0.999131
962.400814	1.001949
962.700385	1.000815
962.999918	1.001049
963.299414	1.000335
963.598873	1.001165
963.898293	1.000607
964.197677	0.999371
964.497022	1.000665
964.796331	0.999990
965.095601	1.001813
965.394835	1.000371
965.694030	1.001251
965.993189	0.999902
966.292309	0.999559
966.591393	0.998965
966.890439	1.000363
967.189447	1.000307
967.488419	1.001329
967.787353	1.000338
968.086249	0.999961
968.385108	1.000716
968.683930	1.002719
968.982714	1.000552
969.281462	1.000525
969.580172	0.999674
969.878844	1.001476
970.177480	1.000192
970.476078	1.001290
970.774639	1.000046
971.073162	1.001255
971.371649	1.000124
971.670098	0.999464
971.968510	0.999605
972.266885	1.000310
972.565223	0.999329
972.863524	0.998924
973.161788	1.000311
973.460014	1.001847
973.758204	0.999916
974.056356	1.000040
974.354471	1.001670
974.652550	1.002107
974.950591	0.999831
975.248595	0.999270
975.546563	1.001519
975.844493	1.001627
976.142386	1.000617
976.440243	1.000802
976.738062	1.000679
977.035845	0.999739
977.333590	1.000506
977.631299	0.999767
977.928971	1.000787
978.226606	1.000039
978.524204	0.999709
978.821765	1.000387
979.119290	1.001026
979.416777	1.001100
979.714228	1.000033
980.011642	1.001215
980.309020	1.000998
980.606360	1.000647
980.903664	0.999395
981.200931	1.000376
981.498162	1.000923
981.795356	1.000602
982.092513	1.000221
982.389633	1.001273
982.686717	1.000077
982.983764	0.999700
983.280775	1.000938
983.577749	1.001695
983.874686	1.000073
984.171587	0.999286
984.468451	0.999862
984.765279	1.000640
985.062070	1.001390
985.358824	1.000223
985.655543	1.000429
985.952224	1.001778
986.248869	0.999970
986.545478	1.001215
986.842050	1.000575
987.138586	0.999122
987.435086	1.000584
987.731549	1.001907
988.027975	1.002059
988.324366	0.999515
988.620719	1.001577
988.917037	1.000073
989.213318	0.999828
989.509563	0.999896
989.805772	1.000712
990.101944	1.000714
990.398080	1.001975
990.694180	1.001783
990.990244	0.999761
991.286271	1.000404
991.582262	1.001390
991.878217	1.000573
992.174136	1.001370
992.470019	1.001049
992.765865	1.003045
993.061676	1.000991
993.357450	1.000199
993.653188	1.001317
993.948890	1.000086
994.244556	1.000213
994.540186	0.999973
994.835780	0.999842
995.131337	1.001855
995.426859	1.000958
995.722345	1.000584
996.017795	1.000025
996.313208	0.999607
996.608586	1.000769
996.903928	1.000852
997.199234	1.001432
997.494504	1.001884
997.789738	0.999849
998.084936	1.001249
998.380099	1.001393
998.675225	1.001216
998.970316	1.000858
999.265371	1.000343
999.560390	1.000317
999.855373	1.000559
1000.150320	1.000530
1000.445232	1.000859
1000.740108	1.000368
1001.034948	0.999380
1001.329752	1.001533
1001.624521	0.999079
1001.919254	1.000172
1002.213951	1.000947
1002.508613	0.999120
1002.803239	1.001016
1003.097829	1.001119
1003.392384	1.000950
1003.686903	1.000069
1003.981386	1.001259
1004.275834	1.002192
1004.570246	1.000190
1004.864623	1.001571
1005.158964	1.000355
1005.453270	1.000428
1005.747540	1.000007
1006.041775	1.000063
1006.335974	1.001080
1006.630138	1.001146
1006.924266	0.999855
1007.218359	1.000014
1007.512416	1.001403
1007.806438	1.000460
1008.100425	1.001637
1008.394376	1.001822
1008.688292	1.000236
1008.982172	0.999539
1009.276017	1.001547
1009.569827	1.001773
1009.863602	0.998816
1010.157341	1.002070
1010.451045	1.001059
1010.744714	1.002038
1011.038347	1.000701
1011.331945	1.000177
1011.625508	1.000413
1011.919036	1.001091
1012.212528	1.000600
1012.505986	1.000634
1012.799408	1.001686
1013.092795	1.000025
1013.386147	1.000393
1013.679464	1.000778
1013.972745	1.001928
1014.265992	1.000135
1014.559204	0.999443
1014.852380	1.001720
1015.145521	1.000336
1015.438628	1.000706
1015.731699	0.999983
1016.024736	1.002113
1016.317737	1.001066
1016.610703	1.001385
1016.903635	1.001347
1017.196531	1.001047
1017.489393	1.000619
1017.782219	0.999274
1018.075011	0.999759
1018.367768	0.998959
1018.660490	1.001540
1018.953177	1.001540
1019.245829	1.001540
