Dividing Wavelength (nm)	Counts (n)	Blue Motor Position (mm): 1.700000	Red Motor Position (mm): 0.000000	
326.493990	1.007623
326.888308	1.007623
327.282561	1.007623
327.676750	1.008058
328.070874	1.007515
328.464933	1.008691
328.858929	1.008253
329.252859	1.006560
329.646726	1.005709
330.040528	1.006930
330.434265	1.007659
330.827938	1.007304
331.221547	1.005724
331.615091	1.007515
332.008571	1.007856
332.401986	1.006508
332.795338	1.007489
333.188625	1.007232
333.581847	1.005946
333.975006	1.008244
334.368100	1.006623
334.761129	1.005434
335.154095	1.006673
335.546996	1.005605
335.939833	0.999323
336.332606	1.000579
336.725315	0.998598
337.117960	1.000482
337.510540	0.999156
337.903056	1.000053
338.295508	1.001329
338.687896	1.000575
339.080220	0.999097
339.472480	0.999812
339.864676	1.001236
340.256807	0.998403
340.648875	1.000517
341.040879	0.999302
341.432818	1.000264
341.824694	0.999334
342.216506	1.001263
342.608253	0.999281
342.999937	1.000246
343.391557	1.000430
343.783113	1.001973
344.174605	0.999796
344.566033	0.999425
344.957397	1.000696
345.348697	1.000061
345.739934	1.000380
346.131106	0.999350
346.522215	0.998737
346.913260	0.999332
347.304241	0.999472
347.695159	1.000183
348.086012	0.999988
348.476802	1.000119
348.867528	0.998270
349.258191	0.999823
349.648789	0.999546
350.039324	0.998939
350.429796	0.999777
350.820203	0.998046
351.210548	1.000019
351.600828	0.998661
351.991045	0.998827
352.381198	1.001163
352.771288	0.998027
353.161314	1.000609
353.551276	0.998792
353.941175	0.997066
354.331010	0.999365
354.720782	1.000084
355.110490	0.999201
355.500135	1.000043
355.889717	0.997366
356.279235	0.998059
356.668689	0.999037
357.058080	0.999922
357.447408	0.998592
357.836672	0.999419
358.225873	0.998468
358.615010	0.998887
359.004084	0.997452
359.393095	1.000036
359.782043	0.998357
360.170927	0.999851
360.559748	0.998820
360.948505	0.998035
361.337199	0.998981
361.725830	0.998469
362.114398	0.997989
362.502903	0.997744
362.891344	0.997011
363.279722	0.996472
363.668037	0.998742
364.056289	0.997408
364.444478	0.999122
364.832603	0.997474
365.220665	0.997559
365.608665	0.997060
365.996601	0.997313
366.384474	0.996007
366.772284	0.997144
367.160031	0.995520
367.547715	0.995784
367.935336	0.995302
368.322893	0.994147
368.710388	0.991711
369.097820	0.992600
369.485189	0.989232
369.872495	0.987436
370.259738	0.984687
370.646918	0.982272
371.034035	0.979936
371.421090	0.976562
371.808081	0.972303
372.195010	0.969289
372.581875	0.965391
372.968678	0.960199
373.355418	0.957070
373.742096	0.949927
374.128710	0.945310
374.515262	0.940038
374.901751	0.934488
375.288177	0.929165
375.674540	0.922989
376.060841	0.917350
376.447079	0.909499
376.833254	0.903292
377.219367	0.897698
377.605417	0.886046
377.991404	0.882888
378.377329	0.877061
378.763191	0.871343
379.148991	0.862695
379.534727	0.853652
379.920402	0.846119
380.306013	0.842578
380.691563	0.829991
381.077049	0.823780
381.462474	0.819772
381.847835	0.808138
382.233134	0.803025
382.618371	0.803022
383.003545	0.786123
383.388657	0.784029
383.773706	0.776059
384.158693	0.772011
384.543618	0.766682
384.928480	0.758394
385.313280	0.748032
385.698017	0.747637
386.082692	0.737468
386.467305	0.733781
386.851856	0.729220
387.236344	0.723017
387.620770	0.717997
388.005133	0.711882
388.389435	0.706713
388.773674	0.704409
389.157851	0.695928
389.541965	0.693329
389.926018	0.699936
390.310008	0.687056
390.693936	0.683908
391.077802	0.676293
391.461606	0.677200
391.845348	0.667606
392.229027	0.665884
392.612645	0.664465
392.996200	0.651628
393.379694	0.644837
393.763125	0.634861
394.146494	0.639238
394.529801	0.630298
394.913047	0.621986
395.296230	0.628352
395.679351	0.618695
396.062410	0.616719
396.445408	0.618935
396.828343	0.614028
397.211217	0.609304
397.594028	0.621150
397.976778	0.611295
398.359466	0.607866
398.742092	0.603475
399.124656	0.615780
399.507158	0.603474
399.889598	0.600721
400.271977	0.592604
400.654294	0.595289
401.036549	0.594778
401.418742	0.599469
401.800874	0.585134
402.182944	0.582252
402.564952	0.573767
402.946898	0.575652
403.328783	0.576339
403.710606	0.587140
404.092367	0.562416
404.474067	0.567237
404.855705	0.566428
405.237282	0.575161
405.618797	0.561032
406.000250	0.557028
406.381642	0.547321
406.762972	0.552151
407.144240	0.550752
407.525447	0.550353
407.906593	0.543432
408.287677	0.538643
408.668700	0.547065
409.049661	0.541077
409.430560	0.536533
409.811399	0.545065
410.192176	0.526997
410.572891	0.534559
410.953545	0.522165
411.334138	0.535995
411.714669	0.527720
412.095139	0.539896
412.475547	0.523996
412.855894	0.525887
413.236180	0.525430
413.616405	0.530421
413.996568	0.521554
414.376670	0.527196
414.756711	0.532242
415.136691	0.528638
415.516609	0.520311
415.896466	0.516656
416.276262	0.512746
416.655997	0.514399
417.035670	0.495896
417.415283	0.487630
417.794834	0.492666
418.174324	0.497906
418.553753	0.506601
418.933121	0.488985
419.312428	0.483283
419.691674	0.488489
420.070859	0.476789
420.449983	0.485147
420.829045	0.474453
421.208047	0.483129
421.586988	0.475898
421.965867	0.475106
422.344686	0.463425
422.723444	0.476386
423.102141	0.493367
423.480777	0.465708
423.859352	0.486942
424.237866	0.464122
424.616319	0.465251
424.994712	0.455834
425.373044	0.465797
425.751314	0.454471
426.129524	0.471530
426.507673	0.454152
426.885762	0.447563
427.263789	0.453467
427.641756	0.462748
428.019662	0.453143
428.397508	0.452336
428.775292	0.457039
429.153016	0.448799
429.530679	0.455191
429.908282	0.447972
430.285824	0.457818
430.663305	0.436968
431.040726	0.458100
431.418086	0.457640
431.795385	0.449536
432.172624	0.448686
432.549802	0.448834
432.926920	0.447894
433.303977	0.447739
433.680974	0.444592
434.057910	0.443040
434.434786	0.442316
434.811601	0.444845
435.188355	0.427151
435.565050	0.436597
435.941683	0.437465
436.318257	0.422029
436.694770	0.422928
437.071222	0.420819
437.447614	0.425341
437.823946	0.432097
438.200218	0.421357
438.576429	0.430789
438.952580	0.423337
439.328670	0.420641
439.704700	0.426823
440.080670	0.428330
440.456580	0.409400
440.832429	0.417564
441.208218	0.428185
441.583947	0.417740
441.959616	0.416899
442.335224	0.423004
442.710773	0.413325
443.086261	0.411326
443.461689	0.425278
443.837057	0.415091
444.212365	0.405041
444.587612	0.412572
444.962800	0.401835
445.337927	0.403321
445.712995	0.429697
446.088002	0.391145
446.462949	0.401944
446.837837	0.406860
447.212664	0.396215
447.587431	0.386818
447.962139	0.357354
448.336786	0.316265
448.711374	0.326921
449.085901	0.370854
449.460369	0.375494
449.834776	0.378817
450.209124	0.357994
450.583412	0.350798
450.957640	0.343886
451.331808	0.355100
451.705917	0.378639
452.079965	0.383586
452.453954	0.371519
452.827883	0.378421
453.201752	0.373101
453.575562	0.384246
453.949311	0.372968
454.323001	0.378805
454.696632	0.375172
455.070202	0.367450
455.443713	0.359255
455.817164	0.354238
456.190556	0.349833
456.563888	0.346513
456.937160	0.343838
457.310373	0.361516
457.683526	0.360490
458.056619	0.365985
458.429653	0.366495
458.802628	0.370052
459.175542	0.364642
459.548398	0.346971
459.921194	0.339389
460.293930	0.339307
460.666607	0.316652
461.039224	0.305237
461.411782	0.300755
461.784280	0.299907
462.156719	0.304039
462.529099	0.308563
462.901419	0.324716
463.273680	0.329088
463.645882	0.328366
464.018024	0.334560
464.390106	0.327102
464.762130	0.311525
465.134094	0.294818
465.505999	0.263787
465.877845	0.233807
466.249631	0.220798
466.621358	0.228633
466.993026	0.241964
467.364634	0.248769
467.736184	0.257041
468.107674	0.266289
468.479105	0.265252
468.850477	0.272085
469.221790	0.279204
469.593043	0.289014
469.964238	0.294018
470.335373	0.293476
470.706449	0.291146
471.077467	0.292179
471.448425	0.254177
471.819324	0.229678
472.190164	0.228947
472.560945	0.257905
472.931667	0.280120
473.302330	0.284640
473.672934	0.296598
474.043479	0.284066
474.413965	0.286229
474.784393	0.289870
475.154761	0.284572
475.525070	0.281828
475.895321	0.287446
476.265513	0.281800
476.635645	0.277160
477.005719	0.276922
477.375734	0.273626
477.745691	0.266702
478.115588	0.263289
478.485427	0.256901
478.855207	0.243373
479.224928	0.225887
479.594591	0.213981
479.964194	0.217660
480.333739	0.218590
480.703226	0.220038
481.072653	0.218430
481.442022	0.214182
481.811333	0.210996
482.180584	0.214299
482.549777	0.219577
482.918912	0.222838
483.287988	0.222585
483.657005	0.222403
484.025964	0.228774
484.394864	0.225859
484.763706	0.226674
485.132489	0.231750
485.501213	0.232606
485.869879	0.230842
486.238487	0.234243
486.607036	0.231956
486.975527	0.236583
487.343959	0.232224
487.712333	0.231478
488.080648	0.232901
488.448905	0.232055
488.817104	0.233440
489.185244	0.228040
489.553326	0.224492
489.921350	0.214449
490.289315	0.196845
490.657222	0.191594
491.025070	0.193074
491.392861	0.195174
491.760593	0.201066
492.128267	0.206778
492.495883	0.212103
492.863440	0.218555
493.230939	0.224990
493.598380	0.226295
493.965763	0.228654
494.333088	0.230587
494.700354	0.232241
495.067563	0.231052
495.434713	0.234654
495.801805	0.232101
496.168839	0.233941
496.535815	0.235429
496.902733	0.235350
497.269593	0.236664
497.636395	0.234240
498.003139	0.234735
498.369825	0.237746
498.736453	0.234296
499.103023	0.235833
499.469535	0.235292
499.835989	0.235567
500.202385	0.236269
500.568723	0.239429
500.935003	0.234711
501.301226	0.239060
501.667390	0.233318
502.033497	0.231374
502.399546	0.234234
502.765537	0.236264
503.131470	0.234790
503.497345	0.231375
503.863163	0.239619
504.228923	0.232370
504.594625	0.231300
504.960269	0.236571
505.325856	0.232128
505.691385	0.236545
506.056856	0.233064
506.422270	0.232323
506.787625	0.235089
507.152924	0.232437
507.518164	0.233022
507.883347	0.234261
508.248472	0.236423
508.613540	0.231282
508.978550	0.233810
509.343503	0.234286
509.708398	0.231974
510.073236	0.229556
510.438016	0.228911
510.802738	0.230420
511.167403	0.229153
511.532010	0.231423
511.896561	0.226780
512.261053	0.225255
512.625488	0.227570
512.989866	0.227817
513.354186	0.228040
513.718449	0.230385
514.082655	0.226246
514.446803	0.228771
514.810894	0.226410
515.174927	0.228987
515.538904	0.228581
515.902822	0.225317
516.266684	0.227924
516.630488	0.228957
516.994235	0.227781
517.357925	0.226639
517.721558	0.224788
518.085133	0.224459
518.448651	0.224403
518.812112	0.226655
519.175516	0.226295
519.538863	0.223968
519.902152	0.225649
520.265385	0.222425
520.628560	0.224360
520.991678	0.224414
521.354739	0.223509
521.717743	0.224661
522.080690	0.225073
522.443580	0.222779
522.806413	0.223038
523.169189	0.222746
523.531908	0.221582
523.894569	0.224952
524.257174	0.224902
524.619722	0.222681
524.982213	0.223923
525.344647	0.222486
525.707025	0.223664
526.069345	0.221762
526.431608	0.223550
526.793815	0.221271
527.155964	0.225723
527.518057	0.224503
527.880093	0.225433
528.242072	0.223950
528.603995	0.225787
528.965860	0.227682
529.327669	0.226406
529.689421	0.227433
530.051117	0.228168
530.412755	0.226057
530.774337	0.228384
531.135862	0.228840
531.497331	0.227995
531.858743	0.231019
532.220098	0.227768
532.581396	0.230232
532.942638	0.230516
533.303824	0.231790
533.664953	0.231275
534.026025	0.233226
534.387040	0.231208
534.747999	0.230856
535.108902	0.229785
535.469748	0.234849
535.830537	0.232897
536.191270	0.233020
536.551947	0.232475
536.912567	0.232715
537.273131	0.234334
537.633638	0.234732
537.994089	0.234926
538.354483	0.236202
538.714821	0.232615
539.075103	0.232706
539.435328	0.233859
539.795497	0.237472
540.155609	0.233871
540.515665	0.231798
540.875665	0.237847
541.235609	0.236113
541.595496	0.236545
541.955328	0.232954
542.315102	0.235454
542.674821	0.236532
543.034483	0.236682
543.394090	0.236284
543.753640	0.238026
544.113134	0.233049
544.472571	0.236538
544.831953	0.233342
545.191278	0.237525
545.550548	0.236823
545.909761	0.233831
546.268918	0.234651
546.628019	0.232737
546.987064	0.235517
547.346053	0.237336
547.704986	0.235191
548.063863	0.235353
548.422684	0.235854
548.781449	0.237504
549.140158	0.235263
549.498811	0.237751
549.857408	0.240802
550.215949	0.235757
550.574434	0.238904
550.932864	0.236894
551.291237	0.235152
551.649555	0.237045
552.007817	0.236549
552.366022	0.237537
552.724173	0.237713
553.082267	0.237982
553.440305	0.234951
553.798288	0.239150
554.156215	0.235911
554.514086	0.236370
554.871902	0.239896
555.229661	0.238880
555.587365	0.239638
555.945014	0.242081
556.302606	0.239139
556.660143	0.241873
557.017625	0.238020
557.375050	0.240098
557.732421	0.237071
558.089735	0.239115
558.446994	0.239243
558.804197	0.238569
559.161345	0.238416
559.518437	0.241574
559.875474	0.239739
560.232455	0.239200
560.589381	0.240377
560.946251	0.240601
561.303065	0.237942
561.659825	0.239419
562.016528	0.240984
562.373177	0.243967
562.729770	0.241027
563.086307	0.242979
563.442789	0.240961
563.799216	0.243569
564.155587	0.242425
564.511904	0.243622
564.868164	0.243638
565.224370	0.243461
565.580520	0.245252
565.936615	0.245202
566.292654	0.248152
566.648638	0.245309
567.004567	0.246101
567.360441	0.246192
567.716260	0.248648
568.072023	0.246154
568.427732	0.247066
568.783385	0.249716
569.138982	0.247600
569.494525	0.247246
569.850013	0.250350
570.205445	0.248698
570.560823	0.251234
570.916145	0.253150
571.271412	0.251554
571.626625	0.253089
571.981782	0.253468
572.336884	0.254169
572.691931	0.254075
573.046923	0.255467
573.401860	0.256622
573.756743	0.258064
574.111570	0.256857
574.466342	0.257689
574.821059	0.256570
575.175722	0.259707
575.530330	0.259247
575.884882	0.259766
576.239380	0.261374
576.593823	0.262235
576.948211	0.261593
577.302544	0.264955
577.656823	0.264814
578.011047	0.264494
578.365216	0.265150
578.719330	0.267195
579.073389	0.266845
579.427394	0.268259
579.781344	0.268896
580.135239	0.270288
580.489080	0.270149
580.842866	0.273091
581.196597	0.273286
581.550273	0.271711
581.903895	0.272800
582.257463	0.270811
582.610975	0.274230
582.964434	0.273714
583.317837	0.275779
583.671186	0.276544
584.024481	0.276494
584.377721	0.278936
584.730906	0.279610
585.084037	0.279273
585.437113	0.280928
585.790135	0.280453
586.143103	0.283226
586.496016	0.284025
586.848874	0.281827
587.201679	0.282594
587.554428	0.286212
587.907124	0.284945
588.259765	0.285215
588.612352	0.286181
588.964884	0.289551
589.317362	0.289279
589.669786	0.289102
590.022155	0.287407
590.374470	0.286924
590.726731	0.289031
591.078937	0.294019
591.431090	0.290050
591.783188	0.294477
592.135232	0.295265
592.487222	0.294822
592.839157	0.293335
593.191038	0.295461
593.542866	0.297553
593.894639	0.300736
594.246358	0.298858
594.598022	0.298154
594.949633	0.301956
595.301190	0.302794
595.652692	0.301965
596.004141	0.297573
596.355535	0.306250
596.706876	0.306639
597.058162	0.309145
597.409395	0.306027
597.760573	0.303869
598.111698	0.307011
598.462768	0.307575
598.813785	0.308830
599.164748	0.310283
599.515657	0.310661
599.866511	0.314358
600.217312	0.309643
600.568060	0.314330
600.918753	0.310803
601.269392	0.311847
601.619978	0.315498
601.970510	0.312657
602.320988	0.312793
602.671412	0.310769
603.021783	0.313124
603.372100	0.314323
603.722363	0.314239
604.072572	0.315211
604.422728	0.314706
604.772830	0.316827
605.122878	0.316964
605.472872	0.317230
605.822813	0.315356
606.172701	0.318264
606.522534	0.315408
606.872314	0.315691
607.222041	0.316436
607.571714	0.314372
607.921333	0.316168
608.270899	0.315903
608.620411	0.312642
608.969870	0.316411
609.319276	0.316726
609.668627	0.316233
610.017926	0.315373
610.367171	0.312988
610.716362	0.314174
611.065500	0.314020
611.414585	0.313488
611.763616	0.313017
612.112594	0.314025
612.461518	0.313325
612.810389	0.310825
613.159207	0.313663
613.507971	0.315312
613.856682	0.311207
614.205340	0.312231
614.553945	0.309684
614.902496	0.313052
615.250994	0.311392
615.599439	0.312137
615.947830	0.311337
616.296169	0.312409
616.644454	0.312041
616.992686	0.311991
617.340864	0.309796
617.688990	0.313917
618.037063	0.309929
618.385082	0.311644
618.733048	0.308573
619.080961	0.310970
619.428821	0.310405
619.776628	0.310205
620.124382	0.312495
620.472083	0.312885
620.819731	0.311881
621.167326	0.315651
621.514868	0.315665
621.862357	0.320003
622.209793	0.319343
622.557176	0.321811
622.904506	0.322504
623.251783	0.325066
623.599007	0.327442
623.946179	0.326872
624.293297	0.329120
624.640363	0.333377
624.987376	0.333624
625.334336	0.335397
625.681243	0.338322
626.028097	0.339094
626.374899	0.339731
626.721647	0.340085
627.068343	0.343312
627.414987	0.344737
627.761577	0.346519
628.108115	0.344779
628.454600	0.350032
628.801032	0.347299
629.147412	0.349434
629.493739	0.350180
629.840014	0.353085
630.186236	0.349846
630.532405	0.356245
630.878521	0.353098
631.224585	0.355051
631.570597	0.359018
631.916556	0.357930
632.262462	0.357397
632.608316	0.360147
632.954117	0.360214
633.299866	0.361329
633.645562	0.361828
633.991206	0.365928
634.336797	0.368749
634.682336	0.371597
635.027823	0.373541
635.373257	0.373848
635.718639	0.377554
636.063968	0.376471
636.409245	0.382495
636.754470	0.382733
637.099642	0.385101
637.444762	0.388244
637.789829	0.387882
638.134845	0.391070
638.479808	0.392356
638.824719	0.392328
639.169577	0.396569
639.514383	0.394669
639.859137	0.399867
640.203839	0.398647
640.548489	0.399845
640.893086	0.400728
641.237632	0.402261
641.582125	0.401261
641.926566	0.403261
642.270955	0.402612
642.615292	0.402690
642.959576	0.402603
643.303809	0.403239
643.647990	0.402832
643.992118	0.403258
644.336195	0.406058
644.680219	0.404925
645.024192	0.405492
645.368112	0.399544
645.711981	0.397485
646.055797	0.393133
646.399562	0.395587
646.743274	0.388290
647.086935	0.385292
647.430544	0.385605
647.774101	0.383766
648.117606	0.383998
648.461059	0.385044
648.804460	0.387035
649.147810	0.392253
649.491108	0.393785
649.834354	0.395396
650.177548	0.400819
650.520690	0.406098
650.863781	0.407158
651.206820	0.406056
651.549807	0.411303
651.892742	0.415204
652.235626	0.414927
652.578458	0.415824
652.921238	0.422013
653.263967	0.419866
653.606644	0.423489
653.949269	0.423565
654.291843	0.426991
654.634365	0.423577
654.976836	0.426717
655.319255	0.427580
655.661622	0.428924
656.003938	0.428888
656.346203	0.431545
656.688416	0.429643
657.030577	0.433103
657.372687	0.435194
657.714746	0.436101
658.056753	0.432793
658.398708	0.436808
658.740612	0.438017
659.082465	0.434147
659.424266	0.435012
659.766016	0.434327
660.107715	0.437204
660.449362	0.435828
660.790958	0.436672
661.132503	0.437194
661.473996	0.434526
661.815438	0.435794
662.156829	0.435907
662.498168	0.436774
662.839456	0.437602
663.180693	0.435893
663.521879	0.435596
663.863013	0.436420
664.204097	0.434883
664.545129	0.431776
664.886110	0.432666
665.227040	0.429671
665.567918	0.432505
665.908746	0.429886
666.249522	0.429746
666.590248	0.430606
666.930922	0.428661
667.271545	0.427855
667.612118	0.428222
667.952639	0.429462
668.293109	0.428247
668.633528	0.431188
668.973896	0.431044
669.314213	0.431153
669.654480	0.432687
669.994695	0.432852
670.334859	0.434384
670.674973	0.434687
671.015035	0.434051
671.355047	0.434259
671.695008	0.435404
672.034918	0.437513
672.374777	0.436728
672.714585	0.437539
673.054342	0.437452
673.394049	0.437613
673.733705	0.435493
674.073310	0.436433
674.412864	0.439613
674.752368	0.440374
675.091820	0.440262
675.431223	0.444651
675.770574	0.444545
676.109875	0.448135
676.449125	0.447071
676.788324	0.449991
677.127473	0.455326
677.466571	0.455158
677.805619	0.456900
678.144616	0.458080
678.483562	0.460009
678.822458	0.462612
679.161303	0.463196
679.500098	0.463935
679.838842	0.465407
680.177535	0.464615
680.516179	0.462615
680.854771	0.462420
681.193314	0.455927
681.531805	0.446611
681.870247	0.435505
682.208638	0.427876
682.546978	0.426873
682.885268	0.429145
683.223508	0.435546
683.561697	0.438668
683.899836	0.441885
684.237925	0.444343
684.575963	0.447745
684.913951	0.450732
685.251889	0.446443
685.589776	0.448101
685.927614	0.450415
686.265401	0.444617
686.603137	0.446005
686.940824	0.440276
687.278460	0.439132
687.616046	0.437573
687.953582	0.432783
688.291068	0.434059
688.628504	0.429649
688.965889	0.432200
689.303224	0.436189
689.640510	0.439991
689.977745	0.445723
690.314930	0.453366
690.652065	0.458494
690.989150	0.465586
691.326185	0.472818
691.663170	0.477335
692.000105	0.484402
692.336990	0.491428
692.673825	0.493689
693.010610	0.500911
693.347345	0.507002
693.684030	0.508273
694.020665	0.512329
694.357251	0.521327
694.693786	0.520863
695.030272	0.524150
695.366707	0.528628
695.703093	0.531558
696.039429	0.529648
696.375716	0.532230
696.711952	0.534651
697.048139	0.536599
697.384276	0.538040
697.720363	0.537288
698.056400	0.535318
698.392388	0.541353
698.728326	0.543928
699.064214	0.546756
699.400053	0.547709
699.735842	0.551092
700.071581	0.553787
700.407270	0.556908
700.742910	0.559837
701.078501	0.566767
701.414042	0.567630
701.749533	0.569506
702.084974	0.578670
702.420366	0.571649
702.755709	0.578146
703.091002	0.587482
703.426246	0.580360
703.761440	0.585603
704.096584	0.590281
704.431679	0.587617
704.766725	0.589523
705.101721	0.591418
705.436668	0.587675
705.771565	0.594810
706.106413	0.590936
706.441212	0.586282
706.775961	0.585475
707.110661	0.587807
707.445311	0.584448
707.779913	0.582415
708.114465	0.580963
708.448967	0.577588
708.783421	0.569318
709.117825	0.563594
709.452180	0.562864
709.786485	0.557766
710.120742	0.546451
710.454949	0.548808
710.789107	0.540306
711.123216	0.530739
711.457275	0.532903
711.791286	0.524581
712.125247	0.523680
712.459159	0.534774
712.793023	0.526332
713.126837	0.531206
713.460602	0.531020
713.794318	0.539971
714.127985	0.538631
714.461602	0.549409
714.795171	0.552427
715.128691	0.560483
715.462162	0.568108
715.795584	0.574904
716.128957	0.576573
716.462281	0.583392
716.795556	0.587088
717.128782	0.592626
717.461960	0.601980
717.795088	0.600153
718.128167	0.606639
718.461198	0.614891
718.794180	0.615525
719.127113	0.617930
719.459997	0.621502
719.792833	0.628017
720.125619	0.629813
720.458357	0.635635
720.791046	0.635295
721.123686	0.638864
721.456278	0.645149
721.788821	0.641974
722.121315	0.647822
722.453761	0.651262
722.786158	0.649485
723.118506	0.644400
723.450805	0.653213
723.783056	0.649980
724.115259	0.647006
724.447412	0.647046
724.779518	0.647820
725.111574	0.646740
725.443582	0.642547
725.775542	0.644503
726.107453	0.636869
726.439315	0.636488
726.771129	0.634726
727.102895	0.628576
727.434612	0.621164
727.766281	0.618913
728.097901	0.617768
728.429473	0.617516
728.760996	0.616356
729.092471	0.616203
729.423897	0.619980
729.755276	0.618846
730.086606	0.618968
730.417887	0.613630
730.749120	0.604593
731.080305	0.595239
731.411442	0.591318
731.742530	0.595714
732.073570	0.594999
732.404562	0.587902
732.735506	0.588660
733.066401	0.593365
733.397249	0.602492
733.728048	0.614180
734.058798	0.627663
734.389501	0.638364
734.720156	0.648030
735.050762	0.655451
735.381320	0.656574
735.711831	0.665193
736.042293	0.670967
736.372707	0.666701
736.703073	0.670799
737.033391	0.673349
737.363661	0.670506
737.693883	0.665771
738.024056	0.664230
738.354182	0.665234
738.684260	0.653991
739.014290	0.650735
739.344272	0.651035
739.674207	0.644136
740.004093	0.643789
740.333931	0.644370
740.663722	0.643575
740.993464	0.645007
741.323159	0.648583
741.652806	0.652957
741.982405	0.657601
742.311956	0.663966
742.641460	0.665150
742.970915	0.669394
743.300323	0.675136
743.629683	0.682825
743.958996	0.684744
744.288260	0.689144
744.617477	0.695209
744.946647	0.696918
745.275768	0.702946
745.604842	0.702438
745.933869	0.711545
746.262847	0.714285
746.591778	0.706513
746.920662	0.712540
747.249498	0.719837
747.578286	0.710198
747.907027	0.706748
748.235720	0.707067
748.564365	0.702214
748.892963	0.701077
749.221514	0.705635
749.550017	0.708676
749.878473	0.711399
750.206881	0.716493
750.535242	0.716890
750.863555	0.716412
751.191821	0.717226
751.520039	0.720691
751.848210	0.725596
752.176334	0.718795
752.504411	0.717907
752.832440	0.725702
753.160421	0.729866
753.488356	0.727581
753.816243	0.725306
754.144082	0.734062
754.471875	0.737937
754.799620	0.733142
755.127318	0.734115
755.454969	0.734904
755.782572	0.734585
756.110129	0.739308
756.437638	0.741882
756.765100	0.738632
757.092515	0.735383
757.419882	0.734351
757.747203	0.740179
758.074477	0.739728
758.401703	0.735831
758.728882	0.732092
759.056014	0.730639
759.383099	0.729394
759.710138	0.730748
760.037129	0.726744
760.364073	0.720340
760.690970	0.722778
761.017820	0.728453
761.344623	0.724995
761.671379	0.716021
761.998088	0.703980
762.324751	0.679662
762.651366	0.636823
762.977935	0.569701
763.304456	0.517638
763.630931	0.508596
763.957359	0.547685
764.283740	0.591967
764.610074	0.620038
764.936362	0.652125
765.262602	0.679478
765.588796	0.700684
765.914943	0.717777
766.241044	0.735957
766.567097	0.742815
766.893104	0.753789
767.219064	0.759427
767.544978	0.765975
767.870845	0.779157
768.196665	0.782868
768.522438	0.781221
768.848165	0.782811
769.173846	0.792217
769.499479	0.796448
769.825066	0.800252
770.150607	0.805021
770.476101	0.800575
770.801548	0.802599
771.126949	0.813557
771.452303	0.818425
771.777611	0.817306
772.102872	0.814849
772.428087	0.820799
772.753256	0.824967
773.078378	0.825865
773.403453	0.835072
773.728482	0.839002
774.053465	0.832796
774.378401	0.836067
774.703291	0.845214
775.028135	0.845324
775.352932	0.845098
775.677683	0.850070
776.002388	0.849646
776.327046	0.849282
776.651658	0.853518
776.976224	0.856781
777.300743	0.855904
777.625216	0.858069
777.949643	0.860465
778.274024	0.859396
778.598359	0.861713
778.922647	0.859791
779.246889	0.861505
779.571086	0.864288
779.895236	0.867019
780.219339	0.865284
780.543397	0.860072
780.867409	0.860719
781.191374	0.862015
781.515294	0.863502
781.839167	0.862943
782.162995	0.865157
782.486776	0.862998
782.810511	0.863538
783.134201	0.869131
783.457844	0.865562
783.781441	0.868965
784.104993	0.873104
784.428498	0.873427
784.751958	0.870254
785.075372	0.872005
785.398739	0.876735
785.722061	0.871303
786.045337	0.868315
786.368568	0.872515
786.691752	0.874972
787.014891	0.860808
787.337983	0.851016
787.661030	0.844081
787.984031	0.825593
788.306987	0.813775
788.629897	0.814749
788.952760	0.819326
789.275579	0.823646
789.598351	0.839381
789.921078	0.853082
790.243759	0.854185
790.566395	0.859297
790.888984	0.867304
791.211529	0.872330
791.534027	0.874883
791.856480	0.877301
792.178888	0.882359
792.501249	0.884156
792.823566	0.886828
793.145836	0.886510
793.468062	0.888886
793.790241	0.888893
794.112375	0.886191
794.434464	0.883226
794.756507	0.881656
795.078505	0.880761
795.400457	0.875867
795.722364	0.863408
796.044226	0.855673
796.366042	0.854990
796.687812	0.858958
797.009538	0.853282
797.331218	0.858331
797.652852	0.863183
797.974442	0.867195
798.295986	0.868383
798.617484	0.868583
798.938938	0.874465
799.260346	0.878554
799.581709	0.880553
799.903026	0.883636
800.224299	0.883894
800.545526	0.887221
800.866708	0.892357
801.187845	0.896332
801.508936	0.894153
801.829983	0.892394
802.150984	0.897058
802.471940	0.901233
802.792851	0.901649
803.113717	0.902316
803.434538	0.899909
803.755314	0.903064
804.076045	0.903313
804.396731	0.903428
804.717372	0.901893
805.037967	0.905776
805.358518	0.903507
805.679024	0.898460
805.999485	0.900454
806.319901	0.899448
806.640272	0.903167
806.960598	0.900782
807.280879	0.897426
807.601115	0.895767
807.921306	0.899917
808.241453	0.900041
808.561554	0.898498
808.881611	0.897933
809.201623	0.899626
809.521590	0.900043
809.841513	0.901510
810.161390	0.899494
810.481223	0.900682
810.801011	0.905116
811.120755	0.907457
811.440453	0.905737
811.760107	0.905547
812.079716	0.905182
812.399281	0.907444
812.718801	0.909355
813.038276	0.910157
813.357707	0.910300
813.677093	0.909267
813.996434	0.910601
814.315731	0.912473
814.634983	0.913341
814.954191	0.913448
815.273354	0.907396
815.592473	0.905622
815.911547	0.905039
816.230577	0.902330
816.549562	0.899479
816.868502	0.898898
817.187399	0.897248
817.506250	0.891806
817.825058	0.892715
818.143821	0.889246
818.462539	0.884983
818.781213	0.876503
819.099843	0.865412
819.418429	0.848196
819.736970	0.831171
820.055466	0.810956
820.373919	0.784807
820.692327	0.751870
821.010691	0.715687
821.329011	0.634842
821.647286	0.517264
821.965517	0.402812
822.283704	0.359836
822.601847	0.360277
822.919945	0.395879
823.237999	0.430605
823.556010	0.479146
823.873976	0.535185
824.191897	0.587500
824.509775	0.631426
824.827609	0.677540
825.145398	0.700414
825.463144	0.701770
825.780845	0.685104
826.098502	0.666041
826.416116	0.619979
826.733685	0.575364
827.051210	0.565946
827.368692	0.580765
827.686129	0.618726
828.003522	0.675194
828.320872	0.722350
828.638177	0.767466
828.955439	0.800900
829.272656	0.822514
829.589830	0.840515
829.906960	0.857187
830.224046	0.869190
830.541088	0.879880
830.858086	0.884193
831.175041	0.891094
831.491952	0.889402
831.808819	0.886079
832.125642	0.879462
832.442421	0.864943
832.759157	0.842031
833.075849	0.794058
833.392497	0.729304
833.709101	0.688207
834.025662	0.697698
834.342179	0.730108
834.658653	0.769662
834.975083	0.807873
835.291469	0.833963
835.607811	0.856100
835.924110	0.874141
836.240366	0.891480
836.556578	0.904018
836.872746	0.911709
837.188871	0.917199
837.504952	0.925412
837.820990	0.927196
838.136984	0.930582
838.452935	0.934190
838.768842	0.935062
839.084706	0.928576
839.400526	0.902737
839.716303	0.859066
840.032037	0.838468
840.347727	0.842287
840.663373	0.859657
840.978977	0.882607
841.294537	0.906104
841.610054	0.921597
841.925527	0.929682
842.240957	0.936630
842.556344	0.943653
842.871687	0.951517
843.186987	0.953492
843.502244	0.955387
843.817458	0.956300
844.132629	0.959420
844.447756	0.964953
844.762840	0.965465
845.077881	0.965624
845.392879	0.963941
845.707833	0.966674
846.022745	0.969575
846.337613	0.969219
846.652438	0.969656
846.967221	0.969559
847.281960	0.970819
847.596656	0.972007
847.911309	0.971988
848.225919	0.972657
848.540485	0.974834
848.855009	0.974253
849.169490	0.974143
849.483928	0.973541
849.798323	0.972833
850.112675	0.975798
850.426984	0.974897
850.741251	0.974387
851.055474	0.975728
851.369654	0.973830
851.683792	0.972979
851.997887	0.975436
852.311938	0.975911
852.625947	0.974813
852.939914	0.972018
853.253837	0.975363
853.567718	0.976839
853.881555	0.974954
854.195350	0.974474
854.509103	0.974577
854.822812	0.976608
855.136479	0.975870
855.450103	0.974007
855.763685	0.974037
856.077224	0.974934
856.390720	0.975546
856.704173	0.974504
857.017584	0.974127
857.330953	0.973567
857.644278	0.972691
857.957561	0.973576
858.270802	0.974412
858.584000	0.974772
858.897155	0.971929
859.210268	0.971674
859.523339	0.974399
859.836367	0.975301
860.149352	0.974937
860.462295	0.974896
860.775195	0.974820
861.088054	0.973680
861.400869	0.975376
861.713642	0.975722
862.026373	0.977090
862.339062	0.975367
862.651708	0.974630
862.964312	0.973823
863.276873	0.973505
863.589392	0.974176
863.901869	0.971134
864.214303	0.969727
864.526696	0.968932
864.839045	0.968068
865.151353	0.966987
865.463619	0.966883
865.775842	0.967506
866.088023	0.967191
866.400162	0.967142
866.712258	0.967534
867.024313	0.968546
867.336325	0.969607
867.648296	0.969814
867.960224	0.966380
868.272110	0.967456
868.583954	0.969038
868.895755	0.968854
869.207515	0.966834
869.519233	0.964784
869.830909	0.964788
870.142542	0.967458
870.454134	0.966234
870.765684	0.964681
871.077191	0.964926
871.388657	0.964181
871.700081	0.964292
872.011463	0.963525
872.322803	0.963749
872.634101	0.960726
872.945357	0.958953
873.256571	0.956520
873.567744	0.958768
873.878874	0.959340
874.189963	0.957269
874.501010	0.958275
874.812015	0.954008
875.122979	0.955310
875.433900	0.957760
875.744780	0.958630
876.055618	0.954601
876.366415	0.953873
876.677169	0.953852
876.987882	0.955076
877.298554	0.956198
877.609183	0.951519
877.919771	0.948357
878.230317	0.947042
878.540822	0.943903
878.851285	0.938603
879.161707	0.929608
879.472087	0.917973
879.782425	0.900090
880.092722	0.865700
880.402977	0.810208
880.713191	0.747977
881.023363	0.686523
881.333494	0.651884
881.643583	0.624523
881.953631	0.624470
882.263637	0.652095
882.573602	0.692992
882.883526	0.720027
883.193408	0.744755
883.503248	0.768022
883.813048	0.796824
884.122806	0.827071
884.432522	0.851777
884.742197	0.871281
885.051831	0.883355
885.361424	0.894208
885.670975	0.907511
885.980485	0.915504
886.289954	0.922683
886.599382	0.926698
886.908768	0.932301
887.218113	0.937017
887.527417	0.943036
887.836680	0.946478
888.145901	0.947452
888.455082	0.951450
888.764221	0.955096
889.073319	0.956523
889.382376	0.958512
889.691392	0.957091
890.000366	0.958382
890.309300	0.958702
890.618193	0.957142
890.927044	0.956419
891.235855	0.955080
891.544625	0.956026
891.853353	0.956248
892.162041	0.953922
892.470687	0.948678
892.779293	0.941504
893.087858	0.936708
893.396381	0.928836
893.704864	0.915624
894.013306	0.890853
894.321707	0.863132
894.630068	0.847713
894.938387	0.841868
895.246665	0.844347
895.554903	0.856606
895.863100	0.871359
896.171256	0.888497
896.479371	0.909475
896.787446	0.922376
897.095480	0.927937
897.403473	0.931314
897.711425	0.936615
898.019336	0.942757
898.327207	0.948612
898.635038	0.948217
898.942827	0.950237
899.250576	0.952289
899.558284	0.956950
899.865952	0.958596
900.173579	0.959522
900.481165	0.959974
900.788711	0.963020
901.096216	0.965269
901.403681	0.967264
901.711105	0.966060
902.018489	0.966346
902.325832	0.967043
902.633135	0.965868
902.940397	0.960282
903.247619	0.946474
903.554800	0.921484
903.861941	0.879508
904.169041	0.841640
904.476101	0.824820
904.783121	0.824986
905.090100	0.842057
905.397039	0.864080
905.703938	0.887647
906.010796	0.907260
906.317614	0.925456
906.624391	0.938271
906.931129	0.948292
907.237826	0.955884
907.544483	0.962835
907.851099	0.967282
908.157675	0.969927
908.464211	0.974848
908.770707	0.975680
909.077163	0.979398
909.383578	0.979793
909.689954	0.980189
909.996289	0.980602
910.302584	0.983956
910.608839	0.985103
910.915054	0.982796
911.221229	0.982829
911.527363	0.982414
911.833458	0.981805
912.139513	0.983328
912.445527	0.982209
912.751502	0.980346
913.057436	0.977193
913.363331	0.974945
913.669186	0.970836
913.975000	0.965213
914.280775	0.959330
914.586510	0.951300
914.892205	0.938561
915.197859	0.915339
915.503475	0.887741
915.809050	0.866156
916.114585	0.859289
916.420081	0.856884
916.725536	0.855523
917.030952	0.863118
917.336328	0.876994
917.641665	0.891786
917.946961	0.908339
918.252218	0.919352
918.557435	0.929834
918.862612	0.938755
919.167750	0.945254
919.472848	0.950875
919.777906	0.957146
920.082925	0.962256
920.387904	0.966322
920.692843	0.966670
920.997743	0.968004
921.302603	0.971596
921.607423	0.973188
921.912204	0.977280
922.216946	0.977614
922.521647	0.978673
922.826310	0.979442
923.130932	0.982455
923.435516	0.983311
923.740059	0.984030
924.044564	0.984620
924.349028	0.984483
924.653454	0.987008
924.957840	0.989239
925.262186	0.989896
925.566493	0.989004
925.870761	0.990419
926.174989	0.990104
926.479178	0.992827
926.783328	0.994099
927.087438	0.992067
927.391509	0.994260
927.695541	0.994020
927.999533	0.995381
928.303486	0.995174
928.607400	0.995039
928.911275	0.995469
929.215110	0.997125
929.518906	0.996239
929.822663	0.996820
930.126381	0.996470
930.430060	0.996144
930.733699	0.996527
931.037299	0.995887
931.340861	0.995893
931.644383	0.994015
931.947866	0.996576
932.251309	0.995991
932.554714	0.995720
932.858080	0.996516
933.161407	0.995384
933.464694	0.995444
933.767943	0.995829
934.071153	0.996981
934.374323	0.996798
934.677455	0.997008
934.980548	0.997329
935.283602	0.998068
935.586617	0.996644
935.889593	0.998056
936.192530	0.998141
936.495428	0.997325
936.798287	0.996637
937.101108	0.995474
937.403890	0.994232
937.706632	0.994628
938.009336	0.992350
938.312002	0.991278
938.614628	0.990724
938.917216	0.988014
939.219765	0.987468
939.522275	0.987974
939.824747	0.987869
940.127179	0.988725
940.429573	0.989987
940.731929	0.989846
941.034246	0.990109
941.336524	0.989968
941.638763	0.990555
941.940964	0.992401
942.243126	0.992967
942.545250	0.992702
942.847335	0.993245
943.149381	0.993910
943.451389	0.993117
943.753359	0.994994
944.055290	0.996240
944.357182	0.995838
944.659036	0.996063
944.960851	0.995168
945.262628	0.996811
945.564367	0.995273
945.866067	0.996143
946.167729	0.996139
946.469352	0.996193
946.770937	0.992471
947.072484	0.996472
947.373992	0.995948
947.675462	0.995549
947.976893	0.994679
948.278286	0.997674
948.579641	0.997163
948.880958	0.996861
949.182236	0.997252
949.483476	0.998088
949.784678	0.996815
950.085841	0.996534
950.386967	0.996201
950.688054	0.996284
950.989103	0.994501
951.290114	0.994424
951.591087	0.995816
951.892021	0.993775
952.192917	0.995098
952.493776	0.993564
952.794596	0.993124
953.095378	0.992107
953.396122	0.994036
953.696828	0.995156
953.997496	0.994704
954.298126	0.996190
954.598718	0.995506
954.899272	0.996430
955.199788	0.996670
955.500266	0.998109
955.800706	0.997118
956.101108	0.997625
956.401472	0.999648
956.701798	0.999255
957.002087	1.000671
957.302337	0.999850
957.602550	1.000432
957.902724	1.001170
958.202861	1.001341
958.502960	1.000551
958.803022	1.002257
959.103045	1.002161
959.403031	1.003434
959.702979	1.002824
960.002889	1.002018
960.302762	1.000907
960.602596	1.002951
960.902393	1.002271
961.202153	1.002451
961.501875	1.002263
961.801559	1.003298
962.101205	1.001666
962.400814	1.003104
962.700385	1.003582
962.999918	1.002290
963.299414	1.001384
963.598873	1.003106
963.898293	1.002951
964.197677	1.002762
964.497022	1.002756
964.796331	1.001807
965.095601	1.002999
965.394835	1.001817
965.694030	1.003586
965.993189	1.001612
966.292309	1.003908
966.591393	1.003198
966.890439	1.002729
967.189447	1.002674
967.488419	1.002374
967.787353	1.002056
968.086249	1.003509
968.385108	1.002108
968.683930	1.002518
968.982714	1.002763
969.281462	1.002905
969.580172	1.003325
969.878844	1.004599
970.177480	1.002336
970.476078	1.003537
970.774639	1.002706
971.073162	1.002385
971.371649	1.002481
971.670098	1.002370
971.968510	1.003380
972.266885	1.001508
972.565223	1.001916
972.863524	1.001009
973.161788	1.002182
973.460014	1.002249
973.758204	1.002166
974.056356	1.001862
974.354471	1.002188
974.652550	1.003336
974.950591	1.002447
975.248595	1.002405
975.546563	1.003844
975.844493	1.002782
976.142386	1.002284
976.440243	1.003031
976.738062	1.003250
977.035845	1.001797
977.333590	1.005168
977.631299	1.002321
977.928971	1.003220
978.226606	1.003664
978.524204	1.002876
978.821765	1.003941
979.119290	1.004815
979.416777	1.003637
979.714228	1.002294
980.011642	1.004937
980.309020	1.002499
980.606360	1.003877
980.903664	1.002895
981.200931	1.001982
981.498162	1.001868
981.795356	1.001892
982.092513	1.000827
982.389633	0.999529
982.686717	0.998472
982.983764	0.996243
983.280775	0.995680
983.577749	0.997961
983.874686	0.996532
984.171587	0.997001
984.468451	0.999098
984.765279	1.000690
985.062070	1.000901
985.358824	1.002093
985.655543	1.002294
985.952224	1.002463
986.248869	1.001846
986.545478	1.004260
986.842050	1.001697
987.138586	1.003186
987.435086	1.003579
987.731549	1.005324
988.027975	1.004422
988.324366	1.003279
988.620719	1.005012
988.917037	1.004178
989.213318	1.005952
989.509563	1.003937
989.805772	1.003600
990.101944	1.004799
990.398080	1.004218
990.694180	1.005760
990.990244	1.003586
991.286271	1.003983
991.582262	1.004924
991.878217	1.004080
992.174136	1.005325
992.470019	1.004494
992.765865	1.005386
993.061676	1.004550
993.357450	1.003923
993.653188	1.005766
993.948890	1.004669
994.244556	1.004275
994.540186	1.003693
994.835780	1.003381
995.131337	1.004697
995.426859	1.003754
995.722345	1.003175
996.017795	1.002460
996.313208	1.001219
996.608586	1.002797
996.903928	1.003136
997.199234	1.002765
997.494504	1.004458
997.789738	1.001738
998.084936	1.003719
998.380099	1.002620
998.675225	1.003732
998.970316	1.004405
999.265371	1.004421
999.560390	1.004291
999.855373	1.004977
1000.150320	1.004054
1000.445232	1.004786
1000.740108	1.004450
1001.034948	1.004619
1001.329752	1.006446
1001.624521	1.004426
1001.919254	1.004331
1002.213951	1.005299
1002.508613	1.004197
1002.803239	1.005405
1003.097829	1.005775
1003.392384	1.004877
1003.686903	1.005346
1003.981386	1.004283
1004.275834	1.005601
1004.570246	1.004638
1004.864623	1.005086
1005.158964	1.005442
1005.453270	1.003339
1005.747540	1.004760
1006.041775	1.005905
1006.335974	1.005128
1006.630138	1.005331
1006.924266	1.004608
1007.218359	1.004021
1007.512416	1.005886
1007.806438	1.004448
1008.100425	1.004790
1008.394376	1.006345
1008.688292	1.003690
1008.982172	1.003773
1009.276017	1.004881
1009.569827	1.007030
1009.863602	1.004778
1010.157341	1.005508
1010.451045	1.005539
1010.744714	1.006192
1011.038347	1.006303
1011.331945	1.004071
1011.625508	1.005079
1011.919036	1.005424
1012.212528	1.005240
1012.505986	1.004817
1012.799408	1.004881
1013.092795	1.005661
1013.386147	1.005715
1013.679464	1.005515
1013.972745	1.005469
1014.265992	1.005322
1014.559204	1.005208
1014.852380	1.005773
1015.145521	1.005446
1015.438628	1.006082
1015.731699	1.004336
1016.024736	1.006074
1016.317737	1.005517
1016.610703	1.005445
1016.903635	1.005258
1017.196531	1.005101
1017.489393	1.005597
1017.782219	1.004866
1018.075011	1.005104
1018.367768	1.004190
1018.660490	1.006045
1018.953177	1.006045
1019.245829	1.006045
