Dividing Wavelength (nm)	Counts (n)	Blue Motor Position (mm): 38.900000	Red Motor Position (mm): 0.000000	
326.493990	0.998620
326.888308	0.998620
327.282561	0.998620
327.676750	0.999126
328.070874	0.999821
328.464933	1.001613
328.858929	1.001550
329.252859	1.001567
329.646726	0.999831
330.040528	1.000517
330.434265	0.999989
330.827938	1.000314
331.221547	1.001425
331.615091	1.000525
332.008571	1.001704
332.401986	1.000490
332.795338	1.000108
333.188625	1.000239
333.581847	0.999302
333.975006	0.999741
334.368100	0.999070
334.761129	0.999083
335.154095	1.000419
335.546996	1.000690
335.939833	0.999005
336.332606	1.000327
336.725315	0.998635
337.117960	0.999805
337.510540	0.999675
337.903056	1.000264
338.295508	1.001260
338.687896	1.000995
339.080220	0.999525
339.472480	0.999683
339.864676	1.000840
340.256807	0.999555
340.648875	0.999419
341.040879	1.000155
341.432818	1.001250
341.824694	0.999176
342.216506	1.000759
342.608253	1.000825
342.999937	0.999935
343.391557	0.999074
343.783113	1.001022
344.174605	0.998788
344.566033	0.999027
344.957397	0.999873
345.348697	1.000816
345.739934	0.999436
346.131106	1.000961
346.522215	0.999887
346.913260	1.000308
347.304241	0.999367
347.695159	0.999081
348.086012	0.999710
348.476802	0.999445
348.867528	0.998551
349.258191	1.000410
349.648789	0.999055
350.039324	0.999758
350.429796	0.998122
350.820203	0.999430
351.210548	0.999898
351.600828	0.999161
351.991045	0.997978
352.381198	0.999055
352.771288	0.998905
353.161314	0.999682
353.551276	0.998299
353.941175	0.997889
354.331010	1.000737
354.720782	0.998153
355.110490	0.999698
355.500135	0.999783
355.889717	0.998177
356.279235	0.998152
356.668689	0.999546
357.058080	0.999636
357.447408	0.998579
357.836672	0.998542
358.225873	0.998945
358.615010	0.999066
359.004084	0.998041
359.393095	1.000072
359.782043	0.998280
360.170927	0.998302
360.559748	0.998873
360.948505	0.998762
361.337199	0.998124
361.725830	0.998677
362.114398	0.999215
362.502903	0.997828
362.891344	0.997915
363.279722	0.998406
363.668037	0.998081
364.056289	0.998527
364.444478	1.000126
364.832603	0.998966
365.220665	0.999455
365.608665	0.997872
365.996601	0.998101
366.384474	0.997206
366.772284	0.997853
367.160031	0.995658
367.547715	0.995971
367.935336	0.995034
368.322893	0.994753
368.710388	0.993847
369.097820	0.991616
369.485189	0.990731
369.872495	0.988293
370.259738	0.986521
370.646918	0.983317
371.034035	0.981750
371.421090	0.978300
371.808081	0.972500
372.195010	0.970698
372.581875	0.966096
372.968678	0.960948
373.355418	0.958345
373.742096	0.950588
374.128710	0.945877
374.515262	0.942700
374.901751	0.935054
375.288177	0.930413
375.674540	0.924569
376.060841	0.917907
376.447079	0.911386
376.833254	0.905054
377.219367	0.900309
377.605417	0.887769
377.991404	0.885316
378.377329	0.878716
378.763191	0.872290
379.148991	0.863242
379.534727	0.856086
379.920402	0.848378
380.306013	0.844361
380.691563	0.832672
381.077049	0.825065
381.462474	0.821591
381.847835	0.809518
382.233134	0.804300
382.618371	0.805330
383.003545	0.787937
383.388657	0.786945
383.773706	0.778706
384.158693	0.775032
384.543618	0.769454
384.928480	0.760594
385.313280	0.749680
385.698017	0.749378
386.082692	0.738990
386.467305	0.737213
386.851856	0.731888
387.236344	0.726337
387.620770	0.720771
388.005133	0.715513
388.389435	0.709497
388.773674	0.707733
389.157851	0.698874
389.541965	0.697070
389.926018	0.704218
390.310008	0.691275
390.693936	0.689017
391.077802	0.681855
391.461606	0.683728
391.845348	0.674830
392.229027	0.675056
392.612645	0.675643
392.996200	0.664345
393.379694	0.659186
393.763125	0.652659
394.146494	0.660438
394.529801	0.653679
394.913047	0.650135
395.296230	0.659467
395.679351	0.655666
396.062410	0.657301
396.445408	0.663525
396.828343	0.664122
397.211217	0.664713
397.594028	0.681015
397.976778	0.677933
398.359466	0.680114
398.742092	0.683264
399.124656	0.698997
399.507158	0.695988
399.889598	0.700169
400.271977	0.701134
400.654294	0.710988
401.036549	0.718316
401.418742	0.728662
401.800874	0.727525
402.182944	0.732882
402.564952	0.735629
402.946898	0.744818
403.328783	0.755417
403.710606	0.769556
404.092367	0.764114
404.474067	0.775992
404.855705	0.783677
405.237282	0.796401
405.618797	0.797920
406.000250	0.804622
406.381642	0.808392
406.762972	0.820509
407.144240	0.828024
407.525447	0.835891
407.906593	0.841367
408.287677	0.849285
408.668700	0.859894
409.049661	0.865610
409.430560	0.871576
409.811399	0.881746
410.192176	0.883844
410.572891	0.892484
410.953545	0.897313
411.334138	0.906943
411.714669	0.911245
412.095139	0.920269
412.475547	0.923697
412.855894	0.930105
413.236180	0.934679
413.616405	0.941132
413.996568	0.944733
414.376670	0.950227
414.756711	0.953619
415.136691	0.958058
415.516609	0.960246
415.896466	0.964434
416.276262	0.966501
416.655997	0.970552
417.035670	0.972412
417.415283	0.974427
417.794834	0.977451
418.174324	0.980488
418.553753	0.981570
418.933121	0.983374
419.312428	0.986033
419.691674	0.987243
420.070859	0.988245
420.449983	0.988982
420.829045	0.990233
421.208047	0.993347
421.586988	0.992895
421.965867	0.993279
422.344686	0.993280
422.723444	0.994830
423.102141	0.995527
423.480777	0.994666
423.859352	0.996038
424.237866	0.996409
424.616319	0.997183
424.994712	0.997186
425.373044	0.997566
425.751314	0.997232
426.129524	0.998686
426.507673	0.997225
426.885762	0.998353
427.263789	0.997912
427.641756	0.998213
428.019662	0.999123
428.397508	0.998871
428.775292	0.998485
429.153016	0.998222
429.530679	0.998254
429.908282	0.998268
430.285824	0.997968
430.663305	0.998999
431.040726	0.998872
431.418086	0.998754
431.795385	0.999720
432.172624	1.000303
432.549802	0.998455
432.926920	0.999163
433.303977	0.999315
433.680974	0.999797
434.057910	0.999418
434.434786	0.998360
434.811601	0.999022
435.188355	0.999976
435.565050	0.999448
435.941683	0.999197
436.318257	0.998247
436.694770	0.999106
437.071222	1.000105
437.447614	0.999213
437.823946	0.999577
438.200218	0.999815
438.576429	0.998851
438.952580	0.999136
439.328670	0.998905
439.704700	0.998970
440.080670	0.999653
440.456580	0.998827
440.832429	0.999906
441.208218	0.999195
441.583947	0.999152
441.959616	0.999047
442.335224	1.000069
442.710773	0.999451
443.086261	0.999537
443.461689	0.999270
443.837057	0.998424
444.212365	0.999565
444.587612	1.000222
444.962800	0.999391
445.337927	1.000458
445.712995	0.999584
446.088002	0.999024
446.462949	0.999171
446.837837	1.000835
447.212664	0.999178
447.587431	0.999223
447.962139	0.999515
448.336786	0.998525
448.711374	0.999037
449.085901	0.999750
449.460369	0.999402
449.834776	0.999117
450.209124	0.999314
450.583412	1.000056
450.957640	0.999386
451.331808	0.999762
451.705917	0.999091
452.079965	0.999311
452.453954	0.999774
452.827883	1.000070
453.201752	0.999001
453.575562	0.999008
453.949311	0.999794
454.323001	0.999285
454.696632	0.999491
455.070202	0.999284
455.443713	0.999229
455.817164	0.998562
456.190556	0.999576
456.563888	1.000032
456.937160	0.999481
457.310373	0.999455
457.683526	0.998837
458.056619	0.999237
458.429653	0.998414
458.802628	0.998824
459.175542	0.999630
459.548398	0.999327
459.921194	0.999084
460.293930	1.000307
460.666607	1.000294
461.039224	0.999140
461.411782	0.998692
461.784280	0.998373
462.156719	0.999760
462.529099	0.999423
462.901419	0.998113
463.273680	0.999206
463.645882	0.999014
464.018024	0.999717
464.390106	0.999057
464.762130	0.999143
465.134094	0.998865
465.505999	0.998996
465.877845	0.999008
466.249631	0.998661
466.621358	0.998204
466.993026	0.998150
467.364634	0.998469
467.736184	0.998953
468.107674	0.998892
468.479105	0.998527
468.850477	0.999126
469.221790	0.999478
469.593043	0.998639
469.964238	0.997938
470.335373	0.998630
470.706449	0.998482
471.077467	0.998546
471.448425	0.999084
471.819324	0.998359
472.190164	0.997958
472.560945	0.998895
472.931667	0.998622
473.302330	0.998739
473.672934	0.999862
474.043479	0.998513
474.413965	0.999032
474.784393	0.998943
475.154761	0.999047
475.525070	0.998647
475.895321	0.999061
476.265513	0.999002
476.635645	0.999848
477.005719	0.998805
477.375734	0.998674
477.745691	0.998870
478.115588	0.998458
478.485427	0.998852
478.855207	0.998790
479.224928	0.998666
479.594591	0.998214
479.964194	0.998324
480.333739	0.998509
480.703226	0.998234
481.072653	0.997852
481.442022	0.998986
481.811333	0.998739
482.180584	0.998284
482.549777	0.998335
482.918912	0.999459
483.287988	0.999274
483.657005	0.998547
484.025964	0.998917
484.394864	0.998218
484.763706	0.998376
485.132489	0.998627
485.501213	0.999599
485.869879	0.998978
486.238487	0.998049
486.607036	0.998738
486.975527	0.999118
487.343959	0.998512
487.712333	0.998691
488.080648	0.998670
488.448905	0.999058
488.817104	0.998726
489.185244	0.999051
489.553326	0.998891
489.921350	0.998886
490.289315	0.998933
490.657222	0.997957
491.025070	0.999229
491.392861	0.998738
491.760593	0.998869
492.128267	0.998824
492.495883	0.998021
492.863440	0.998348
493.230939	0.998781
493.598380	0.999468
493.965763	0.998862
494.333088	0.998496
494.700354	0.998692
495.067563	0.998829
495.434713	0.999004
495.801805	0.998652
496.168839	0.999694
496.535815	0.999018
496.902733	0.998395
497.269593	0.998611
497.636395	0.998213
498.003139	0.998589
498.369825	0.998875
498.736453	0.999087
499.103023	0.998877
499.469535	0.998751
499.835989	0.998860
500.202385	0.998745
500.568723	0.998346
500.935003	0.998691
501.301226	0.998969
501.667390	0.998069
502.033497	0.998865
502.399546	0.998584
502.765537	0.998354
503.131470	0.998676
503.497345	0.999403
503.863163	0.999179
504.228923	0.999106
504.594625	0.998652
504.960269	0.998655
505.325856	0.999348
505.691385	0.999664
506.056856	0.999198
506.422270	0.999206
506.787625	0.998618
507.152924	0.998294
507.518164	0.998966
507.883347	0.998752
508.248472	0.998861
508.613540	0.998538
508.978550	0.998715
509.343503	0.998922
509.708398	0.999540
510.073236	0.999054
510.438016	0.998365
510.802738	0.998522
511.167403	0.998278
511.532010	0.998888
511.896561	0.999113
512.261053	0.998870
512.625488	0.998754
512.989866	0.999166
513.354186	0.998449
513.718449	0.998809
514.082655	0.998287
514.446803	0.999097
514.810894	0.998864
515.174927	0.998947
515.538904	0.999242
515.902822	0.998124
516.266684	0.999199
516.630488	0.998957
516.994235	0.998820
517.357925	0.999572
517.721558	0.999313
518.085133	0.998262
518.448651	0.999591
518.812112	0.999797
519.175516	0.998654
519.538863	0.998713
519.902152	0.999222
520.265385	0.999154
520.628560	0.998124
520.991678	0.999565
521.354739	0.999309
521.717743	0.998753
522.080690	0.999135
522.443580	0.999579
522.806413	0.998771
523.169189	0.999669
523.531908	0.998159
523.894569	0.999117
524.257174	0.999027
524.619722	0.998827
524.982213	0.998105
525.344647	0.998959
525.707025	0.998858
526.069345	0.998593
526.431608	0.999169
526.793815	0.999275
527.155964	0.999445
527.518057	0.998768
527.880093	0.998646
528.242072	0.998880
528.603995	0.998898
528.965860	0.999096
529.327669	0.999273
529.689421	0.998287
530.051117	0.999886
530.412755	0.998855
530.774337	0.998710
531.135862	1.000223
531.497331	0.998774
531.858743	0.999773
532.220098	0.999121
532.581396	0.999709
532.942638	0.999365
533.303824	0.999207
533.664953	0.998724
534.026025	0.999102
534.387040	0.999324
534.747999	0.999539
535.108902	0.999166
535.469748	0.999519
535.830537	0.999446
536.191270	0.999254
536.551947	0.998940
536.912567	0.998494
537.273131	0.999019
537.633638	0.999069
537.994089	0.999073
538.354483	0.998913
538.714821	0.999393
539.075103	0.999496
539.435328	0.999794
539.795497	0.999028
540.155609	0.999025
540.515665	0.999184
540.875665	0.999005
541.235609	0.999101
541.595496	0.998765
541.955328	0.999629
542.315102	0.999173
542.674821	0.999353
543.034483	0.999634
543.394090	0.998554
543.753640	0.999073
544.113134	0.998092
544.472571	0.999098
544.831953	0.998940
545.191278	0.999353
545.550548	0.999110
545.909761	0.998612
546.268918	0.999712
546.628019	0.999649
546.987064	0.998856
547.346053	0.998885
547.704986	0.999284
548.063863	0.998672
548.422684	0.999032
548.781449	0.999334
549.140158	0.999777
549.498811	0.999123
549.857408	0.998287
550.215949	0.998427
550.574434	0.998404
550.932864	0.999491
551.291237	0.999281
551.649555	0.999194
552.007817	0.998810
552.366022	0.999911
552.724173	0.999523
553.082267	0.999048
553.440305	0.999129
553.798288	0.998384
554.156215	0.999157
554.514086	0.999153
554.871902	0.998503
555.229661	0.998805
555.587365	0.999311
555.945014	0.999222
556.302606	0.998954
556.660143	0.999411
557.017625	0.999215
557.375050	0.997960
557.732421	0.999410
558.089735	0.998490
558.446994	0.998596
558.804197	0.998787
559.161345	0.998679
559.518437	0.998785
559.875474	0.998707
560.232455	0.999151
560.589381	0.998774
560.946251	0.998721
561.303065	0.999154
561.659825	0.999109
562.016528	0.999237
562.373177	0.999270
562.729770	0.999073
563.086307	0.998288
563.442789	0.999298
563.799216	0.998231
564.155587	0.998859
564.511904	0.999489
564.868164	0.997868
565.224370	0.998757
565.580520	0.999042
565.936615	0.999152
566.292654	0.999349
566.648638	0.999973
567.004567	0.998544
567.360441	0.999410
567.716260	0.998613
568.072023	0.998425
568.427732	0.999050
568.783385	0.998797
569.138982	0.999112
569.494525	0.999125
569.850013	0.999166
570.205445	0.998959
570.560823	0.999000
570.916145	0.998650
571.271412	0.998988
571.626625	0.998803
571.981782	0.998619
572.336884	0.998609
572.691931	0.998479
573.046923	0.999220
573.401860	0.998895
573.756743	0.998988
574.111570	0.998512
574.466342	0.999441
574.821059	0.999026
575.175722	0.999645
575.530330	0.998229
575.884882	0.998683
576.239380	0.998612
576.593823	0.998885
576.948211	0.999005
577.302544	0.999530
577.656823	0.998820
578.011047	0.998029
578.365216	0.999109
578.719330	0.999089
579.073389	0.998581
579.427394	0.998688
579.781344	0.999180
580.135239	0.997971
580.489080	0.999247
580.842866	0.998977
581.196597	0.999167
581.550273	0.998951
581.903895	0.998905
582.257463	0.998885
582.610975	0.998346
582.964434	0.999351
583.317837	0.999298
583.671186	0.999369
584.024481	0.998219
584.377721	0.998122
584.730906	0.999151
585.084037	0.999304
585.437113	0.999889
585.790135	0.998941
586.143103	0.999001
586.496016	0.998480
586.848874	0.998911
587.201679	0.998609
587.554428	0.998734
587.907124	0.998880
588.259765	0.999304
588.612352	0.998896
588.964884	0.998991
589.317362	0.998861
589.669786	0.998695
590.022155	0.998205
590.374470	0.998446
590.726731	0.998664
591.078937	0.999457
591.431090	0.998528
591.783188	0.997953
592.135232	0.999986
592.487222	0.998919
592.839157	0.998652
593.191038	0.999495
593.542866	0.998907
593.894639	0.998313
594.246358	0.998415
594.598022	0.998521
594.949633	0.998806
595.301190	0.999441
595.652692	0.998447
596.004141	0.998745
596.355535	0.998651
596.706876	0.999310
597.058162	0.998597
597.409395	0.999265
597.760573	0.998610
598.111698	0.998953
598.462768	0.998490
598.813785	0.998150
599.164748	0.999088
599.515657	0.998468
599.866511	0.998916
600.217312	0.999015
600.568060	0.998319
600.918753	0.999687
601.269392	0.998653
601.619978	0.999033
601.970510	0.998565
602.320988	0.998912
602.671412	0.998862
603.021783	0.998988
603.372100	0.998889
603.722363	0.998991
604.072572	0.999042
604.422728	0.998637
604.772830	0.998520
605.122878	0.998298
605.472872	0.999340
605.822813	0.998759
606.172701	0.998950
606.522534	0.998740
606.872314	0.999787
607.222041	0.998712
607.571714	0.999029
607.921333	0.998287
608.270899	0.998923
608.620411	0.998764
608.969870	0.999446
609.319276	0.998846
609.668627	0.999146
610.017926	0.998751
610.367171	0.998862
610.716362	0.999207
611.065500	0.998758
611.414585	0.998693
611.763616	0.997573
612.112594	0.998032
612.461518	0.997906
612.810389	0.999266
613.159207	0.998770
613.507971	0.998314
613.856682	0.999689
614.205340	0.998385
614.553945	0.999170
614.902496	0.998418
615.250994	0.998492
615.599439	0.999023
615.947830	0.998238
616.296169	0.999227
616.644454	0.998619
616.992686	0.999103
617.340864	0.999169
617.688990	0.998397
618.037063	0.999147
618.385082	0.998161
618.733048	0.998337
619.080961	0.998671
619.428821	0.999774
619.776628	0.998553
620.124382	0.999270
620.472083	0.999548
620.819731	1.000012
621.167326	0.999628
621.514868	0.999449
621.862357	0.999048
622.209793	0.998690
622.557176	0.998627
622.904506	0.998377
623.251783	0.998802
623.599007	0.998985
623.946179	0.998221
624.293297	0.999505
624.640363	0.999380
624.987376	0.998131
625.334336	0.998504
625.681243	0.998158
626.028097	0.999714
626.374899	0.998377
626.721647	0.999429
627.068343	0.999677
627.414987	0.999028
627.761577	0.998522
628.108115	0.998425
628.454600	0.999136
628.801032	0.998812
629.147412	0.999546
629.493739	1.000125
629.840014	0.998576
630.186236	0.998819
630.532405	0.998943
630.878521	0.998330
631.224585	0.998983
631.570597	0.998770
631.916556	0.999393
632.262462	0.997942
632.608316	0.998476
632.954117	0.998020
633.299866	0.998975
633.645562	0.998731
633.991206	0.998743
634.336797	0.998272
634.682336	0.999587
635.027823	0.998823
635.373257	0.999242
635.718639	0.999544
636.063968	0.998591
636.409245	0.998749
636.754470	0.999004
637.099642	0.998651
637.444762	0.999530
637.789829	0.998514
638.134845	0.998342
638.479808	0.998657
638.824719	0.998674
639.169577	0.999129
639.514383	0.999225
639.859137	0.998803
640.203839	0.998979
640.548489	0.997797
640.893086	0.998941
641.237632	0.998695
641.582125	0.998477
641.926566	0.999549
642.270955	0.998609
642.615292	0.998067
642.959576	0.999072
643.303809	0.999158
643.647990	0.998164
643.992118	0.998613
644.336195	0.998152
644.680219	0.998078
645.024192	0.998975
645.368112	0.998045
645.711981	0.998687
646.055797	0.998364
646.399562	0.998388
646.743274	0.999722
647.086935	0.998503
647.430544	0.997929
647.774101	0.998555
648.117606	0.999521
648.461059	0.999819
648.804460	0.999261
649.147810	0.998355
649.491108	0.998394
649.834354	0.998590
650.177548	0.998363
650.520690	0.998781
650.863781	0.998399
651.206820	0.998854
651.549807	0.999053
651.892742	0.999465
652.235626	0.999392
652.578458	0.999674
652.921238	0.999025
653.263967	0.999252
653.606644	0.998021
653.949269	0.999467
654.291843	0.998334
654.634365	0.999180
654.976836	0.998668
655.319255	0.999600
655.661622	0.998904
656.003938	0.998124
656.346203	0.998537
656.688416	0.999780
657.030577	0.999430
657.372687	0.999045
657.714746	0.998618
658.056753	0.999087
658.398708	0.998567
658.740612	1.000200
659.082465	0.999323
659.424266	0.999223
659.766016	0.998121
660.107715	0.999091
660.449362	0.999017
660.790958	0.998596
661.132503	0.999889
661.473996	0.999108
661.815438	0.998929
662.156829	0.999051
662.498168	0.999625
662.839456	0.998465
663.180693	0.998912
663.521879	0.999387
663.863013	0.999648
664.204097	0.997955
664.545129	0.998982
664.886110	0.999486
665.227040	0.999256
665.567918	0.998339
665.908746	0.998848
666.249522	0.998505
666.590248	0.998361
666.930922	0.998893
667.271545	0.998798
667.612118	0.998726
667.952639	0.998969
668.293109	0.999214
668.633528	0.998330
668.973896	0.999243
669.314213	0.998827
669.654480	0.998648
669.994695	0.998346
670.334859	0.999170
670.674973	0.998464
671.015035	0.999298
671.355047	0.998595
671.695008	0.999176
672.034918	0.998698
672.374777	0.999403
672.714585	0.998621
673.054342	0.999883
673.394049	0.998431
673.733705	0.998318
674.073310	0.998840
674.412864	0.998771
674.752368	0.998202
675.091820	0.999498
675.431223	1.000575
675.770574	0.998289
676.109875	0.999236
676.449125	0.999480
676.788324	0.998377
677.127473	0.999283
677.466571	0.998889
677.805619	0.999177
678.144616	0.998937
678.483562	0.999403
678.822458	1.000068
679.161303	0.999239
679.500098	0.999276
679.838842	0.999080
680.177535	0.998826
680.516179	0.998849
680.854771	0.998769
681.193314	0.998848
681.531805	0.998952
681.870247	0.999242
682.208638	0.999042
682.546978	0.998622
682.885268	0.998675
683.223508	0.998255
683.561697	0.998392
683.899836	0.999308
684.237925	0.998959
684.575963	0.999595
684.913951	0.998710
685.251889	0.997777
685.589776	0.998485
685.927614	0.999111
686.265401	0.998335
686.603137	0.998923
686.940824	0.998978
687.278460	0.999711
687.616046	0.998495
687.953582	0.999289
688.291068	1.000380
688.628504	0.999346
688.965889	0.998416
689.303224	0.998035
689.640510	0.998975
689.977745	0.998556
690.314930	0.997875
690.652065	0.998928
690.989150	0.998389
691.326185	0.998683
691.663170	0.999839
692.000105	0.999062
692.336990	0.999431
692.673825	0.998697
693.010610	0.998704
693.347345	0.999738
693.684030	0.998145
694.020665	0.998409
694.357251	0.999173
694.693786	0.998877
695.030272	0.997318
695.366707	0.998955
695.703093	0.999516
696.039429	0.998735
696.375716	0.998710
696.711952	0.998117
697.048139	0.998469
697.384276	0.998675
697.720363	0.998833
698.056400	0.997811
698.392388	0.998004
698.728326	0.998430
699.064214	1.000112
699.400053	0.998774
699.735842	0.999727
700.071581	0.999362
700.407270	0.999282
700.742910	0.998863
701.078501	0.998957
701.414042	0.999468
701.749533	0.997585
702.084974	0.999540
702.420366	0.998723
702.755709	0.998900
703.091002	0.999719
703.426246	0.999966
703.761440	0.999722
704.096584	0.998450
704.431679	0.998590
704.766725	0.999492
705.101721	0.998958
705.436668	0.997984
705.771565	0.998377
706.106413	0.997437
706.441212	0.999002
706.775961	0.999240
707.110661	0.997926
707.445311	0.998761
707.779913	0.999664
708.114465	0.999666
708.448967	1.000325
708.783421	0.999363
709.117825	0.999073
709.452180	0.999045
709.786485	0.998935
710.120742	0.998820
710.454949	0.998663
710.789107	0.998924
711.123216	0.998455
711.457275	0.997745
711.791286	0.998589
712.125247	0.999572
712.459159	0.998004
712.793023	0.998347
713.126837	0.999469
713.460602	0.998533
713.794318	0.997875
714.127985	0.998292
714.461602	0.999315
714.795171	0.998619
715.128691	0.998437
715.462162	0.999376
715.795584	0.998597
716.128957	0.999420
716.462281	0.998996
716.795556	0.998220
717.128782	0.999225
717.461960	0.998612
717.795088	0.998082
718.128167	0.999908
718.461198	0.998892
718.794180	0.999402
719.127113	0.999522
719.459997	0.998479
719.792833	0.998956
720.125619	0.998339
720.458357	0.999327
720.791046	0.999119
721.123686	0.999176
721.456278	0.998994
721.788821	0.998425
722.121315	1.000241
722.453761	1.000131
722.786158	0.998419
723.118506	0.999366
723.450805	0.998412
723.783056	0.999599
724.115259	0.998363
724.447412	0.999380
724.779518	0.998809
725.111574	0.997428
725.443582	0.998539
725.775542	0.999131
726.107453	0.999879
726.439315	0.999613
726.771129	1.000235
727.102895	0.999815
727.434612	0.998869
727.766281	0.998859
728.097901	0.998691
728.429473	0.998901
728.760996	0.997080
729.092471	0.998378
729.423897	0.999119
729.755276	0.998367
730.086606	0.999452
730.417887	0.999817
730.749120	0.999155
731.080305	0.998993
731.411442	0.998279
731.742530	0.998219
732.073570	0.999041
732.404562	0.998758
732.735506	0.999191
733.066401	0.999460
733.397249	0.998761
733.728048	0.998227
734.058798	1.000079
734.389501	0.999531
734.720156	0.998966
735.050762	0.999531
735.381320	0.998406
735.711831	0.999351
736.042293	0.998435
736.372707	0.999565
736.703073	0.998800
737.033391	0.999979
737.363661	0.999848
737.693883	0.998537
738.024056	0.998764
738.354182	1.000048
738.684260	0.998570
739.014290	0.999519
739.344272	0.999045
739.674207	0.999191
740.004093	0.999103
740.333931	0.999712
740.663722	0.998467
740.993464	0.999217
741.323159	0.998833
741.652806	0.999233
741.982405	0.999236
742.311956	0.999821
742.641460	0.999629
742.970915	0.999206
743.300323	0.997976
743.629683	0.997999
743.958996	1.000471
744.288260	0.998192
744.617477	0.999245
744.946647	0.999365
745.275768	1.000021
745.604842	0.998748
745.933869	0.999213
746.262847	0.999688
746.591778	0.996845
746.920662	0.999489
747.249498	1.000352
747.578286	1.000421
747.907027	0.999216
748.235720	1.000390
748.564365	0.999167
748.892963	0.999404
749.221514	0.999002
749.550017	0.998907
749.878473	0.998437
750.206881	1.000011
750.535242	0.998240
750.863555	0.998420
751.191821	0.999708
751.520039	0.999669
751.848210	0.997644
752.176334	0.998833
752.504411	0.999290
752.832440	0.998347
753.160421	0.999308
753.488356	0.999789
753.816243	0.998947
754.144082	0.998689
754.471875	0.999629
754.799620	0.998907
755.127318	0.999270
755.454969	0.998781
755.782572	0.999824
756.110129	0.998576
756.437638	1.000995
756.765100	0.999827
757.092515	0.998399
757.419882	0.998800
757.747203	0.999018
758.074477	0.999059
758.401703	0.999940
758.728882	0.998960
759.056014	0.998850
759.383099	0.999118
759.710138	0.998402
760.037129	0.998891
760.364073	0.999034
760.690970	0.999264
761.017820	0.997953
761.344623	0.998830
761.671379	1.000450
761.998088	0.999080
762.324751	0.998934
762.651366	0.998668
762.977935	0.998648
763.304456	0.999168
763.630931	0.997237
763.957359	0.997207
764.283740	0.998344
764.610074	0.998418
764.936362	0.998042
765.262602	0.999094
765.588796	0.999003
765.914943	0.998812
766.241044	0.998428
766.567097	0.999131
766.893104	0.999282
767.219064	0.997820
767.544978	0.998730
767.870845	0.999598
768.196665	0.999489
768.522438	0.999859
768.848165	0.999256
769.173846	0.999235
769.499479	1.000069
769.825066	0.999010
770.150607	1.000199
770.476101	0.998964
770.801548	0.999346
771.126949	1.000827
771.452303	1.000253
771.777611	1.000065
772.102872	0.999502
772.428087	0.999881
772.753256	0.999542
773.078378	0.999206
773.403453	0.998614
773.728482	1.001176
774.053465	0.999010
774.378401	0.999948
774.703291	1.000115
775.028135	1.000848
775.352932	0.998882
775.677683	1.000179
776.002388	0.999380
776.327046	0.997881
776.651658	1.000122
776.976224	1.000245
777.300743	0.998386
777.625216	0.999617
777.949643	0.998770
778.274024	0.998825
778.598359	1.000196
778.922647	0.999080
779.246889	1.000158
779.571086	0.998881
779.895236	0.999598
780.219339	1.000464
780.543397	0.999872
780.867409	1.000208
781.191374	0.998890
781.515294	0.999746
781.839167	1.000107
782.162995	0.998781
782.486776	0.999351
782.810511	0.999065
783.134201	1.000028
783.457844	1.000015
783.781441	0.999506
784.104993	0.997986
784.428498	1.000038
784.751958	1.000145
785.075372	0.999939
785.398739	0.998614
785.722061	0.998861
786.045337	0.999805
786.368568	0.999571
786.691752	0.999248
787.014891	0.999389
787.337983	0.998671
787.661030	0.999708
787.984031	0.999424
788.306987	1.000069
788.629897	0.998476
788.952760	0.999819
789.275579	0.999762
789.598351	0.999139
789.921078	0.999633
790.243759	0.999448
790.566395	0.998408
790.888984	0.999601
791.211529	0.999876
791.534027	0.998980
791.856480	0.999852
792.178888	0.998982
792.501249	0.999511
792.823566	0.999996
793.145836	0.999236
793.468062	0.999443
793.790241	1.000449
794.112375	0.999292
794.434464	0.999156
794.756507	0.999716
795.078505	0.999849
795.400457	0.999352
795.722364	0.998776
796.044226	0.999945
796.366042	0.998646
796.687812	0.997716
797.009538	0.998197
797.331218	0.999021
797.652852	1.000087
797.974442	0.998206
798.295986	0.999839
798.617484	0.998565
798.938938	1.000447
799.260346	0.998857
799.581709	0.999091
799.903026	1.000420
800.224299	0.998733
800.545526	0.999120
800.866708	0.998413
801.187845	0.999765
801.508936	0.999625
801.829983	0.998804
802.150984	0.998456
802.471940	1.000089
802.792851	0.998903
803.113717	1.000181
803.434538	1.000198
803.755314	1.000118
804.076045	1.000342
804.396731	0.999578
804.717372	0.997574
805.037967	0.999957
805.358518	1.000134
805.679024	0.998642
805.999485	0.999395
806.319901	0.998951
806.640272	0.999969
806.960598	0.999313
807.280879	0.998554
807.601115	1.000479
807.921306	1.000519
808.241453	0.999746
808.561554	0.999352
808.881611	0.999728
809.201623	0.999390
809.521590	0.999281
809.841513	1.000258
810.161390	0.998537
810.481223	0.999764
810.801011	0.999184
811.120755	0.999562
811.440453	0.999407
811.760107	0.999543
812.079716	0.998952
812.399281	0.999202
812.718801	0.998554
813.038276	0.999700
813.357707	1.000007
813.677093	0.999762
813.996434	0.998824
814.315731	1.000540
814.634983	0.999928
814.954191	1.000266
815.273354	0.999276
815.592473	0.999262
815.911547	0.999486
816.230577	1.000117
816.549562	0.999961
816.868502	0.999266
817.187399	1.000183
817.506250	0.998486
817.825058	0.998605
818.143821	0.998976
818.462539	0.999133
818.781213	0.999494
819.099843	1.000153
819.418429	0.998753
819.736970	0.999969
820.055466	0.997752
820.373919	0.999119
820.692327	0.998453
821.010691	0.998561
821.329011	0.997428
821.647286	0.995465
821.965517	0.995867
822.283704	0.994834
822.601847	0.994542
822.919945	0.994425
823.237999	0.995079
823.556010	0.995601
823.873976	0.996116
824.191897	0.997574
824.509775	0.997146
824.827609	0.996651
825.145398	0.998612
825.463144	0.996582
825.780845	0.997042
826.098502	0.996597
826.416116	0.997171
826.733685	0.996973
827.051210	0.995756
827.368692	0.997255
827.686129	0.996345
828.003522	0.998337
828.320872	0.997938
828.638177	0.998227
828.955439	0.999274
829.272656	0.999187
829.589830	0.998157
829.906960	0.999242
830.224046	0.997683
830.541088	0.998488
830.858086	0.999256
831.175041	1.000482
831.491952	0.998960
831.808819	0.998613
832.125642	0.999544
832.442421	0.999878
832.759157	1.000595
833.075849	0.998893
833.392497	0.998402
833.709101	0.998106
834.025662	0.997878
834.342179	0.998022
834.658653	0.999561
834.975083	0.998072
835.291469	0.998935
835.607811	1.000021
835.924110	0.998473
836.240366	1.000041
836.556578	0.999083
836.872746	0.999871
837.188871	0.999388
837.504952	0.999640
837.820990	0.999345
838.136984	0.999141
838.452935	0.998608
838.768842	1.000252
839.084706	0.999881
839.400526	0.999762
839.716303	0.998426
840.032037	0.999361
840.347727	0.999250
840.663373	0.999278
840.978977	0.999083
841.294537	1.000093
841.610054	0.999112
841.925527	0.999914
842.240957	0.999545
842.556344	0.998717
842.871687	0.999469
843.186987	0.998738
843.502244	1.000318
843.817458	0.998809
844.132629	0.999130
844.447756	0.999712
844.762840	1.000225
845.077881	1.000279
845.392879	0.998933
845.707833	0.999353
846.022745	0.999551
846.337613	0.999952
846.652438	0.999533
846.967221	0.999008
847.281960	1.000795
847.596656	0.999652
847.911309	0.998761
848.225919	0.998560
848.540485	1.000053
848.855009	1.001820
849.169490	1.000517
849.483928	1.000065
849.798323	0.998889
850.112675	1.000499
850.426984	0.999363
850.741251	0.999921
851.055474	0.999625
851.369654	0.999837
851.683792	0.998417
851.997887	0.999336
852.311938	0.999959
852.625947	0.999920
852.939914	0.999272
853.253837	1.000609
853.567718	1.001109
853.881555	0.999604
854.195350	1.000330
854.509103	0.999957
854.822812	1.000368
855.136479	1.000672
855.450103	1.000240
855.763685	1.000215
856.077224	0.999629
856.390720	0.999493
856.704173	1.001112
857.017584	1.001175
857.330953	1.000088
857.644278	0.999385
857.957561	1.000063
858.270802	1.000252
858.584000	0.999723
858.897155	0.999014
859.210268	0.998489
859.523339	1.000822
859.836367	1.000306
860.149352	0.998744
860.462295	1.000224
860.775195	0.999610
861.088054	0.997878
861.400869	0.999336
861.713642	0.998750
862.026373	1.000325
862.339062	1.000267
862.651708	1.000994
862.964312	1.000145
863.276873	0.999308
863.589392	1.000271
863.901869	0.999563
864.214303	0.999766
864.526696	1.000435
864.839045	1.000100
865.151353	1.000123
865.463619	0.999264
865.775842	1.000211
866.088023	1.001217
866.400162	1.000009
866.712258	1.000457
867.024313	1.000173
867.336325	1.001275
867.648296	1.000831
867.960224	1.000071
868.272110	0.999623
868.583954	0.999780
868.895755	1.000564
869.207515	0.998650
869.519233	1.000811
869.830909	0.999592
870.142542	0.999051
870.454134	0.999450
870.765684	0.999569
871.077191	0.999807
871.388657	0.998616
871.700081	1.000155
872.011463	1.000274
872.322803	1.000303
872.634101	0.999101
872.945357	0.999592
873.256571	0.999441
873.567744	1.000067
873.878874	0.999133
874.189963	0.998912
874.501010	1.000784
874.812015	0.999597
875.122979	1.000073
875.433900	0.999146
875.744780	0.999844
876.055618	0.998760
876.366415	0.999406
876.677169	1.000008
876.987882	0.999342
877.298554	1.001010
877.609183	0.999222
877.919771	0.999496
878.230317	1.000443
878.540822	0.999536
878.851285	0.998884
879.161707	0.998454
879.472087	1.000397
879.782425	0.997570
880.092722	0.998917
880.402977	0.997380
880.713191	0.995672
881.023363	0.995212
881.333494	0.994473
881.643583	0.995187
881.953631	0.994684
882.263637	0.994807
882.573602	0.994926
882.883526	0.995297
883.193408	0.995998
883.503248	0.995622
883.813048	0.996292
884.122806	0.997102
884.432522	0.997723
884.742197	0.999748
885.051831	0.998919
885.361424	0.998995
885.670975	0.999294
885.980485	0.998373
886.289954	0.997920
886.599382	0.998806
886.908768	0.999423
887.218113	0.998511
887.527417	0.998997
887.836680	0.999577
888.145901	0.999730
888.455082	1.000604
888.764221	0.999422
889.073319	1.000147
889.382376	0.999920
889.691392	0.998251
890.000366	1.000040
890.309300	0.999922
890.618193	1.000596
890.927044	0.999775
891.235855	0.999328
891.544625	0.998766
891.853353	0.999190
892.162041	0.999121
892.470687	0.999636
892.779293	0.999125
893.087858	0.997688
893.396381	0.999053
893.704864	0.998636
894.013306	0.998751
894.321707	0.997897
894.630068	0.998290
894.938387	0.997185
895.246665	0.997236
895.554903	0.997238
895.863100	0.998003
896.171256	0.998047
896.479371	0.998865
896.787446	0.999109
897.095480	0.999713
897.403473	0.998658
897.711425	0.999631
898.019336	0.999342
898.327207	0.999614
898.635038	0.997472
898.942827	0.998633
899.250576	0.998819
899.558284	0.998904
899.865952	0.998561
900.173579	0.999047
900.481165	0.999607
900.788711	0.999514
901.096216	0.999025
901.403681	0.999777
901.711105	0.999554
902.018489	0.999268
902.325832	0.998803
902.633135	0.998961
902.940397	0.999233
903.247619	0.999912
903.554800	0.999183
903.861941	0.998212
904.169041	0.997716
904.476101	0.997192
904.783121	0.996061
905.090100	0.997364
905.397039	0.997550
905.703938	0.997522
906.010796	0.998104
906.317614	0.998904
906.624391	0.997964
906.931129	0.999125
907.237826	0.999952
907.544483	0.998653
907.851099	0.999469
908.157675	0.999249
908.464211	0.999533
908.770707	0.998036
909.077163	0.999539
909.383578	0.999443
909.689954	0.998910
909.996289	0.999430
910.302584	0.999333
910.608839	0.999973
910.915054	0.999497
911.221229	1.000642
911.527363	0.999753
911.833458	0.999769
912.139513	0.999439
912.445527	0.999043
912.751502	1.000227
913.057436	0.998525
913.363331	1.000430
913.669186	1.000403
913.975000	0.998321
914.280775	1.000037
914.586510	0.998004
914.892205	0.997476
915.197859	0.998408
915.503475	0.998590
915.809050	0.996200
916.114585	0.995591
916.420081	0.997273
916.725536	0.997891
917.030952	0.997015
917.336328	0.996697
917.641665	0.995643
917.946961	0.997719
918.252218	0.997551
918.557435	0.997491
918.862612	0.998987
919.167750	0.998688
919.472848	0.999690
919.777906	1.000138
920.082925	1.000909
920.387904	1.000206
920.692843	0.999344
920.997743	0.998271
921.302603	0.998543
921.607423	0.998932
921.912204	1.000030
922.216946	0.999496
922.521647	1.000633
922.826310	0.999363
923.130932	1.000105
923.435516	0.999662
923.740059	0.999136
924.044564	0.999939
924.349028	0.999444
924.653454	1.000413
924.957840	0.999843
925.262186	0.999365
925.566493	0.998287
925.870761	0.999606
926.174989	0.999314
926.479178	0.999449
926.783328	0.999321
927.087438	0.999587
927.391509	1.000052
927.695541	0.999758
927.999533	0.999451
928.303486	1.000314
928.607400	0.999863
928.911275	1.000233
929.215110	1.000799
929.518906	1.000700
929.822663	1.001192
930.126381	0.999952
930.430060	0.998349
930.733699	1.000433
931.037299	1.000062
931.340861	1.000188
931.644383	0.998936
931.947866	1.000527
932.251309	1.000219
932.554714	0.999337
932.858080	1.000605
933.161407	0.999588
933.464694	0.999787
933.767943	1.000117
934.071153	0.999658
934.374323	1.001200
934.677455	0.999703
934.980548	1.000184
935.283602	1.000305
935.586617	0.999981
935.889593	1.001201
936.192530	0.999944
936.495428	1.000784
936.798287	0.999725
937.101108	0.999686
937.403890	0.998821
937.706632	1.000297
938.009336	1.000534
938.312002	0.999708
938.614628	1.000484
938.917216	0.998867
939.219765	0.999046
939.522275	1.000705
939.824747	1.000356
940.127179	0.999601
940.429573	1.000292
940.731929	0.998689
941.034246	0.999697
941.336524	0.999129
941.638763	0.999096
941.940964	0.998542
942.243126	0.998982
942.545250	0.999793
942.847335	1.000399
943.149381	1.000903
943.451389	0.999333
943.753359	1.000166
944.055290	1.000332
944.357182	0.999766
944.659036	1.000240
944.960851	0.999674
945.262628	1.000178
945.564367	1.000268
945.866067	1.000357
946.167729	1.000941
946.469352	0.999151
946.770937	0.998189
947.072484	1.000211
947.373992	1.000074
947.675462	1.000497
947.976893	0.999315
948.278286	1.002334
948.579641	1.001311
948.880958	0.999242
949.182236	1.001208
949.483476	1.000776
949.784678	0.999134
950.085841	0.999689
950.386967	0.999360
950.688054	1.000776
950.989103	0.998834
951.290114	0.998707
951.591087	1.000075
951.892021	0.999077
952.192917	1.000007
952.493776	1.000568
952.794596	0.999295
953.095378	0.999582
953.396122	1.000398
953.696828	1.000097
953.997496	0.999348
954.298126	1.001027
954.598718	0.999621
954.899272	1.000040
955.199788	0.999614
955.500266	1.000940
955.800706	1.000162
956.101108	0.998985
956.401472	1.000754
956.701798	1.000431
957.002087	1.000338
957.302337	0.998563
957.602550	1.000832
957.902724	0.999609
958.202861	0.999715
958.502960	0.998860
958.803022	1.000682
959.103045	1.000366
959.403031	1.000860
959.702979	1.001555
960.002889	0.998980
960.302762	0.998814
960.602596	1.000398
960.902393	0.999502
961.202153	1.000635
961.501875	1.000265
961.801559	1.000977
962.101205	0.999933
962.400814	1.000337
962.700385	0.999656
962.999918	1.001088
963.299414	0.999336
963.598873	1.000215
963.898293	0.999909
964.197677	0.998641
964.497022	0.999410
964.796331	1.000084
965.095601	1.000801
965.394835	0.999388
965.694030	1.000972
965.993189	0.999877
966.292309	0.999566
966.591393	0.999656
966.890439	1.000688
967.189447	0.999683
967.488419	1.000338
967.787353	0.999895
968.086249	1.000809
968.385108	1.000085
968.683930	1.001784
968.982714	1.000387
969.281462	0.999265
969.580172	0.999734
969.878844	1.000565
970.177480	1.000131
970.476078	1.001460
970.774639	1.000288
971.073162	0.999837
971.371649	1.000347
971.670098	0.999576
971.968510	1.001195
972.266885	0.999920
972.565223	1.000381
972.863524	0.999765
973.161788	1.000244
973.460014	1.001664
973.758204	1.000232
974.056356	0.999705
974.354471	0.999829
974.652550	1.001446
974.950591	0.999817
975.248595	0.999103
975.546563	1.000572
975.844493	1.000181
976.142386	0.999670
976.440243	1.001215
976.738062	1.001242
977.035845	0.999079
977.333590	1.001774
977.631299	0.999126
977.928971	0.999637
978.226606	0.998815
978.524204	0.999678
978.821765	1.001383
979.119290	1.001099
979.416777	1.000063
979.714228	0.999265
980.011642	0.999863
980.309020	0.999423
980.606360	0.999373
980.903664	1.000493
981.200931	1.000873
981.498162	0.999870
981.795356	1.000367
982.092513	1.000163
982.389633	0.999828
982.686717	0.998903
982.983764	0.999587
983.280775	0.999891
983.577749	1.000381
983.874686	0.999218
984.171587	0.999488
984.468451	0.999726
984.765279	1.000731
985.062070	0.998980
985.358824	0.998927
985.655543	1.000487
985.952224	1.000382
986.248869	1.000168
986.545478	1.001978
986.842050	1.000356
987.138586	0.998723
987.435086	1.000103
987.731549	1.001051
988.027975	1.001395
988.324366	0.999177
988.620719	1.001167
988.917037	0.999549
989.213318	0.999572
989.509563	1.000425
989.805772	1.000520
990.101944	1.001048
990.398080	1.000999
990.694180	1.000649
990.990244	1.000604
991.286271	0.999903
991.582262	1.001380
991.878217	0.999390
992.174136	1.000953
992.470019	1.000379
992.765865	1.000682
993.061676	1.000815
993.357450	1.000128
993.653188	1.000233
993.948890	1.000194
994.244556	0.999590
994.540186	1.000423
994.835780	1.000012
995.131337	1.000314
995.426859	1.000989
995.722345	0.999734
996.017795	0.999826
996.313208	0.999340
996.608586	0.999394
996.903928	1.000728
997.199234	1.000435
997.494504	1.000337
997.789738	0.998077
998.084936	0.999944
998.380099	0.998615
998.675225	1.000685
998.970316	1.000664
999.265371	1.000245
999.560390	0.999704
999.855373	0.999389
1000.150320	1.000717
1000.445232	1.000669
1000.740108	1.000015
1001.034948	1.000017
1001.329752	1.001063
1001.624521	0.999469
1001.919254	0.999266
1002.213951	1.001060
1002.508613	0.998841
1002.803239	1.000183
1003.097829	1.000621
1003.392384	0.999765
1003.686903	1.000955
1003.981386	1.000312
1004.275834	1.000887
1004.570246	0.999012
1004.864623	1.000934
1005.158964	1.000463
1005.453270	0.999732
1005.747540	0.999992
1006.041775	1.000789
1006.335974	1.000668
1006.630138	1.000388
1006.924266	0.999936
1007.218359	0.998503
1007.512416	1.000789
1007.806438	0.999891
1008.100425	1.000561
1008.394376	1.000457
1008.688292	0.999758
1008.982172	1.000178
1009.276017	1.000207
1009.569827	1.000764
1009.863602	0.999072
1010.157341	1.000376
1010.451045	0.999882
1010.744714	1.000768
1011.038347	1.000806
1011.331945	0.999693
1011.625508	0.999838
1011.919036	0.998872
1012.212528	0.999720
1012.505986	0.999338
1012.799408	1.000249
1013.092795	0.999993
1013.386147	1.001054
1013.679464	1.001109
1013.972745	1.001073
1014.265992	1.000280
1014.559204	0.999590
1014.852380	0.999907
1015.145521	0.999755
1015.438628	1.000319
1015.731699	1.000168
1016.024736	1.001113
1016.317737	0.999645
1016.610703	1.000838
1016.903635	1.000619
1017.196531	0.998930
1017.489393	0.998977
1017.782219	0.999301
1018.075011	0.999571
1018.367768	0.999193
1018.660490	0.999347
1018.953177	0.999347
1019.245829	0.999347
