Dividing Wavelength (nm)	Counts (n)	Blue Motor Position (mm): 9.500000	Red Motor Position (mm): 0.000000	
326.493990	1.004487
326.888308	1.004487
327.282561	1.004487
327.676750	1.006177
328.070874	1.005695
328.464933	1.006160
328.858929	1.006831
329.252859	1.003817
329.646726	1.005121
330.040528	1.004127
330.434265	1.004905
330.827938	1.004122
331.221547	1.005455
331.615091	1.004482
332.008571	1.005624
332.401986	1.005175
332.795338	1.003919
333.188625	1.004163
333.581847	1.004960
333.975006	1.004255
334.368100	1.004812
334.761129	1.004183
335.154095	1.006475
335.546996	1.002747
335.939833	0.998738
336.332606	0.999285
336.725315	0.998440
337.117960	0.999514
337.510540	0.997601
337.903056	0.999221
338.295508	0.999796
338.687896	0.999580
339.080220	0.999066
339.472480	0.998499
339.864676	0.999484
340.256807	0.996806
340.648875	0.999317
341.040879	0.998751
341.432818	0.999767
341.824694	0.998618
342.216506	0.999886
342.608253	0.999486
342.999937	0.998587
343.391557	1.000347
343.783113	1.000775
344.174605	0.999413
344.566033	0.998824
344.957397	1.000323
345.348697	0.999798
345.739934	0.999253
346.131106	0.998695
346.522215	0.998230
346.913260	0.999710
347.304241	0.997477
347.695159	0.999296
348.086012	0.997894
348.476802	0.998886
348.867528	0.997193
349.258191	0.999893
349.648789	0.998176
350.039324	0.997954
350.429796	0.998188
350.820203	0.998192
351.210548	0.998359
351.600828	0.998062
351.991045	0.998004
352.381198	0.998376
352.771288	0.997997
353.161314	0.998303
353.551276	0.997633
353.941175	0.996652
354.331010	0.998167
354.720782	0.998700
355.110490	0.997506
355.500135	0.999281
355.889717	0.997972
356.279235	0.997583
356.668689	0.998281
357.058080	0.998070
357.447408	0.997047
357.836672	0.997708
358.225873	0.997567
358.615010	0.996541
359.004084	0.998312
359.393095	0.998409
359.782043	0.997301
360.170927	0.998658
360.559748	0.999022
360.948505	0.995725
361.337199	0.997308
361.725830	0.998404
362.114398	0.997062
362.502903	0.996355
362.891344	0.996534
363.279722	0.997815
363.668037	0.998086
364.056289	0.997047
364.444478	0.997329
364.832603	0.996580
365.220665	0.996309
365.608665	0.997417
365.996601	0.996426
366.384474	0.994653
366.772284	0.996421
367.160031	0.994125
367.547715	0.995181
367.935336	0.995344
368.322893	0.993136
368.710388	0.991807
369.097820	0.990836
369.485189	0.988250
369.872495	0.986039
370.259738	0.984025
370.646918	0.981657
371.034035	0.979503
371.421090	0.975793
371.808081	0.970828
372.195010	0.969761
372.581875	0.963619
372.968678	0.959102
373.355418	0.955845
373.742096	0.947696
374.128710	0.943393
374.515262	0.938931
374.901751	0.933508
375.288177	0.929682
375.674540	0.921642
376.060841	0.915679
376.447079	0.909258
376.833254	0.902163
377.219367	0.898239
377.605417	0.886040
377.991404	0.882155
378.377329	0.877304
378.763191	0.870272
379.148991	0.860556
379.534727	0.853340
379.920402	0.845286
380.306013	0.841135
380.691563	0.829177
381.077049	0.822155
381.462474	0.819165
381.847835	0.806085
382.233134	0.802047
382.618371	0.803182
383.003545	0.784843
383.388657	0.783023
383.773706	0.775328
384.158693	0.770916
384.543618	0.766433
384.928480	0.757998
385.313280	0.747426
385.698017	0.746898
386.082692	0.735611
386.467305	0.735039
386.851856	0.728198
387.236344	0.723324
387.620770	0.717210
388.005133	0.711993
388.389435	0.706119
388.773674	0.703305
389.157851	0.695376
389.541965	0.692832
389.926018	0.700215
390.310008	0.686437
390.693936	0.683788
391.077802	0.674669
391.461606	0.677081
391.845348	0.666962
392.229027	0.665988
392.612645	0.663997
392.996200	0.651419
393.379694	0.644050
393.763125	0.634586
394.146494	0.637973
394.529801	0.629500
394.913047	0.621370
395.296230	0.627641
395.679351	0.617672
396.062410	0.615655
396.445408	0.618362
396.828343	0.613885
397.211217	0.609240
397.594028	0.620163
397.976778	0.611076
398.359466	0.607792
398.742092	0.603162
399.124656	0.615109
399.507158	0.602575
399.889598	0.600492
400.271977	0.591818
400.654294	0.594858
401.036549	0.594278
401.418742	0.598543
401.800874	0.584590
402.182944	0.580856
402.564952	0.573415
402.946898	0.575277
403.328783	0.575450
403.710606	0.586985
404.092367	0.561897
404.474067	0.566657
404.855705	0.565930
405.237282	0.575154
405.618797	0.560276
406.000250	0.556611
406.381642	0.546791
406.762972	0.551813
407.144240	0.549895
407.525447	0.550060
407.906593	0.542772
408.287677	0.538481
408.668700	0.547412
409.049661	0.541042
409.430560	0.536583
409.811399	0.544564
410.192176	0.526701
410.572891	0.533571
410.953545	0.521603
411.334138	0.535542
411.714669	0.527143
412.095139	0.539707
412.475547	0.523432
412.855894	0.526402
413.236180	0.524316
413.616405	0.529777
413.996568	0.519975
414.376670	0.526822
414.756711	0.531539
415.136691	0.528287
415.516609	0.519576
415.896466	0.516012
416.276262	0.512431
416.655997	0.513630
417.035670	0.496135
417.415283	0.487335
417.794834	0.492300
418.174324	0.497660
418.553753	0.506438
418.933121	0.488962
419.312428	0.482872
419.691674	0.488629
420.070859	0.476397
420.449983	0.484336
420.829045	0.473522
421.208047	0.482386
421.586988	0.475546
421.965867	0.474726
422.344686	0.463060
422.723444	0.475877
423.102141	0.492746
423.480777	0.465599
423.859352	0.486101
424.237866	0.464218
424.616319	0.464911
424.994712	0.455240
425.373044	0.465680
425.751314	0.453637
426.129524	0.470411
426.507673	0.453655
426.885762	0.447440
427.263789	0.452999
427.641756	0.462959
428.019662	0.452922
428.397508	0.451806
428.775292	0.456555
429.153016	0.447595
429.530679	0.454317
429.908282	0.447627
430.285824	0.457400
430.663305	0.436191
431.040726	0.457425
431.418086	0.456962
431.795385	0.448883
432.172624	0.448144
432.549802	0.448486
432.926920	0.447340
433.303977	0.446656
433.680974	0.444082
434.057910	0.442631
434.434786	0.441044
434.811601	0.444820
435.188355	0.426836
435.565050	0.436135
435.941683	0.437318
436.318257	0.421689
436.694770	0.422835
437.071222	0.420459
437.447614	0.425239
437.823946	0.431403
438.200218	0.420885
438.576429	0.430628
438.952580	0.423891
439.328670	0.420330
439.704700	0.426739
440.080670	0.427614
440.456580	0.409081
440.832429	0.416970
441.208218	0.427886
441.583947	0.417325
441.959616	0.416150
442.335224	0.422046
442.710773	0.412530
443.086261	0.410652
443.461689	0.424452
443.837057	0.414592
444.212365	0.404494
444.587612	0.412003
444.962800	0.401487
445.337927	0.402802
445.712995	0.429221
446.088002	0.390832
446.462949	0.401406
446.837837	0.406731
447.212664	0.394961
447.587431	0.386554
447.962139	0.356745
448.336786	0.315668
448.711374	0.326425
449.085901	0.370215
449.460369	0.374781
449.834776	0.378263
450.209124	0.357877
450.583412	0.350445
450.957640	0.343216
451.331808	0.354817
451.705917	0.378146
452.079965	0.382813
452.453954	0.370893
452.827883	0.377772
453.201752	0.372604
453.575562	0.383994
453.949311	0.372642
454.323001	0.378393
454.696632	0.374637
455.070202	0.366823
455.443713	0.358864
455.817164	0.353723
456.190556	0.349361
456.563888	0.346668
456.937160	0.343809
457.310373	0.360861
457.683526	0.359779
458.056619	0.365745
458.429653	0.366098
458.802628	0.369776
459.175542	0.363835
459.548398	0.346215
459.921194	0.338702
460.293930	0.339244
460.666607	0.316586
461.039224	0.304866
461.411782	0.300299
461.784280	0.299933
462.156719	0.303652
462.529099	0.308133
462.901419	0.324318
463.273680	0.328722
463.645882	0.327795
464.018024	0.333956
464.390106	0.326659
464.762130	0.311365
465.134094	0.294266
465.505999	0.263383
465.877845	0.233695
466.249631	0.220736
466.621358	0.228152
466.993026	0.241967
467.364634	0.248218
467.736184	0.256808
468.107674	0.265751
468.479105	0.265152
468.850477	0.271370
469.221790	0.278771
469.593043	0.288612
469.964238	0.293357
470.335373	0.292817
470.706449	0.291118
471.077467	0.291459
471.448425	0.253781
471.819324	0.229394
472.190164	0.228894
472.560945	0.257379
472.931667	0.280373
473.302330	0.284543
473.672934	0.296389
474.043479	0.283973
474.413965	0.286052
474.784393	0.289294
475.154761	0.284821
475.525070	0.281757
475.895321	0.287170
476.265513	0.281410
476.635645	0.276910
477.005719	0.276718
477.375734	0.273309
477.745691	0.266452
478.115588	0.262813
478.485427	0.256202
478.855207	0.243698
479.224928	0.225699
479.594591	0.213724
479.964194	0.217164
480.333739	0.218616
480.703226	0.219985
481.072653	0.218300
481.442022	0.214042
481.811333	0.210540
482.180584	0.214192
482.549777	0.219633
482.918912	0.222816
483.287988	0.222373
483.657005	0.222246
484.025964	0.228649
484.394864	0.225835
484.763706	0.226540
485.132489	0.231411
485.501213	0.232451
485.869879	0.230712
486.238487	0.233821
486.607036	0.231632
486.975527	0.236429
487.343959	0.231983
487.712333	0.231412
488.080648	0.232846
488.448905	0.231740
488.817104	0.232965
489.185244	0.227596
489.553326	0.224440
489.921350	0.214396
490.289315	0.196721
490.657222	0.191405
491.025070	0.193024
491.392861	0.195124
491.760593	0.200967
492.128267	0.206465
492.495883	0.212112
492.863440	0.218124
493.230939	0.224724
493.598380	0.226139
493.965763	0.228260
494.333088	0.230570
494.700354	0.231837
495.067563	0.230798
495.434713	0.234471
495.801805	0.232105
496.168839	0.233389
496.535815	0.235050
496.902733	0.234860
497.269593	0.236743
497.636395	0.234127
498.003139	0.234346
498.369825	0.237740
498.736453	0.234062
499.103023	0.235593
499.469535	0.234889
499.835989	0.235266
500.202385	0.235789
500.568723	0.239602
500.935003	0.234748
501.301226	0.238908
501.667390	0.233067
502.033497	0.231270
502.399546	0.234040
502.765537	0.236230
503.131470	0.234472
503.497345	0.231169
503.863163	0.239211
504.228923	0.232454
504.594625	0.231206
504.960269	0.236362
505.325856	0.232063
505.691385	0.236227
506.056856	0.233022
506.422270	0.232386
506.787625	0.234631
507.152924	0.232469
507.518164	0.232659
507.883347	0.234286
508.248472	0.236313
508.613540	0.230931
508.978550	0.233622
509.343503	0.233960
509.708398	0.231794
510.073236	0.229257
510.438016	0.228976
510.802738	0.230064
511.167403	0.229184
511.532010	0.231168
511.896561	0.226552
512.261053	0.225086
512.625488	0.227385
512.989866	0.227821
513.354186	0.228008
513.718449	0.230065
514.082655	0.226247
514.446803	0.228583
514.810894	0.226131
515.174927	0.228815
515.538904	0.228342
515.902822	0.225163
516.266684	0.227638
516.630488	0.228952
516.994235	0.227736
517.357925	0.226617
517.721558	0.224761
518.085133	0.224235
518.448651	0.224335
518.812112	0.226418
519.175516	0.226194
519.538863	0.223693
519.902152	0.225768
520.265385	0.222056
520.628560	0.223949
520.991678	0.224249
521.354739	0.223237
521.717743	0.224235
522.080690	0.225019
522.443580	0.222287
522.806413	0.223052
523.169189	0.222734
523.531908	0.221437
523.894569	0.224971
524.257174	0.224878
524.619722	0.222385
524.982213	0.223928
525.344647	0.222693
525.707025	0.223310
526.069345	0.221751
526.431608	0.223309
526.793815	0.221242
527.155964	0.225588
527.518057	0.224262
527.880093	0.225413
528.242072	0.224106
528.603995	0.225879
528.965860	0.227877
529.327669	0.226747
529.689421	0.227480
530.051117	0.228188
530.412755	0.226137
530.774337	0.228516
531.135862	0.228608
531.497331	0.228253
531.858743	0.231144
532.220098	0.227806
532.581396	0.230187
532.942638	0.230695
533.303824	0.231631
533.664953	0.231735
534.026025	0.233370
534.387040	0.231273
534.747999	0.231036
535.108902	0.229971
535.469748	0.235086
535.830537	0.232937
536.191270	0.233161
536.551947	0.232947
536.912567	0.232842
537.273131	0.234693
537.633638	0.234784
537.994089	0.235177
538.354483	0.236340
538.714821	0.233524
539.075103	0.233352
539.435328	0.234025
539.795497	0.237624
540.155609	0.234390
540.515665	0.232467
540.875665	0.238173
541.235609	0.236805
541.595496	0.236606
541.955328	0.233459
542.315102	0.236494
542.674821	0.237184
543.034483	0.237297
543.394090	0.236863
543.753640	0.238801
544.113134	0.233565
544.472571	0.237117
544.831953	0.234140
545.191278	0.238213
545.550548	0.237579
545.909761	0.234386
546.268918	0.235269
546.628019	0.233380
546.987064	0.236338
547.346053	0.237868
547.704986	0.235600
548.063863	0.236125
548.422684	0.236377
548.781449	0.238079
549.140158	0.235897
549.498811	0.238996
549.857408	0.241788
550.215949	0.236411
550.574434	0.239743
550.932864	0.237796
551.291237	0.236110
551.649555	0.237746
552.007817	0.237530
552.366022	0.238563
552.724173	0.238464
553.082267	0.238817
553.440305	0.235584
553.798288	0.240154
554.156215	0.236761
554.514086	0.237124
554.871902	0.240382
555.229661	0.239894
555.587365	0.240452
555.945014	0.242848
556.302606	0.239851
556.660143	0.242626
557.017625	0.238980
557.375050	0.240976
557.732421	0.238172
558.089735	0.240066
558.446994	0.240071
558.804197	0.239452
559.161345	0.239068
559.518437	0.242598
559.875474	0.240680
560.232455	0.239887
560.589381	0.241158
560.946251	0.241455
561.303065	0.238935
561.659825	0.240248
562.016528	0.241757
562.373177	0.244738
562.729770	0.241962
563.086307	0.243501
563.442789	0.241861
563.799216	0.244700
564.155587	0.243358
564.511904	0.244526
564.868164	0.244278
565.224370	0.244136
565.580520	0.245974
565.936615	0.245718
566.292654	0.248882
566.648638	0.246020
567.004567	0.246810
567.360441	0.247284
567.716260	0.249432
568.072023	0.246998
568.427732	0.247799
568.783385	0.250199
569.138982	0.248458
569.494525	0.248104
569.850013	0.250719
570.205445	0.249711
570.560823	0.251819
570.916145	0.254139
571.271412	0.252322
571.626625	0.253755
571.981782	0.254205
572.336884	0.255132
572.691931	0.254629
573.046923	0.255991
573.401860	0.257159
573.756743	0.259002
574.111570	0.257776
574.466342	0.258263
574.821059	0.257336
575.175722	0.260003
575.530330	0.259896
575.884882	0.260360
576.239380	0.262225
576.593823	0.262500
576.948211	0.262191
577.302544	0.265337
577.656823	0.265116
578.011047	0.264535
578.365216	0.266010
578.719330	0.267969
579.073389	0.267226
579.427394	0.268731
579.781344	0.269610
580.135239	0.271009
580.489080	0.270858
580.842866	0.273776
581.196597	0.273871
581.550273	0.272214
581.903895	0.273117
582.257463	0.271159
582.610975	0.274623
582.964434	0.273694
583.317837	0.276488
583.671186	0.277076
584.024481	0.277180
584.377721	0.279166
584.730906	0.280503
585.084037	0.279398
585.437113	0.281734
585.790135	0.280580
586.143103	0.283515
586.496016	0.284581
586.848874	0.282372
587.201679	0.282796
587.554428	0.286242
587.907124	0.285405
588.259765	0.285635
588.612352	0.286278
588.964884	0.289968
589.317362	0.289752
589.669786	0.289821
590.022155	0.288170
590.374470	0.287614
590.726731	0.289224
591.078937	0.294747
591.431090	0.290848
591.783188	0.294773
592.135232	0.295718
592.487222	0.295229
592.839157	0.293432
593.191038	0.295794
593.542866	0.297465
593.894639	0.301091
594.246358	0.299322
594.598022	0.298715
594.949633	0.302245
595.301190	0.303265
595.652692	0.302084
596.004141	0.298370
596.355535	0.306034
596.706876	0.307082
597.058162	0.309285
597.409395	0.306600
597.760573	0.304096
598.111698	0.307643
598.462768	0.308012
598.813785	0.309433
599.164748	0.310631
599.515657	0.310590
599.866511	0.314726
600.217312	0.309660
600.568060	0.315360
600.918753	0.311311
601.269392	0.312178
601.619978	0.315563
601.970510	0.313137
602.320988	0.313285
602.671412	0.311221
603.021783	0.313569
603.372100	0.314879
603.722363	0.314927
604.072572	0.315713
604.422728	0.315134
604.772830	0.317482
605.122878	0.317609
605.472872	0.317748
605.822813	0.315922
606.172701	0.319102
606.522534	0.315843
606.872314	0.316202
607.222041	0.317288
607.571714	0.315094
607.921333	0.316877
608.270899	0.316585
608.620411	0.313295
608.969870	0.317202
609.319276	0.317319
609.668627	0.317470
610.017926	0.315821
610.367171	0.314883
610.716362	0.314991
611.065500	0.315312
611.414585	0.314065
611.763616	0.314011
612.112594	0.315232
612.461518	0.314439
612.810389	0.312477
613.159207	0.314349
613.507971	0.316159
613.856682	0.312246
614.205340	0.313315
614.553945	0.310801
614.902496	0.314335
615.250994	0.312255
615.599439	0.313335
615.947830	0.312472
616.296169	0.313324
616.644454	0.313691
616.992686	0.313516
617.340864	0.311472
617.688990	0.314577
618.037063	0.311381
618.385082	0.312917
618.733048	0.310160
619.080961	0.312505
619.428821	0.311940
619.776628	0.311889
620.124382	0.313835
620.472083	0.314480
620.819731	0.313863
621.167326	0.317612
621.514868	0.317281
621.862357	0.321470
622.209793	0.320719
622.557176	0.323149
622.904506	0.324489
623.251783	0.326942
623.599007	0.329106
623.946179	0.328788
624.293297	0.331126
624.640363	0.335279
624.987376	0.335488
625.334336	0.337816
625.681243	0.340383
626.028097	0.340778
626.374899	0.341752
626.721647	0.342828
627.068343	0.345520
627.414987	0.346839
627.761577	0.348953
628.108115	0.347005
628.454600	0.352705
628.801032	0.350210
629.147412	0.352006
629.493739	0.352866
629.840014	0.355810
630.186236	0.353015
630.532405	0.359047
630.878521	0.356149
631.224585	0.358799
631.570597	0.362232
631.916556	0.361369
632.262462	0.360856
632.608316	0.363771
632.954117	0.364292
633.299866	0.365764
633.645562	0.365626
633.991206	0.370131
634.336797	0.372605
634.682336	0.376365
635.027823	0.377449
635.373257	0.377955
635.718639	0.381976
636.063968	0.381188
636.409245	0.386807
636.754470	0.387646
637.099642	0.389955
637.444762	0.393827
637.789829	0.392648
638.134845	0.396230
638.479808	0.397686
638.824719	0.397352
639.169577	0.401702
639.514383	0.401026
639.859137	0.405579
640.203839	0.405476
640.548489	0.405803
640.893086	0.406852
641.237632	0.409191
641.582125	0.407609
641.926566	0.410112
642.270955	0.409868
642.615292	0.410288
642.959576	0.409422
643.303809	0.410654
643.647990	0.410441
643.992118	0.411094
644.336195	0.414393
644.680219	0.413441
645.024192	0.414008
645.368112	0.408033
645.711981	0.407236
646.055797	0.403046
646.399562	0.406387
646.743274	0.399331
647.086935	0.396769
647.430544	0.396729
647.774101	0.396473
648.117606	0.396108
648.461059	0.397013
648.804460	0.399566
649.147810	0.405135
649.491108	0.407168
649.834354	0.408742
650.177548	0.414420
650.520690	0.419728
650.863781	0.421687
651.206820	0.420759
651.549807	0.425463
651.892742	0.430611
652.235626	0.429922
652.578458	0.431049
652.921238	0.437831
653.263967	0.435789
653.606644	0.439006
653.949269	0.440034
654.291843	0.443914
654.634365	0.441127
654.976836	0.445025
655.319255	0.446479
655.661622	0.447469
656.003938	0.448453
656.346203	0.450678
656.688416	0.449827
657.030577	0.452845
657.372687	0.456461
657.714746	0.456849
658.056753	0.453825
658.398708	0.458176
658.740612	0.459886
659.082465	0.457310
659.424266	0.458174
659.766016	0.457200
660.107715	0.461794
660.449362	0.460021
660.790958	0.461554
661.132503	0.463253
661.473996	0.461164
661.815438	0.462493
662.156829	0.463273
662.498168	0.464161
662.839456	0.465585
663.180693	0.464872
663.521879	0.464275
663.863013	0.465928
664.204097	0.466002
664.545129	0.463018
664.886110	0.463856
665.227040	0.462459
665.567918	0.464387
665.908746	0.463989
666.249522	0.464688
666.590248	0.465724
666.930922	0.464134
667.271545	0.464580
667.612118	0.464985
667.952639	0.466127
668.293109	0.466773
668.633528	0.469906
668.973896	0.469672
669.314213	0.471295
669.654480	0.473919
669.994695	0.473796
670.334859	0.474989
670.674973	0.476647
671.015035	0.476922
671.355047	0.478343
671.695008	0.479862
672.034918	0.481687
672.374777	0.481877
672.714585	0.484238
673.054342	0.484366
673.394049	0.484763
673.733705	0.484483
674.073310	0.486721
674.412864	0.488210
674.752368	0.490612
675.091820	0.491385
675.431223	0.495611
675.770574	0.496176
676.109875	0.499423
676.449125	0.500073
676.788324	0.502464
677.127473	0.508367
677.466571	0.508635
677.805619	0.511127
678.144616	0.513794
678.483562	0.515470
678.822458	0.517930
679.161303	0.518853
679.500098	0.520552
679.838842	0.522666
680.177535	0.523462
680.516179	0.521355
680.854771	0.521969
681.193314	0.517183
681.531805	0.510444
681.870247	0.503374
682.208638	0.497456
682.546978	0.496923
682.885268	0.499030
683.223508	0.505759
683.561697	0.509968
683.899836	0.513170
684.237925	0.516632
684.575963	0.519721
684.913951	0.522564
685.251889	0.521638
685.589776	0.523482
685.927614	0.525631
686.265401	0.523230
686.603137	0.524177
686.940824	0.521084
687.278460	0.520605
687.616046	0.521418
687.953582	0.517688
688.291068	0.519671
688.628504	0.518596
688.965889	0.520330
689.303224	0.523397
689.640510	0.528419
689.977745	0.533556
690.314930	0.540967
690.652065	0.545877
690.989150	0.551330
691.326185	0.558637
691.663170	0.564143
692.000105	0.570628
692.336990	0.575348
692.673825	0.580075
693.010610	0.585496
693.347345	0.589055
693.684030	0.594147
694.020665	0.598321
694.357251	0.605648
694.693786	0.606319
695.030272	0.609810
695.366707	0.614753
695.703093	0.617457
696.039429	0.616216
696.375716	0.620663
696.711952	0.621803
697.048139	0.623650
697.384276	0.626818
697.720363	0.627446
698.056400	0.627152
698.392388	0.631674
698.728326	0.634346
699.064214	0.637024
699.400053	0.638576
699.735842	0.644055
700.071581	0.645553
700.407270	0.648661
700.742910	0.652112
701.078501	0.656705
701.414042	0.659461
701.749533	0.661956
702.084974	0.667931
702.420366	0.664531
702.755709	0.671427
703.091002	0.677012
703.426246	0.675355
703.761440	0.677414
704.096584	0.680235
704.431679	0.681098
704.766725	0.683784
705.101721	0.686253
705.436668	0.684853
705.771565	0.687576
706.106413	0.685259
706.441212	0.686265
706.775961	0.686402
707.110661	0.686014
707.445311	0.683570
707.779913	0.685388
708.114465	0.684023
708.448967	0.680331
708.783421	0.676488
709.117825	0.673142
709.452180	0.672497
709.786485	0.669442
710.120742	0.662754
710.454949	0.662998
710.789107	0.658594
711.123216	0.652793
711.457275	0.653935
711.791286	0.650506
712.125247	0.651692
712.459159	0.655061
712.793023	0.649127
713.126837	0.659830
713.460602	0.659167
713.794318	0.661961
714.127985	0.664070
714.461602	0.675039
714.795171	0.674897
715.128691	0.682139
715.462162	0.689797
715.795584	0.694860
716.128957	0.697949
716.462281	0.700691
716.795556	0.704413
717.128782	0.710951
717.461960	0.718456
717.795088	0.718163
718.128167	0.723527
718.461198	0.727767
718.794180	0.728579
719.127113	0.734176
719.459997	0.736774
719.792833	0.741080
720.125619	0.741263
720.458357	0.747071
720.791046	0.748645
721.123686	0.750629
721.456278	0.755338
721.788821	0.754677
722.121315	0.759497
722.453761	0.760488
722.786158	0.761311
723.118506	0.760203
723.450805	0.763180
723.783056	0.762624
724.115259	0.762944
724.447412	0.763578
724.779518	0.763064
725.111574	0.763137
725.443582	0.760967
725.775542	0.763901
726.107453	0.759643
726.439315	0.760118
726.771129	0.757327
727.102895	0.753579
727.434612	0.751330
727.766281	0.749608
728.097901	0.747336
728.429473	0.749182
728.760996	0.748454
729.092471	0.748476
729.423897	0.752312
729.755276	0.754484
730.086606	0.753499
730.417887	0.748942
730.749120	0.745583
731.080305	0.742189
731.411442	0.738216
731.742530	0.739855
732.073570	0.740941
732.404562	0.738503
732.735506	0.740063
733.066401	0.742297
733.397249	0.748686
733.728048	0.756925
734.058798	0.769149
734.389501	0.776669
734.720156	0.780942
735.050762	0.787847
735.381320	0.790043
735.711831	0.793444
736.042293	0.797498
736.372707	0.798558
736.703073	0.799795
737.033391	0.800092
737.363661	0.798963
737.693883	0.798531
738.024056	0.797544
738.354182	0.796080
738.684260	0.791377
739.014290	0.788875
739.344272	0.788555
739.674207	0.786450
740.004093	0.785906
740.333931	0.786078
740.663722	0.787268
740.993464	0.788427
741.323159	0.789659
741.652806	0.794181
741.982405	0.798180
742.311956	0.802428
742.641460	0.804567
742.970915	0.806865
743.300323	0.811250
743.629683	0.815792
743.958996	0.819103
744.288260	0.821558
744.617477	0.826218
744.946647	0.827635
745.275768	0.833545
745.604842	0.832895
745.933869	0.836892
746.262847	0.839564
746.591778	0.837523
746.920662	0.841256
747.249498	0.843247
747.578286	0.841795
747.907027	0.837736
748.235720	0.835192
748.564365	0.836043
748.892963	0.837021
749.221514	0.839283
749.550017	0.839916
749.878473	0.842180
750.206881	0.846429
750.535242	0.846254
750.863555	0.847543
751.191821	0.849253
751.520039	0.848497
751.848210	0.849648
752.176334	0.850572
752.504411	0.851442
752.832440	0.852598
753.160421	0.854717
753.488356	0.856894
753.816243	0.856040
754.144082	0.859445
754.471875	0.861334
754.799620	0.861221
755.127318	0.860812
755.454969	0.861726
755.782572	0.863243
756.110129	0.863051
756.437638	0.865247
756.765100	0.865095
757.092515	0.864309
757.419882	0.864468
757.747203	0.866004
758.074477	0.865474
758.401703	0.865949
758.728882	0.863541
759.056014	0.862553
759.383099	0.863236
759.710138	0.860299
760.037129	0.859683
760.364073	0.860214
760.690970	0.861373
761.017820	0.862081
761.344623	0.861158
761.671379	0.858218
761.998088	0.853541
762.324751	0.841941
762.651366	0.817948
762.977935	0.777873
763.304456	0.752569
763.630931	0.752891
763.957359	0.772598
764.283740	0.797862
764.610074	0.816201
764.936362	0.833142
765.262602	0.845742
765.588796	0.856986
765.914943	0.866344
766.241044	0.874670
766.567097	0.879046
766.893104	0.883341
767.219064	0.886724
767.544978	0.891989
767.870845	0.896348
768.196665	0.897734
768.522438	0.900308
768.848165	0.902245
769.173846	0.905409
769.499479	0.907841
769.825066	0.909569
770.150607	0.911825
770.476101	0.911501
770.801548	0.912845
771.126949	0.917434
771.452303	0.918440
771.777611	0.920036
772.102872	0.919919
772.428087	0.921087
772.753256	0.923522
773.078378	0.924297
773.403453	0.928200
773.728482	0.930836
774.053465	0.928405
774.378401	0.929842
774.703291	0.934231
775.028135	0.934580
775.352932	0.934192
775.677683	0.936671
776.002388	0.937193
776.327046	0.936272
776.651658	0.939315
776.976224	0.940059
777.300743	0.939965
777.625216	0.942095
777.949643	0.941500
778.274024	0.941398
778.598359	0.943780
778.922647	0.942839
779.246889	0.944890
779.571086	0.945212
779.895236	0.945434
780.219339	0.944593
780.543397	0.943947
780.867409	0.943275
781.191374	0.943724
781.515294	0.945688
781.839167	0.945121
782.162995	0.946544
782.486776	0.944829
782.810511	0.945792
783.134201	0.948636
783.457844	0.947690
783.781441	0.948573
784.104993	0.950808
784.428498	0.951607
784.751958	0.951672
785.075372	0.952266
785.398739	0.952404
785.722061	0.952120
786.045337	0.951736
786.368568	0.952643
786.691752	0.952942
787.014891	0.948610
787.337983	0.943620
787.661030	0.938320
787.984031	0.931586
788.306987	0.927754
788.629897	0.926669
788.952760	0.932202
789.275579	0.935892
789.598351	0.941259
789.921078	0.947173
790.243759	0.948438
790.566395	0.950160
790.888984	0.954074
791.211529	0.955369
791.534027	0.956414
791.856480	0.958392
792.178888	0.959693
792.501249	0.960196
792.823566	0.962280
793.145836	0.961732
793.468062	0.961908
793.790241	0.962742
794.112375	0.961509
794.434464	0.960667
794.756507	0.960558
795.078505	0.959028
795.400457	0.957246
795.722364	0.952842
796.044226	0.948666
796.366042	0.947437
796.687812	0.948850
797.009538	0.949947
797.331218	0.952425
797.652852	0.954062
797.974442	0.954865
798.295986	0.956617
798.617484	0.955917
798.938938	0.958966
799.260346	0.960604
799.581709	0.961275
799.903026	0.963785
800.224299	0.962132
800.545526	0.963798
800.866708	0.965032
801.187845	0.966549
801.508936	0.966610
801.829983	0.966918
802.150984	0.968543
802.471940	0.969020
802.792851	0.968186
803.113717	0.969067
803.434538	0.970410
803.755314	0.970892
804.076045	0.970509
804.396731	0.970043
804.717372	0.968834
805.037967	0.971416
805.358518	0.970252
805.679024	0.968102
805.999485	0.969064
806.319901	0.969422
806.640272	0.969534
806.960598	0.968444
807.280879	0.968759
807.601115	0.968470
807.921306	0.969873
808.241453	0.968384
808.561554	0.969207
808.881611	0.970292
809.201623	0.969662
809.521590	0.969628
809.841513	0.970516
810.161390	0.970174
810.481223	0.970630
810.801011	0.972010
811.120755	0.973594
811.440453	0.973176
811.760107	0.973512
812.079716	0.973472
812.399281	0.974003
812.718801	0.973833
813.038276	0.975264
813.357707	0.976246
813.677093	0.976083
813.996434	0.976544
814.315731	0.977975
814.634983	0.977130
814.954191	0.977296
815.273354	0.975164
815.592473	0.975421
815.911547	0.975510
816.230577	0.973478
816.549562	0.973805
816.868502	0.972861
817.187399	0.974929
817.506250	0.972845
817.825058	0.971862
818.143821	0.972300
818.462539	0.970953
818.781213	0.969023
819.099843	0.965798
819.418429	0.960565
819.736970	0.955534
820.055466	0.948733
820.373919	0.944002
820.692327	0.936108
821.010691	0.925314
821.329011	0.893599
821.647286	0.838190
821.965517	0.783153
822.283704	0.761333
822.601847	0.766071
822.919945	0.792223
823.237999	0.820771
823.556010	0.844864
823.873976	0.866294
824.191897	0.885493
824.509775	0.901262
824.827609	0.913394
825.145398	0.920868
825.463144	0.921430
825.780845	0.917777
826.098502	0.910130
826.416116	0.895183
826.733685	0.876580
827.051210	0.872852
827.368692	0.882897
827.686129	0.898205
828.003522	0.915989
828.320872	0.929127
828.638177	0.941848
828.955439	0.949979
829.272656	0.956833
829.589830	0.960992
829.906960	0.967130
830.224046	0.969710
830.541088	0.971462
830.858086	0.973791
831.175041	0.975506
831.491952	0.975268
831.808819	0.975067
832.125642	0.973534
832.442421	0.971379
832.759157	0.964970
833.075849	0.948862
833.392497	0.932641
833.709101	0.920671
834.025662	0.923478
834.342179	0.932686
834.658653	0.945655
834.975083	0.955213
835.291469	0.961458
835.607811	0.967516
835.924110	0.972453
836.240366	0.977145
836.556578	0.979478
836.872746	0.981153
837.188871	0.982505
837.504952	0.984571
837.820990	0.985602
838.136984	0.985304
838.452935	0.986411
838.768842	0.987545
839.084706	0.985746
839.400526	0.979222
839.716303	0.966479
840.032037	0.960220
840.347727	0.961453
840.663373	0.966926
840.978977	0.973963
841.294537	0.980562
841.610054	0.984157
841.925527	0.986685
842.240957	0.987147
842.556344	0.988501
842.871687	0.990062
843.186987	0.990813
843.502244	0.992200
843.817458	0.991308
844.132629	0.992399
844.447756	0.992937
844.762840	0.993298
845.077881	0.993821
845.392879	0.992523
845.707833	0.994033
846.022745	0.994713
846.337613	0.994403
846.652438	0.993795
846.967221	0.995605
847.281960	0.994990
847.596656	0.995300
847.911309	0.995298
848.225919	0.994071
848.540485	0.995222
848.855009	0.995803
849.169490	0.995235
849.483928	0.995352
849.798323	0.993656
850.112675	0.996840
850.426984	0.996487
850.741251	0.996374
851.055474	0.996009
851.369654	0.995905
851.683792	0.996796
851.997887	0.995746
852.311938	0.995747
852.625947	0.995097
852.939914	0.995389
853.253837	0.996992
853.567718	0.996741
853.881555	0.996101
854.195350	0.996425
854.509103	0.994903
854.822812	0.996239
855.136479	0.996988
855.450103	0.996286
855.763685	0.996620
856.077224	0.996603
856.390720	0.996183
856.704173	0.997402
857.017584	0.995917
857.330953	0.996385
857.644278	0.995770
857.957561	0.995728
858.270802	0.995258
858.584000	0.994640
858.897155	0.995186
859.210268	0.994769
859.523339	0.995955
859.836367	0.996808
860.149352	0.995365
860.462295	0.996484
860.775195	0.996215
861.088054	0.995816
861.400869	0.994838
861.713642	0.995564
862.026373	0.996916
862.339062	0.997170
862.651708	0.994880
862.964312	0.996022
863.276873	0.995003
863.589392	0.995163
863.901869	0.994090
864.214303	0.995652
864.526696	0.994141
864.839045	0.994267
865.151353	0.995197
865.463619	0.993372
865.775842	0.994574
866.088023	0.995873
866.400162	0.996139
866.712258	0.995640
867.024313	0.994327
867.336325	0.996119
867.648296	0.995035
867.960224	0.995031
868.272110	0.995213
868.583954	0.995711
868.895755	0.995519
869.207515	0.995701
869.519233	0.995055
869.830909	0.994044
870.142542	0.993968
870.454134	0.994058
870.765684	0.994207
871.077191	0.995021
871.388657	0.993241
871.700081	0.994915
872.011463	0.994378
872.322803	0.992968
872.634101	0.992958
872.945357	0.992424
873.256571	0.991038
873.567744	0.992408
873.878874	0.993944
874.189963	0.992206
874.501010	0.994078
874.812015	0.992735
875.122979	0.992339
875.433900	0.992443
875.744780	0.992578
876.055618	0.991470
876.366415	0.990980
876.677169	0.991843
876.987882	0.992395
877.298554	0.993643
877.609183	0.992003
877.919771	0.991557
878.230317	0.992526
878.540822	0.989629
878.851285	0.989354
879.161707	0.988133
879.472087	0.987385
879.782425	0.982275
880.092722	0.976489
880.402977	0.963638
880.713191	0.943873
881.023363	0.919700
881.333494	0.906173
881.643583	0.903586
881.953631	0.907538
882.263637	0.915990
882.573602	0.926081
882.883526	0.934979
883.193408	0.943943
883.503248	0.950440
883.813048	0.956978
884.122806	0.963842
884.432522	0.969691
884.742197	0.974099
885.051831	0.976213
885.361424	0.980330
885.670975	0.983665
885.980485	0.983654
886.289954	0.985541
886.599382	0.985729
886.908768	0.987417
887.218113	0.987991
887.527417	0.989508
887.836680	0.991000
888.145901	0.990987
888.455082	0.992374
888.764221	0.993420
889.073319	0.992293
889.382376	0.993607
889.691392	0.991972
890.000366	0.993422
890.309300	0.992941
890.618193	0.993613
890.927044	0.992280
891.235855	0.992196
891.544625	0.992211
891.853353	0.991678
892.162041	0.991783
892.470687	0.991758
892.779293	0.989709
893.087858	0.987752
893.396381	0.986983
893.704864	0.983369
894.013306	0.978624
894.321707	0.972973
894.630068	0.969523
894.938387	0.967116
895.246665	0.968966
895.554903	0.971117
895.863100	0.974885
896.171256	0.978038
896.479371	0.982467
896.787446	0.984605
897.095480	0.986489
897.403473	0.987985
897.711425	0.988202
898.019336	0.988933
898.327207	0.990545
898.635038	0.988995
898.942827	0.991213
899.250576	0.991099
899.558284	0.992973
899.865952	0.991746
900.173579	0.992853
900.481165	0.993388
900.788711	0.993634
901.096216	0.994262
901.403681	0.993870
901.711105	0.994608
902.018489	0.993477
902.325832	0.993901
902.633135	0.993630
902.940397	0.994027
903.247619	0.990167
903.554800	0.983462
903.861941	0.975866
904.169041	0.965846
904.476101	0.961365
904.783121	0.962087
905.090100	0.965783
905.397039	0.971681
905.703938	0.975787
906.010796	0.981349
906.317614	0.983782
906.624391	0.988383
906.931129	0.989976
907.237826	0.991700
907.544483	0.992996
907.851099	0.993365
908.157675	0.994472
908.464211	0.995932
908.770707	0.994238
909.077163	0.996308
909.383578	0.995936
909.689954	0.995533
909.996289	0.995429
910.302584	0.997430
910.608839	0.997930
910.915054	0.997273
911.221229	0.998461
911.527363	0.995989
911.833458	0.997246
912.139513	0.996412
912.445527	0.996622
912.751502	0.996712
913.057436	0.995672
913.363331	0.995686
913.669186	0.996038
913.975000	0.992596
914.280775	0.992833
914.586510	0.990156
914.892205	0.986682
915.197859	0.983706
915.503475	0.977012
915.809050	0.972281
916.114585	0.967393
916.420081	0.968454
916.725536	0.968185
917.030952	0.970783
917.336328	0.973656
917.641665	0.976495
917.946961	0.979285
918.252218	0.982046
918.557435	0.984391
918.862612	0.986633
919.167750	0.988739
919.472848	0.990392
919.777906	0.991668
920.082925	0.993708
920.387904	0.993679
920.692843	0.992763
920.997743	0.993193
921.302603	0.994693
921.607423	0.994994
921.912204	0.995752
922.216946	0.996500
922.521647	0.996754
922.826310	0.996429
923.130932	0.997613
923.435516	0.996996
923.740059	0.997666
924.044564	0.997123
924.349028	0.996896
924.653454	0.998469
924.957840	0.998191
925.262186	0.997759
925.566493	0.997996
925.870761	0.998507
926.174989	0.998513
926.479178	0.999447
926.783328	0.998603
927.087438	0.998603
927.391509	0.998842
927.695541	0.999249
927.999533	0.999378
928.303486	0.999365
928.607400	0.999370
928.911275	1.000450
929.215110	1.000722
929.518906	0.999813
929.822663	1.000761
930.126381	1.000192
930.430060	0.999672
930.733699	1.000173
931.037299	1.000448
931.340861	1.000380
931.644383	0.998371
931.947866	0.999584
932.251309	1.000643
932.554714	1.000462
932.858080	1.000669
933.161407	0.999749
933.464694	0.999218
933.767943	0.999542
934.071153	1.000251
934.374323	0.999536
934.677455	1.000125
934.980548	0.999347
935.283602	1.000213
935.586617	0.999614
935.889593	1.000277
936.192530	1.000831
936.495428	1.000086
936.798287	0.998910
937.101108	1.000567
937.403890	0.998913
937.706632	1.000346
938.009336	0.998874
938.312002	0.997709
938.614628	0.999304
938.917216	0.998301
939.219765	0.996828
939.522275	0.998174
939.824747	0.998373
940.127179	0.998753
940.429573	0.998518
940.731929	0.996889
941.034246	0.998326
941.336524	0.997377
941.638763	0.997812
941.940964	0.998614
942.243126	0.997978
942.545250	0.998962
942.847335	0.999899
943.149381	0.999579
943.451389	0.998392
943.753359	0.998968
944.055290	1.001784
944.357182	0.998654
944.659036	1.000137
944.960851	0.998685
945.262628	1.000877
945.564367	0.999940
945.866067	0.999633
946.167729	0.999473
946.469352	0.999834
946.770937	0.998764
947.072484	0.999657
947.373992	1.001045
947.675462	1.000293
947.976893	0.999058
948.278286	1.001469
948.579641	1.001032
948.880958	0.999030
949.182236	1.000434
949.483476	1.001704
949.784678	0.999964
950.085841	0.999358
950.386967	1.000157
950.688054	0.999547
950.989103	0.999276
951.290114	0.998050
951.591087	0.999011
951.892021	1.000332
952.192917	0.998761
952.493776	0.997932
952.794596	0.999146
953.095378	0.999057
953.396122	0.999264
953.696828	0.999095
953.997496	1.000536
954.298126	1.000208
954.598718	0.999446
954.899272	1.000810
955.199788	0.999477
955.500266	1.000970
955.800706	0.999777
956.101108	0.999729
956.401472	1.001655
956.701798	1.000035
957.002087	1.000733
957.302337	1.001128
957.602550	1.001690
957.902724	1.000456
958.202861	1.000446
958.502960	1.001062
958.803022	1.001975
959.103045	1.001737
959.403031	1.001633
959.702979	1.002392
960.002889	1.001154
960.302762	1.000858
960.602596	1.002102
960.902393	1.002028
961.202153	1.001774
961.501875	1.001743
961.801559	1.001600
962.101205	1.001595
962.400814	1.001685
962.700385	1.002417
962.999918	1.002385
963.299414	1.000343
963.598873	1.001977
963.898293	1.002535
964.197677	1.001756
964.497022	1.002493
964.796331	1.002164
965.095601	1.002364
965.394835	1.001393
965.694030	1.002748
965.993189	1.001037
966.292309	1.002281
966.591393	1.000839
966.890439	1.003044
967.189447	1.001347
967.488419	1.002201
967.787353	1.001834
968.086249	1.001978
968.385108	1.002171
968.683930	1.002490
968.982714	1.002278
969.281462	1.002868
969.580172	1.000968
969.878844	1.002100
970.177480	1.002255
970.476078	1.003739
970.774639	1.001936
971.073162	1.001325
971.371649	1.002158
971.670098	1.001840
971.968510	1.003035
972.266885	1.001750
972.565223	1.002986
972.863524	1.000406
973.161788	1.002579
973.460014	1.002967
973.758204	1.000814
974.056356	1.002347
974.354471	1.001772
974.652550	1.002554
974.950591	1.002847
975.248595	1.001604
975.546563	1.002939
975.844493	1.003935
976.142386	1.002294
976.440243	1.002156
976.738062	1.001811
977.035845	1.000672
977.333590	1.002741
977.631299	1.001933
977.928971	1.002447
978.226606	1.001578
978.524204	1.001894
978.821765	1.002087
979.119290	1.003213
979.416777	1.002238
979.714228	1.001017
980.011642	1.002741
980.309020	1.001029
980.606360	1.002029
980.903664	1.001733
981.200931	1.000820
981.498162	1.002011
981.795356	1.001917
982.092513	1.001428
982.389633	1.002368
982.686717	0.999987
982.983764	1.000940
983.280775	1.000201
983.577749	1.001639
983.874686	1.000385
984.171587	1.000564
984.468451	1.001788
984.765279	1.001504
985.062070	1.002667
985.358824	1.001367
985.655543	1.001438
985.952224	1.001815
986.248869	1.001896
986.545478	1.004468
986.842050	1.001678
987.138586	1.001293
987.435086	1.003416
987.731549	1.003326
988.027975	1.003432
988.324366	1.002207
988.620719	1.003240
988.917037	1.002504
989.213318	1.002947
989.509563	1.002288
989.805772	1.003314
990.101944	1.004490
990.398080	1.002122
990.694180	1.003901
990.990244	1.002562
991.286271	1.002427
991.582262	1.003207
991.878217	1.003122
992.174136	1.003976
992.470019	1.003163
992.765865	1.003560
993.061676	1.003502
993.357450	1.002687
993.653188	1.004240
993.948890	1.002989
994.244556	1.001581
994.540186	1.002304
994.835780	1.002152
995.131337	1.003672
995.426859	1.001955
995.722345	1.002370
996.017795	1.002439
996.313208	1.002138
996.608586	1.003409
996.903928	1.003196
997.199234	1.002487
997.494504	1.004066
997.789738	1.002368
998.084936	1.002628
998.380099	1.001924
998.675225	1.002336
998.970316	1.002800
999.265371	1.004079
999.560390	1.002482
999.855373	1.003531
1000.150320	1.003381
1000.445232	1.003446
1000.740108	1.002199
1001.034948	1.002958
1001.329752	1.003671
1001.624521	1.002394
1001.919254	1.002082
1002.213951	1.004283
1002.508613	1.002553
1002.803239	1.002068
1003.097829	1.003201
1003.392384	1.003629
1003.686903	1.004370
1003.981386	1.003168
1004.275834	1.004201
1004.570246	1.002323
1004.864623	1.003026
1005.158964	1.003041
1005.453270	1.002826
1005.747540	1.002981
1006.041775	1.002932
1006.335974	1.004235
1006.630138	1.002695
1006.924266	1.002825
1007.218359	1.001571
1007.512416	1.005113
1007.806438	1.002489
1008.100425	1.003663
1008.394376	1.003844
1008.688292	1.003236
1008.982172	1.002556
1009.276017	1.002501
1009.569827	1.003198
1009.863602	1.002392
1010.157341	1.004552
1010.451045	1.003484
1010.744714	1.004858
1011.038347	1.003924
1011.331945	1.002925
1011.625508	1.002841
1011.919036	1.003250
1012.212528	1.004344
1012.505986	1.002653
1012.799408	1.003855
1013.092795	1.003974
1013.386147	1.004085
1013.679464	1.004105
1013.972745	1.003455
1014.265992	1.003759
1014.559204	1.003426
1014.852380	1.003398
1015.145521	1.002740
1015.438628	1.003959
1015.731699	1.002799
1016.024736	1.003837
1016.317737	1.004073
1016.610703	1.004813
1016.903635	1.003007
1017.196531	1.003068
1017.489393	1.002152
1017.782219	1.003668
1018.075011	1.001600
1018.367768	1.002988
1018.660490	1.004131
1018.953177	1.004131
1019.245829	1.004131
