Dividing Wavelength (nm)	Counts (n)	Blue Motor Position (mm): 23.700000	Red Motor Position (mm): 0.000000	
326.493990	1.001001
326.888308	1.001001
327.282561	1.001001
327.676750	1.002138
328.070874	1.002494
328.464933	1.002598
328.858929	1.003898
329.252859	1.002825
329.646726	1.001557
330.040528	1.000823
330.434265	1.001879
330.827938	1.001178
331.221547	1.002038
331.615091	1.002564
332.008571	1.002804
332.401986	1.001662
332.795338	1.001964
333.188625	1.002657
333.581847	1.001254
333.975006	1.002564
334.368100	1.002455
334.761129	1.001296
335.154095	1.000896
335.546996	1.000729
335.939833	0.997893
336.332606	1.000494
336.725315	0.999012
337.117960	1.000362
337.510540	0.999614
337.903056	1.000020
338.295508	1.000986
338.687896	1.000057
339.080220	0.999210
339.472480	0.999470
339.864676	1.000203
340.256807	0.998626
340.648875	1.000660
341.040879	0.999372
341.432818	0.999562
341.824694	0.998304
342.216506	1.000016
342.608253	1.000189
342.999937	0.999939
343.391557	0.999750
343.783113	1.001452
344.174605	1.000092
344.566033	0.999924
344.957397	1.000528
345.348697	0.999674
345.739934	0.999640
346.131106	0.999809
346.522215	0.998830
346.913260	0.999223
347.304241	0.999022
347.695159	0.999580
348.086012	0.999299
348.476802	0.999308
348.867528	0.998561
349.258191	1.000588
349.648789	0.999621
350.039324	1.000617
350.429796	0.998049
350.820203	0.997983
351.210548	0.998606
351.600828	0.999550
351.991045	0.999737
352.381198	0.999339
352.771288	0.999208
353.161314	1.000542
353.551276	0.998685
353.941175	0.998233
354.331010	1.000729
354.720782	0.999364
355.110490	0.998693
355.500135	0.999641
355.889717	0.998238
356.279235	0.997773
356.668689	0.999932
357.058080	0.999837
357.447408	0.997298
357.836672	0.999062
358.225873	0.998530
358.615010	0.999132
359.004084	0.997960
359.393095	0.997948
359.782043	0.997351
360.170927	0.999705
360.559748	0.999182
360.948505	0.997985
361.337199	0.998545
361.725830	0.998988
362.114398	0.998248
362.502903	0.996994
362.891344	0.997195
363.279722	0.997984
363.668037	0.997961
364.056289	0.998414
364.444478	0.999104
364.832603	0.997486
365.220665	0.997841
365.608665	0.997551
365.996601	0.997855
366.384474	0.995693
366.772284	0.996757
367.160031	0.996305
367.547715	0.995744
367.935336	0.994634
368.322893	0.994559
368.710388	0.993693
369.097820	0.991655
369.485189	0.988488
369.872495	0.987376
370.259738	0.985442
370.646918	0.982501
371.034035	0.979986
371.421090	0.977134
371.808081	0.972400
372.195010	0.969290
372.581875	0.964693
372.968678	0.959019
373.355418	0.956167
373.742096	0.949410
374.128710	0.944580
374.515262	0.939999
374.901751	0.936104
375.288177	0.929355
375.674540	0.922162
376.060841	0.916906
376.447079	0.909846
376.833254	0.903844
377.219367	0.897612
377.605417	0.887094
377.991404	0.882655
378.377329	0.877494
378.763191	0.870585
379.148991	0.862601
379.534727	0.854604
379.920402	0.846353
380.306013	0.843541
380.691563	0.829195
381.077049	0.823541
381.462474	0.818855
381.847835	0.808302
382.233134	0.802858
382.618371	0.803873
383.003545	0.786570
383.388657	0.784353
383.773706	0.776045
384.158693	0.772377
384.543618	0.766889
384.928480	0.758048
385.313280	0.747858
385.698017	0.747697
386.082692	0.735607
386.467305	0.734330
386.851856	0.728261
387.236344	0.724186
387.620770	0.718933
388.005133	0.712763
388.389435	0.706888
388.773674	0.704878
389.157851	0.695820
389.541965	0.694048
389.926018	0.700294
390.310008	0.687259
390.693936	0.684273
391.077802	0.676462
391.461606	0.678193
391.845348	0.667026
392.229027	0.666646
392.612645	0.664894
392.996200	0.651757
393.379694	0.645449
393.763125	0.634988
394.146494	0.640281
394.529801	0.630242
394.913047	0.622099
395.296230	0.627730
395.679351	0.619623
396.062410	0.616477
396.445408	0.619310
396.828343	0.614307
397.211217	0.609092
397.594028	0.621875
397.976778	0.612317
398.359466	0.607788
398.742092	0.604148
399.124656	0.615496
399.507158	0.603747
399.889598	0.601510
400.271977	0.592004
400.654294	0.596377
401.036549	0.594609
401.418742	0.599236
401.800874	0.584692
402.182944	0.581720
402.564952	0.573699
402.946898	0.575966
403.328783	0.576656
403.710606	0.588064
404.092367	0.562460
404.474067	0.567366
404.855705	0.566882
405.237282	0.575292
405.618797	0.561226
406.000250	0.557343
406.381642	0.546627
406.762972	0.552437
407.144240	0.551058
407.525447	0.551203
407.906593	0.543662
408.287677	0.539235
408.668700	0.547618
409.049661	0.541661
409.430560	0.536898
409.811399	0.545559
410.192176	0.526892
410.572891	0.534098
410.953545	0.522764
411.334138	0.536203
411.714669	0.527812
412.095139	0.539681
412.475547	0.524559
412.855894	0.527024
413.236180	0.525355
413.616405	0.530842
413.996568	0.520754
414.376670	0.527236
414.756711	0.532081
415.136691	0.528806
415.516609	0.520725
415.896466	0.517094
416.276262	0.513172
416.655997	0.515069
417.035670	0.496132
417.415283	0.487402
417.794834	0.492716
418.174324	0.498091
418.553753	0.506929
418.933121	0.489420
419.312428	0.483691
419.691674	0.488836
420.070859	0.477343
420.449983	0.484747
420.829045	0.474615
421.208047	0.483445
421.586988	0.476883
421.965867	0.475492
422.344686	0.463953
422.723444	0.476797
423.102141	0.493966
423.480777	0.466508
423.859352	0.486993
424.237866	0.464684
424.616319	0.465476
424.994712	0.456467
425.373044	0.466667
425.751314	0.454268
426.129524	0.470874
426.507673	0.454801
426.885762	0.448309
427.263789	0.453795
427.641756	0.463612
428.019662	0.454099
428.397508	0.453085
428.775292	0.457445
429.153016	0.449091
429.530679	0.455208
429.908282	0.448427
430.285824	0.459081
430.663305	0.437518
431.040726	0.458278
431.418086	0.458444
431.795385	0.450200
432.172624	0.448867
432.549802	0.449600
432.926920	0.448129
433.303977	0.447566
433.680974	0.444970
434.057910	0.443540
434.434786	0.442579
434.811601	0.445779
435.188355	0.428008
435.565050	0.436939
435.941683	0.438456
436.318257	0.422008
436.694770	0.423744
437.071222	0.421727
437.447614	0.426029
437.823946	0.432095
438.200218	0.421728
438.576429	0.431426
438.952580	0.424399
439.328670	0.421029
439.704700	0.426970
440.080670	0.428400
440.456580	0.410615
440.832429	0.418222
441.208218	0.429290
441.583947	0.418229
441.959616	0.417477
442.335224	0.423067
442.710773	0.413907
443.086261	0.412037
443.461689	0.426309
443.837057	0.415641
444.212365	0.405611
444.587612	0.413348
444.962800	0.402536
445.337927	0.404431
445.712995	0.430430
446.088002	0.392527
446.462949	0.402637
446.837837	0.407678
447.212664	0.396746
447.587431	0.387799
447.962139	0.358429
448.336786	0.316898
448.711374	0.327713
449.085901	0.372409
449.460369	0.376655
449.834776	0.380042
450.209124	0.359144
450.583412	0.352122
450.957640	0.345076
451.331808	0.356557
451.705917	0.379826
452.079965	0.384779
452.453954	0.372822
452.827883	0.379772
453.201752	0.374359
453.575562	0.385699
453.949311	0.374563
454.323001	0.380715
454.696632	0.376565
455.070202	0.369285
455.443713	0.361083
455.817164	0.355975
456.190556	0.352052
456.563888	0.348923
456.937160	0.346668
457.310373	0.363707
457.683526	0.362727
458.056619	0.368871
458.429653	0.369543
458.802628	0.372948
459.175542	0.368165
459.548398	0.350721
459.921194	0.343811
460.293930	0.344509
460.666607	0.322561
461.039224	0.311301
461.411782	0.307244
461.784280	0.306894
462.156719	0.311468
462.529099	0.316265
462.901419	0.333039
463.273680	0.337924
463.645882	0.338140
464.018024	0.345235
464.390106	0.338212
464.762130	0.324124
465.134094	0.308918
465.505999	0.280157
465.877845	0.252268
466.249631	0.240110
466.621358	0.247882
466.993026	0.262660
467.364634	0.269537
467.736184	0.279363
468.107674	0.289625
468.479105	0.290800
468.850477	0.298490
469.221790	0.306704
469.593043	0.318343
469.964238	0.324803
470.335373	0.325605
470.706449	0.325861
471.077467	0.328927
471.448425	0.295597
471.819324	0.274748
472.190164	0.275817
472.560945	0.305909
472.931667	0.329892
473.302330	0.335747
473.672934	0.349719
474.043479	0.341304
474.413965	0.345981
474.784393	0.352975
475.154761	0.351082
475.525070	0.351913
475.895321	0.360210
476.265513	0.358362
476.635645	0.357200
477.005719	0.361762
477.375734	0.362528
477.745691	0.360243
478.115588	0.361167
478.485427	0.360348
478.855207	0.353660
479.224928	0.345171
479.594591	0.339507
479.964194	0.346751
480.333739	0.350745
480.703226	0.358278
481.072653	0.361732
481.442022	0.365922
481.811333	0.367889
482.180584	0.376101
482.549777	0.386743
482.918912	0.395001
483.287988	0.401046
483.657005	0.406358
484.025964	0.417962
484.394864	0.421895
484.763706	0.428726
485.132489	0.438836
485.501213	0.445505
485.869879	0.450016
486.238487	0.460611
486.607036	0.464467
486.975527	0.475788
487.343959	0.478759
487.712333	0.485966
488.080648	0.492502
488.448905	0.500558
488.817104	0.507711
489.185244	0.511324
489.553326	0.517269
489.921350	0.518161
490.289315	0.514182
490.657222	0.516479
491.025070	0.526177
491.392861	0.534032
491.760593	0.546013
492.128267	0.557953
492.495883	0.568175
492.863440	0.579908
493.230939	0.591894
493.598380	0.599908
493.965763	0.609553
494.333088	0.616503
494.700354	0.625729
495.067563	0.630918
495.434713	0.641770
495.801805	0.646783
496.168839	0.655639
496.535815	0.664258
496.902733	0.670177
497.269593	0.679541
497.636395	0.683949
498.003139	0.693088
498.369825	0.701272
498.736453	0.706959
499.103023	0.713494
499.469535	0.720930
499.835989	0.727553
500.202385	0.735070
500.568723	0.742190
500.935003	0.746508
501.301226	0.756646
501.667390	0.759107
502.033497	0.765503
502.399546	0.772792
502.765537	0.779913
503.131470	0.786075
503.497345	0.790964
503.863163	0.798529
504.228923	0.803310
504.594625	0.808618
504.960269	0.816156
505.325856	0.820552
505.691385	0.827993
506.056856	0.832145
506.422270	0.837203
506.787625	0.842338
507.152924	0.848133
507.518164	0.852115
507.883347	0.857980
508.248472	0.862549
508.613540	0.866338
508.978550	0.872151
509.343503	0.876789
509.708398	0.880628
510.073236	0.884282
510.438016	0.888353
510.802738	0.892236
511.167403	0.895504
511.532010	0.901098
511.896561	0.903303
512.261053	0.906208
512.625488	0.911164
512.989866	0.914354
513.354186	0.917123
513.718449	0.921734
514.082655	0.923148
514.446803	0.926949
514.810894	0.930025
515.174927	0.933712
515.538904	0.936035
515.902822	0.938313
516.266684	0.941299
516.630488	0.943678
516.994235	0.946252
517.357925	0.949367
517.721558	0.951076
518.085133	0.953349
518.448651	0.955394
518.812112	0.957809
519.175516	0.959324
519.538863	0.960360
519.902152	0.962826
520.265385	0.964813
520.628560	0.965397
520.991678	0.967133
521.354739	0.968862
521.717743	0.970450
522.080690	0.971457
522.443580	0.973088
522.806413	0.974459
523.169189	0.975833
523.531908	0.976028
523.894569	0.977827
524.257174	0.978197
524.619722	0.979250
524.982213	0.980527
525.344647	0.980943
525.707025	0.981429
526.069345	0.981993
526.431608	0.983913
526.793815	0.984255
527.155964	0.985476
527.518057	0.985466
527.880093	0.985568
528.242072	0.986431
528.603995	0.987138
528.965860	0.987927
529.327669	0.988008
529.689421	0.988015
530.051117	0.988684
530.412755	0.989390
530.774337	0.989321
531.135862	0.990597
531.497331	0.989619
531.858743	0.990907
532.220098	0.990298
532.581396	0.991062
532.942638	0.991896
533.303824	0.991679
533.664953	0.991895
534.026025	0.992419
534.387040	0.992777
534.747999	0.991859
535.108902	0.992338
535.469748	0.992620
535.830537	0.993139
536.191270	0.993119
536.551947	0.992710
536.912567	0.993166
537.273131	0.993496
537.633638	0.992982
537.994089	0.993460
538.354483	0.993496
538.714821	0.993325
539.075103	0.993738
539.435328	0.993928
539.795497	0.994363
540.155609	0.994447
540.515665	0.994352
540.875665	0.993926
541.235609	0.995126
541.595496	0.993956
541.955328	0.994056
542.315102	0.994885
542.674821	0.994571
543.034483	0.995064
543.394090	0.994307
543.753640	0.995283
544.113134	0.994530
544.472571	0.995473
544.831953	0.994750
545.191278	0.994610
545.550548	0.994462
545.909761	0.994472
546.268918	0.995698
546.628019	0.995828
546.987064	0.995703
547.346053	0.994565
547.704986	0.995351
548.063863	0.995101
548.422684	0.995645
548.781449	0.995080
549.140158	0.995195
549.498811	0.995245
549.857408	0.994839
550.215949	0.994680
550.574434	0.994989
550.932864	0.995772
551.291237	0.995095
551.649555	0.995841
552.007817	0.995464
552.366022	0.995706
552.724173	0.996387
553.082267	0.995100
553.440305	0.995263
553.798288	0.994221
554.156215	0.995003
554.514086	0.995471
554.871902	0.995951
555.229661	0.994256
555.587365	0.995447
555.945014	0.995764
556.302606	0.995001
556.660143	0.996121
557.017625	0.995775
557.375050	0.995018
557.732421	0.995707
558.089735	0.995219
558.446994	0.995704
558.804197	0.996211
559.161345	0.995744
559.518437	0.995920
559.875474	0.995495
560.232455	0.996174
560.589381	0.995608
560.946251	0.995392
561.303065	0.996119
561.659825	0.995320
562.016528	0.996368
562.373177	0.995574
562.729770	0.995383
563.086307	0.994924
563.442789	0.995949
563.799216	0.994791
564.155587	0.995750
564.511904	0.996263
564.868164	0.995007
565.224370	0.995470
565.580520	0.996287
565.936615	0.995801
566.292654	0.995359
566.648638	0.996322
567.004567	0.995319
567.360441	0.995777
567.716260	0.995311
568.072023	0.995293
568.427732	0.995150
568.783385	0.995753
569.138982	0.995506
569.494525	0.995564
569.850013	0.996042
570.205445	0.995911
570.560823	0.995334
570.916145	0.995933
571.271412	0.995232
571.626625	0.995590
571.981782	0.995575
572.336884	0.995918
572.691931	0.996332
573.046923	0.996194
573.401860	0.995072
573.756743	0.996003
574.111570	0.995703
574.466342	0.996663
574.821059	0.996022
575.175722	0.996072
575.530330	0.995382
575.884882	0.995699
576.239380	0.995884
576.593823	0.995522
576.948211	0.995701
577.302544	0.995851
577.656823	0.996017
578.011047	0.995348
578.365216	0.996176
578.719330	0.995740
579.073389	0.995563
579.427394	0.995336
579.781344	0.996022
580.135239	0.995430
580.489080	0.995382
580.842866	0.995497
581.196597	0.995010
581.550273	0.994982
581.903895	0.995882
582.257463	0.995469
582.610975	0.995126
582.964434	0.996122
583.317837	0.996029
583.671186	0.995573
584.024481	0.995269
584.377721	0.995503
584.730906	0.995521
585.084037	0.996765
585.437113	0.996650
585.790135	0.995899
586.143103	0.996199
586.496016	0.995662
586.848874	0.996148
587.201679	0.996120
587.554428	0.995236
587.907124	0.996164
588.259765	0.996111
588.612352	0.996690
588.964884	0.996393
589.317362	0.995548
589.669786	0.996347
590.022155	0.995885
590.374470	0.995892
590.726731	0.994448
591.078937	0.996090
591.431090	0.995981
591.783188	0.995344
592.135232	0.996084
592.487222	0.995654
592.839157	0.995218
593.191038	0.996406
593.542866	0.995346
593.894639	0.995096
594.246358	0.995965
594.598022	0.995585
594.949633	0.995956
595.301190	0.995505
595.652692	0.995405
596.004141	0.994704
596.355535	0.995587
596.706876	0.996319
597.058162	0.996409
597.409395	0.996074
597.760573	0.995055
598.111698	0.995892
598.462768	0.995846
598.813785	0.994901
599.164748	0.995346
599.515657	0.995346
599.866511	0.996246
600.217312	0.996048
600.568060	0.995857
600.918753	0.995599
601.269392	0.995677
601.619978	0.996082
601.970510	0.995136
602.320988	0.996077
602.671412	0.995813
603.021783	0.995827
603.372100	0.996224
603.722363	0.996175
604.072572	0.995607
604.422728	0.995660
604.772830	0.995674
605.122878	0.996307
605.472872	0.996619
605.822813	0.994616
606.172701	0.996506
606.522534	0.995974
606.872314	0.996664
607.222041	0.995497
607.571714	0.996418
607.921333	0.995240
608.270899	0.995929
608.620411	0.996364
608.969870	0.996273
609.319276	0.996057
609.668627	0.996104
610.017926	0.995812
610.367171	0.996203
610.716362	0.995780
611.065500	0.995848
611.414585	0.996450
611.763616	0.995007
612.112594	0.995339
612.461518	0.994571
612.810389	0.995444
613.159207	0.995886
613.507971	0.995351
613.856682	0.996610
614.205340	0.995244
614.553945	0.995622
614.902496	0.995166
615.250994	0.994949
615.599439	0.995971
615.947830	0.994407
616.296169	0.995763
616.644454	0.995821
616.992686	0.995606
617.340864	0.995435
617.688990	0.995317
618.037063	0.995615
618.385082	0.995384
618.733048	0.994967
619.080961	0.995845
619.428821	0.995681
619.776628	0.995027
620.124382	0.995743
620.472083	0.995569
620.819731	0.996539
621.167326	0.995529
621.514868	0.995474
621.862357	0.995176
622.209793	0.995528
622.557176	0.995652
622.904506	0.995025
623.251783	0.995675
623.599007	0.995936
623.946179	0.995075
624.293297	0.995306
624.640363	0.995860
624.987376	0.995174
625.334336	0.995735
625.681243	0.995953
626.028097	0.995452
626.374899	0.995763
626.721647	0.996216
627.068343	0.995912
627.414987	0.995692
627.761577	0.995464
628.108115	0.995114
628.454600	0.996340
628.801032	0.996098
629.147412	0.995809
629.493739	0.996066
629.840014	0.995452
630.186236	0.995183
630.532405	0.995563
630.878521	0.995271
631.224585	0.995659
631.570597	0.995648
631.916556	0.995738
632.262462	0.994473
632.608316	0.996098
632.954117	0.994385
633.299866	0.994452
633.645562	0.995452
633.991206	0.996041
634.336797	0.995006
634.682336	0.995948
635.027823	0.995967
635.373257	0.995369
635.718639	0.996044
636.063968	0.994730
636.409245	0.994922
636.754470	0.995897
637.099642	0.995865
637.444762	0.995701
637.789829	0.995305
638.134845	0.995778
638.479808	0.995635
638.824719	0.996175
639.169577	0.995817
639.514383	0.996336
639.859137	0.997010
640.203839	0.995665
640.548489	0.995867
640.893086	0.994642
641.237632	0.996091
641.582125	0.995484
641.926566	0.996401
642.270955	0.995733
642.615292	0.994345
642.959576	0.996338
643.303809	0.995731
643.647990	0.995678
643.992118	0.995839
644.336195	0.995009
644.680219	0.995166
645.024192	0.995887
645.368112	0.994918
645.711981	0.996032
646.055797	0.995920
646.399562	0.995958
646.743274	0.996796
647.086935	0.995312
647.430544	0.995581
647.774101	0.994880
648.117606	0.995897
648.461059	0.996566
648.804460	0.994859
649.147810	0.994933
649.491108	0.994979
649.834354	0.995656
650.177548	0.995838
650.520690	0.995354
650.863781	0.995069
651.206820	0.996163
651.549807	0.994492
651.892742	0.996335
652.235626	0.996432
652.578458	0.995027
652.921238	0.995839
653.263967	0.995741
653.606644	0.995487
653.949269	0.995670
654.291843	0.995276
654.634365	0.995835
654.976836	0.995167
655.319255	0.995556
655.661622	0.995565
656.003938	0.994779
656.346203	0.995335
656.688416	0.995938
657.030577	0.995064
657.372687	0.994772
657.714746	0.995044
658.056753	0.995447
658.398708	0.995240
658.740612	0.996511
659.082465	0.994820
659.424266	0.996318
659.766016	0.995063
660.107715	0.996360
660.449362	0.995431
660.790958	0.995165
661.132503	0.995480
661.473996	0.994744
661.815438	0.995337
662.156829	0.995506
662.498168	0.996249
662.839456	0.993866
663.180693	0.995483
663.521879	0.995000
663.863013	0.995814
664.204097	0.994735
664.545129	0.995791
664.886110	0.995601
665.227040	0.994801
665.567918	0.995374
665.908746	0.994397
666.249522	0.994811
666.590248	0.995218
666.930922	0.995340
667.271545	0.995270
667.612118	0.994847
667.952639	0.995226
668.293109	0.995543
668.633528	0.994456
668.973896	0.995681
669.314213	0.994467
669.654480	0.995567
669.994695	0.995019
670.334859	0.994725
670.674973	0.995094
671.015035	0.995327
671.355047	0.995608
671.695008	0.994486
672.034918	0.994490
672.374777	0.995520
672.714585	0.995477
673.054342	0.995404
673.394049	0.994807
673.733705	0.994823
674.073310	0.994819
674.412864	0.995174
674.752368	0.995247
675.091820	0.995944
675.431223	0.995329
675.770574	0.994947
676.109875	0.995501
676.449125	0.994450
676.788324	0.994789
677.127473	0.996262
677.466571	0.995085
677.805619	0.995859
678.144616	0.994861
678.483562	0.995275
678.822458	0.995834
679.161303	0.994638
679.500098	0.995134
679.838842	0.995823
680.177535	0.994448
680.516179	0.994210
680.854771	0.994661
681.193314	0.994801
681.531805	0.995167
681.870247	0.995138
682.208638	0.994375
682.546978	0.994957
682.885268	0.994193
683.223508	0.994681
683.561697	0.994722
683.899836	0.994363
684.237925	0.994530
684.575963	0.995339
684.913951	0.995407
685.251889	0.994583
685.589776	0.994978
685.927614	0.994382
686.265401	0.994862
686.603137	0.994174
686.940824	0.994426
687.278460	0.995339
687.616046	0.993687
687.953582	0.994444
688.291068	0.994486
688.628504	0.994448
688.965889	0.993717
689.303224	0.993163
689.640510	0.995047
689.977745	0.994340
690.314930	0.993628
690.652065	0.994993
690.989150	0.994306
691.326185	0.995061
691.663170	0.994547
692.000105	0.995208
692.336990	0.995049
692.673825	0.994591
693.010610	0.994448
693.347345	0.994941
693.684030	0.993956
694.020665	0.994516
694.357251	0.994991
694.693786	0.995078
695.030272	0.993017
695.366707	0.994045
695.703093	0.994991
696.039429	0.995147
696.375716	0.994832
696.711952	0.994595
697.048139	0.995704
697.384276	0.995877
697.720363	0.994885
698.056400	0.994260
698.392388	0.994504
698.728326	0.994609
699.064214	0.995063
699.400053	0.995629
699.735842	0.995835
700.071581	0.994347
700.407270	0.994594
700.742910	0.995765
701.078501	0.995320
701.414042	0.995902
701.749533	0.994453
702.084974	0.995191
702.420366	0.994837
702.755709	0.994575
703.091002	0.995869
703.426246	0.995402
703.761440	0.994806
704.096584	0.994487
704.431679	0.994310
704.766725	0.995146
705.101721	0.996055
705.436668	0.995481
705.771565	0.995004
706.106413	0.994041
706.441212	0.994968
706.775961	0.996193
707.110661	0.994895
707.445311	0.995357
707.779913	0.996436
708.114465	0.995120
708.448967	0.995155
708.783421	0.996006
709.117825	0.995419
709.452180	0.995461
709.786485	0.995076
710.120742	0.994605
710.454949	0.994822
710.789107	0.994907
711.123216	0.993475
711.457275	0.994428
711.791286	0.994166
712.125247	0.995985
712.459159	0.994759
712.793023	0.994593
713.126837	0.995253
713.460602	0.994204
713.794318	0.993846
714.127985	0.993205
714.461602	0.995185
714.795171	0.993180
715.128691	0.994255
715.462162	0.995054
715.795584	0.994713
716.128957	0.995881
716.462281	0.995685
716.795556	0.994476
717.128782	0.995199
717.461960	0.993613
717.795088	0.995329
718.128167	0.995966
718.461198	0.994802
718.794180	0.995786
719.127113	0.994964
719.459997	0.994702
719.792833	0.994263
720.125619	0.995071
720.458357	0.994994
720.791046	0.995243
721.123686	0.995693
721.456278	0.995383
721.788821	0.995010
722.121315	0.996561
722.453761	0.996412
722.786158	0.996190
723.118506	0.996549
723.450805	0.994866
723.783056	0.996258
724.115259	0.995467
724.447412	0.997065
724.779518	0.995695
725.111574	0.995028
725.443582	0.995328
725.775542	0.995494
726.107453	0.995144
726.439315	0.995727
726.771129	0.995860
727.102895	0.995281
727.434612	0.995679
727.766281	0.994430
728.097901	0.994544
728.429473	0.995842
728.760996	0.994042
729.092471	0.994741
729.423897	0.995240
729.755276	0.995178
730.086606	0.994748
730.417887	0.995291
730.749120	0.996033
731.080305	0.995278
731.411442	0.992952
731.742530	0.995111
732.073570	0.994591
732.404562	0.994840
732.735506	0.995238
733.066401	0.994080
733.397249	0.993497
733.728048	0.994862
734.058798	0.995015
734.389501	0.996160
734.720156	0.995025
735.050762	0.995811
735.381320	0.996035
735.711831	0.994571
736.042293	0.995817
736.372707	0.995893
736.703073	0.993663
737.033391	0.995573
737.363661	0.995304
737.693883	0.995003
738.024056	0.995032
738.354182	0.995851
738.684260	0.995889
739.014290	0.995410
739.344272	0.995700
739.674207	0.995411
740.004093	0.995563
740.333931	0.994636
740.663722	0.994176
740.993464	0.995115
741.323159	0.993310
741.652806	0.995179
741.982405	0.995717
742.311956	0.995355
742.641460	0.995534
742.970915	0.994285
743.300323	0.994333
743.629683	0.995999
743.958996	0.996712
744.288260	0.995285
744.617477	0.995845
744.946647	0.995338
745.275768	0.995720
745.604842	0.994501
745.933869	0.996490
746.262847	0.995987
746.591778	0.994336
746.920662	0.995938
747.249498	0.996969
747.578286	0.996409
747.907027	0.995805
748.235720	0.995844
748.564365	0.996123
748.892963	0.995190
749.221514	0.995987
749.550017	0.994954
749.878473	0.995893
750.206881	0.997540
750.535242	0.995705
750.863555	0.996591
751.191821	0.995499
751.520039	0.994787
751.848210	0.994148
752.176334	0.995382
752.504411	0.995433
752.832440	0.995060
753.160421	0.995389
753.488356	0.995746
753.816243	0.996045
754.144082	0.996077
754.471875	0.996276
754.799620	0.997139
755.127318	0.995459
755.454969	0.995597
755.782572	0.997305
756.110129	0.994977
756.437638	0.997423
756.765100	0.996830
757.092515	0.997029
757.419882	0.996243
757.747203	0.995195
758.074477	0.996776
758.401703	0.996632
758.728882	0.996331
759.056014	0.995481
759.383099	0.995647
759.710138	0.996050
760.037129	0.995735
760.364073	0.995996
760.690970	0.995604
761.017820	0.995809
761.344623	0.996586
761.671379	0.996934
761.998088	0.996858
762.324751	0.996573
762.651366	0.995222
762.977935	0.993349
763.304456	0.993825
763.630931	0.990616
763.957359	0.989976
764.283740	0.992181
764.610074	0.993770
764.936362	0.993009
765.262602	0.994367
765.588796	0.995509
765.914943	0.994906
766.241044	0.996083
766.567097	0.995276
766.893104	0.996175
767.219064	0.996002
767.544978	0.995763
767.870845	0.995604
768.196665	0.994960
768.522438	0.996594
768.848165	0.995304
769.173846	0.996344
769.499479	0.998008
769.825066	0.997508
770.150607	0.997275
770.476101	0.996835
770.801548	0.997477
771.126949	0.998012
771.452303	0.997287
771.777611	0.996964
772.102872	0.997974
772.428087	0.996950
772.753256	0.997529
773.078378	0.997526
773.403453	0.996199
773.728482	0.998591
774.053465	0.996981
774.378401	0.997359
774.703291	0.997973
775.028135	0.999003
775.352932	0.996751
775.677683	0.997691
776.002388	0.998369
776.327046	0.997184
776.651658	0.999099
776.976224	0.998011
777.300743	0.996921
777.625216	0.996737
777.949643	0.997828
778.274024	0.997446
778.598359	0.997571
778.922647	0.997924
779.246889	0.998191
779.571086	0.997091
779.895236	0.997326
780.219339	0.997773
780.543397	0.997448
780.867409	0.997796
781.191374	0.997327
781.515294	0.999122
781.839167	0.998756
782.162995	0.997936
782.486776	0.997839
782.810511	0.998076
783.134201	0.998633
783.457844	0.999468
783.781441	0.998178
784.104993	0.997260
784.428498	0.998285
784.751958	0.998954
785.075372	0.999300
785.398739	0.998545
785.722061	0.997624
786.045337	0.998505
786.368568	0.997330
786.691752	0.997258
787.014891	0.998266
787.337983	0.996765
787.661030	0.997061
787.984031	0.997403
788.306987	0.996351
788.629897	0.995991
788.952760	0.996995
789.275579	0.998230
789.598351	0.997380
789.921078	0.997441
790.243759	0.997785
790.566395	0.997270
790.888984	0.998264
791.211529	0.998115
791.534027	0.997143
791.856480	0.997829
792.178888	0.998548
792.501249	0.997849
792.823566	0.999474
793.145836	0.997316
793.468062	0.998483
793.790241	0.998261
794.112375	0.997921
794.434464	0.998191
794.756507	0.998401
795.078505	0.997996
795.400457	0.997880
795.722364	0.997236
796.044226	0.997460
796.366042	0.997269
796.687812	0.995149
797.009538	0.996989
797.331218	0.997887
797.652852	0.999015
797.974442	0.996460
798.295986	0.997711
798.617484	0.996943
798.938938	0.997452
799.260346	0.996523
799.581709	0.997400
799.903026	0.998636
800.224299	0.997314
800.545526	0.996866
800.866708	0.997605
801.187845	0.997391
801.508936	0.997751
801.829983	0.998076
802.150984	0.997866
802.471940	0.998397
802.792851	0.997783
803.113717	0.999709
803.434538	0.998431
803.755314	0.999197
804.076045	0.998726
804.396731	0.998406
804.717372	0.996734
805.037967	0.998813
805.358518	0.998683
805.679024	0.997132
805.999485	0.998633
806.319901	0.998740
806.640272	0.998877
806.960598	0.998018
807.280879	0.998657
807.601115	0.998791
807.921306	0.999266
808.241453	0.997940
808.561554	0.997591
808.881611	0.997691
809.201623	0.997080
809.521590	0.998272
809.841513	0.997814
810.161390	0.997216
810.481223	0.997479
810.801011	0.998244
811.120755	0.999157
811.440453	0.998257
811.760107	0.998350
812.079716	0.997981
812.399281	0.998413
812.718801	0.997850
813.038276	0.998022
813.357707	0.998309
813.677093	0.999287
813.996434	0.999577
814.315731	0.999503
814.634983	0.998282
814.954191	0.997711
815.273354	0.998208
815.592473	0.998209
815.911547	0.998766
816.230577	0.997977
816.549562	0.998546
816.868502	0.997542
817.187399	0.998477
817.506250	0.999113
817.825058	0.996817
818.143821	0.997779
818.462539	0.997685
818.781213	0.997516
819.099843	0.996969
819.418429	0.996955
819.736970	0.996987
820.055466	0.994239
820.373919	0.994784
820.692327	0.992805
821.010691	0.992868
821.329011	0.989501
821.647286	0.987131
821.965517	0.983699
822.283704	0.980555
822.601847	0.978168
822.919945	0.979711
823.237999	0.980851
823.556010	0.982872
823.873976	0.983949
824.191897	0.986884
824.509775	0.989503
824.827609	0.989203
825.145398	0.991045
825.463144	0.990134
825.780845	0.990429
826.098502	0.990152
826.416116	0.989983
826.733685	0.988060
827.051210	0.985824
827.368692	0.986771
827.686129	0.988032
828.003522	0.990680
828.320872	0.990889
828.638177	0.992687
828.955439	0.994542
829.272656	0.995635
829.589830	0.994766
829.906960	0.996126
830.224046	0.994817
830.541088	0.996647
830.858086	0.996906
831.175041	0.996685
831.491952	0.996759
831.808819	0.997360
832.125642	0.996985
832.442421	0.996779
832.759157	0.997012
833.075849	0.994464
833.392497	0.992562
833.709101	0.990124
834.025662	0.990707
834.342179	0.991371
834.658653	0.993359
834.975083	0.994196
835.291469	0.995237
835.607811	0.995194
835.924110	0.996533
836.240366	0.997378
836.556578	0.998073
836.872746	0.998136
837.188871	0.996753
837.504952	0.996823
837.820990	0.997929
838.136984	0.997810
838.452935	0.997846
838.768842	0.999351
839.084706	0.998242
839.400526	0.998842
839.716303	0.995193
840.032037	0.995814
840.347727	0.995845
840.663373	0.995836
840.978977	0.997006
841.294537	0.998348
841.610054	0.997595
841.925527	0.998146
842.240957	0.998797
842.556344	0.998978
842.871687	0.999342
843.186987	0.999561
843.502244	1.000197
843.817458	0.999645
844.132629	0.999031
844.447756	0.999709
844.762840	0.999346
845.077881	1.000418
845.392879	0.998905
845.707833	0.999670
846.022745	0.999893
846.337613	0.999693
846.652438	0.999372
846.967221	1.000262
847.281960	1.000120
847.596656	1.000137
847.911309	1.000162
848.225919	0.999647
848.540485	0.999682
848.855009	1.000912
849.169490	0.999845
849.483928	0.999466
849.798323	0.999469
850.112675	1.000326
850.426984	1.000527
850.741251	0.999995
851.055474	0.999437
851.369654	0.999931
851.683792	0.999208
851.997887	0.999874
852.311938	0.999527
852.625947	0.998571
852.939914	0.999988
853.253837	1.000718
853.567718	0.998826
853.881555	1.000041
854.195350	1.000431
854.509103	0.999673
854.822812	1.000764
855.136479	1.000297
855.450103	0.999450
855.763685	1.000201
856.077224	1.000262
856.390720	0.999618
856.704173	1.000087
857.017584	1.000679
857.330953	1.000553
857.644278	0.999987
857.957561	0.999329
858.270802	1.000843
858.584000	0.999154
858.897155	0.998443
859.210268	0.999987
859.523339	1.000731
859.836367	1.001194
860.149352	0.999949
860.462295	0.999538
860.775195	1.000705
861.088054	0.999213
861.400869	1.000741
861.713642	0.999671
862.026373	1.000763
862.339062	1.000445
862.651708	1.000550
862.964312	1.001170
863.276873	1.000389
863.589392	0.999354
863.901869	0.999719
864.214303	1.000183
864.526696	0.999025
864.839045	1.000066
865.151353	0.999941
865.463619	0.999378
865.775842	0.999938
866.088023	1.001275
866.400162	0.999635
866.712258	1.000578
867.024313	1.000112
867.336325	1.001697
867.648296	1.000497
867.960224	0.999808
868.272110	1.000180
868.583954	1.000777
868.895755	1.000007
869.207515	1.000528
869.519233	1.000874
869.830909	0.999090
870.142542	0.998907
870.454134	0.999053
870.765684	0.999222
871.077191	0.999959
871.388657	0.999514
871.700081	0.999702
872.011463	1.000270
872.322803	0.999110
872.634101	0.997777
872.945357	1.000138
873.256571	0.998750
873.567744	0.999508
873.878874	0.999604
874.189963	0.998025
874.501010	1.000514
874.812015	0.999494
875.122979	0.999020
875.433900	0.997604
875.744780	1.000436
876.055618	0.998046
876.366415	0.998370
876.677169	0.998558
876.987882	0.998537
877.298554	0.999262
877.609183	0.998626
877.919771	0.998303
878.230317	0.998315
878.540822	0.998059
878.851285	0.997975
879.161707	0.997183
879.472087	0.997981
879.782425	0.994796
880.092722	0.994376
880.402977	0.990724
880.713191	0.986486
881.023363	0.983770
881.333494	0.980875
881.643583	0.982300
881.953631	0.980299
882.263637	0.980796
882.573602	0.982790
882.883526	0.984425
883.193408	0.986229
883.503248	0.986992
883.813048	0.987970
884.122806	0.990066
884.432522	0.991656
884.742197	0.993684
885.051831	0.993134
885.361424	0.994132
885.670975	0.996260
885.980485	0.995429
886.289954	0.995938
886.599382	0.995882
886.908768	0.998980
887.218113	0.996566
887.527417	0.997132
887.836680	0.998620
888.145901	0.998045
888.455082	0.999558
888.764221	0.998991
889.073319	0.997139
889.382376	0.999799
889.691392	0.997837
890.000366	1.000227
890.309300	0.998081
890.618193	0.999102
890.927044	0.999330
891.235855	0.997696
891.544625	0.998454
891.853353	0.999030
892.162041	0.999233
892.470687	0.998695
892.779293	0.997690
893.087858	0.997148
893.396381	0.997077
893.704864	0.995784
894.013306	0.994495
894.321707	0.994068
894.630068	0.990270
894.938387	0.991119
895.246665	0.990622
895.554903	0.991244
895.863100	0.993966
896.171256	0.993390
896.479371	0.994783
896.787446	0.994857
897.095480	0.996634
897.403473	0.997353
897.711425	0.997634
898.019336	0.997715
898.327207	0.997825
898.635038	0.996440
898.942827	0.998659
899.250576	0.997767
899.558284	0.998820
899.865952	0.997394
900.173579	0.998535
900.481165	0.998742
900.788711	0.997664
901.096216	0.998772
901.403681	0.999254
901.711105	0.998500
902.018489	0.998010
902.325832	0.998571
902.633135	0.997601
902.940397	0.999769
903.247619	0.998296
903.554800	0.994576
903.861941	0.994683
904.169041	0.991173
904.476101	0.988815
904.783121	0.987894
905.090100	0.989658
905.397039	0.990559
905.703938	0.992538
906.010796	0.994829
906.317614	0.993752
906.624391	0.995921
906.931129	0.997223
907.237826	0.997119
907.544483	0.998600
907.851099	0.997893
908.157675	0.997869
908.464211	0.999456
908.770707	0.997381
909.077163	0.998576
909.383578	0.999297
909.689954	0.998407
909.996289	1.000639
910.302584	1.000197
910.608839	1.000749
910.915054	0.999463
911.221229	1.000626
911.527363	0.999385
911.833458	1.001091
912.139513	0.998620
912.445527	1.000143
912.751502	0.999568
913.057436	0.998449
913.363331	0.999926
913.669186	0.999543
913.975000	0.998884
914.280775	0.997442
914.586510	0.997489
914.892205	0.994782
915.197859	0.993774
915.503475	0.993507
915.809050	0.990809
916.114585	0.988844
916.420081	0.988313
916.725536	0.989416
917.030952	0.989158
917.336328	0.991030
917.641665	0.991250
917.946961	0.992530
918.252218	0.994034
918.557435	0.995029
918.862612	0.995469
919.167750	0.997681
919.472848	0.997241
919.777906	0.997074
920.082925	0.998683
920.387904	0.998538
920.692843	0.999028
920.997743	0.997690
921.302603	0.998919
921.607423	0.997228
921.912204	0.998782
922.216946	0.999132
922.521647	0.998780
922.826310	0.999490
923.130932	1.001046
923.435516	1.000372
923.740059	0.999778
924.044564	0.999398
924.349028	0.999524
924.653454	1.000366
924.957840	1.000505
925.262186	0.999780
925.566493	0.999936
925.870761	0.999803
926.174989	1.000243
926.479178	1.001000
926.783328	0.999835
927.087438	0.999866
927.391509	0.999811
927.695541	0.999905
927.999533	0.999657
928.303486	1.000689
928.607400	1.000812
928.911275	1.000873
929.215110	1.001504
929.518906	0.999937
929.822663	1.001080
930.126381	1.001716
930.430060	1.000635
930.733699	1.001002
931.037299	1.001353
931.340861	1.001619
931.644383	0.998983
931.947866	1.001183
932.251309	1.001670
932.554714	1.001084
932.858080	1.000958
933.161407	1.000268
933.464694	1.001794
933.767943	1.002149
934.071153	1.001876
934.374323	1.001663
934.677455	1.001003
934.980548	1.001474
935.283602	1.000842
935.586617	1.001098
935.889593	1.001531
936.192530	1.000524
936.495428	1.000575
936.798287	0.999992
937.101108	1.000270
937.403890	1.000193
937.706632	1.001324
938.009336	0.999778
938.312002	1.000564
938.614628	1.000396
938.917216	0.999946
939.219765	0.998798
939.522275	1.000102
939.824747	1.000165
940.127179	0.998913
940.429573	1.000523
940.731929	0.999007
941.034246	0.999930
941.336524	0.999857
941.638763	1.000255
941.940964	1.000073
942.243126	1.000893
942.545250	1.001855
942.847335	0.999908
943.149381	0.999943
943.451389	0.999531
943.753359	0.998854
944.055290	1.000885
944.357182	1.000231
944.659036	1.002104
944.960851	1.001862
945.262628	1.000647
945.564367	1.000772
945.866067	1.000087
946.167729	1.000901
946.469352	0.999980
946.770937	0.999701
947.072484	1.001295
947.373992	1.001477
947.675462	1.000313
947.976893	1.000668
948.278286	1.001653
948.579641	1.000740
948.880958	1.000952
949.182236	0.999297
949.483476	0.999941
949.784678	1.001036
950.085841	1.000238
950.386967	0.999939
950.688054	1.000270
950.989103	0.999353
951.290114	0.999007
951.591087	1.000915
951.892021	1.000853
952.192917	1.000125
952.493776	1.000627
952.794596	1.000323
953.095378	1.000904
953.396122	1.000311
953.696828	1.000837
953.997496	1.001072
954.298126	0.999775
954.598718	1.000378
954.899272	1.001266
955.199788	0.998940
955.500266	1.002705
955.800706	1.000238
956.101108	0.999811
956.401472	1.002590
956.701798	1.000760
957.002087	1.000777
957.302337	0.999600
957.602550	1.001218
957.902724	1.001370
958.202861	1.001868
958.502960	1.000435
958.803022	1.001517
959.103045	1.000721
959.403031	1.001932
959.702979	1.002186
960.002889	1.000525
960.302762	1.000764
960.602596	1.002146
960.902393	1.000846
961.202153	1.000822
961.501875	1.001008
961.801559	1.001677
962.101205	1.000793
962.400814	1.002025
962.700385	1.002524
962.999918	1.001274
963.299414	1.000601
963.598873	1.001598
963.898293	1.000775
964.197677	1.000090
964.497022	1.000825
964.796331	1.001777
965.095601	1.002570
965.394835	1.000231
965.694030	1.001360
965.993189	1.001820
966.292309	1.001782
966.591393	1.000826
966.890439	1.001662
967.189447	1.001244
967.488419	1.001295
967.787353	1.000638
968.086249	1.002572
968.385108	1.000623
968.683930	1.003408
968.982714	1.001153
969.281462	1.001779
969.580172	1.000995
969.878844	1.001682
970.177480	1.001863
970.476078	1.003016
970.774639	1.001564
971.073162	1.001075
971.371649	1.002150
971.670098	1.001074
971.968510	1.001731
972.266885	0.999709
972.565223	1.001759
972.863524	1.001602
973.161788	1.001662
973.460014	1.001719
973.758204	1.000435
974.056356	1.001939
974.354471	1.001477
974.652550	1.001533
974.950591	1.000500
975.248595	1.001158
975.546563	1.002322
975.844493	1.001258
976.142386	1.000962
976.440243	1.001196
976.738062	1.001526
977.035845	1.000315
977.333590	1.001268
977.631299	1.000848
977.928971	1.000843
978.226606	1.001819
978.524204	1.001078
978.821765	1.002705
979.119290	1.001858
979.416777	1.002355
979.714228	1.001116
980.011642	1.002278
980.309020	1.001995
980.606360	1.001251
980.903664	1.000104
981.200931	1.001071
981.498162	1.000924
981.795356	1.000696
982.092513	1.001441
982.389633	1.003187
982.686717	0.999629
982.983764	1.001130
983.280775	1.000938
983.577749	1.002668
983.874686	0.999682
984.171587	0.999454
984.468451	1.000906
984.765279	1.001176
985.062070	1.001825
985.358824	1.001087
985.655543	1.002164
985.952224	1.001132
986.248869	1.000402
986.545478	1.003090
986.842050	1.001017
987.138586	1.000318
987.435086	1.002288
987.731549	1.003831
988.027975	1.002991
988.324366	1.000593
988.620719	1.001882
988.917037	1.001714
989.213318	1.001757
989.509563	1.001130
989.805772	1.001925
990.101944	1.002947
990.398080	1.002359
990.694180	1.002842
990.990244	1.000085
991.286271	1.001132
991.582262	1.002307
991.878217	1.002170
992.174136	1.002335
992.470019	1.001382
992.765865	1.002703
993.061676	1.002100
993.357450	1.001109
993.653188	1.003622
993.948890	1.001308
994.244556	1.001191
994.540186	1.001016
994.835780	1.001344
995.131337	1.002436
995.426859	1.001166
995.722345	1.002240
996.017795	1.001457
996.313208	1.000925
996.608586	1.000500
996.903928	1.001645
997.199234	1.000360
997.494504	1.001926
997.789738	0.999545
998.084936	1.002072
998.380099	1.000393
998.675225	1.001740
998.970316	1.001354
999.265371	1.001502
999.560390	1.002138
999.855373	1.000319
1000.150320	1.001946
1000.445232	1.001404
1000.740108	1.001815
1001.034948	1.000301
1001.329752	1.003225
1001.624521	1.001638
1001.919254	1.001077
1002.213951	1.001942
1002.508613	1.001627
1002.803239	1.001354
1003.097829	1.002193
1003.392384	1.001894
1003.686903	1.001967
1003.981386	1.002404
1004.275834	1.004083
1004.570246	1.001567
1004.864623	1.001195
1005.158964	1.001222
1005.453270	1.000835
1005.747540	1.000790
1006.041775	1.002261
1006.335974	1.000878
1006.630138	1.002172
1006.924266	1.000290
1007.218359	1.000023
1007.512416	1.002772
1007.806438	1.001541
1008.100425	1.002562
1008.394376	1.002962
1008.688292	1.000056
1008.982172	1.001265
1009.276017	1.000902
1009.569827	1.003426
1009.863602	1.000265
1010.157341	1.002122
1010.451045	1.001454
1010.744714	1.002985
1011.038347	1.002131
1011.331945	1.000433
1011.625508	1.002086
1011.919036	1.000601
1012.212528	1.001830
1012.505986	1.001290
1012.799408	1.001765
1013.092795	1.000903
1013.386147	1.002570
1013.679464	1.003628
1013.972745	1.001913
1014.265992	1.001353
1014.559204	1.001460
1014.852380	1.003380
1015.145521	1.001657
1015.438628	1.002424
1015.731699	1.001267
1016.024736	1.002431
1016.317737	1.001127
1016.610703	1.001285
1016.903635	1.001341
1017.196531	1.002730
1017.489393	1.001732
1017.782219	1.000599
1018.075011	1.001538
1018.367768	1.001416
1018.660490	1.002190
1018.953177	1.002190
1019.245829	1.002190
