Dividing Wavelength (nm)	Counts (n)	Blue Motor Position (mm): 10.700000	Red Motor Position (mm): 0.000000	
326.493990	1.004299
326.888308	1.004299
327.282561	1.004299
327.676750	1.004977
328.070874	1.004618
328.464933	1.006501
328.858929	1.004903
329.252859	1.004310
329.646726	1.004199
330.040528	1.004161
330.434265	1.004074
330.827938	1.003957
331.221547	1.004835
331.615091	1.004759
332.008571	1.005907
332.401986	1.004118
332.795338	1.004350
333.188625	1.004987
333.581847	1.003971
333.975006	1.004062
334.368100	1.004646
334.761129	1.003407
335.154095	1.004482
335.546996	1.002369
335.939833	0.998034
336.332606	0.998226
336.725315	0.999281
337.117960	0.999275
337.510540	0.999092
337.903056	1.000060
338.295508	1.000730
338.687896	1.000079
339.080220	0.999448
339.472480	0.998638
339.864676	1.000797
340.256807	0.996909
340.648875	0.999209
341.040879	0.998547
341.432818	1.000612
341.824694	0.998220
342.216506	0.999493
342.608253	0.998948
342.999937	0.999129
343.391557	0.998409
343.783113	1.001181
344.174605	0.999706
344.566033	0.998396
344.957397	1.000000
345.348697	0.998756
345.739934	0.998987
346.131106	0.999023
346.522215	0.997819
346.913260	0.998629
347.304241	0.998720
347.695159	0.999067
348.086012	0.998437
348.476802	0.998468
348.867528	0.998485
349.258191	0.999022
349.648789	0.998954
350.039324	0.998406
350.429796	0.998359
350.820203	0.997272
351.210548	0.998499
351.600828	0.998082
351.991045	0.998288
352.381198	0.997466
352.771288	0.997602
353.161314	0.998232
353.551276	0.997680
353.941175	0.996089
354.331010	0.998167
354.720782	0.997840
355.110490	0.997900
355.500135	0.998027
355.889717	0.998068
356.279235	0.997263
356.668689	0.998513
357.058080	0.998634
357.447408	0.997299
357.836672	0.997139
358.225873	0.997361
358.615010	0.998038
359.004084	0.997206
359.393095	0.998408
359.782043	0.997508
360.170927	0.997542
360.559748	0.997554
360.948505	0.997098
361.337199	0.997262
361.725830	0.997157
362.114398	0.996824
362.502903	0.996111
362.891344	0.996523
363.279722	0.996746
363.668037	0.998031
364.056289	0.996612
364.444478	0.997569
364.832603	0.996031
365.220665	0.996675
365.608665	0.996432
365.996601	0.996402
366.384474	0.996042
366.772284	0.996737
367.160031	0.995351
367.547715	0.995579
367.935336	0.994644
368.322893	0.994567
368.710388	0.992368
369.097820	0.991166
369.485189	0.988901
369.872495	0.986283
370.259738	0.985463
370.646918	0.981937
371.034035	0.980326
371.421090	0.976001
371.808081	0.972596
372.195010	0.968158
372.581875	0.963952
372.968678	0.959622
373.355418	0.955633
373.742096	0.947241
374.128710	0.943668
374.515262	0.939133
374.901751	0.933131
375.288177	0.927976
375.674540	0.921959
376.060841	0.915271
376.447079	0.908837
376.833254	0.902508
377.219367	0.897291
377.605417	0.886207
377.991404	0.882070
378.377329	0.876002
378.763191	0.870678
379.148991	0.860461
379.534727	0.853457
379.920402	0.845761
380.306013	0.841451
380.691563	0.829028
381.077049	0.822282
381.462474	0.818909
381.847835	0.807266
382.233134	0.801103
382.618371	0.802044
383.003545	0.784980
383.388657	0.782296
383.773706	0.775664
384.158693	0.771483
384.543618	0.766269
384.928480	0.757056
385.313280	0.747428
385.698017	0.747227
386.082692	0.735570
386.467305	0.734085
386.851856	0.728169
387.236344	0.723174
387.620770	0.717371
388.005133	0.712184
388.389435	0.705736
388.773674	0.703943
389.157851	0.695471
389.541965	0.693146
389.926018	0.700408
390.310008	0.686341
390.693936	0.682939
391.077802	0.676068
391.461606	0.677399
391.845348	0.666315
392.229027	0.665975
392.612645	0.663360
392.996200	0.651054
393.379694	0.643503
393.763125	0.634491
394.146494	0.639408
394.529801	0.629405
394.913047	0.621068
395.296230	0.627865
395.679351	0.618128
396.062410	0.616001
396.445408	0.617612
396.828343	0.613165
397.211217	0.608963
397.594028	0.620716
397.976778	0.610937
398.359466	0.608035
398.742092	0.602030
399.124656	0.615151
399.507158	0.603290
399.889598	0.600467
400.271977	0.591199
400.654294	0.595359
401.036549	0.594243
401.418742	0.598763
401.800874	0.584417
402.182944	0.580922
402.564952	0.572885
402.946898	0.574806
403.328783	0.576203
403.710606	0.586497
404.092367	0.561819
404.474067	0.566078
404.855705	0.565689
405.237282	0.574592
405.618797	0.560509
406.000250	0.556521
406.381642	0.546477
406.762972	0.551310
407.144240	0.549878
407.525447	0.550152
407.906593	0.542641
408.287677	0.538654
408.668700	0.546981
409.049661	0.541407
409.430560	0.535791
409.811399	0.544518
410.192176	0.525802
410.572891	0.533628
410.953545	0.521687
411.334138	0.535266
411.714669	0.527671
412.095139	0.540142
412.475547	0.523256
412.855894	0.525497
413.236180	0.524684
413.616405	0.530226
413.996568	0.520239
414.376670	0.526280
414.756711	0.531778
415.136691	0.528433
415.516609	0.519441
415.896466	0.516011
416.276262	0.511932
416.655997	0.513851
417.035670	0.495461
417.415283	0.487694
417.794834	0.491847
418.174324	0.497235
418.553753	0.506224
418.933121	0.488297
419.312428	0.482217
419.691674	0.488121
420.070859	0.477011
420.449983	0.485007
420.829045	0.473554
421.208047	0.482608
421.586988	0.475456
421.965867	0.474572
422.344686	0.462967
422.723444	0.476031
423.102141	0.492739
423.480777	0.465445
423.859352	0.486499
424.237866	0.463703
424.616319	0.464478
424.994712	0.455362
425.373044	0.465702
425.751314	0.453967
426.129524	0.470369
426.507673	0.453842
426.885762	0.446887
427.263789	0.452915
427.641756	0.462399
428.019662	0.452318
428.397508	0.451982
428.775292	0.456515
429.153016	0.448610
429.530679	0.454786
429.908282	0.447385
430.285824	0.457414
430.663305	0.435997
431.040726	0.457422
431.418086	0.457350
431.795385	0.449090
432.172624	0.448040
432.549802	0.449233
432.926920	0.447120
433.303977	0.446916
433.680974	0.444044
434.057910	0.442497
434.434786	0.441980
434.811601	0.444707
435.188355	0.427131
435.565050	0.435969
435.941683	0.437650
436.318257	0.421264
436.694770	0.422516
437.071222	0.420402
437.447614	0.425056
437.823946	0.431423
438.200218	0.420600
438.576429	0.430873
438.952580	0.423381
439.328670	0.420056
439.704700	0.426341
440.080670	0.428017
440.456580	0.409187
440.832429	0.416994
441.208218	0.428063
441.583947	0.417180
441.959616	0.416364
442.335224	0.422236
442.710773	0.412557
443.086261	0.410991
443.461689	0.424281
443.837057	0.414496
444.212365	0.404204
444.587612	0.411646
444.962800	0.401060
445.337927	0.403094
445.712995	0.429233
446.088002	0.390924
446.462949	0.401337
446.837837	0.407007
447.212664	0.394797
447.587431	0.386818
447.962139	0.356777
448.336786	0.315766
448.711374	0.326526
449.085901	0.371000
449.460369	0.375050
449.834776	0.378464
450.209124	0.357553
450.583412	0.350933
450.957640	0.343176
451.331808	0.354797
451.705917	0.378162
452.079965	0.383084
452.453954	0.371285
452.827883	0.377647
453.201752	0.372968
453.575562	0.383651
453.949311	0.372454
454.323001	0.378686
454.696632	0.374668
455.070202	0.367180
455.443713	0.358778
455.817164	0.353519
456.190556	0.349378
456.563888	0.346322
456.937160	0.343946
457.310373	0.361272
457.683526	0.359953
458.056619	0.365443
458.429653	0.366081
458.802628	0.369836
459.175542	0.364172
459.548398	0.346327
459.921194	0.339121
460.293930	0.339121
460.666607	0.316292
461.039224	0.304924
461.411782	0.300348
461.784280	0.299667
462.156719	0.303737
462.529099	0.307941
462.901419	0.324681
463.273680	0.328807
463.645882	0.328390
464.018024	0.333785
464.390106	0.326957
464.762130	0.311364
465.134094	0.294664
465.505999	0.263144
465.877845	0.233670
466.249631	0.220493
466.621358	0.227713
466.993026	0.242205
467.364634	0.248036
467.736184	0.257014
468.107674	0.266161
468.479105	0.265029
468.850477	0.271606
469.221790	0.278475
469.593043	0.288512
469.964238	0.293703
470.335373	0.293129
470.706449	0.291431
471.077467	0.291780
471.448425	0.253875
471.819324	0.229178
472.190164	0.229175
472.560945	0.257731
472.931667	0.280217
473.302330	0.284383
473.672934	0.296005
474.043479	0.283957
474.413965	0.286072
474.784393	0.289373
475.154761	0.284588
475.525070	0.281469
475.895321	0.287671
476.265513	0.281312
476.635645	0.277023
477.005719	0.276624
477.375734	0.273423
477.745691	0.266625
478.115588	0.262999
478.485427	0.256553
478.855207	0.243250
479.224928	0.225825
479.594591	0.213824
479.964194	0.217240
480.333739	0.218705
480.703226	0.219827
481.072653	0.218393
481.442022	0.213908
481.811333	0.210597
482.180584	0.214073
482.549777	0.219572
482.918912	0.222992
483.287988	0.222427
483.657005	0.222407
484.025964	0.228842
484.394864	0.225910
484.763706	0.226540
485.132489	0.231630
485.501213	0.232410
485.869879	0.230582
486.238487	0.234098
486.607036	0.231642
486.975527	0.236488
487.343959	0.232160
487.712333	0.231563
488.080648	0.232627
488.448905	0.231918
488.817104	0.233081
489.185244	0.227614
489.553326	0.224634
489.921350	0.214326
490.289315	0.196658
490.657222	0.191539
491.025070	0.193190
491.392861	0.195036
491.760593	0.200949
492.128267	0.206719
492.495883	0.212085
492.863440	0.218256
493.230939	0.224718
493.598380	0.226205
493.965763	0.228348
494.333088	0.230553
494.700354	0.232307
495.067563	0.231109
495.434713	0.234510
495.801805	0.232304
496.168839	0.233552
496.535815	0.235216
496.902733	0.235067
497.269593	0.236569
497.636395	0.234451
498.003139	0.234499
498.369825	0.237766
498.736453	0.234106
499.103023	0.235688
499.469535	0.235079
499.835989	0.235225
500.202385	0.235953
500.568723	0.239449
500.935003	0.234726
501.301226	0.238989
501.667390	0.233370
502.033497	0.231056
502.399546	0.234129
502.765537	0.235966
503.131470	0.234535
503.497345	0.230779
503.863163	0.239347
504.228923	0.232560
504.594625	0.231241
504.960269	0.236583
505.325856	0.232229
505.691385	0.236337
506.056856	0.233095
506.422270	0.232309
506.787625	0.235130
507.152924	0.232386
507.518164	0.232893
507.883347	0.234536
508.248472	0.236390
508.613540	0.231246
508.978550	0.233534
509.343503	0.234205
509.708398	0.231839
510.073236	0.229522
510.438016	0.229055
510.802738	0.230190
511.167403	0.228894
511.532010	0.231356
511.896561	0.226619
512.261053	0.225309
512.625488	0.227464
512.989866	0.227910
513.354186	0.227909
513.718449	0.229822
514.082655	0.226452
514.446803	0.228567
514.810894	0.226309
515.174927	0.229256
515.538904	0.228348
515.902822	0.225417
516.266684	0.227651
516.630488	0.228828
516.994235	0.227778
517.357925	0.226606
517.721558	0.224858
518.085133	0.224023
518.448651	0.224147
518.812112	0.226618
519.175516	0.226323
519.538863	0.223667
519.902152	0.225726
520.265385	0.222315
520.628560	0.224159
520.991678	0.224674
521.354739	0.223389
521.717743	0.224929
522.080690	0.225227
522.443580	0.222602
522.806413	0.223175
523.169189	0.222855
523.531908	0.221651
523.894569	0.225128
524.257174	0.225045
524.619722	0.222676
524.982213	0.223973
525.344647	0.223039
525.707025	0.223794
526.069345	0.222025
526.431608	0.223728
526.793815	0.221678
527.155964	0.225567
527.518057	0.224688
527.880093	0.225775
528.242072	0.224476
528.603995	0.226483
528.965860	0.228005
529.327669	0.226955
529.689421	0.228046
530.051117	0.228735
530.412755	0.226376
530.774337	0.228886
531.135862	0.229277
531.497331	0.228412
531.858743	0.231463
532.220098	0.228268
532.581396	0.230561
532.942638	0.231111
533.303824	0.232374
533.664953	0.231775
534.026025	0.233790
534.387040	0.231464
534.747999	0.231362
535.108902	0.230267
535.469748	0.235962
535.830537	0.233476
536.191270	0.233728
536.551947	0.233563
536.912567	0.233470
537.273131	0.235095
537.633638	0.235508
537.994089	0.235764
538.354483	0.236687
538.714821	0.233882
539.075103	0.233684
539.435328	0.234350
539.795497	0.238215
540.155609	0.234835
540.515665	0.232723
540.875665	0.238656
541.235609	0.237402
541.595496	0.237369
541.955328	0.233919
542.315102	0.236718
542.674821	0.237674
543.034483	0.237823
543.394090	0.237412
543.753640	0.239293
544.113134	0.234083
544.472571	0.237577
544.831953	0.234302
545.191278	0.238713
545.550548	0.237649
545.909761	0.235212
546.268918	0.235764
546.628019	0.234221
546.987064	0.237020
547.346053	0.238411
547.704986	0.236196
548.063863	0.236710
548.422684	0.236935
548.781449	0.239021
549.140158	0.236482
549.498811	0.239056
549.857408	0.242125
550.215949	0.236904
550.574434	0.239963
550.932864	0.238214
551.291237	0.236632
551.649555	0.238252
552.007817	0.237822
552.366022	0.238788
552.724173	0.238971
553.082267	0.239187
553.440305	0.236131
553.798288	0.240452
554.156215	0.237255
554.514086	0.237860
554.871902	0.241053
555.229661	0.240047
555.587365	0.240838
555.945014	0.243272
556.302606	0.240366
556.660143	0.242849
557.017625	0.239203
557.375050	0.241694
557.732421	0.238551
558.089735	0.240563
558.446994	0.240549
558.804197	0.239829
559.161345	0.239633
559.518437	0.242918
559.875474	0.241004
560.232455	0.240891
560.589381	0.241686
560.946251	0.241862
561.303065	0.239365
561.659825	0.240510
562.016528	0.242234
562.373177	0.244897
562.729770	0.242348
563.086307	0.243987
563.442789	0.242087
563.799216	0.244862
564.155587	0.244039
564.511904	0.245138
564.868164	0.244719
565.224370	0.244675
565.580520	0.246499
565.936615	0.246574
566.292654	0.249450
566.648638	0.246378
567.004567	0.247213
567.360441	0.247596
567.716260	0.249577
568.072023	0.247229
568.427732	0.248616
568.783385	0.250985
569.138982	0.248780
569.494525	0.248358
569.850013	0.251447
570.205445	0.249937
570.560823	0.252223
570.916145	0.254244
571.271412	0.252635
571.626625	0.254159
571.981782	0.254389
572.336884	0.255415
572.691931	0.254919
573.046923	0.256556
573.401860	0.257496
573.756743	0.259329
574.111570	0.258004
574.466342	0.258732
574.821059	0.257522
575.175722	0.260493
575.530330	0.260393
575.884882	0.260618
576.239380	0.262671
576.593823	0.263477
576.948211	0.262608
577.302544	0.266253
577.656823	0.265688
578.011047	0.265559
578.365216	0.266512
578.719330	0.268184
579.073389	0.268175
579.427394	0.269374
579.781344	0.270320
580.135239	0.271471
580.489080	0.271216
580.842866	0.274572
581.196597	0.274303
581.550273	0.272797
581.903895	0.273753
582.257463	0.271735
582.610975	0.275360
582.964434	0.274636
583.317837	0.277145
583.671186	0.277632
584.024481	0.277792
584.377721	0.280122
584.730906	0.281130
585.084037	0.280295
585.437113	0.281967
585.790135	0.281293
586.143103	0.284315
586.496016	0.285480
586.848874	0.283224
587.201679	0.283681
587.554428	0.287201
587.907124	0.285795
588.259765	0.286805
588.612352	0.287138
588.964884	0.290946
589.317362	0.290224
589.669786	0.290379
590.022155	0.289047
590.374470	0.288393
590.726731	0.290131
591.078937	0.295689
591.431090	0.291854
591.783188	0.295838
592.135232	0.296294
592.487222	0.296554
592.839157	0.294534
593.191038	0.296682
593.542866	0.298750
593.894639	0.302318
594.246358	0.300538
594.598022	0.299743
594.949633	0.303454
595.301190	0.304792
595.652692	0.303511
596.004141	0.299669
596.355535	0.307531
596.706876	0.308569
597.058162	0.310740
597.409395	0.307897
597.760573	0.305600
598.111698	0.309286
598.462768	0.309651
598.813785	0.310425
599.164748	0.311957
599.515657	0.312536
599.866511	0.316116
600.217312	0.311478
600.568060	0.316740
600.918753	0.313070
601.269392	0.314065
601.619978	0.317681
601.970510	0.315349
602.320988	0.315287
602.671412	0.313557
603.021783	0.315879
603.372100	0.316853
603.722363	0.316495
604.072572	0.317917
604.422728	0.317244
604.772830	0.319637
605.122878	0.319250
605.472872	0.319896
605.822813	0.318116
606.172701	0.320912
606.522534	0.318587
606.872314	0.318866
607.222041	0.319726
607.571714	0.317984
607.921333	0.319773
608.270899	0.319197
608.620411	0.315975
608.969870	0.320180
609.319276	0.320434
609.668627	0.320268
610.017926	0.319284
610.367171	0.317926
610.716362	0.318651
611.065500	0.318727
611.414585	0.317707
611.763616	0.317757
612.112594	0.319039
612.461518	0.318189
612.810389	0.316178
613.159207	0.318625
613.507971	0.320658
613.856682	0.317033
614.205340	0.318023
614.553945	0.315606
614.902496	0.319812
615.250994	0.317195
615.599439	0.318774
615.947830	0.318424
616.296169	0.319665
616.644454	0.319278
616.992686	0.319769
617.340864	0.318216
617.688990	0.321626
618.037063	0.318578
618.385082	0.320426
618.733048	0.317986
619.080961	0.320520
619.428821	0.320387
619.776628	0.320330
620.124382	0.322461
620.472083	0.323571
620.819731	0.322773
621.167326	0.327231
621.514868	0.326820
621.862357	0.330944
622.209793	0.330902
622.557176	0.333629
622.904506	0.334664
623.251783	0.337395
623.599007	0.340476
623.946179	0.339867
624.293297	0.342477
624.640363	0.346345
624.987376	0.346954
625.334336	0.349650
625.681243	0.352733
626.028097	0.353412
626.374899	0.354973
626.721647	0.356113
627.068343	0.359178
627.414987	0.361179
627.761577	0.363161
628.108115	0.361666
628.454600	0.367888
628.801032	0.365927
629.147412	0.368064
629.493739	0.369584
629.840014	0.372723
630.186236	0.370535
630.532405	0.376882
630.878521	0.374740
631.224585	0.377803
631.570597	0.381593
631.916556	0.381406
632.262462	0.381108
632.608316	0.384964
632.954117	0.385850
633.299866	0.387129
633.645562	0.388587
633.991206	0.393275
634.336797	0.395857
634.682336	0.399388
635.027823	0.401025
635.373257	0.402348
635.718639	0.406088
636.063968	0.406012
636.409245	0.412168
636.754470	0.413006
637.099642	0.416081
637.444762	0.420321
637.789829	0.420371
638.134845	0.424157
638.479808	0.426022
638.824719	0.426007
639.169577	0.430675
639.514383	0.430735
639.859137	0.435325
640.203839	0.435448
640.548489	0.437007
640.893086	0.438883
641.237632	0.441724
641.582125	0.441115
641.926566	0.443838
642.270955	0.444132
642.615292	0.444872
642.959576	0.445321
643.303809	0.446624
643.647990	0.447443
643.992118	0.448502
644.336195	0.452167
644.680219	0.452441
645.024192	0.453170
645.368112	0.449395
645.711981	0.449483
646.055797	0.446014
646.399562	0.449814
646.743274	0.444550
647.086935	0.442796
647.430544	0.444705
647.774101	0.445114
648.117606	0.445803
648.461059	0.446850
648.804460	0.449556
649.147810	0.454957
649.491108	0.457376
649.834354	0.459419
650.177548	0.465083
650.520690	0.470656
650.863781	0.472396
651.206820	0.473574
651.549807	0.478404
651.892742	0.483662
652.235626	0.483511
652.578458	0.485505
652.921238	0.492544
653.263967	0.490560
653.606644	0.494618
653.949269	0.496696
654.291843	0.499929
654.634365	0.499320
654.976836	0.503416
655.319255	0.504090
655.661622	0.506954
656.003938	0.508931
656.346203	0.511226
656.688416	0.511397
657.030577	0.513848
657.372687	0.518226
657.714746	0.519334
658.056753	0.517713
658.398708	0.522441
658.740612	0.523564
659.082465	0.522651
659.424266	0.523573
659.766016	0.524437
660.107715	0.528708
660.449362	0.528944
660.790958	0.530067
661.132503	0.532605
661.473996	0.531580
661.815438	0.534046
662.156829	0.534996
662.498168	0.536569
662.839456	0.537938
663.180693	0.538844
663.521879	0.539089
663.863013	0.541120
664.204097	0.541929
664.545129	0.539998
664.886110	0.542663
665.227040	0.542613
665.567918	0.544777
665.908746	0.545296
666.249522	0.545182
666.590248	0.547538
666.930922	0.547490
667.271545	0.548509
667.612118	0.548990
667.952639	0.551170
668.293109	0.552775
668.633528	0.555458
668.973896	0.555978
669.314213	0.557945
669.654480	0.560819
669.994695	0.561629
670.334859	0.563442
670.674973	0.567055
671.015035	0.567116
671.355047	0.569110
671.695008	0.571492
672.034918	0.573289
672.374777	0.574532
672.714585	0.576257
673.054342	0.577785
673.394049	0.579365
673.733705	0.579958
674.073310	0.583218
674.412864	0.584562
674.752368	0.587386
675.091820	0.588893
675.431223	0.592581
675.770574	0.593468
676.109875	0.597216
676.449125	0.598253
676.788324	0.601616
677.127473	0.606644
677.466571	0.607747
677.805619	0.610467
678.144616	0.613239
678.483562	0.615694
678.822458	0.618416
679.161303	0.620353
679.500098	0.622224
679.838842	0.623019
680.177535	0.624844
680.516179	0.624105
680.854771	0.625582
681.193314	0.622011
681.531805	0.616678
681.870247	0.611431
682.208638	0.608117
682.546978	0.608081
682.885268	0.610576
683.223508	0.616452
683.561697	0.620323
683.899836	0.623993
684.237925	0.626923
684.575963	0.629803
684.913951	0.632969
685.251889	0.632997
685.589776	0.633036
685.927614	0.635895
686.265401	0.635208
686.603137	0.636079
686.940824	0.635593
687.278460	0.634706
687.616046	0.635956
687.953582	0.633399
688.291068	0.635498
688.628504	0.636233
688.965889	0.637056
689.303224	0.639996
689.640510	0.645480
689.977745	0.649979
690.314930	0.656356
690.652065	0.660580
690.989150	0.664631
691.326185	0.671779
691.663170	0.677417
692.000105	0.682163
692.336990	0.687293
692.673825	0.691806
693.010610	0.695897
693.347345	0.698894
693.684030	0.704243
694.020665	0.707364
694.357251	0.711970
694.693786	0.714990
695.030272	0.717277
695.366707	0.721954
695.703093	0.724034
696.039429	0.723891
696.375716	0.728293
696.711952	0.728919
697.048139	0.730283
697.384276	0.732881
697.720363	0.734254
698.056400	0.735538
698.392388	0.738314
698.728326	0.740451
699.064214	0.743510
699.400053	0.745512
699.735842	0.749934
700.071581	0.751171
700.407270	0.754452
700.742910	0.757033
701.078501	0.760544
701.414042	0.763795
701.749533	0.766295
702.084974	0.770229
702.420366	0.768793
702.755709	0.773249
703.091002	0.777676
703.426246	0.778801
703.761440	0.779247
704.096584	0.781225
704.431679	0.783109
704.766725	0.784902
705.101721	0.787624
705.436668	0.786867
705.771565	0.788966
706.106413	0.787878
706.441212	0.788777
706.775961	0.790187
707.110661	0.788968
707.445311	0.788014
707.779913	0.790537
708.114465	0.788953
708.448967	0.787601
708.783421	0.784875
709.117825	0.781849
709.452180	0.783071
709.786485	0.779134
710.120742	0.775477
710.454949	0.775346
710.789107	0.772979
711.123216	0.768555
711.457275	0.768803
711.791286	0.766742
712.125247	0.768018
712.459159	0.769736
712.793023	0.766344
713.126837	0.774784
713.460602	0.774624
713.794318	0.776821
714.127985	0.779393
714.461602	0.787854
714.795171	0.787898
715.128691	0.794170
715.462162	0.799747
715.795584	0.803873
716.128957	0.807006
716.462281	0.809539
716.795556	0.812365
717.128782	0.816826
717.461960	0.821683
717.795088	0.822122
718.128167	0.826478
718.461198	0.829685
718.794180	0.832009
719.127113	0.834401
719.459997	0.837041
719.792833	0.840870
720.125619	0.840931
720.458357	0.845351
720.791046	0.846294
721.123686	0.848320
721.456278	0.850967
721.788821	0.851316
722.121315	0.854236
722.453761	0.855149
722.786158	0.856000
723.118506	0.855680
723.450805	0.857167
723.783056	0.856786
724.115259	0.858490
724.447412	0.859207
724.779518	0.857657
725.111574	0.858312
725.443582	0.858856
725.775542	0.859156
726.107453	0.857494
726.439315	0.858143
726.771129	0.856176
727.102895	0.852508
727.434612	0.851859
727.766281	0.851489
728.097901	0.849972
728.429473	0.851532
728.760996	0.852043
729.092471	0.852513
729.423897	0.855074
729.755276	0.857115
730.086606	0.856817
730.417887	0.854170
730.749120	0.851603
731.080305	0.850876
731.411442	0.847863
731.742530	0.849293
732.073570	0.850908
732.404562	0.849858
732.735506	0.850373
733.066401	0.852158
733.397249	0.857222
733.728048	0.863250
734.058798	0.871312
734.389501	0.876869
734.720156	0.879714
735.050762	0.884242
735.381320	0.885630
735.711831	0.886997
736.042293	0.890338
736.372707	0.889827
736.703073	0.890645
737.033391	0.892256
737.363661	0.891840
737.693883	0.891753
738.024056	0.889669
738.354182	0.890571
738.684260	0.886810
739.014290	0.884584
739.344272	0.885092
739.674207	0.883329
740.004093	0.882951
740.333931	0.883745
740.663722	0.884751
740.993464	0.885357
741.323159	0.886422
741.652806	0.889876
741.982405	0.892201
742.311956	0.895596
742.641460	0.896438
742.970915	0.899144
743.300323	0.900803
743.629683	0.903772
743.958996	0.907292
744.288260	0.908286
744.617477	0.910749
744.946647	0.912005
745.275768	0.915349
745.604842	0.916542
745.933869	0.917737
746.262847	0.918671
746.591778	0.919333
746.920662	0.920626
747.249498	0.923481
747.578286	0.922042
747.907027	0.919697
748.235720	0.918511
748.564365	0.918670
748.892963	0.919422
749.221514	0.920102
749.550017	0.920543
749.878473	0.922635
750.206881	0.925722
750.535242	0.925568
750.863555	0.925645
751.191821	0.926636
751.520039	0.927042
751.848210	0.926992
752.176334	0.929129
752.504411	0.928613
752.832440	0.929848
753.160421	0.929814
753.488356	0.931759
753.816243	0.930947
754.144082	0.933222
754.471875	0.933736
754.799620	0.934573
755.127318	0.933598
755.454969	0.934378
755.782572	0.937157
756.110129	0.935369
756.437638	0.937132
756.765100	0.936949
757.092515	0.936606
757.419882	0.936650
757.747203	0.936934
758.074477	0.937404
758.401703	0.937088
758.728882	0.935310
759.056014	0.935656
759.383099	0.935607
759.710138	0.934637
760.037129	0.934433
760.364073	0.935965
760.690970	0.935744
761.017820	0.935700
761.344623	0.935573
761.671379	0.935665
761.998088	0.933073
762.324751	0.928242
762.651366	0.916828
762.977935	0.897147
763.304456	0.885133
763.630931	0.884193
763.957359	0.894893
764.283740	0.908072
764.610074	0.917653
764.936362	0.925352
765.262602	0.930973
765.588796	0.936529
765.914943	0.940720
766.241044	0.944262
766.567097	0.946139
766.893104	0.949480
767.219064	0.950262
767.544978	0.952929
767.870845	0.955019
768.196665	0.956078
768.522438	0.958053
768.848165	0.957821
769.173846	0.959933
769.499479	0.961275
769.825066	0.962860
770.150607	0.962563
770.476101	0.963688
770.801548	0.964439
771.126949	0.965945
771.452303	0.967203
771.777611	0.967186
772.102872	0.966986
772.428087	0.968416
772.753256	0.969426
773.078378	0.969990
773.403453	0.970323
773.728482	0.973798
774.053465	0.971017
774.378401	0.971927
774.703291	0.974976
775.028135	0.974833
775.352932	0.973964
775.677683	0.975491
776.002388	0.975783
776.327046	0.975931
776.651658	0.977446
776.976224	0.977194
777.300743	0.977024
777.625216	0.977643
777.949643	0.978132
778.274024	0.977314
778.598359	0.977776
778.922647	0.978914
779.246889	0.979081
779.571086	0.978724
779.895236	0.978103
780.219339	0.978918
780.543397	0.978146
780.867409	0.978034
781.191374	0.978574
781.515294	0.980480
781.839167	0.979445
782.162995	0.979536
782.486776	0.978701
782.810511	0.980538
783.134201	0.981576
783.457844	0.981353
783.781441	0.980514
784.104993	0.980810
784.428498	0.982160
784.751958	0.982869
785.075372	0.982175
785.398739	0.982083
785.722061	0.981413
786.045337	0.983269
786.368568	0.981834
786.691752	0.982904
787.014891	0.981646
787.337983	0.978131
787.661030	0.976786
787.984031	0.974298
788.306987	0.972711
788.629897	0.971821
788.952760	0.974999
789.275579	0.976036
789.598351	0.978126
789.921078	0.979648
790.243759	0.981856
790.566395	0.981188
790.888984	0.982975
791.211529	0.984269
791.534027	0.984451
791.856480	0.984870
792.178888	0.985783
792.501249	0.985474
792.823566	0.987622
793.145836	0.986449
793.468062	0.987206
793.790241	0.987211
794.112375	0.985780
794.434464	0.986082
794.756507	0.986103
795.078505	0.985257
795.400457	0.984444
795.722364	0.983440
796.044226	0.981978
796.366042	0.980614
796.687812	0.981972
797.009538	0.981865
797.331218	0.982706
797.652852	0.983704
797.974442	0.983806
798.295986	0.984608
798.617484	0.982943
798.938938	0.985363
799.260346	0.985160
799.581709	0.986453
799.903026	0.988020
800.224299	0.986460
800.545526	0.987632
800.866708	0.987280
801.187845	0.988543
801.508936	0.987395
801.829983	0.987644
802.150984	0.989916
802.471940	0.989009
802.792851	0.988907
803.113717	0.990708
803.434538	0.988947
803.755314	0.990398
804.076045	0.989898
804.396731	0.989469
804.717372	0.988155
805.037967	0.990415
805.358518	0.989916
805.679024	0.987486
805.999485	0.988820
806.319901	0.989221
806.640272	0.988840
806.960598	0.989134
807.280879	0.987999
807.601115	0.988836
807.921306	0.989942
808.241453	0.989033
808.561554	0.989310
808.881611	0.989731
809.201623	0.988337
809.521590	0.988556
809.841513	0.989735
810.161390	0.988741
810.481223	0.990403
810.801011	0.990707
811.120755	0.991152
811.440453	0.989691
811.760107	0.990464
812.079716	0.989897
812.399281	0.990199
812.718801	0.990085
813.038276	0.991025
813.357707	0.991777
813.677093	0.991749
813.996434	0.991326
814.315731	0.992941
814.634983	0.991845
814.954191	0.992591
815.273354	0.990347
815.592473	0.990481
815.911547	0.991359
816.230577	0.990632
816.549562	0.990011
816.868502	0.989365
817.187399	0.990836
817.506250	0.990139
817.825058	0.989372
818.143821	0.990482
818.462539	0.988897
818.781213	0.988326
819.099843	0.987680
819.418429	0.984499
819.736970	0.983094
820.055466	0.980352
820.373919	0.978614
820.692327	0.975725
821.010691	0.971484
821.329011	0.960185
821.647286	0.938621
821.965517	0.914702
822.283704	0.903819
822.601847	0.905357
822.919945	0.916031
823.237999	0.927539
823.556010	0.936293
823.873976	0.945108
824.191897	0.952568
824.509775	0.958599
824.827609	0.964390
825.145398	0.968068
825.463144	0.966937
825.780845	0.966851
826.098502	0.965141
826.416116	0.960314
826.733685	0.952528
827.051210	0.949510
827.368692	0.952551
827.686129	0.958279
828.003522	0.965991
828.320872	0.969953
828.638177	0.975744
828.955439	0.979105
829.272656	0.982931
829.589830	0.983883
829.906960	0.985360
830.224046	0.987469
830.541088	0.987923
830.858086	0.989643
831.175041	0.991229
831.491952	0.989920
831.808819	0.989920
832.125642	0.988891
832.442421	0.988402
832.759157	0.986819
833.075849	0.980316
833.392497	0.975239
833.709101	0.969698
834.025662	0.970061
834.342179	0.971917
834.658653	0.977848
834.975083	0.981109
835.291469	0.984595
835.607811	0.986365
835.924110	0.988407
836.240366	0.990082
836.556578	0.992047
836.872746	0.991896
837.188871	0.992955
837.504952	0.992613
837.820990	0.994059
838.136984	0.994232
838.452935	0.993475
838.768842	0.994265
839.084706	0.994115
839.400526	0.992539
839.716303	0.987006
840.032037	0.984523
840.347727	0.984344
840.663373	0.986466
840.978977	0.988927
841.294537	0.992083
841.610054	0.993235
841.925527	0.994232
842.240957	0.995209
842.556344	0.995683
842.871687	0.995508
843.186987	0.996712
843.502244	0.996844
843.817458	0.996263
844.132629	0.996820
844.447756	0.997006
844.762840	0.997374
845.077881	0.998296
845.392879	0.996513
845.707833	0.996840
846.022745	0.997269
846.337613	0.997615
846.652438	0.997370
846.967221	0.998351
847.281960	0.998560
847.596656	0.998818
847.911309	0.999111
848.225919	0.996821
848.540485	0.998334
848.855009	0.999988
849.169490	0.999403
849.483928	0.998080
849.798323	0.998063
850.112675	0.997819
850.426984	0.998851
850.741251	0.999797
851.055474	0.998311
851.369654	1.000115
851.683792	0.997819
851.997887	0.998614
852.311938	0.999426
852.625947	0.998260
852.939914	0.998275
853.253837	0.999818
853.567718	0.999754
853.881555	0.998072
854.195350	0.998158
854.509103	0.997900
854.822812	0.998910
855.136479	0.997550
855.450103	0.998317
855.763685	0.998469
856.077224	0.999099
856.390720	0.998764
856.704173	0.999458
857.017584	0.999487
857.330953	0.998598
857.644278	0.999135
857.957561	0.998574
858.270802	0.998639
858.584000	0.997872
858.897155	0.998524
859.210268	0.997429
859.523339	0.998393
859.836367	0.998992
860.149352	0.997074
860.462295	0.998015
860.775195	0.997512
861.088054	0.996922
861.400869	0.997817
861.713642	0.998175
862.026373	0.999546
862.339062	0.999055
862.651708	0.997559
862.964312	0.999211
863.276873	0.997336
863.589392	0.997248
863.901869	0.997854
864.214303	0.997852
864.526696	0.996652
864.839045	0.998221
865.151353	0.997863
865.463619	0.996526
865.775842	0.998268
866.088023	0.999342
866.400162	0.998687
866.712258	0.998534
867.024313	0.998437
867.336325	0.998666
867.648296	0.998078
867.960224	0.997809
868.272110	0.997800
868.583954	0.998194
868.895755	0.999102
869.207515	0.997387
869.519233	0.998672
869.830909	0.996956
870.142542	0.997256
870.454134	0.997117
870.765684	0.997812
871.077191	0.997687
871.388657	0.997022
871.700081	0.997703
872.011463	0.997500
872.322803	0.997524
872.634101	0.995552
872.945357	0.995974
873.256571	0.996042
873.567744	0.996222
873.878874	0.995694
874.189963	0.995142
874.501010	0.997869
874.812015	0.996949
875.122979	0.996987
875.433900	0.996566
875.744780	0.996477
876.055618	0.995728
876.366415	0.996078
876.677169	0.996334
876.987882	0.996773
877.298554	0.997204
877.609183	0.995675
877.919771	0.995703
878.230317	0.996401
878.540822	0.993272
878.851285	0.994244
879.161707	0.993348
879.472087	0.992908
879.782425	0.989273
880.092722	0.985393
880.402977	0.981264
880.713191	0.971593
881.023363	0.961230
881.333494	0.955047
881.643583	0.954077
881.953631	0.955198
882.263637	0.957337
882.573602	0.960869
882.883526	0.965065
883.193408	0.970492
883.503248	0.973457
883.813048	0.975825
884.122806	0.979208
884.432522	0.981946
884.742197	0.985443
885.051831	0.985533
885.361424	0.988138
885.670975	0.990319
885.980485	0.990568
886.289954	0.991403
886.599382	0.991764
886.908768	0.993564
887.218113	0.992772
887.527417	0.994587
887.836680	0.995361
888.145901	0.996215
888.455082	0.996060
888.764221	0.996766
889.073319	0.995308
889.382376	0.997406
889.691392	0.995180
890.000366	0.996539
890.309300	0.995663
890.618193	0.996504
890.927044	0.995669
891.235855	0.995739
891.544625	0.994964
891.853353	0.994916
892.162041	0.995044
892.470687	0.995267
892.779293	0.994034
893.087858	0.992833
893.396381	0.991766
893.704864	0.989911
894.013306	0.988901
894.321707	0.985375
894.630068	0.982106
894.938387	0.981156
895.246665	0.981684
895.554903	0.981944
895.863100	0.985916
896.171256	0.986649
896.479371	0.988082
896.787446	0.990283
897.095480	0.991521
897.403473	0.992903
897.711425	0.992545
898.019336	0.993990
898.327207	0.994947
898.635038	0.993409
898.942827	0.995198
899.250576	0.994288
899.558284	0.995476
899.865952	0.994167
900.173579	0.995888
900.481165	0.995600
900.788711	0.995355
901.096216	0.995295
901.403681	0.997256
901.711105	0.996725
902.018489	0.995373
902.325832	0.995822
902.633135	0.996278
902.940397	0.995312
903.247619	0.993419
903.554800	0.990694
903.861941	0.986740
904.169041	0.980951
904.476101	0.978251
904.783121	0.976940
905.090100	0.979230
905.397039	0.982046
905.703938	0.984854
906.010796	0.988246
906.317614	0.990010
906.624391	0.992424
906.931129	0.993502
907.237826	0.994397
907.544483	0.995597
907.851099	0.996690
908.157675	0.996269
908.464211	0.997190
908.770707	0.996670
909.077163	0.998156
909.383578	0.997977
909.689954	0.997624
909.996289	0.997747
910.302584	0.997804
910.608839	1.000416
910.915054	0.997998
911.221229	0.999359
911.527363	0.997401
911.833458	0.997833
912.139513	0.998549
912.445527	0.999023
912.751502	0.996330
913.057436	0.995686
913.363331	0.997910
913.669186	0.997760
913.975000	0.996119
914.280775	0.995851
914.586510	0.993134
914.892205	0.992529
915.197859	0.989806
915.503475	0.986857
915.809050	0.982766
916.114585	0.979515
916.420081	0.978942
916.725536	0.979985
917.030952	0.981704
917.336328	0.983392
917.641665	0.984955
917.946961	0.987136
918.252218	0.988171
918.557435	0.989830
918.862612	0.990605
919.167750	0.992560
919.472848	0.994173
919.777906	0.994093
920.082925	0.995143
920.387904	0.994570
920.692843	0.994570
920.997743	0.995695
921.302603	0.996656
921.607423	0.996201
921.912204	0.997263
922.216946	0.996985
922.521647	0.997989
922.826310	0.997316
923.130932	0.997832
923.435516	0.998635
923.740059	0.998040
924.044564	0.997782
924.349028	0.998185
924.653454	0.998828
924.957840	0.998027
925.262186	0.998818
925.566493	0.999419
925.870761	0.998825
926.174989	0.999222
926.479178	1.000157
926.783328	0.999610
927.087438	0.998818
927.391509	0.999783
927.695541	0.999787
927.999533	0.999719
928.303486	0.999640
928.607400	1.000545
928.911275	0.999900
929.215110	0.999666
929.518906	0.999917
929.822663	1.000213
930.126381	1.000446
930.430060	0.999850
930.733699	1.001330
931.037299	1.000712
931.340861	0.999817
931.644383	0.998141
931.947866	1.001041
932.251309	1.001299
932.554714	0.999059
932.858080	1.000639
933.161407	0.999240
933.464694	1.000165
933.767943	0.999780
934.071153	1.000040
934.374323	1.000009
934.677455	0.999760
934.980548	0.999398
935.283602	1.000613
935.586617	1.000107
935.889593	1.001804
936.192530	1.000096
936.495428	0.999898
936.798287	0.999356
937.101108	0.999882
937.403890	1.000079
937.706632	1.000985
938.009336	0.999530
938.312002	0.998219
938.614628	0.999545
938.917216	0.998190
939.219765	0.998011
939.522275	0.999241
939.824747	1.000010
940.127179	0.998743
940.429573	0.999720
940.731929	0.997900
941.034246	0.998192
941.336524	0.998466
941.638763	0.997815
941.940964	0.998728
942.243126	0.998588
942.545250	0.998584
942.847335	0.999530
943.149381	1.000960
943.451389	0.998929
943.753359	0.999857
944.055290	1.001115
944.357182	1.000584
944.659036	1.000373
944.960851	0.999639
945.262628	0.999710
945.564367	1.000109
945.866067	0.998872
946.167729	1.000241
946.469352	1.000044
946.770937	0.997996
947.072484	1.000411
947.373992	0.998931
947.675462	0.999486
947.976893	1.000679
948.278286	1.000274
948.579641	1.001306
948.880958	1.000001
949.182236	1.000368
949.483476	1.000877
949.784678	1.000788
950.085841	1.000415
950.386967	0.999318
950.688054	1.000995
950.989103	0.998532
951.290114	0.999741
951.591087	1.000405
951.892021	0.999044
952.192917	0.999568
952.493776	1.000490
952.794596	1.000146
953.095378	0.999195
953.396122	0.999008
953.696828	0.999700
953.997496	1.000785
954.298126	1.001133
954.598718	0.998676
954.899272	1.000664
955.199788	0.999719
955.500266	1.002113
955.800706	1.000407
956.101108	0.999988
956.401472	1.002057
956.701798	1.000287
957.002087	1.000675
957.302337	0.999745
957.602550	1.001000
957.902724	1.001340
958.202861	1.000835
958.502960	1.000703
958.803022	1.000853
959.103045	1.000624
959.403031	1.001728
959.702979	1.001117
960.002889	1.000911
960.302762	1.000959
960.602596	1.001635
960.902393	1.000853
961.202153	1.002161
961.501875	1.002028
961.801559	1.002541
962.101205	1.001338
962.400814	1.001555
962.700385	1.002360
962.999918	1.001582
963.299414	0.999819
963.598873	1.001976
963.898293	1.001582
964.197677	1.001502
964.497022	1.002010
964.796331	1.002262
965.095601	1.002571
965.394835	1.001205
965.694030	1.002371
965.993189	1.000635
966.292309	1.002369
966.591393	1.000206
966.890439	1.002181
967.189447	1.001972
967.488419	1.000332
967.787353	1.001170
968.086249	1.001933
968.385108	1.001752
968.683930	1.002779
968.982714	1.001288
969.281462	1.002693
969.580172	1.000549
969.878844	1.002119
970.177480	1.001607
970.476078	1.003415
970.774639	1.002212
971.073162	1.001527
971.371649	1.001403
971.670098	1.001369
971.968510	1.002775
972.266885	1.001069
972.565223	1.000528
972.863524	1.001285
973.161788	1.001044
973.460014	1.002457
973.758204	1.001071
974.056356	1.001426
974.354471	1.001693
974.652550	1.002181
974.950591	1.002048
975.248595	1.000775
975.546563	1.002125
975.844493	1.002125
976.142386	1.000828
976.440243	1.001928
976.738062	1.001878
977.035845	1.000567
977.333590	1.002301
977.631299	1.000560
977.928971	1.001872
978.226606	1.001236
978.524204	1.000082
978.821765	1.002547
979.119290	1.003039
979.416777	1.002242
979.714228	1.001080
980.011642	1.002579
980.309020	1.001187
980.606360	1.001222
980.903664	1.002181
981.200931	1.001787
981.498162	1.003032
981.795356	1.001706
982.092513	1.001634
982.389633	1.003050
982.686717	1.000884
982.983764	1.000267
983.280775	1.001394
983.577749	1.002066
983.874686	1.000728
984.171587	1.000494
984.468451	1.001343
984.765279	1.001818
985.062070	1.002048
985.358824	1.000330
985.655543	1.001693
985.952224	1.001704
986.248869	1.002519
986.545478	1.003184
986.842050	1.000750
987.138586	1.002072
987.435086	1.001859
987.731549	1.003838
988.027975	1.003190
988.324366	1.001487
988.620719	1.003738
988.917037	1.002326
989.213318	1.003030
989.509563	1.003580
989.805772	1.001985
990.101944	1.002143
990.398080	1.002180
990.694180	1.002773
990.990244	1.002291
991.286271	1.003466
991.582262	1.002430
991.878217	1.001510
992.174136	1.001666
992.470019	1.001654
992.765865	1.004020
993.061676	1.002937
993.357450	1.003341
993.653188	1.002798
993.948890	1.002394
994.244556	1.000987
994.540186	1.003006
994.835780	1.002562
995.131337	1.003758
995.426859	1.001925
995.722345	1.002686
996.017795	1.001506
996.313208	1.003232
996.608586	1.002483
996.903928	1.002346
997.199234	1.002102
997.494504	1.003273
997.789738	1.001795
998.084936	1.001622
998.380099	1.001010
998.675225	1.002751
998.970316	1.003360
999.265371	1.003166
999.560390	1.002786
999.855373	1.003408
1000.150320	1.002555
1000.445232	1.002644
1000.740108	1.001757
1001.034948	1.001375
1001.329752	1.003945
1001.624521	1.002560
1001.919254	1.001614
1002.213951	1.003356
1002.508613	1.001709
1002.803239	1.002034
1003.097829	1.003206
1003.392384	1.003973
1003.686903	1.003583
1003.981386	1.002984
1004.275834	1.003596
1004.570246	1.002242
1004.864623	1.003178
1005.158964	1.003776
1005.453270	1.002734
1005.747540	1.002342
1006.041775	1.003475
1006.335974	1.002303
1006.630138	1.002617
1006.924266	1.001247
1007.218359	1.001619
1007.512416	1.003267
1007.806438	1.002012
1008.100425	1.002297
1008.394376	1.003467
1008.688292	1.003223
1008.982172	1.001316
1009.276017	1.003141
1009.569827	1.004983
1009.863602	1.003011
1010.157341	1.003271
1010.451045	1.002898
1010.744714	1.003970
1011.038347	1.004082
1011.331945	1.002365
1011.625508	1.002788
1011.919036	1.002750
1012.212528	1.003566
1012.505986	1.002650
1012.799408	1.003455
1013.092795	1.003179
1013.386147	1.003299
1013.679464	1.003802
1013.972745	1.001668
1014.265992	1.003162
1014.559204	1.003034
1014.852380	1.003617
1015.145521	1.002264
1015.438628	1.003607
1015.731699	1.002238
1016.024736	1.003723
1016.317737	1.002616
1016.610703	1.003621
1016.903635	1.002475
1017.196531	1.001875
1017.489393	1.003135
1017.782219	1.002391
1018.075011	1.003070
1018.367768	1.002704
1018.660490	1.003219
1018.953177	1.003219
1019.245829	1.003219
