Dividing Wavelength (nm)	Counts (n)	Blue Motor Position (mm): 0.200000	Red Motor Position (mm): 0.000000	
326.493990	1.006079
326.888308	1.006079
327.282561	1.006079
327.676750	1.007267
328.070874	1.007765
328.464933	1.007332
328.858929	1.007374
329.252859	1.006075
329.646726	1.005688
330.040528	1.006854
330.434265	1.006968
330.827938	1.005415
331.221547	1.006695
331.615091	1.007536
332.008571	1.007478
332.401986	1.005272
332.795338	1.005018
333.188625	1.007227
333.581847	1.005415
333.975006	1.005881
334.368100	1.006244
334.761129	1.005166
335.154095	1.006629
335.546996	1.003803
335.939833	0.997977
336.332606	0.999425
336.725315	0.998445
337.117960	0.999040
337.510540	0.998670
337.903056	0.999664
338.295508	1.000161
338.687896	1.000559
339.080220	1.000410
339.472480	0.998456
339.864676	1.000627
340.256807	0.999195
340.648875	0.999411
341.040879	0.998745
341.432818	1.000143
341.824694	1.000173
342.216506	0.999520
342.608253	0.999638
342.999937	0.999299
343.391557	0.998397
343.783113	1.000542
344.174605	0.998926
344.566033	0.999228
344.957397	1.000096
345.348697	0.999544
345.739934	0.999395
346.131106	0.999016
346.522215	0.998567
346.913260	0.999996
347.304241	0.997286
347.695159	1.000023
348.086012	0.998629
348.476802	0.998897
348.867528	0.998207
349.258191	0.998948
349.648789	0.999388
350.039324	0.998305
350.429796	0.998091
350.820203	0.998366
351.210548	0.998861
351.600828	1.000157
351.991045	0.998014
352.381198	0.999049
352.771288	0.997847
353.161314	0.999295
353.551276	0.997335
353.941175	0.997140
354.331010	0.999260
354.720782	0.999104
355.110490	0.998859
355.500135	0.999561
355.889717	0.998323
356.279235	0.998514
356.668689	0.998965
357.058080	0.997635
357.447408	0.997527
357.836672	0.998213
358.225873	0.998390
358.615010	0.997421
359.004084	0.997471
359.393095	0.998617
359.782043	0.998226
360.170927	0.997808
360.559748	0.997529
360.948505	0.997098
361.337199	0.997239
361.725830	0.997615
362.114398	0.996725
362.502903	0.997081
362.891344	0.995692
363.279722	0.997047
363.668037	0.998583
364.056289	0.998016
364.444478	0.997589
364.832603	0.996930
365.220665	0.998512
365.608665	0.997441
365.996601	0.996925
366.384474	0.995174
366.772284	0.996529
367.160031	0.993925
367.547715	0.996820
367.935336	0.995372
368.322893	0.994191
368.710388	0.993134
369.097820	0.990471
369.485189	0.988926
369.872495	0.986942
370.259738	0.984925
370.646918	0.981566
371.034035	0.980227
371.421090	0.976771
371.808081	0.972217
372.195010	0.968721
372.581875	0.964144
372.968678	0.959358
373.355418	0.955165
373.742096	0.948809
374.128710	0.944364
374.515262	0.939364
374.901751	0.934395
375.288177	0.929292
375.674540	0.922455
376.060841	0.915815
376.447079	0.909099
376.833254	0.902953
377.219367	0.897697
377.605417	0.886836
377.991404	0.883617
378.377329	0.877654
378.763191	0.869617
379.148991	0.861347
379.534727	0.853875
379.920402	0.845754
380.306013	0.841607
380.691563	0.829237
381.077049	0.822079
381.462474	0.818731
381.847835	0.807463
382.233134	0.801724
382.618371	0.802404
383.003545	0.785835
383.388657	0.783722
383.773706	0.776610
384.158693	0.771938
384.543618	0.767804
384.928480	0.757284
385.313280	0.747671
385.698017	0.746773
386.082692	0.735748
386.467305	0.733687
386.851856	0.729007
387.236344	0.723909
387.620770	0.717623
388.005133	0.711876
388.389435	0.706288
388.773674	0.703774
389.157851	0.695882
389.541965	0.692832
389.926018	0.699971
390.310008	0.687025
390.693936	0.683406
391.077802	0.676187
391.461606	0.677527
391.845348	0.666460
392.229027	0.666235
392.612645	0.664412
392.996200	0.651526
393.379694	0.643869
393.763125	0.634821
394.146494	0.638600
394.529801	0.630132
394.913047	0.621693
395.296230	0.627983
395.679351	0.618515
396.062410	0.615422
396.445408	0.618479
396.828343	0.614138
397.211217	0.608600
397.594028	0.620527
397.976778	0.611063
398.359466	0.608378
398.742092	0.603110
399.124656	0.615374
399.507158	0.603349
399.889598	0.600485
400.271977	0.591413
400.654294	0.595694
401.036549	0.594876
401.418742	0.599021
401.800874	0.584745
402.182944	0.581508
402.564952	0.572345
402.946898	0.575133
403.328783	0.576406
403.710606	0.587403
404.092367	0.561921
404.474067	0.567546
404.855705	0.565468
405.237282	0.575144
405.618797	0.560630
406.000250	0.556413
406.381642	0.546907
406.762972	0.551931
407.144240	0.550900
407.525447	0.550082
407.906593	0.543638
408.287677	0.539132
408.668700	0.547534
409.049661	0.541348
409.430560	0.535946
409.811399	0.544978
410.192176	0.526210
410.572891	0.533607
410.953545	0.521614
411.334138	0.535707
411.714669	0.527512
412.095139	0.539386
412.475547	0.524029
412.855894	0.525987
413.236180	0.524752
413.616405	0.530477
413.996568	0.520572
414.376670	0.526645
414.756711	0.531558
415.136691	0.528889
415.516609	0.519526
415.896466	0.516285
416.276262	0.512154
416.655997	0.514345
417.035670	0.495275
417.415283	0.487291
417.794834	0.492353
418.174324	0.497663
418.553753	0.506905
418.933121	0.488520
419.312428	0.482783
419.691674	0.488450
420.070859	0.476896
420.449983	0.484866
420.829045	0.473559
421.208047	0.482616
421.586988	0.476044
421.965867	0.474705
422.344686	0.463621
422.723444	0.475878
423.102141	0.493420
423.480777	0.466316
423.859352	0.486937
424.237866	0.463474
424.616319	0.464234
424.994712	0.455375
425.373044	0.466123
425.751314	0.453968
426.129524	0.471015
426.507673	0.453614
426.885762	0.447102
427.263789	0.452872
427.641756	0.462587
428.019662	0.452848
428.397508	0.452322
428.775292	0.457085
429.153016	0.448206
429.530679	0.454456
429.908282	0.448108
430.285824	0.458389
430.663305	0.436368
431.040726	0.457415
431.418086	0.457246
431.795385	0.449117
432.172624	0.448327
432.549802	0.448927
432.926920	0.447702
433.303977	0.447195
433.680974	0.444493
434.057910	0.442225
434.434786	0.441585
434.811601	0.444758
435.188355	0.427289
435.565050	0.436658
435.941683	0.437857
436.318257	0.421690
436.694770	0.422618
437.071222	0.420608
437.447614	0.424900
437.823946	0.431335
438.200218	0.421121
438.576429	0.430589
438.952580	0.423787
439.328670	0.420538
439.704700	0.426866
440.080670	0.427989
440.456580	0.409576
440.832429	0.417113
441.208218	0.427874
441.583947	0.417338
441.959616	0.416641
442.335224	0.422180
442.710773	0.412963
443.086261	0.410931
443.461689	0.424465
443.837057	0.414481
444.212365	0.404398
444.587612	0.411747
444.962800	0.401904
445.337927	0.403222
445.712995	0.429496
446.088002	0.391400
446.462949	0.401628
446.837837	0.406927
447.212664	0.394912
447.587431	0.386868
447.962139	0.357392
448.336786	0.315998
448.711374	0.326835
449.085901	0.371112
449.460369	0.375145
449.834776	0.378466
450.209124	0.358101
450.583412	0.350395
450.957640	0.343601
451.331808	0.354591
451.705917	0.378411
452.079965	0.382838
452.453954	0.371578
452.827883	0.378052
453.201752	0.372943
453.575562	0.384240
453.949311	0.372412
454.323001	0.379072
454.696632	0.374519
455.070202	0.367063
455.443713	0.359250
455.817164	0.353788
456.190556	0.349562
456.563888	0.346402
456.937160	0.343926
457.310373	0.360794
457.683526	0.360164
458.056619	0.365845
458.429653	0.366543
458.802628	0.370334
459.175542	0.364167
459.548398	0.346684
459.921194	0.339243
460.293930	0.339183
460.666607	0.316811
461.039224	0.305181
461.411782	0.300267
461.784280	0.299771
462.156719	0.303955
462.529099	0.308533
462.901419	0.324568
463.273680	0.328852
463.645882	0.328342
464.018024	0.334120
464.390106	0.327280
464.762130	0.311530
465.134094	0.294523
465.505999	0.263563
465.877845	0.233717
466.249631	0.220715
466.621358	0.228210
466.993026	0.242145
467.364634	0.248396
467.736184	0.257138
468.107674	0.266044
468.479105	0.265122
468.850477	0.271631
469.221790	0.278890
469.593043	0.289292
469.964238	0.293867
470.335373	0.292825
470.706449	0.291318
471.077467	0.291773
471.448425	0.253785
471.819324	0.229335
472.190164	0.228992
472.560945	0.257750
472.931667	0.279938
473.302330	0.284372
473.672934	0.296064
474.043479	0.284386
474.413965	0.286145
474.784393	0.289494
475.154761	0.284645
475.525070	0.281715
475.895321	0.287306
476.265513	0.281722
476.635645	0.276875
477.005719	0.277014
477.375734	0.273758
477.745691	0.266602
478.115588	0.263211
478.485427	0.256584
478.855207	0.243569
479.224928	0.225625
479.594591	0.213959
479.964194	0.217062
480.333739	0.218522
480.703226	0.219901
481.072653	0.218312
481.442022	0.214006
481.811333	0.210575
482.180584	0.214000
482.549777	0.219429
482.918912	0.222866
483.287988	0.222707
483.657005	0.222199
484.025964	0.228691
484.394864	0.226052
484.763706	0.226972
485.132489	0.231476
485.501213	0.232405
485.869879	0.230728
486.238487	0.233846
486.607036	0.231712
486.975527	0.236517
487.343959	0.232107
487.712333	0.231307
488.080648	0.232739
488.448905	0.232090
488.817104	0.233108
489.185244	0.227748
489.553326	0.224676
489.921350	0.214411
490.289315	0.196753
490.657222	0.191598
491.025070	0.193207
491.392861	0.195026
491.760593	0.200867
492.128267	0.206487
492.495883	0.212252
492.863440	0.218408
493.230939	0.224742
493.598380	0.226239
493.965763	0.228384
494.333088	0.230263
494.700354	0.232103
495.067563	0.230920
495.434713	0.234585
495.801805	0.231976
496.168839	0.233804
496.535815	0.234961
496.902733	0.234988
497.269593	0.236561
497.636395	0.234052
498.003139	0.234582
498.369825	0.237600
498.736453	0.234109
499.103023	0.235515
499.469535	0.234877
499.835989	0.235578
500.202385	0.236297
500.568723	0.239683
500.935003	0.234802
501.301226	0.238989
501.667390	0.233124
502.033497	0.231119
502.399546	0.234180
502.765537	0.236104
503.131470	0.234648
503.497345	0.230969
503.863163	0.239332
504.228923	0.232480
504.594625	0.230966
504.960269	0.236731
505.325856	0.232252
505.691385	0.236392
506.056856	0.233060
506.422270	0.232449
506.787625	0.234669
507.152924	0.232189
507.518164	0.232710
507.883347	0.234222
508.248472	0.236242
508.613540	0.230970
508.978550	0.233763
509.343503	0.234371
509.708398	0.231845
510.073236	0.229379
510.438016	0.229038
510.802738	0.230403
511.167403	0.229078
511.532010	0.231386
511.896561	0.226884
512.261053	0.225180
512.625488	0.227809
512.989866	0.227742
513.354186	0.227798
513.718449	0.229904
514.082655	0.226268
514.446803	0.228436
514.810894	0.226313
515.174927	0.228879
515.538904	0.228612
515.902822	0.225178
516.266684	0.227721
516.630488	0.228773
516.994235	0.227659
517.357925	0.226235
517.721558	0.224831
518.085133	0.224292
518.448651	0.223972
518.812112	0.226554
519.175516	0.226213
519.538863	0.223709
519.902152	0.225531
520.265385	0.222302
520.628560	0.223972
520.991678	0.224411
521.354739	0.223176
521.717743	0.224456
522.080690	0.224704
522.443580	0.222328
522.806413	0.223033
523.169189	0.222549
523.531908	0.221235
523.894569	0.224943
524.257174	0.224815
524.619722	0.222411
524.982213	0.223661
525.344647	0.222468
525.707025	0.223509
526.069345	0.221627
526.431608	0.223128
526.793815	0.221405
527.155964	0.225439
527.518057	0.224467
527.880093	0.225202
528.242072	0.223966
528.603995	0.225788
528.965860	0.227627
529.327669	0.226352
529.689421	0.227385
530.051117	0.228012
530.412755	0.225947
530.774337	0.228060
531.135862	0.228780
531.497331	0.228125
531.858743	0.230921
532.220098	0.227355
532.581396	0.230132
532.942638	0.230462
533.303824	0.231613
533.664953	0.231111
534.026025	0.233168
534.387040	0.231043
534.747999	0.230803
535.108902	0.229631
535.469748	0.234966
535.830537	0.232637
536.191270	0.233124
536.551947	0.232540
536.912567	0.232598
537.273131	0.234449
537.633638	0.234819
537.994089	0.234839
538.354483	0.235832
538.714821	0.232645
539.075103	0.232622
539.435328	0.233265
539.795497	0.237461
540.155609	0.233703
540.515665	0.231976
540.875665	0.237509
541.235609	0.236237
541.595496	0.236403
541.955328	0.233208
542.315102	0.235538
542.674821	0.236581
543.034483	0.236692
543.394090	0.236222
543.753640	0.238210
544.113134	0.233251
544.472571	0.236419
544.831953	0.233038
545.191278	0.237314
545.550548	0.236668
545.909761	0.233606
546.268918	0.234398
546.628019	0.232825
546.987064	0.235495
547.346053	0.237147
547.704986	0.235053
548.063863	0.235379
548.422684	0.235496
548.781449	0.237240
549.140158	0.235017
549.498811	0.237658
549.857408	0.240714
550.215949	0.235387
550.574434	0.238805
550.932864	0.236719
551.291237	0.235386
551.649555	0.237184
552.007817	0.236704
552.366022	0.237573
552.724173	0.237592
553.082267	0.238059
553.440305	0.234715
553.798288	0.239465
554.156215	0.235529
554.514086	0.236298
554.871902	0.239526
555.229661	0.238689
555.587365	0.239463
555.945014	0.241906
556.302606	0.238796
556.660143	0.241451
557.017625	0.238004
557.375050	0.240217
557.732421	0.237023
558.089735	0.239326
558.446994	0.239139
558.804197	0.238352
559.161345	0.238198
559.518437	0.241798
559.875474	0.239793
560.232455	0.239142
560.589381	0.240201
560.946251	0.240299
561.303065	0.238057
561.659825	0.239163
562.016528	0.240939
562.373177	0.243546
562.729770	0.240936
563.086307	0.242702
563.442789	0.240921
563.799216	0.243491
564.155587	0.242241
564.511904	0.243626
564.868164	0.243537
565.224370	0.243253
565.580520	0.245076
565.936615	0.245025
566.292654	0.247960
566.648638	0.245146
567.004567	0.246064
567.360441	0.246414
567.716260	0.248469
568.072023	0.245743
568.427732	0.247083
568.783385	0.249680
569.138982	0.247598
569.494525	0.247307
569.850013	0.250342
570.205445	0.248591
570.560823	0.250884
570.916145	0.253196
571.271412	0.251527
571.626625	0.253042
571.981782	0.253382
572.336884	0.254026
572.691931	0.254207
573.046923	0.255337
573.401860	0.256568
573.756743	0.258141
574.111570	0.256972
574.466342	0.257201
574.821059	0.256621
575.175722	0.259572
575.530330	0.259258
575.884882	0.259515
576.239380	0.261404
576.593823	0.262354
576.948211	0.261539
577.302544	0.265069
577.656823	0.264395
578.011047	0.264267
578.365216	0.265037
578.719330	0.267062
579.073389	0.266565
579.427394	0.267992
579.781344	0.269088
580.135239	0.270285
580.489080	0.270133
580.842866	0.272958
581.196597	0.272915
581.550273	0.271654
581.903895	0.272912
582.257463	0.270483
582.610975	0.274141
582.964434	0.273351
583.317837	0.275866
583.671186	0.276536
584.024481	0.276198
584.377721	0.278707
584.730906	0.279359
585.084037	0.278677
585.437113	0.280985
585.790135	0.280140
586.143103	0.283317
586.496016	0.284146
586.848874	0.281866
587.201679	0.282212
587.554428	0.285398
587.907124	0.284632
588.259765	0.285421
588.612352	0.285605
588.964884	0.289528
589.317362	0.289226
589.669786	0.289204
590.022155	0.287277
590.374470	0.286964
590.726731	0.288945
591.078937	0.293855
591.431090	0.290424
591.783188	0.294597
592.135232	0.294800
592.487222	0.294628
592.839157	0.292866
593.191038	0.295130
593.542866	0.297095
593.894639	0.300096
594.246358	0.298613
594.598022	0.297870
594.949633	0.301814
595.301190	0.302576
595.652692	0.301495
596.004141	0.297429
596.355535	0.305803
596.706876	0.306594
597.058162	0.308968
597.409395	0.306114
597.760573	0.303616
598.111698	0.306807
598.462768	0.307210
598.813785	0.308287
599.164748	0.309819
599.515657	0.310353
599.866511	0.314056
600.217312	0.309408
600.568060	0.314018
600.918753	0.310916
601.269392	0.311494
601.619978	0.315093
601.970510	0.312447
602.320988	0.312881
602.671412	0.310486
603.021783	0.313139
603.372100	0.313986
603.722363	0.314266
604.072572	0.314845
604.422728	0.314561
604.772830	0.316872
605.122878	0.316443
605.472872	0.316955
605.822813	0.315511
606.172701	0.318185
606.522534	0.315353
606.872314	0.315564
607.222041	0.316311
607.571714	0.314316
607.921333	0.316139
608.270899	0.315537
608.620411	0.312577
608.969870	0.316402
609.319276	0.316260
609.668627	0.316239
610.017926	0.314771
610.367171	0.313570
610.716362	0.314214
611.065500	0.314135
611.414585	0.312849
611.763616	0.313320
612.112594	0.313946
612.461518	0.313095
612.810389	0.311149
613.159207	0.313358
613.507971	0.315126
613.856682	0.311221
614.205340	0.312138
614.553945	0.309471
614.902496	0.313344
615.250994	0.311342
615.599439	0.311947
615.947830	0.311061
616.296169	0.312089
616.644454	0.312086
616.992686	0.311869
617.340864	0.309751
617.688990	0.312995
618.037063	0.309960
618.385082	0.311686
618.733048	0.308476
619.080961	0.311095
619.428821	0.310371
619.776628	0.310191
620.124382	0.312035
620.472083	0.312573
620.819731	0.311930
621.167326	0.315876
621.514868	0.315542
621.862357	0.319740
622.209793	0.319217
622.557176	0.321868
622.904506	0.322373
623.251783	0.325489
623.599007	0.327173
623.946179	0.326696
624.293297	0.329071
624.640363	0.332950
624.987376	0.333448
625.334336	0.335477
625.681243	0.338094
626.028097	0.338607
626.374899	0.339550
626.721647	0.339884
627.068343	0.343029
627.414987	0.344225
627.761577	0.345970
628.108115	0.344421
628.454600	0.349993
628.801032	0.347359
629.147412	0.349331
629.493739	0.349951
629.840014	0.352901
630.186236	0.349812
630.532405	0.355393
630.878521	0.352896
631.224585	0.355378
631.570597	0.359232
631.916556	0.357893
632.262462	0.357201
632.608316	0.359720
632.954117	0.360346
633.299866	0.361590
633.645562	0.361508
633.991206	0.365957
634.336797	0.368499
634.682336	0.371544
635.027823	0.372603
635.373257	0.373355
635.718639	0.377454
636.063968	0.376581
636.409245	0.382119
636.754470	0.382585
637.099642	0.384894
637.444762	0.387905
637.789829	0.387537
638.134845	0.391225
638.479808	0.391600
638.824719	0.391606
639.169577	0.395888
639.514383	0.395284
639.859137	0.399536
640.203839	0.398823
640.548489	0.399433
640.893086	0.400230
641.237632	0.401850
641.582125	0.401060
641.926566	0.402776
642.270955	0.402935
642.615292	0.402820
642.959576	0.402081
643.303809	0.402823
643.647990	0.402319
643.992118	0.402677
644.336195	0.406366
644.680219	0.404649
645.024192	0.405316
645.368112	0.398787
645.711981	0.397714
646.055797	0.393386
646.399562	0.395502
646.743274	0.388125
647.086935	0.384858
647.430544	0.385001
647.774101	0.383692
648.117606	0.383763
648.461059	0.384479
648.804460	0.386382
649.147810	0.391900
649.491108	0.393513
649.834354	0.395496
650.177548	0.400667
650.520690	0.405664
650.863781	0.407142
651.206820	0.406880
651.549807	0.411077
651.892742	0.414995
652.235626	0.414733
652.578458	0.415415
652.921238	0.421985
653.263967	0.419623
653.606644	0.423388
653.949269	0.423203
654.291843	0.427032
654.634365	0.424373
654.976836	0.427084
655.319255	0.427395
655.661622	0.428469
656.003938	0.428815
656.346203	0.431469
656.688416	0.429695
657.030577	0.433248
657.372687	0.435322
657.714746	0.435633
658.056753	0.432792
658.398708	0.436211
658.740612	0.438086
659.082465	0.433758
659.424266	0.434897
659.766016	0.434226
660.107715	0.436606
660.449362	0.435921
660.790958	0.435777
661.132503	0.437334
661.473996	0.434023
661.815438	0.435598
662.156829	0.435936
662.498168	0.436337
662.839456	0.437623
663.180693	0.435438
663.521879	0.435197
663.863013	0.436230
664.204097	0.434618
664.545129	0.431515
664.886110	0.431958
665.227040	0.429341
665.567918	0.431660
665.908746	0.429890
666.249522	0.430057
666.590248	0.430166
666.930922	0.428684
667.271545	0.428079
667.612118	0.427759
667.952639	0.429122
668.293109	0.427716
668.633528	0.430862
668.973896	0.430942
669.314213	0.431556
669.654480	0.432632
669.994695	0.432659
670.334859	0.433715
670.674973	0.434046
671.015035	0.434056
671.355047	0.434219
671.695008	0.435400
672.034918	0.437359
672.374777	0.436299
672.714585	0.437369
673.054342	0.437646
673.394049	0.437935
673.733705	0.435349
674.073310	0.436407
674.412864	0.439961
674.752368	0.439565
675.091820	0.439926
675.431223	0.444729
675.770574	0.444566
676.109875	0.447608
676.449125	0.447716
676.788324	0.449601
677.127473	0.455053
677.466571	0.455255
677.805619	0.456703
678.144616	0.457911
678.483562	0.459516
678.822458	0.462136
679.161303	0.462540
679.500098	0.463488
679.838842	0.464938
680.177535	0.464288
680.516179	0.462728
680.854771	0.462340
681.193314	0.455537
681.531805	0.446794
681.870247	0.435560
682.208638	0.427718
682.546978	0.426907
682.885268	0.428598
683.223508	0.435015
683.561697	0.438413
683.899836	0.441087
684.237925	0.444413
684.575963	0.447291
684.913951	0.450278
685.251889	0.445753
685.589776	0.447873
685.927614	0.450443
686.265401	0.444790
686.603137	0.445336
686.940824	0.440343
687.278460	0.438656
687.616046	0.437331
687.953582	0.432703
688.291068	0.433875
688.628504	0.429350
688.965889	0.431973
689.303224	0.436284
689.640510	0.439217
689.977745	0.445012
690.314930	0.453258
690.652065	0.458074
690.989150	0.465661
691.326185	0.472726
691.663170	0.476651
692.000105	0.483796
692.336990	0.491125
692.673825	0.494031
693.010610	0.500213
693.347345	0.506151
693.684030	0.507370
694.020665	0.512265
694.357251	0.521005
694.693786	0.521299
695.030272	0.523784
695.366707	0.528609
695.703093	0.532070
696.039429	0.529488
696.375716	0.531783
696.711952	0.534339
697.048139	0.535873
697.384276	0.538444
697.720363	0.536733
698.056400	0.534861
698.392388	0.541276
698.728326	0.543621
699.064214	0.546739
699.400053	0.546634
699.735842	0.551303
700.071581	0.553826
700.407270	0.557150
700.742910	0.559521
701.078501	0.565299
701.414042	0.567116
701.749533	0.569213
702.084974	0.578954
702.420366	0.571238
702.755709	0.578526
703.091002	0.585878
703.426246	0.580048
703.761440	0.585592
704.096584	0.590513
704.431679	0.587574
704.766725	0.589614
705.101721	0.591778
705.436668	0.587083
705.771565	0.594607
706.106413	0.590018
706.441212	0.585917
706.775961	0.585172
707.110661	0.587136
707.445311	0.584133
707.779913	0.581068
708.114465	0.580453
708.448967	0.576048
708.783421	0.568981
709.117825	0.562941
709.452180	0.562779
709.786485	0.557183
710.120742	0.546913
710.454949	0.548163
710.789107	0.540585
711.123216	0.531270
711.457275	0.532272
711.791286	0.524251
712.125247	0.523773
712.459159	0.534200
712.793023	0.525975
713.126837	0.530275
713.460602	0.530665
713.794318	0.539758
714.127985	0.538537
714.461602	0.549071
714.795171	0.552085
715.128691	0.560978
715.462162	0.567933
715.795584	0.573953
716.128957	0.576112
716.462281	0.583044
716.795556	0.586424
717.128782	0.591607
717.461960	0.601696
717.795088	0.600032
718.128167	0.606373
718.461198	0.614327
718.794180	0.615412
719.127113	0.617340
719.459997	0.620665
719.792833	0.628036
720.125619	0.628849
720.458357	0.634916
720.791046	0.634311
721.123686	0.638389
721.456278	0.645185
721.788821	0.642675
722.121315	0.647892
722.453761	0.650012
722.786158	0.649200
723.118506	0.644984
723.450805	0.652497
723.783056	0.650207
724.115259	0.646347
724.447412	0.646326
724.779518	0.646887
725.111574	0.646300
725.443582	0.641746
725.775542	0.644118
726.107453	0.636226
726.439315	0.636226
726.771129	0.635143
727.102895	0.627857
727.434612	0.620814
727.766281	0.618293
728.097901	0.617903
728.429473	0.617460
728.760996	0.616008
729.092471	0.616580
729.423897	0.620445
729.755276	0.618510
730.086606	0.619036
730.417887	0.613158
730.749120	0.603860
731.080305	0.595042
731.411442	0.590566
731.742530	0.594695
732.073570	0.594397
732.404562	0.586779
732.735506	0.588345
733.066401	0.593985
733.397249	0.601984
733.728048	0.613824
734.058798	0.626840
734.389501	0.637973
734.720156	0.647604
735.050762	0.655771
735.381320	0.655778
735.711831	0.664512
736.042293	0.669180
736.372707	0.666291
736.703073	0.670924
737.033391	0.672037
737.363661	0.669633
737.693883	0.664992
738.024056	0.663826
738.354182	0.663789
738.684260	0.653393
739.014290	0.650286
739.344272	0.650853
739.674207	0.643267
740.004093	0.643801
740.333931	0.643752
740.663722	0.642962
740.993464	0.644307
741.323159	0.647906
741.652806	0.653062
741.982405	0.657957
742.311956	0.663651
742.641460	0.664984
742.970915	0.668491
743.300323	0.675507
743.629683	0.681803
743.958996	0.685166
744.288260	0.688132
744.617477	0.694932
744.946647	0.696431
745.275768	0.702216
745.604842	0.701987
745.933869	0.711750
746.262847	0.713074
746.591778	0.705115
746.920662	0.712724
747.249498	0.719657
747.578286	0.710634
747.907027	0.706050
748.235720	0.706489
748.564365	0.702564
748.892963	0.700826
749.221514	0.704576
749.550017	0.709540
749.878473	0.710027
750.206881	0.716229
750.535242	0.716858
750.863555	0.716301
751.191821	0.717204
751.520039	0.721298
751.848210	0.725112
752.176334	0.718027
752.504411	0.716939
752.832440	0.725870
753.160421	0.729226
753.488356	0.727615
753.816243	0.724229
754.144082	0.732965
754.471875	0.736722
754.799620	0.733308
755.127318	0.734028
755.454969	0.734525
755.782572	0.734296
756.110129	0.738083
756.437638	0.741113
756.765100	0.737111
757.092515	0.734738
757.419882	0.734261
757.747203	0.740078
758.074477	0.739318
758.401703	0.736817
758.728882	0.731446
759.056014	0.729356
759.383099	0.729231
759.710138	0.730122
760.037129	0.726128
760.364073	0.720767
760.690970	0.722957
761.017820	0.727537
761.344623	0.724257
761.671379	0.715446
761.998088	0.703883
762.324751	0.680043
762.651366	0.637184
762.977935	0.569222
763.304456	0.517447
763.630931	0.507801
763.957359	0.546787
764.283740	0.590939
764.610074	0.619483
764.936362	0.651056
765.262602	0.678765
765.588796	0.699702
765.914943	0.717947
766.241044	0.735279
766.567097	0.741475
766.893104	0.752441
767.219064	0.758669
767.544978	0.765888
767.870845	0.778458
768.196665	0.783999
768.522438	0.780705
768.848165	0.782963
769.173846	0.791955
769.499479	0.796271
769.825066	0.799923
770.150607	0.804568
770.476101	0.800075
770.801548	0.802447
771.126949	0.813390
771.452303	0.817694
771.777611	0.815911
772.102872	0.814001
772.428087	0.820756
772.753256	0.823967
773.078378	0.825126
773.403453	0.834214
773.728482	0.838725
774.053465	0.832213
774.378401	0.835562
774.703291	0.844781
775.028135	0.844637
775.352932	0.843738
775.677683	0.849104
776.002388	0.850030
776.327046	0.848896
776.651658	0.853043
776.976224	0.855847
777.300743	0.854647
777.625216	0.858660
777.949643	0.860363
778.274024	0.858547
778.598359	0.860321
778.922647	0.859750
779.246889	0.860437
779.571086	0.864380
779.895236	0.865936
780.219339	0.864438
780.543397	0.860457
780.867409	0.859444
781.191374	0.861242
781.515294	0.863379
781.839167	0.861723
782.162995	0.864265
782.486776	0.860517
782.810511	0.863467
783.134201	0.868110
783.457844	0.864544
783.781441	0.867739
784.104993	0.872681
784.428498	0.872926
784.751958	0.869154
785.075372	0.871657
785.398739	0.875752
785.722061	0.870526
786.045337	0.867332
786.368568	0.872408
786.691752	0.874190
787.014891	0.859453
787.337983	0.851264
787.661030	0.843481
787.984031	0.825923
788.306987	0.812481
788.629897	0.813569
788.952760	0.818702
789.275579	0.823380
789.598351	0.839370
789.921078	0.852981
790.243759	0.855290
790.566395	0.858512
790.888984	0.866738
791.211529	0.871121
791.534027	0.875832
791.856480	0.878087
792.178888	0.882172
792.501249	0.884350
792.823566	0.885893
793.145836	0.885286
793.468062	0.887956
793.790241	0.888283
794.112375	0.885999
794.434464	0.881896
794.756507	0.882019
795.078505	0.878975
795.400457	0.874441
795.722364	0.862621
796.044226	0.856268
796.366042	0.855389
796.687812	0.858198
797.009538	0.853513
797.331218	0.858329
797.652852	0.861587
797.974442	0.866050
798.295986	0.868051
798.617484	0.869577
798.938938	0.873381
799.260346	0.878233
799.581709	0.879720
799.903026	0.882520
800.224299	0.883002
800.545526	0.886473
800.866708	0.891670
801.187845	0.895211
801.508936	0.894249
801.829983	0.892118
802.150984	0.896338
802.471940	0.900656
802.792851	0.899645
803.113717	0.902430
803.434538	0.899172
803.755314	0.901897
804.076045	0.903334
804.396731	0.902604
804.717372	0.901866
805.037967	0.905032
805.358518	0.903601
805.679024	0.898847
805.999485	0.900933
806.319901	0.899252
806.640272	0.902067
806.960598	0.899826
807.280879	0.896463
807.601115	0.895676
807.921306	0.898522
808.241453	0.899742
808.561554	0.897126
808.881611	0.897998
809.201623	0.899491
809.521590	0.898735
809.841513	0.900978
810.161390	0.898972
810.481223	0.900802
810.801011	0.904134
811.120755	0.906267
811.440453	0.905151
811.760107	0.905009
812.079716	0.904185
812.399281	0.907294
812.718801	0.908505
813.038276	0.909871
813.357707	0.909865
813.677093	0.908423
813.996434	0.909343
814.315731	0.911754
814.634983	0.912794
814.954191	0.911836
815.273354	0.907285
815.592473	0.905099
815.911547	0.904299
816.230577	0.902081
816.549562	0.899091
816.868502	0.898382
817.187399	0.896646
817.506250	0.890578
817.825058	0.891692
818.143821	0.888969
818.462539	0.883499
818.781213	0.876378
819.099843	0.864291
819.418429	0.847746
819.736970	0.831573
820.055466	0.811261
820.373919	0.782970
820.692327	0.751225
821.010691	0.714906
821.329011	0.633829
821.647286	0.517104
821.965517	0.402251
822.283704	0.359013
822.601847	0.359932
822.919945	0.395850
823.237999	0.430253
823.556010	0.479204
823.873976	0.535860
824.191897	0.586471
824.509775	0.630835
824.827609	0.676534
825.145398	0.700524
825.463144	0.701209
825.780845	0.683984
826.098502	0.666666
826.416116	0.620236
826.733685	0.574043
827.051210	0.565468
827.368692	0.580576
827.686129	0.619325
828.003522	0.673876
828.320872	0.722660
828.638177	0.766530
828.955439	0.799659
829.272656	0.822085
829.589830	0.839983
829.906960	0.856680
830.224046	0.868690
830.541088	0.879245
830.858086	0.883827
831.175041	0.891176
831.491952	0.889383
831.808819	0.886106
832.125642	0.878963
832.442421	0.865330
832.759157	0.842299
833.075849	0.792619
833.392497	0.729283
833.709101	0.688073
834.025662	0.697218
834.342179	0.729000
834.658653	0.769301
834.975083	0.806333
835.291469	0.833425
835.607811	0.856813
835.924110	0.873415
836.240366	0.890964
836.556578	0.903754
836.872746	0.911115
837.188871	0.917531
837.504952	0.923314
837.820990	0.926947
838.136984	0.930466
838.452935	0.933292
838.768842	0.934771
839.084706	0.927789
839.400526	0.902228
839.716303	0.860376
840.032037	0.838420
840.347727	0.841478
840.663373	0.859151
840.978977	0.881721
841.294537	0.905974
841.610054	0.922088
841.925527	0.929060
842.240957	0.936513
842.556344	0.943654
842.871687	0.949413
843.186987	0.952451
843.502244	0.955050
843.817458	0.956166
844.132629	0.960614
844.447756	0.964075
844.762840	0.964957
845.077881	0.965207
845.392879	0.964213
845.707833	0.966726
846.022745	0.968902
846.337613	0.969065
846.652438	0.969777
846.967221	0.968809
847.281960	0.970616
847.596656	0.971728
847.911309	0.970596
848.225919	0.971238
848.540485	0.974368
848.855009	0.973960
849.169490	0.973727
849.483928	0.975242
849.798323	0.972165
850.112675	0.974024
850.426984	0.973950
850.741251	0.975500
851.055474	0.974994
851.369654	0.973487
851.683792	0.973446
851.997887	0.974414
852.311938	0.975240
852.625947	0.974018
852.939914	0.971455
853.253837	0.974008
853.567718	0.974663
853.881555	0.974585
854.195350	0.973271
854.509103	0.974053
854.822812	0.976166
855.136479	0.975420
855.450103	0.974609
855.763685	0.972668
856.077224	0.975090
856.390720	0.976110
856.704173	0.975527
857.017584	0.972852
857.330953	0.972460
857.644278	0.970657
857.957561	0.972690
858.270802	0.973491
858.584000	0.972753
858.897155	0.971904
859.210268	0.971697
859.523339	0.973643
859.836367	0.976350
860.149352	0.974570
860.462295	0.975845
860.775195	0.975509
861.088054	0.973358
861.400869	0.975037
861.713642	0.974600
862.026373	0.977194
862.339062	0.976415
862.651708	0.973264
862.964312	0.973258
863.276873	0.974008
863.589392	0.972578
863.901869	0.970102
864.214303	0.968866
864.526696	0.968617
864.839045	0.968849
865.151353	0.966116
865.463619	0.965539
865.775842	0.966569
866.088023	0.967871
866.400162	0.966168
866.712258	0.967984
867.024313	0.967035
867.336325	0.968956
867.648296	0.967703
867.960224	0.966016
868.272110	0.967197
868.583954	0.969160
868.895755	0.968549
869.207515	0.965453
869.519233	0.965407
869.830909	0.964133
870.142542	0.965746
870.454134	0.965572
870.765684	0.964218
871.077191	0.963571
871.388657	0.962201
871.700081	0.964267
872.011463	0.963878
872.322803	0.961918
872.634101	0.960132
872.945357	0.958293
873.256571	0.955877
873.567744	0.957280
873.878874	0.957385
874.189963	0.957766
874.501010	0.957153
874.812015	0.954866
875.122979	0.955152
875.433900	0.955959
875.744780	0.959205
876.055618	0.954160
876.366415	0.953471
876.677169	0.953713
876.987882	0.955125
877.298554	0.956336
877.609183	0.951007
877.919771	0.947744
878.230317	0.945885
878.540822	0.943628
878.851285	0.937784
879.161707	0.929614
879.472087	0.917529
879.782425	0.900283
880.092722	0.864021
880.402977	0.811196
880.713191	0.746894
881.023363	0.686031
881.333494	0.651573
881.643583	0.623764
881.953631	0.624099
882.263637	0.652120
882.573602	0.692321
882.883526	0.718620
883.193408	0.744812
883.503248	0.767295
883.813048	0.795905
884.122806	0.825907
884.432522	0.850478
884.742197	0.870601
885.051831	0.881626
885.361424	0.892894
885.670975	0.906443
885.980485	0.914949
886.289954	0.921101
886.599382	0.925365
886.908768	0.931250
887.218113	0.935815
887.527417	0.942290
887.836680	0.944463
888.145901	0.947984
888.455082	0.950538
888.764221	0.955043
889.073319	0.955576
889.382376	0.957014
889.691392	0.955679
890.000366	0.956915
890.309300	0.956524
890.618193	0.957385
890.927044	0.956232
891.235855	0.954954
891.544625	0.956084
891.853353	0.954972
892.162041	0.952563
892.470687	0.946591
892.779293	0.941858
893.087858	0.935960
893.396381	0.928580
893.704864	0.914626
894.013306	0.890060
894.321707	0.862686
894.630068	0.847193
894.938387	0.841885
895.246665	0.844514
895.554903	0.855911
895.863100	0.870600
896.171256	0.888313
896.479371	0.908409
896.787446	0.921346
897.095480	0.928334
897.403473	0.930634
897.711425	0.934816
898.019336	0.942601
898.327207	0.947324
898.635038	0.946499
898.942827	0.948806
899.250576	0.951774
899.558284	0.955611
899.865952	0.958093
900.173579	0.958814
900.481165	0.960094
900.788711	0.961582
901.096216	0.964650
901.403681	0.967916
901.711105	0.966330
902.018489	0.966836
902.325832	0.964987
902.633135	0.964834
902.940397	0.960092
903.247619	0.945604
903.554800	0.920389
903.861941	0.879099
904.169041	0.840911
904.476101	0.822695
904.783121	0.824401
905.090100	0.840483
905.397039	0.863173
905.703938	0.885509
906.010796	0.906535
906.317614	0.924115
906.624391	0.937169
906.931129	0.947914
907.237826	0.955376
907.544483	0.962357
907.851099	0.967144
908.157675	0.970194
908.464211	0.974535
908.770707	0.975328
909.077163	0.979287
909.383578	0.980021
909.689954	0.978035
909.996289	0.981652
910.302584	0.981985
910.608839	0.985136
910.915054	0.982776
911.221229	0.983081
911.527363	0.980793
911.833458	0.983253
912.139513	0.981923
912.445527	0.981749
912.751502	0.979249
913.057436	0.976471
913.363331	0.974916
913.669186	0.971353
913.975000	0.965287
914.280775	0.959396
914.586510	0.951246
914.892205	0.936566
915.197859	0.915144
915.503475	0.887717
915.809050	0.865558
916.114585	0.860264
916.420081	0.857502
916.725536	0.853557
917.030952	0.862453
917.336328	0.875911
917.641665	0.891194
917.946961	0.907972
918.252218	0.919505
918.557435	0.929696
918.862612	0.938409
919.167750	0.944227
919.472848	0.951021
919.777906	0.956966
920.082925	0.961897
920.387904	0.964722
920.692843	0.966764
920.997743	0.967966
921.302603	0.970786
921.607423	0.972865
921.912204	0.976134
922.216946	0.977706
922.521647	0.977818
922.826310	0.979160
923.130932	0.981318
923.435516	0.983942
923.740059	0.983583
924.044564	0.984110
924.349028	0.984368
924.653454	0.986951
924.957840	0.988511
925.262186	0.988350
925.566493	0.988875
925.870761	0.988864
926.174989	0.988902
926.479178	0.993382
926.783328	0.992621
927.087438	0.993791
927.391509	0.992927
927.695541	0.993946
927.999533	0.994380
928.303486	0.994430
928.607400	0.994148
928.911275	0.995563
929.215110	0.997269
929.518906	0.995516
929.822663	0.997469
930.126381	0.996843
930.430060	0.996645
930.733699	0.995862
931.037299	0.995919
931.340861	0.994693
931.644383	0.993233
931.947866	0.996174
932.251309	0.995985
932.554714	0.995145
932.858080	0.995876
933.161407	0.995013
933.464694	0.996884
933.767943	0.995833
934.071153	0.996442
934.374323	0.996239
934.677455	0.996427
934.980548	0.997028
935.283602	0.996925
935.586617	0.996126
935.889593	0.997121
936.192530	0.997966
936.495428	0.996719
936.798287	0.995595
937.101108	0.995465
937.403890	0.995026
937.706632	0.994124
938.009336	0.992652
938.312002	0.991165
938.614628	0.989126
938.917216	0.987158
939.219765	0.986045
939.522275	0.988047
939.824747	0.988493
940.127179	0.988084
940.429573	0.990452
940.731929	0.987634
941.034246	0.989420
941.336524	0.989675
941.638763	0.991176
941.940964	0.991067
942.243126	0.991403
942.545250	0.992631
942.847335	0.993296
943.149381	0.993736
943.451389	0.992665
943.753359	0.993728
944.055290	0.994787
944.357182	0.994670
944.659036	0.994635
944.960851	0.995519
945.262628	0.995419
945.564367	0.994847
945.866067	0.993701
946.167729	0.995575
946.469352	0.994564
946.770937	0.993405
947.072484	0.996063
947.373992	0.995684
947.675462	0.994595
947.976893	0.995477
948.278286	0.996900
948.579641	0.996996
948.880958	0.995869
949.182236	0.995421
949.483476	0.996909
949.784678	0.996445
950.085841	0.995793
950.386967	0.995373
950.688054	0.996454
950.989103	0.994635
951.290114	0.994323
951.591087	0.995207
951.892021	0.993810
952.192917	0.993855
952.493776	0.993562
952.794596	0.993699
953.095378	0.992706
953.396122	0.992053
953.696828	0.994410
953.997496	0.994002
954.298126	0.996011
954.598718	0.995561
954.899272	0.995973
955.199788	0.996416
955.500266	0.997762
955.800706	0.997371
956.101108	0.998264
956.401472	0.998651
956.701798	0.998940
957.002087	0.998504
957.302337	0.997763
957.602550	1.000298
957.902724	1.000144
958.202861	1.000202
958.502960	0.999379
958.803022	1.001396
959.103045	1.000978
959.403031	1.000660
959.702979	1.002211
960.002889	1.000115
960.302762	1.001955
960.602596	1.001803
960.902393	1.001991
961.202153	1.001748
961.501875	1.001769
961.801559	1.001757
962.101205	1.002070
962.400814	1.002312
962.700385	1.002653
962.999918	1.002798
963.299414	1.001227
963.598873	1.003597
963.898293	1.001436
964.197677	1.001961
964.497022	1.002566
964.796331	1.002190
965.095601	1.003468
965.394835	1.001982
965.694030	1.003745
965.993189	1.002542
966.292309	1.002907
966.591393	1.000498
966.890439	1.003380
967.189447	1.001685
967.488419	1.002923
967.787353	1.001760
968.086249	1.001810
968.385108	1.002831
968.683930	1.003463
968.982714	1.002543
969.281462	1.002322
969.580172	1.002302
969.878844	1.002976
970.177480	1.002083
970.476078	1.003269
970.774639	1.003100
971.073162	1.002014
971.371649	1.002188
971.670098	1.001872
971.968510	1.002677
972.266885	1.001868
972.565223	1.001871
972.863524	1.000169
973.161788	1.001485
973.460014	1.003123
973.758204	1.000977
974.056356	1.002548
974.354471	1.001852
974.652550	1.003532
974.950591	1.001682
975.248595	1.001744
975.546563	1.003543
975.844493	1.002783
976.142386	1.001759
976.440243	1.003273
976.738062	1.002277
977.035845	1.001080
977.333590	1.003679
977.631299	1.002530
977.928971	1.003704
978.226606	1.002244
978.524204	1.002613
978.821765	1.003647
979.119290	1.003441
979.416777	1.002311
979.714228	1.002523
980.011642	1.002573
980.309020	1.002770
980.606360	1.003002
980.903664	1.002398
981.200931	1.002023
981.498162	1.001089
981.795356	1.000840
982.092513	1.000463
982.389633	1.000429
982.686717	0.996611
982.983764	0.996835
983.280775	0.996732
983.577749	0.997014
983.874686	0.996189
984.171587	0.996620
984.468451	0.997733
984.765279	0.999072
985.062070	1.001083
985.358824	0.999655
985.655543	1.002390
985.952224	1.002035
986.248869	1.001642
986.545478	1.005207
986.842050	1.003103
987.138586	1.002250
987.435086	1.002662
987.731549	1.004267
988.027975	1.003860
988.324366	1.003891
988.620719	1.004113
988.917037	1.004148
989.213318	1.003774
989.509563	1.004810
989.805772	1.004322
990.101944	1.003974
990.398080	1.004070
990.694180	1.004710
990.990244	1.002772
991.286271	1.002429
991.582262	1.004486
991.878217	1.003701
992.174136	1.004462
992.470019	1.005482
992.765865	1.005909
993.061676	1.004131
993.357450	1.003164
993.653188	1.005169
993.948890	1.003566
994.244556	1.002997
994.540186	1.003681
994.835780	1.003004
995.131337	1.004211
995.426859	1.003898
995.722345	1.001862
996.017795	1.000962
996.313208	1.002142
996.608586	1.002091
996.903928	1.002834
997.199234	1.001399
997.494504	1.002926
997.789738	1.000872
998.084936	1.002535
998.380099	1.002041
998.675225	1.004545
998.970316	1.003095
999.265371	1.003681
999.560390	1.004384
999.855373	1.003835
1000.150320	1.003880
1000.445232	1.004461
1000.740108	1.004049
1001.034948	1.004249
1001.329752	1.004356
1001.624521	1.004546
1001.919254	1.003418
1002.213951	1.004199
1002.508613	1.003542
1002.803239	1.003659
1003.097829	1.004588
1003.392384	1.003828
1003.686903	1.004367
1003.981386	1.003581
1004.275834	1.005271
1004.570246	1.003765
1004.864623	1.004245
1005.158964	1.004458
1005.453270	1.004724
1005.747540	1.004275
1006.041775	1.004625
1006.335974	1.004284
1006.630138	1.005498
1006.924266	1.002571
1007.218359	1.003131
1007.512416	1.005361
1007.806438	1.003948
1008.100425	1.004249
1008.394376	1.005239
1008.688292	1.004312
1008.982172	1.003832
1009.276017	1.003885
1009.569827	1.005194
1009.863602	1.003347
1010.157341	1.004753
1010.451045	1.005052
1010.744714	1.006628
1011.038347	1.004648
1011.331945	1.004252
1011.625508	1.004176
1011.919036	1.003533
1012.212528	1.004492
1012.505986	1.004497
1012.799408	1.005057
1013.092795	1.004722
1013.386147	1.004890
1013.679464	1.004679
1013.972745	1.003897
1014.265992	1.005519
1014.559204	1.003790
1014.852380	1.005907
1015.145521	1.003652
1015.438628	1.005805
1015.731699	1.004096
1016.024736	1.005449
1016.317737	1.004693
1016.610703	1.005525
1016.903635	1.005108
1017.196531	1.004517
1017.489393	1.004368
1017.782219	1.004186
1018.075011	1.003336
1018.367768	1.004497
1018.660490	1.005008
1018.953177	1.005008
1019.245829	1.005008
