Dividing Wavelength (nm)	Counts (n)	Blue Motor Position (mm): 6.500000	Red Motor Position (mm): 0.000000	
326.493990	1.005445
326.888308	1.005445
327.282561	1.005445
327.676750	1.006260
328.070874	1.005560
328.464933	1.007537
328.858929	1.005586
329.252859	1.006567
329.646726	1.005375
330.040528	1.005664
330.434265	1.004965
330.827938	1.004902
331.221547	1.006273
331.615091	1.006605
332.008571	1.006807
332.401986	1.004693
332.795338	1.005675
333.188625	1.006087
333.581847	1.004636
333.975006	1.006272
334.368100	1.006399
334.761129	1.003032
335.154095	1.005508
335.546996	1.003329
335.939833	0.998253
336.332606	0.999119
336.725315	0.997984
337.117960	0.999701
337.510540	0.998818
337.903056	0.998430
338.295508	1.000382
338.687896	0.998707
339.080220	0.999060
339.472480	0.998570
339.864676	0.997584
340.256807	0.997693
340.648875	0.999823
341.040879	0.998228
341.432818	0.998695
341.824694	0.997867
342.216506	0.999209
342.608253	0.998391
342.999937	0.999331
343.391557	0.998351
343.783113	1.001542
344.174605	0.998239
344.566033	0.998284
344.957397	0.999145
345.348697	0.999354
345.739934	0.999514
346.131106	0.998746
346.522215	0.998027
346.913260	0.998318
347.304241	0.998699
347.695159	0.998885
348.086012	0.999122
348.476802	0.998621
348.867528	0.998706
349.258191	0.999041
349.648789	0.999138
350.039324	0.998528
350.429796	0.997970
350.820203	0.998224
351.210548	0.999396
351.600828	0.997347
351.991045	0.999230
352.381198	0.998329
352.771288	0.997664
353.161314	0.998202
353.551276	0.996662
353.941175	0.997232
354.331010	0.998994
354.720782	0.997633
355.110490	0.998371
355.500135	0.998675
355.889717	0.997528
356.279235	0.998429
356.668689	0.997767
357.058080	0.997870
357.447408	0.996637
357.836672	0.997557
358.225873	0.998693
358.615010	0.998241
359.004084	0.995759
359.393095	0.997598
359.782043	0.998479
360.170927	0.997771
360.559748	0.996704
360.948505	0.996704
361.337199	0.997100
361.725830	0.996216
362.114398	0.996206
362.502903	0.995081
362.891344	0.996294
363.279722	0.996312
363.668037	0.997757
364.056289	0.996468
364.444478	0.997445
364.832603	0.995750
365.220665	0.998054
365.608665	0.996523
365.996601	0.996190
366.384474	0.995285
366.772284	0.996417
367.160031	0.993613
367.547715	0.995591
367.935336	0.994647
368.322893	0.993348
368.710388	0.992645
369.097820	0.990816
369.485189	0.988383
369.872495	0.985879
370.259738	0.984518
370.646918	0.981209
371.034035	0.979501
371.421090	0.976581
371.808081	0.971528
372.195010	0.969372
372.581875	0.963841
372.968678	0.958731
373.355418	0.955809
373.742096	0.948006
374.128710	0.944425
374.515262	0.938448
374.901751	0.933068
375.288177	0.928449
375.674540	0.922469
376.060841	0.915724
376.447079	0.907991
376.833254	0.902958
377.219367	0.897952
377.605417	0.886584
377.991404	0.881828
378.377329	0.876851
378.763191	0.869916
379.148991	0.860993
379.534727	0.853791
379.920402	0.845885
380.306013	0.841789
380.691563	0.829346
381.077049	0.822253
381.462474	0.817913
381.847835	0.807088
382.233134	0.801189
382.618371	0.802953
383.003545	0.785323
383.388657	0.782817
383.773706	0.774746
384.158693	0.771701
384.543618	0.765513
384.928480	0.757285
385.313280	0.746920
385.698017	0.747408
386.082692	0.735245
386.467305	0.733441
386.851856	0.728239
387.236344	0.722722
387.620770	0.717766
388.005133	0.711321
388.389435	0.706214
388.773674	0.703852
389.157851	0.695296
389.541965	0.692918
389.926018	0.699566
390.310008	0.685475
390.693936	0.682944
391.077802	0.675751
391.461606	0.677267
391.845348	0.665617
392.229027	0.666062
392.612645	0.663558
392.996200	0.651479
393.379694	0.643589
393.763125	0.633876
394.146494	0.638900
394.529801	0.628903
394.913047	0.621269
395.296230	0.627223
395.679351	0.618511
396.062410	0.615799
396.445408	0.617895
396.828343	0.613230
397.211217	0.608552
397.594028	0.620322
397.976778	0.611321
398.359466	0.606935
398.742092	0.603122
399.124656	0.614975
399.507158	0.602681
399.889598	0.599901
400.271977	0.591489
400.654294	0.594783
401.036549	0.593892
401.418742	0.598685
401.800874	0.584521
402.182944	0.580633
402.564952	0.572928
402.946898	0.574636
403.328783	0.575879
403.710606	0.586793
404.092367	0.562652
404.474067	0.566023
404.855705	0.566003
405.237282	0.573817
405.618797	0.560684
406.000250	0.556383
406.381642	0.546913
406.762972	0.551462
407.144240	0.550547
407.525447	0.550015
407.906593	0.543137
408.287677	0.538622
408.668700	0.546472
409.049661	0.540434
409.430560	0.535931
409.811399	0.544203
410.192176	0.526014
410.572891	0.533894
410.953545	0.521117
411.334138	0.535380
411.714669	0.527347
412.095139	0.539935
412.475547	0.523822
412.855894	0.525623
413.236180	0.523986
413.616405	0.529705
413.996568	0.520529
414.376670	0.526312
414.756711	0.531465
415.136691	0.527863
415.516609	0.519310
415.896466	0.515596
416.276262	0.512474
416.655997	0.513863
417.035670	0.495516
417.415283	0.487051
417.794834	0.491482
418.174324	0.497343
418.553753	0.506465
418.933121	0.488340
419.312428	0.482846
419.691674	0.488098
420.070859	0.476732
420.449983	0.484511
420.829045	0.473385
421.208047	0.483125
421.586988	0.475531
421.965867	0.474906
422.344686	0.463783
422.723444	0.475963
423.102141	0.492500
423.480777	0.465979
423.859352	0.486201
424.237866	0.463200
424.616319	0.464361
424.994712	0.455456
425.373044	0.466033
425.751314	0.453794
426.129524	0.470554
426.507673	0.454236
426.885762	0.447281
427.263789	0.452321
427.641756	0.462740
428.019662	0.452785
428.397508	0.452229
428.775292	0.456653
429.153016	0.448205
429.530679	0.454519
429.908282	0.447541
430.285824	0.457655
430.663305	0.436102
431.040726	0.457568
431.418086	0.457188
431.795385	0.448795
432.172624	0.448368
432.549802	0.448114
432.926920	0.447491
433.303977	0.446696
433.680974	0.443975
434.057910	0.442562
434.434786	0.441105
434.811601	0.444628
435.188355	0.426913
435.565050	0.436347
435.941683	0.437255
436.318257	0.421361
436.694770	0.422576
437.071222	0.420640
437.447614	0.424857
437.823946	0.431540
438.200218	0.420617
438.576429	0.430143
438.952580	0.423501
439.328670	0.420210
439.704700	0.426163
440.080670	0.427543
440.456580	0.408963
440.832429	0.416795
441.208218	0.427890
441.583947	0.417372
441.959616	0.416348
442.335224	0.421938
442.710773	0.412738
443.086261	0.410829
443.461689	0.424831
443.837057	0.414854
444.212365	0.404393
444.587612	0.411583
444.962800	0.401807
445.337927	0.403001
445.712995	0.429043
446.088002	0.391017
446.462949	0.401677
446.837837	0.406001
447.212664	0.394804
447.587431	0.386927
447.962139	0.357422
448.336786	0.316272
448.711374	0.326561
449.085901	0.370518
449.460369	0.375185
449.834776	0.378675
450.209124	0.357861
450.583412	0.350546
450.957640	0.342928
451.331808	0.355064
451.705917	0.377866
452.079965	0.382542
452.453954	0.371136
452.827883	0.377725
453.201752	0.372544
453.575562	0.383979
453.949311	0.372453
454.323001	0.379028
454.696632	0.374487
455.070202	0.366992
455.443713	0.358766
455.817164	0.353450
456.190556	0.349375
456.563888	0.345920
456.937160	0.343968
457.310373	0.361314
457.683526	0.360017
458.056619	0.365827
458.429653	0.366134
458.802628	0.369785
459.175542	0.363948
459.548398	0.346229
459.921194	0.338901
460.293930	0.339390
460.666607	0.316777
461.039224	0.304849
461.411782	0.300450
461.784280	0.299424
462.156719	0.303804
462.529099	0.308414
462.901419	0.324653
463.273680	0.328673
463.645882	0.328104
464.018024	0.333863
464.390106	0.326794
464.762130	0.311028
465.134094	0.294414
465.505999	0.263421
465.877845	0.233742
466.249631	0.220333
466.621358	0.227902
466.993026	0.241977
467.364634	0.248198
467.736184	0.256958
468.107674	0.265819
468.479105	0.265016
468.850477	0.271540
469.221790	0.278225
469.593043	0.288547
469.964238	0.293489
470.335373	0.292991
470.706449	0.291227
471.077467	0.291607
471.448425	0.253608
471.819324	0.229050
472.190164	0.228696
472.560945	0.257876
472.931667	0.280029
473.302330	0.284311
473.672934	0.296070
474.043479	0.284054
474.413965	0.286198
474.784393	0.289188
475.154761	0.284463
475.525070	0.281602
475.895321	0.287351
476.265513	0.281527
476.635645	0.276676
477.005719	0.277195
477.375734	0.273150
477.745691	0.266838
478.115588	0.262801
478.485427	0.256446
478.855207	0.243466
479.224928	0.225719
479.594591	0.213861
479.964194	0.217079
480.333739	0.218458
480.703226	0.219784
481.072653	0.218127
481.442022	0.213933
481.811333	0.210637
482.180584	0.214058
482.549777	0.219523
482.918912	0.222678
483.287988	0.222488
483.657005	0.222179
484.025964	0.228370
484.394864	0.225737
484.763706	0.226379
485.132489	0.231523
485.501213	0.232389
485.869879	0.230673
486.238487	0.233638
486.607036	0.231725
486.975527	0.236457
487.343959	0.232005
487.712333	0.231187
488.080648	0.232538
488.448905	0.231739
488.817104	0.233060
489.185244	0.227537
489.553326	0.224364
489.921350	0.214308
490.289315	0.196696
490.657222	0.191650
491.025070	0.193174
491.392861	0.194907
491.760593	0.200627
492.128267	0.206433
492.495883	0.211969
492.863440	0.218374
493.230939	0.224768
493.598380	0.226104
493.965763	0.228453
494.333088	0.230318
494.700354	0.231998
495.067563	0.230927
495.434713	0.234387
495.801805	0.232111
496.168839	0.233502
496.535815	0.234950
496.902733	0.235004
497.269593	0.236358
497.636395	0.234218
498.003139	0.234549
498.369825	0.237654
498.736453	0.234140
499.103023	0.235505
499.469535	0.234851
499.835989	0.235149
500.202385	0.236075
500.568723	0.239017
500.935003	0.234525
501.301226	0.238629
501.667390	0.233014
502.033497	0.230998
502.399546	0.234120
502.765537	0.236027
503.131470	0.234736
503.497345	0.230753
503.863163	0.239268
504.228923	0.232200
504.594625	0.230973
504.960269	0.236309
505.325856	0.231927
505.691385	0.236290
506.056856	0.233055
506.422270	0.232182
506.787625	0.234875
507.152924	0.232106
507.518164	0.232587
507.883347	0.234007
508.248472	0.236297
508.613540	0.230928
508.978550	0.233404
509.343503	0.234342
509.708398	0.231612
510.073236	0.229142
510.438016	0.229252
510.802738	0.229874
511.167403	0.228871
511.532010	0.231196
511.896561	0.226525
512.261053	0.225051
512.625488	0.227299
512.989866	0.227786
513.354186	0.227604
513.718449	0.229759
514.082655	0.226198
514.446803	0.228541
514.810894	0.226405
515.174927	0.228762
515.538904	0.228288
515.902822	0.225008
516.266684	0.227276
516.630488	0.228570
516.994235	0.227468
517.357925	0.226546
517.721558	0.224468
518.085133	0.224211
518.448651	0.223958
518.812112	0.226730
519.175516	0.225968
519.538863	0.223535
519.902152	0.225431
520.265385	0.222176
520.628560	0.223932
520.991678	0.224403
521.354739	0.223056
521.717743	0.224395
522.080690	0.224874
522.443580	0.222193
522.806413	0.222979
523.169189	0.222649
523.531908	0.221336
523.894569	0.224940
524.257174	0.224929
524.619722	0.222225
524.982213	0.223619
525.344647	0.222703
525.707025	0.223338
526.069345	0.221057
526.431608	0.223008
526.793815	0.220741
527.155964	0.225258
527.518057	0.224096
527.880093	0.225407
528.242072	0.223734
528.603995	0.225731
528.965860	0.227320
529.327669	0.226316
529.689421	0.227148
530.051117	0.228277
530.412755	0.226070
530.774337	0.227994
531.135862	0.228581
531.497331	0.227536
531.858743	0.230816
532.220098	0.227336
532.581396	0.229997
532.942638	0.230277
533.303824	0.231460
533.664953	0.231202
534.026025	0.232915
534.387040	0.230772
534.747999	0.230695
535.108902	0.229755
535.469748	0.234819
535.830537	0.232526
536.191270	0.233035
536.551947	0.232449
536.912567	0.232374
537.273131	0.234063
537.633638	0.234246
537.994089	0.234861
538.354483	0.235891
538.714821	0.232979
539.075103	0.232643
539.435328	0.233557
539.795497	0.236901
540.155609	0.233707
540.515665	0.231636
540.875665	0.237359
541.235609	0.235982
541.595496	0.235957
541.955328	0.232882
542.315102	0.235479
542.674821	0.236552
543.034483	0.236747
543.394090	0.236260
543.753640	0.237844
544.113134	0.233093
544.472571	0.236111
544.831953	0.233092
545.191278	0.237168
545.550548	0.236579
545.909761	0.233570
546.268918	0.234164
546.628019	0.232676
546.987064	0.235379
547.346053	0.236917
547.704986	0.234889
548.063863	0.235121
548.422684	0.235393
548.781449	0.237235
549.140158	0.234919
549.498811	0.237618
549.857408	0.240704
550.215949	0.235221
550.574434	0.238549
550.932864	0.236763
551.291237	0.235095
551.649555	0.236864
552.007817	0.236467
552.366022	0.237322
552.724173	0.237351
553.082267	0.237855
553.440305	0.234677
553.798288	0.238883
554.156215	0.235488
554.514086	0.236326
554.871902	0.239676
555.229661	0.238746
555.587365	0.239421
555.945014	0.241972
556.302606	0.238753
556.660143	0.241457
557.017625	0.237950
557.375050	0.240050
557.732421	0.237075
558.089735	0.238975
558.446994	0.238933
558.804197	0.238449
559.161345	0.238175
559.518437	0.241718
559.875474	0.239833
560.232455	0.238960
560.589381	0.239983
560.946251	0.240105
561.303065	0.238047
561.659825	0.239230
562.016528	0.240822
562.373177	0.243361
562.729770	0.241141
563.086307	0.242816
563.442789	0.240540
563.799216	0.243531
564.155587	0.242434
564.511904	0.243533
564.868164	0.243399
565.224370	0.243550
565.580520	0.245049
565.936615	0.245116
566.292654	0.248005
566.648638	0.244943
567.004567	0.245765
567.360441	0.246413
567.716260	0.248289
568.072023	0.245892
568.427732	0.247080
568.783385	0.249448
569.138982	0.247534
569.494525	0.247231
569.850013	0.249943
570.205445	0.248401
570.560823	0.250960
570.916145	0.252961
571.271412	0.251234
571.626625	0.252721
571.981782	0.253304
572.336884	0.254237
572.691931	0.253973
573.046923	0.255416
573.401860	0.256211
573.756743	0.258233
574.111570	0.256735
574.466342	0.257676
574.821059	0.256619
575.175722	0.259611
575.530330	0.258939
575.884882	0.259360
576.239380	0.261350
576.593823	0.261980
576.948211	0.261455
577.302544	0.264421
577.656823	0.264325
578.011047	0.264164
578.365216	0.265130
578.719330	0.267087
579.073389	0.266621
579.427394	0.267950
579.781344	0.269021
580.135239	0.270431
580.489080	0.269786
580.842866	0.273061
581.196597	0.272995
581.550273	0.271814
581.903895	0.272588
582.257463	0.270486
582.610975	0.274178
582.964434	0.273426
583.317837	0.275680
583.671186	0.276301
584.024481	0.276249
584.377721	0.278790
584.730906	0.279495
585.084037	0.278916
585.437113	0.280823
585.790135	0.280489
586.143103	0.283175
586.496016	0.283680
586.848874	0.281660
587.201679	0.282428
587.554428	0.285486
587.907124	0.284554
588.259765	0.284682
588.612352	0.285550
588.964884	0.289284
589.317362	0.288585
589.669786	0.289011
590.022155	0.287226
590.374470	0.286968
590.726731	0.288598
591.078937	0.293722
591.431090	0.290123
591.783188	0.294170
592.135232	0.294672
592.487222	0.294774
592.839157	0.292671
593.191038	0.295208
593.542866	0.296623
593.894639	0.300106
594.246358	0.298571
594.598022	0.297947
594.949633	0.301751
595.301190	0.302614
595.652692	0.301324
596.004141	0.297241
596.355535	0.305519
596.706876	0.306182
597.058162	0.308622
597.409395	0.305901
597.760573	0.303887
598.111698	0.306814
598.462768	0.307507
598.813785	0.308760
599.164748	0.309927
599.515657	0.310140
599.866511	0.313475
600.217312	0.308985
600.568060	0.314385
600.918753	0.310308
601.269392	0.311305
601.619978	0.314858
601.970510	0.312394
602.320988	0.312730
602.671412	0.310279
603.021783	0.312607
603.372100	0.314197
603.722363	0.314088
604.072572	0.314752
604.422728	0.314493
604.772830	0.316758
605.122878	0.316759
605.472872	0.317151
605.822813	0.314960
606.172701	0.318079
606.522534	0.315211
606.872314	0.315413
607.222041	0.316302
607.571714	0.314069
607.921333	0.316013
608.270899	0.315587
608.620411	0.312138
608.969870	0.316111
609.319276	0.316533
609.668627	0.316218
610.017926	0.314467
610.367171	0.313017
610.716362	0.313566
611.065500	0.313835
611.414585	0.312748
611.763616	0.313228
612.112594	0.313977
612.461518	0.312815
612.810389	0.310888
613.159207	0.313475
613.507971	0.314605
613.856682	0.310692
614.205340	0.312037
614.553945	0.309537
614.902496	0.312801
615.250994	0.310849
615.599439	0.311705
615.947830	0.311015
616.296169	0.312019
616.644454	0.311583
616.992686	0.311636
617.340864	0.309555
617.688990	0.313021
618.037063	0.309660
618.385082	0.311449
618.733048	0.308476
619.080961	0.310784
619.428821	0.310273
619.776628	0.310097
620.124382	0.311898
620.472083	0.312680
620.819731	0.311579
621.167326	0.315645
621.514868	0.315109
621.862357	0.319519
622.209793	0.318556
622.557176	0.321436
622.904506	0.322403
623.251783	0.324723
623.599007	0.327113
623.946179	0.326591
624.293297	0.328503
624.640363	0.332468
624.987376	0.333170
625.334336	0.335092
625.681243	0.337712
626.028097	0.338746
626.374899	0.339545
626.721647	0.339905
627.068343	0.342799
627.414987	0.344293
627.761577	0.345917
628.108115	0.344336
628.454600	0.349576
628.801032	0.347222
629.147412	0.348927
629.493739	0.349963
629.840014	0.352775
630.186236	0.349592
630.532405	0.355835
630.878521	0.353092
631.224585	0.355477
631.570597	0.359011
631.916556	0.357617
632.262462	0.357472
632.608316	0.359453
632.954117	0.359750
633.299866	0.361487
633.645562	0.361152
633.991206	0.366030
634.336797	0.368575
634.682336	0.371341
635.027823	0.372568
635.373257	0.373709
635.718639	0.376942
636.063968	0.376065
636.409245	0.382278
636.754470	0.382645
637.099642	0.384798
637.444762	0.388580
637.789829	0.387288
638.134845	0.391145
638.479808	0.392085
638.824719	0.392053
639.169577	0.395532
639.514383	0.394970
639.859137	0.399102
640.203839	0.398883
640.548489	0.399895
640.893086	0.400358
641.237632	0.402291
641.582125	0.400898
641.926566	0.402914
642.270955	0.402675
642.615292	0.402628
642.959576	0.402290
643.303809	0.402797
643.647990	0.402063
643.992118	0.402554
644.336195	0.405628
644.680219	0.404195
645.024192	0.404892
645.368112	0.398908
645.711981	0.397596
646.055797	0.393353
646.399562	0.395079
646.743274	0.388136
647.086935	0.384767
647.430544	0.384535
647.774101	0.383835
648.117606	0.383929
648.461059	0.384425
648.804460	0.386982
649.147810	0.391703
649.491108	0.393655
649.834354	0.394944
650.177548	0.400075
650.520690	0.405931
650.863781	0.406466
651.206820	0.406095
651.549807	0.410188
651.892742	0.415189
652.235626	0.414261
652.578458	0.415435
652.921238	0.421284
653.263967	0.419392
653.606644	0.422859
653.949269	0.422765
654.291843	0.427086
654.634365	0.423951
654.976836	0.426692
655.319255	0.427177
655.661622	0.428768
656.003938	0.428963
656.346203	0.431539
656.688416	0.429337
657.030577	0.432920
657.372687	0.434963
657.714746	0.435723
658.056753	0.432533
658.398708	0.436338
658.740612	0.438194
659.082465	0.434322
659.424266	0.434253
659.766016	0.433612
660.107715	0.436851
660.449362	0.436016
660.790958	0.435796
661.132503	0.437458
661.473996	0.433978
661.815438	0.435305
662.156829	0.435138
662.498168	0.436412
662.839456	0.437146
663.180693	0.435564
663.521879	0.434953
663.863013	0.436130
664.204097	0.434432
664.545129	0.431488
664.886110	0.432185
665.227040	0.429620
665.567918	0.431686
665.908746	0.429290
666.249522	0.429696
666.590248	0.430716
666.930922	0.428177
667.271545	0.427873
667.612118	0.427175
667.952639	0.429012
668.293109	0.428363
668.633528	0.430390
668.973896	0.430216
669.314213	0.431036
669.654480	0.432605
669.994695	0.432952
670.334859	0.433642
670.674973	0.434090
671.015035	0.434107
671.355047	0.434424
671.695008	0.435021
672.034918	0.437435
672.374777	0.436278
672.714585	0.438069
673.054342	0.437287
673.394049	0.437476
673.733705	0.435567
674.073310	0.436668
674.412864	0.439584
674.752368	0.439955
675.091820	0.440032
675.431223	0.445073
675.770574	0.444386
676.109875	0.447843
676.449125	0.447452
676.788324	0.450114
677.127473	0.455377
677.466571	0.455162
677.805619	0.456855
678.144616	0.457566
678.483562	0.460034
678.822458	0.462242
679.161303	0.462682
679.500098	0.463864
679.838842	0.465481
680.177535	0.464524
680.516179	0.462824
680.854771	0.461562
681.193314	0.455727
681.531805	0.446804
681.870247	0.435563
682.208638	0.428123
682.546978	0.426765
682.885268	0.428870
683.223508	0.434910
683.561697	0.438837
683.899836	0.441870
684.237925	0.444524
684.575963	0.447837
684.913951	0.450638
685.251889	0.446026
685.589776	0.447977
685.927614	0.450679
686.265401	0.444750
686.603137	0.446159
686.940824	0.440420
687.278460	0.439227
687.616046	0.437845
687.953582	0.432927
688.291068	0.434681
688.628504	0.430059
688.965889	0.432469
689.303224	0.435912
689.640510	0.440620
689.977745	0.445599
690.314930	0.453808
690.652065	0.458790
690.989150	0.465718
691.326185	0.472847
691.663170	0.477428
692.000105	0.484251
692.336990	0.491067
692.673825	0.494109
693.010610	0.500759
693.347345	0.506866
693.684030	0.508034
694.020665	0.512713
694.357251	0.521270
694.693786	0.521836
695.030272	0.524170
695.366707	0.529307
695.703093	0.532475
696.039429	0.530028
696.375716	0.532179
696.711952	0.534649
697.048139	0.537344
697.384276	0.538661
697.720363	0.537678
698.056400	0.535882
698.392388	0.541913
698.728326	0.544283
699.064214	0.547600
699.400053	0.547278
699.735842	0.551874
700.071581	0.554536
700.407270	0.557780
700.742910	0.560579
701.078501	0.566561
701.414042	0.567535
701.749533	0.570317
702.084974	0.579155
702.420366	0.571890
702.755709	0.579082
703.091002	0.587212
703.426246	0.580484
703.761440	0.585571
704.096584	0.591084
704.431679	0.587969
704.766725	0.590727
705.101721	0.591622
705.436668	0.589113
705.771565	0.594795
706.106413	0.591267
706.441212	0.587208
706.775961	0.586373
707.110661	0.588210
707.445311	0.585167
707.779913	0.583063
708.114465	0.580416
708.448967	0.577668
708.783421	0.569913
709.117825	0.564983
709.452180	0.564344
709.786485	0.558413
710.120742	0.548542
710.454949	0.550711
710.789107	0.542521
711.123216	0.533104
711.457275	0.534690
711.791286	0.526454
712.125247	0.525876
712.459159	0.536103
712.793023	0.528248
713.126837	0.533135
713.460602	0.532825
713.794318	0.541898
714.127985	0.541202
714.461602	0.551394
714.795171	0.554662
715.128691	0.562645
715.462162	0.570601
715.795584	0.575788
716.128957	0.578790
716.462281	0.585550
716.795556	0.588588
717.128782	0.594196
717.461960	0.603166
717.795088	0.601774
718.128167	0.608463
718.461198	0.616464
718.794180	0.617869
719.127113	0.619980
719.459997	0.622956
719.792833	0.629511
720.125619	0.630996
720.458357	0.636752
720.791046	0.636912
721.123686	0.640863
721.456278	0.647341
721.788821	0.644407
722.121315	0.649909
722.453761	0.653610
722.786158	0.650981
723.118506	0.647351
723.450805	0.654750
723.783056	0.651822
724.115259	0.648976
724.447412	0.648296
724.779518	0.649567
725.111574	0.648856
725.443582	0.644113
725.775542	0.646753
726.107453	0.639222
726.439315	0.639026
726.771129	0.637075
727.102895	0.630455
727.434612	0.623636
727.766281	0.622754
728.097901	0.621004
728.429473	0.620612
728.760996	0.619161
729.092471	0.620295
729.423897	0.623953
729.755276	0.622182
730.086606	0.622449
730.417887	0.616920
730.749120	0.607901
731.080305	0.598378
731.411442	0.594942
731.742530	0.599090
732.073570	0.598580
732.404562	0.591727
732.735506	0.593170
733.066401	0.597519
733.397249	0.606464
733.728048	0.617471
734.058798	0.630449
734.389501	0.641672
734.720156	0.651742
735.050762	0.658963
735.381320	0.659795
735.711831	0.668347
736.042293	0.673691
736.372707	0.670530
736.703073	0.674357
737.033391	0.676934
737.363661	0.673839
737.693883	0.669228
738.024056	0.667518
738.354182	0.668016
738.684260	0.657876
739.014290	0.654527
739.344272	0.655462
739.674207	0.648519
740.004093	0.647819
740.333931	0.648836
740.663722	0.648016
740.993464	0.649066
741.323159	0.651779
741.652806	0.658092
741.982405	0.662792
742.311956	0.667890
742.641460	0.669964
742.970915	0.673050
743.300323	0.679675
743.629683	0.685942
743.958996	0.688577
744.288260	0.692767
744.617477	0.699415
744.946647	0.700499
745.275768	0.706948
745.604842	0.706227
745.933869	0.716729
746.262847	0.716331
746.591778	0.710393
746.920662	0.716810
747.249498	0.723374
747.578286	0.715157
747.907027	0.711268
748.235720	0.711247
748.564365	0.706922
748.892963	0.705890
749.221514	0.709925
749.550017	0.714027
749.878473	0.715070
750.206881	0.720884
750.535242	0.721429
750.863555	0.720181
751.191821	0.722000
751.520039	0.725951
751.848210	0.729167
752.176334	0.723626
752.504411	0.722726
752.832440	0.730079
753.160421	0.733890
753.488356	0.732710
753.816243	0.730448
754.144082	0.738045
754.471875	0.741746
754.799620	0.737543
755.127318	0.739338
755.454969	0.739038
755.782572	0.739932
756.110129	0.743188
756.437638	0.745986
756.765100	0.743499
757.092515	0.741235
757.419882	0.739589
757.747203	0.745199
758.074477	0.745103
758.401703	0.742582
758.728882	0.737694
759.056014	0.735974
759.383099	0.735256
759.710138	0.735196
760.037129	0.732281
760.364073	0.726880
760.690970	0.728751
761.017820	0.733062
761.344623	0.730443
761.671379	0.721840
761.998088	0.710684
762.324751	0.687330
762.651366	0.645314
762.977935	0.578473
763.304456	0.529079
763.630931	0.520153
763.957359	0.558379
764.283740	0.601583
764.610074	0.630380
764.936362	0.660180
765.262602	0.687075
765.588796	0.708219
765.914943	0.725231
766.241044	0.742532
766.567097	0.748770
766.893104	0.759552
767.219064	0.764610
767.544978	0.771319
767.870845	0.784354
768.196665	0.788097
768.522438	0.787340
768.848165	0.788521
769.173846	0.797250
769.499479	0.800520
769.825066	0.805092
770.150607	0.810433
770.476101	0.805663
770.801548	0.807187
771.126949	0.818463
771.452303	0.822158
771.777611	0.821571
772.102872	0.819194
772.428087	0.825559
772.753256	0.828293
773.078378	0.830659
773.403453	0.839492
773.728482	0.843693
774.053465	0.836261
774.378401	0.840406
774.703291	0.849041
775.028135	0.849506
775.352932	0.849198
775.677683	0.853674
776.002388	0.853896
776.327046	0.853284
776.651658	0.858487
776.976224	0.860533
777.300743	0.860094
777.625216	0.862297
777.949643	0.864211
778.274024	0.863505
778.598359	0.865565
778.922647	0.863590
779.246889	0.865126
779.571086	0.867995
779.895236	0.870658
780.219339	0.868682
780.543397	0.863999
780.867409	0.864602
781.191374	0.865241
781.515294	0.867597
781.839167	0.866214
782.162995	0.868683
782.486776	0.866797
782.810511	0.867785
783.134201	0.872436
783.457844	0.869902
783.781441	0.871702
784.104993	0.876874
784.428498	0.878012
784.751958	0.874589
785.075372	0.875564
785.398739	0.879208
785.722061	0.875239
786.045337	0.872606
786.368568	0.875959
786.691752	0.878440
787.014891	0.865192
787.337983	0.856200
787.661030	0.848549
787.984031	0.830895
788.306987	0.819303
788.629897	0.819396
788.952760	0.825494
789.275579	0.829984
789.598351	0.845801
789.921078	0.857542
790.243759	0.860579
790.566395	0.864150
790.888984	0.871695
791.211529	0.876080
791.534027	0.879349
791.856480	0.881862
792.178888	0.886391
792.501249	0.888554
792.823566	0.890591
793.145836	0.890220
793.468062	0.892001
793.790241	0.892222
794.112375	0.891122
794.434464	0.887074
794.756507	0.885559
795.078505	0.883401
795.400457	0.879340
795.722364	0.867639
796.044226	0.861968
796.366042	0.860290
796.687812	0.862305
797.009538	0.859028
797.331218	0.865352
797.652852	0.867603
797.974442	0.871601
798.295986	0.873794
798.617484	0.873877
798.938938	0.878510
799.260346	0.882919
799.581709	0.884562
799.903026	0.888286
800.224299	0.888242
800.545526	0.892348
800.866708	0.895307
801.187845	0.899742
801.508936	0.898439
801.829983	0.896511
802.150984	0.901212
802.471940	0.906150
802.792851	0.904643
803.113717	0.905295
803.434538	0.902868
803.755314	0.906441
804.076045	0.907227
804.396731	0.906810
804.717372	0.906611
805.037967	0.909086
805.358518	0.905984
805.679024	0.903607
805.999485	0.904849
806.319901	0.904052
806.640272	0.906308
806.960598	0.904557
807.280879	0.900546
807.601115	0.898881
807.921306	0.904405
808.241453	0.904207
808.561554	0.902632
808.881611	0.902139
809.201623	0.903892
809.521590	0.903821
809.841513	0.905033
810.161390	0.902872
810.481223	0.904626
810.801011	0.909047
811.120755	0.910043
811.440453	0.909377
811.760107	0.910034
812.079716	0.909178
812.399281	0.911271
812.718801	0.913355
813.038276	0.914703
813.357707	0.914611
813.677093	0.912756
813.996434	0.914946
814.315731	0.916691
814.634983	0.918184
814.954191	0.917364
815.273354	0.912935
815.592473	0.910130
815.911547	0.909339
816.230577	0.907567
816.549562	0.904259
816.868502	0.902799
817.187399	0.901714
817.506250	0.896690
817.825058	0.897183
818.143821	0.894542
818.462539	0.891022
818.781213	0.882699
819.099843	0.871958
819.418429	0.855293
819.736970	0.839132
820.055466	0.820073
820.373919	0.795127
820.692327	0.764645
821.010691	0.730209
821.329011	0.651481
821.647286	0.537441
821.965517	0.425455
822.283704	0.381930
822.601847	0.384367
822.919945	0.422632
823.237999	0.459483
823.556010	0.504951
823.873976	0.559705
824.191897	0.610709
824.509775	0.652895
824.827609	0.695945
825.145398	0.718438
825.463144	0.719674
825.780845	0.702606
826.098502	0.684753
826.416116	0.640772
826.733685	0.596538
827.051210	0.588781
827.368692	0.604414
827.686129	0.641837
828.003522	0.694565
828.320872	0.741063
828.638177	0.781835
828.955439	0.812925
829.272656	0.833457
829.589830	0.850484
829.906960	0.865755
830.224046	0.877420
830.541088	0.887075
830.858086	0.893122
831.175041	0.897796
831.491952	0.896223
831.808819	0.893264
832.125642	0.885477
832.442421	0.873127
832.759157	0.852711
833.075849	0.805869
833.392497	0.744290
833.709101	0.704847
834.025662	0.716530
834.342179	0.747228
834.658653	0.785142
834.975083	0.819434
835.291469	0.845797
835.607811	0.866024
835.924110	0.882295
836.240366	0.898504
836.556578	0.910849
836.872746	0.917362
837.188871	0.923868
837.504952	0.929590
837.820990	0.931688
838.136984	0.934691
838.452935	0.937835
838.768842	0.939994
839.084706	0.933181
839.400526	0.908021
839.716303	0.867480
840.032037	0.847466
840.347727	0.851384
840.663373	0.868398
840.978977	0.890199
841.294537	0.912375
841.610054	0.926365
841.925527	0.934688
842.240957	0.940840
842.556344	0.948383
842.871687	0.953037
843.186987	0.956721
843.502244	0.957479
843.817458	0.958316
844.132629	0.963030
844.447756	0.967008
844.762840	0.967086
845.077881	0.968623
845.392879	0.967090
845.707833	0.969234
846.022745	0.971194
846.337613	0.972457
846.652438	0.971916
846.967221	0.973037
847.281960	0.972411
847.596656	0.973050
847.911309	0.972950
848.225919	0.973566
848.540485	0.976031
848.855009	0.975727
849.169490	0.974108
849.483928	0.974872
849.798323	0.973518
850.112675	0.976253
850.426984	0.976374
850.741251	0.976445
851.055474	0.976584
851.369654	0.975285
851.683792	0.975005
851.997887	0.976473
852.311938	0.975946
852.625947	0.975408
852.939914	0.973767
853.253837	0.976201
853.567718	0.977197
853.881555	0.975584
854.195350	0.975770
854.509103	0.975391
854.822812	0.977061
855.136479	0.977126
855.450103	0.975732
855.763685	0.976399
856.077224	0.975648
856.390720	0.978425
856.704173	0.976548
857.017584	0.974707
857.330953	0.974241
857.644278	0.973423
857.957561	0.973573
858.270802	0.975984
858.584000	0.975726
858.897155	0.973552
859.210268	0.974362
859.523339	0.976110
859.836367	0.977618
860.149352	0.976800
860.462295	0.976724
860.775195	0.976369
861.088054	0.975233
861.400869	0.976688
861.713642	0.977539
862.026373	0.977457
862.339062	0.977583
862.651708	0.975425
862.964312	0.974730
863.276873	0.975309
863.589392	0.974497
863.901869	0.973194
864.214303	0.971610
864.526696	0.970945
864.839045	0.969381
865.151353	0.970668
865.463619	0.969354
865.775842	0.970451
866.088023	0.970906
866.400162	0.969684
866.712258	0.971106
867.024313	0.971021
867.336325	0.972151
867.648296	0.971251
867.960224	0.968816
868.272110	0.970165
868.583954	0.971588
868.895755	0.971930
869.207515	0.970005
869.519233	0.968002
869.830909	0.967695
870.142542	0.968914
870.454134	0.968827
870.765684	0.967284
871.077191	0.966203
871.388657	0.965489
871.700081	0.966267
872.011463	0.967068
872.322803	0.965548
872.634101	0.964535
872.945357	0.962667
873.256571	0.960363
873.567744	0.962090
873.878874	0.961805
874.189963	0.961383
874.501010	0.962340
874.812015	0.958562
875.122979	0.959055
875.433900	0.960465
875.744780	0.962613
876.055618	0.958265
876.366415	0.957996
876.677169	0.957779
876.987882	0.959514
877.298554	0.960108
877.609183	0.956814
877.919771	0.954157
878.230317	0.953779
878.540822	0.949640
878.851285	0.946843
879.161707	0.938867
879.472087	0.928288
879.782425	0.912088
880.092722	0.879305
880.402977	0.828564
880.713191	0.767765
881.023363	0.708292
881.333494	0.674696
881.643583	0.648656
881.953631	0.649529
882.263637	0.679416
882.573602	0.718853
882.883526	0.743784
883.193408	0.767836
883.503248	0.789745
883.813048	0.816072
884.122806	0.844984
884.432522	0.866275
884.742197	0.885013
885.051831	0.895300
885.361424	0.905349
885.670975	0.918076
885.980485	0.925099
886.289954	0.930723
886.599382	0.935013
886.908768	0.938998
887.218113	0.944040
887.527417	0.948910
887.836680	0.951097
888.145901	0.953365
888.455082	0.956785
888.764221	0.959255
889.073319	0.960968
889.382376	0.962218
889.691392	0.960509
890.000366	0.962830
890.309300	0.962304
890.618193	0.962144
890.927044	0.960502
891.235855	0.959946
891.544625	0.961152
891.853353	0.960016
892.162041	0.957528
892.470687	0.952802
892.779293	0.947067
893.087858	0.943073
893.396381	0.936414
893.704864	0.923065
894.013306	0.901096
894.321707	0.876000
894.630068	0.862012
894.938387	0.857220
895.246665	0.859951
895.554903	0.872198
895.863100	0.885713
896.171256	0.901166
896.479371	0.918123
896.787446	0.929653
897.095480	0.936143
897.403473	0.939452
897.711425	0.944740
898.019336	0.949385
898.327207	0.954823
898.635038	0.953434
898.942827	0.955480
899.250576	0.958153
899.558284	0.961669
899.865952	0.962470
900.173579	0.963301
900.481165	0.964493
900.788711	0.966615
901.096216	0.968052
901.403681	0.971232
901.711105	0.970371
902.018489	0.971580
902.325832	0.970291
902.633135	0.968967
902.940397	0.965057
903.247619	0.952166
903.554800	0.928815
903.861941	0.890768
904.169041	0.855887
904.476101	0.840190
904.783121	0.840974
905.090100	0.856892
905.397039	0.879034
905.703938	0.899186
906.010796	0.919324
906.317614	0.933733
906.624391	0.946068
906.931129	0.954443
907.237826	0.961501
907.544483	0.967564
907.851099	0.970911
908.157675	0.974655
908.464211	0.977395
908.770707	0.979982
909.077163	0.981963
909.383578	0.982950
909.689954	0.981448
909.996289	0.984108
910.302584	0.986196
910.608839	0.986702
910.915054	0.985071
911.221229	0.985520
911.527363	0.983234
911.833458	0.984878
912.139513	0.984352
912.445527	0.984010
912.751502	0.981867
913.057436	0.979531
913.363331	0.977554
913.669186	0.974518
913.975000	0.970093
914.280775	0.963546
914.586510	0.957079
914.892205	0.944793
915.197859	0.924551
915.503475	0.898873
915.809050	0.878980
916.114585	0.873589
916.420081	0.871617
916.725536	0.869436
917.030952	0.877701
917.336328	0.890172
917.641665	0.903859
917.946961	0.918198
918.252218	0.929851
918.557435	0.938046
918.862612	0.945047
919.167750	0.951320
919.472848	0.957025
919.777906	0.962943
920.082925	0.966165
920.387904	0.969337
920.692843	0.970656
920.997743	0.971255
921.302603	0.975045
921.607423	0.976550
921.912204	0.979089
922.216946	0.981561
922.521647	0.980659
922.826310	0.981207
923.130932	0.984735
923.435516	0.985363
923.740059	0.985103
924.044564	0.985766
924.349028	0.987922
924.653454	0.988340
924.957840	0.990077
925.262186	0.990076
925.566493	0.989791
925.870761	0.990703
926.174989	0.990540
926.479178	0.993682
926.783328	0.993129
927.087438	0.994032
927.391509	0.993516
927.695541	0.994473
927.999533	0.994994
928.303486	0.995942
928.607400	0.995952
928.911275	0.995149
929.215110	0.996600
929.518906	0.995724
929.822663	0.996792
930.126381	0.997026
930.430060	0.996565
930.733699	0.997330
931.037299	0.996379
931.340861	0.994858
931.644383	0.994011
931.947866	0.995812
932.251309	0.996343
932.554714	0.995906
932.858080	0.996268
933.161407	0.995163
933.464694	0.995382
933.767943	0.996111
934.071153	0.997354
934.374323	0.997955
934.677455	0.995905
934.980548	0.997704
935.283602	0.996955
935.586617	0.997153
935.889593	0.998322
936.192530	0.997491
936.495428	0.996344
936.798287	0.996168
937.101108	0.996049
937.403890	0.994428
937.706632	0.995794
938.009336	0.992743
938.312002	0.990760
938.614628	0.989730
938.917216	0.988888
939.219765	0.989038
939.522275	0.989276
939.824747	0.988611
940.127179	0.989953
940.429573	0.992843
940.731929	0.989609
941.034246	0.991181
941.336524	0.990966
941.638763	0.991925
941.940964	0.991453
942.243126	0.993033
942.545250	0.994345
942.847335	0.993364
943.149381	0.994169
943.451389	0.994126
943.753359	0.993749
944.055290	0.996143
944.357182	0.996124
944.659036	0.994577
944.960851	0.995360
945.262628	0.995989
945.564367	0.995691
945.866067	0.995353
946.167729	0.995962
946.469352	0.995463
946.770937	0.993922
947.072484	0.996423
947.373992	0.996043
947.675462	0.995659
947.976893	0.995278
948.278286	0.997461
948.579641	0.997653
948.880958	0.997454
949.182236	0.997362
949.483476	0.996490
949.784678	0.996602
950.085841	0.995692
950.386967	0.995651
950.688054	0.996353
950.989103	0.995228
951.290114	0.994973
951.591087	0.996078
951.892021	0.994631
952.192917	0.994487
952.493776	0.994270
952.794596	0.994900
953.095378	0.993770
953.396122	0.992479
953.696828	0.994063
953.997496	0.995112
954.298126	0.996672
954.598718	0.995978
954.899272	0.997652
955.199788	0.995402
955.500266	0.997889
955.800706	0.998047
956.101108	0.997368
956.401472	0.999141
956.701798	0.998060
957.002087	0.999185
957.302337	0.998679
957.602550	1.000101
957.902724	1.000604
958.202861	0.999785
958.502960	1.000987
958.803022	1.001696
959.103045	0.999861
959.403031	1.002640
959.702979	1.002476
960.002889	1.000608
960.302762	1.000730
960.602596	1.002378
960.902393	1.002646
961.202153	1.001517
961.501875	1.002229
961.801559	1.002226
962.101205	1.000666
962.400814	1.003082
962.700385	1.003363
962.999918	1.002737
963.299414	1.002286
963.598873	1.001985
963.898293	1.000926
964.197677	1.001465
964.497022	1.001592
964.796331	1.002532
965.095601	1.002434
965.394835	1.001042
965.694030	1.004092
965.993189	1.001866
966.292309	1.002889
966.591393	1.000938
966.890439	1.001613
967.189447	1.002172
967.488419	1.001914
967.787353	1.001661
968.086249	1.002390
968.385108	1.002301
968.683930	1.002467
968.982714	1.002547
969.281462	1.002479
969.580172	1.003416
969.878844	1.002697
970.177480	1.002395
970.476078	1.002927
970.774639	1.002657
971.073162	1.000543
971.371649	1.001552
971.670098	1.002273
971.968510	1.001943
972.266885	1.001495
972.565223	1.001231
972.863524	1.000942
973.161788	1.001122
973.460014	1.002354
973.758204	1.001212
974.056356	1.001637
974.354471	1.001163
974.652550	1.002747
974.950591	1.000833
975.248595	1.001112
975.546563	1.002140
975.844493	1.002501
976.142386	1.001090
976.440243	1.002060
976.738062	1.001890
977.035845	1.000768
977.333590	1.002090
977.631299	1.001955
977.928971	1.002391
978.226606	1.002980
978.524204	1.002678
978.821765	1.002752
979.119290	1.003790
979.416777	1.002068
979.714228	1.003032
980.011642	1.002389
980.309020	1.001713
980.606360	1.001511
980.903664	1.002257
981.200931	1.001393
981.498162	1.001934
981.795356	1.000878
982.092513	0.999426
982.389633	0.999291
982.686717	0.997241
982.983764	0.996647
983.280775	0.996399
983.577749	0.997483
983.874686	0.996017
984.171587	0.997185
984.468451	0.999002
984.765279	1.000094
985.062070	1.002014
985.358824	1.000002
985.655543	1.001208
985.952224	1.003143
986.248869	1.001640
986.545478	1.002970
986.842050	1.002093
987.138586	1.002295
987.435086	1.002768
987.731549	1.004359
988.027975	1.003613
988.324366	1.002974
988.620719	1.005013
988.917037	1.002958
989.213318	1.004021
989.509563	1.003601
989.805772	1.002905
990.101944	1.003463
990.398080	1.002768
990.694180	1.004004
990.990244	1.002686
991.286271	1.002979
991.582262	1.002820
991.878217	1.002286
992.174136	1.004027
992.470019	1.004438
992.765865	1.005154
993.061676	1.002761
993.357450	1.002821
993.653188	1.004567
993.948890	1.003169
994.244556	1.003001
994.540186	1.003319
994.835780	1.003236
995.131337	1.003927
995.426859	1.002521
995.722345	1.003125
996.017795	1.002377
996.313208	1.001740
996.608586	1.001738
996.903928	1.001816
997.199234	1.002795
997.494504	1.003338
997.789738	1.001681
998.084936	1.003308
998.380099	1.001970
998.675225	1.003351
998.970316	1.004131
999.265371	1.002804
999.560390	1.001724
999.855373	1.002614
1000.150320	1.003106
1000.445232	1.004690
1000.740108	1.003174
1001.034948	1.001967
1001.329752	1.004056
1001.624521	1.003265
1001.919254	1.002842
1002.213951	1.004612
1002.508613	1.003242
1002.803239	1.002127
1003.097829	1.004174
1003.392384	1.003222
1003.686903	1.004242
1003.981386	1.004422
1004.275834	1.004507
1004.570246	1.002772
1004.864623	1.004081
1005.158964	1.004068
1005.453270	1.004457
1005.747540	1.002315
1006.041775	1.003348
1006.335974	1.004193
1006.630138	1.004430
1006.924266	1.001600
1007.218359	1.002149
1007.512416	1.004372
1007.806438	1.004566
1008.100425	1.004805
1008.394376	1.003801
1008.688292	1.003899
1008.982172	1.003501
1009.276017	1.003678
1009.569827	1.004208
1009.863602	1.003094
1010.157341	1.003505
1010.451045	1.002770
1010.744714	1.005380
1011.038347	1.004634
1011.331945	1.003264
1011.625508	1.003724
1011.919036	1.003220
1012.212528	1.005227
1012.505986	1.002637
1012.799408	1.004616
1013.092795	1.005212
1013.386147	1.005180
1013.679464	1.006007
1013.972745	1.003563
1014.265992	1.003689
1014.559204	1.003338
1014.852380	1.005770
1015.145521	1.003873
1015.438628	1.004281
1015.731699	1.004138
1016.024736	1.005068
1016.317737	1.003970
1016.610703	1.005048
1016.903635	1.004694
1017.196531	1.004331
1017.489393	1.003664
1017.782219	1.004196
1018.075011	1.002750
1018.367768	1.003676
1018.660490	1.004389
1018.953177	1.004389
1019.245829	1.004389
