Dividing Wavelength (nm)	Counts (n)	Blue Motor Position (mm): 7.700000	Red Motor Position (mm): 0.000000	
326.493990	1.004323
326.888308	1.004323
327.282561	1.004323
327.676750	1.005977
328.070874	1.005985
328.464933	1.006177
328.858929	1.005207
329.252859	1.004574
329.646726	1.004834
330.040528	1.005025
330.434265	1.004920
330.827938	1.005343
331.221547	1.005311
331.615091	1.006175
332.008571	1.007039
332.401986	1.004083
332.795338	1.005970
333.188625	1.006166
333.581847	1.004830
333.975006	1.005194
334.368100	1.004583
334.761129	1.005365
335.154095	1.005749
335.546996	1.004647
335.939833	0.998430
336.332606	1.000882
336.725315	0.998213
337.117960	1.000436
337.510540	0.998274
337.903056	0.998890
338.295508	0.999397
338.687896	0.999844
339.080220	0.999134
339.472480	0.999139
339.864676	0.999221
340.256807	0.999104
340.648875	0.998918
341.040879	0.999361
341.432818	1.000632
341.824694	0.998782
342.216506	0.999327
342.608253	0.998465
342.999937	0.999212
343.391557	0.999664
343.783113	1.000315
344.174605	0.999073
344.566033	0.998891
344.957397	1.000018
345.348697	0.998811
345.739934	0.999684
346.131106	0.999719
346.522215	0.998605
346.913260	1.000001
347.304241	0.998200
347.695159	0.998746
348.086012	0.998492
348.476802	0.998687
348.867528	0.997757
349.258191	0.998906
349.648789	0.998654
350.039324	0.997847
350.429796	0.998312
350.820203	0.997516
351.210548	0.998968
351.600828	0.997590
351.991045	0.999437
352.381198	0.999317
352.771288	0.997757
353.161314	0.999444
353.551276	0.997437
353.941175	0.996191
354.331010	0.998995
354.720782	0.998017
355.110490	0.997701
355.500135	0.999414
355.889717	0.996672
356.279235	0.997269
356.668689	0.999379
357.058080	0.998742
357.447408	0.997413
357.836672	0.998211
358.225873	0.997302
358.615010	0.998153
359.004084	0.996626
359.393095	0.998678
359.782043	0.998235
360.170927	0.998143
360.559748	0.997293
360.948505	0.997177
361.337199	0.997553
361.725830	0.998044
362.114398	0.997006
362.502903	0.996516
362.891344	0.996352
363.279722	0.997627
363.668037	0.997629
364.056289	0.996839
364.444478	0.998858
364.832603	0.997487
365.220665	0.996573
365.608665	0.996905
365.996601	0.997268
366.384474	0.994740
366.772284	0.996596
367.160031	0.995052
367.547715	0.995379
367.935336	0.993946
368.322893	0.993630
368.710388	0.992139
369.097820	0.989753
369.485189	0.988630
369.872495	0.986526
370.259738	0.983699
370.646918	0.980994
371.034035	0.978692
371.421090	0.977121
371.808081	0.970937
372.195010	0.970057
372.581875	0.963825
372.968678	0.958862
373.355418	0.955945
373.742096	0.947822
374.128710	0.944255
374.515262	0.938816
374.901751	0.932901
375.288177	0.928648
375.674540	0.922306
376.060841	0.914817
376.447079	0.908958
376.833254	0.902991
377.219367	0.896913
377.605417	0.886477
377.991404	0.881625
378.377329	0.877197
378.763191	0.869840
379.148991	0.861452
379.534727	0.853969
379.920402	0.844989
380.306013	0.841385
380.691563	0.829668
381.077049	0.822370
381.462474	0.817637
381.847835	0.807135
382.233134	0.801604
382.618371	0.802296
383.003545	0.784926
383.388657	0.783343
383.773706	0.774926
384.158693	0.771718
384.543618	0.766610
384.928480	0.757158
385.313280	0.747391
385.698017	0.746026
386.082692	0.735686
386.467305	0.733396
386.851856	0.727751
387.236344	0.723282
387.620770	0.717874
388.005133	0.711311
388.389435	0.706338
388.773674	0.703426
389.157851	0.695432
389.541965	0.693359
389.926018	0.699669
390.310008	0.685585
390.693936	0.683406
391.077802	0.675793
391.461606	0.676579
391.845348	0.666724
392.229027	0.665926
392.612645	0.664038
392.996200	0.650944
393.379694	0.644242
393.763125	0.633825
394.146494	0.638989
394.529801	0.629900
394.913047	0.621090
395.296230	0.627457
395.679351	0.618708
396.062410	0.615326
396.445408	0.618006
396.828343	0.613892
397.211217	0.608617
397.594028	0.620670
397.976778	0.611060
398.359466	0.607353
398.742092	0.602535
399.124656	0.615084
399.507158	0.602603
399.889598	0.600516
400.271977	0.591419
400.654294	0.595141
401.036549	0.594615
401.418742	0.598406
401.800874	0.584658
402.182944	0.581613
402.564952	0.573045
402.946898	0.574855
403.328783	0.575358
403.710606	0.586958
404.092367	0.561933
404.474067	0.566881
404.855705	0.565206
405.237282	0.575221
405.618797	0.560391
406.000250	0.556921
406.381642	0.546495
406.762972	0.552291
407.144240	0.550137
407.525447	0.549412
407.906593	0.542682
408.287677	0.537837
408.668700	0.546992
409.049661	0.540989
409.430560	0.536254
409.811399	0.544448
410.192176	0.526276
410.572891	0.533458
410.953545	0.521930
411.334138	0.535544
411.714669	0.527212
412.095139	0.539613
412.475547	0.524085
412.855894	0.525692
413.236180	0.524522
413.616405	0.530060
413.996568	0.520470
414.376670	0.526089
414.756711	0.531620
415.136691	0.528463
415.516609	0.519331
415.896466	0.515897
416.276262	0.512427
416.655997	0.514475
417.035670	0.495717
417.415283	0.487322
417.794834	0.491830
418.174324	0.497614
418.553753	0.506534
418.933121	0.488361
419.312428	0.482794
419.691674	0.488668
420.070859	0.476626
420.449983	0.484158
420.829045	0.473458
421.208047	0.482443
421.586988	0.475704
421.965867	0.474762
422.344686	0.463194
422.723444	0.475607
423.102141	0.493128
423.480777	0.465851
423.859352	0.486081
424.237866	0.463509
424.616319	0.464508
424.994712	0.454995
425.373044	0.465628
425.751314	0.453791
426.129524	0.470024
426.507673	0.453731
426.885762	0.447565
427.263789	0.452777
427.641756	0.462519
428.019662	0.453025
428.397508	0.451851
428.775292	0.456853
429.153016	0.448404
429.530679	0.454638
429.908282	0.447930
430.285824	0.457723
430.663305	0.436274
431.040726	0.457755
431.418086	0.457102
431.795385	0.448844
432.172624	0.448268
432.549802	0.448455
432.926920	0.446943
433.303977	0.446596
433.680974	0.443539
434.057910	0.442807
434.434786	0.441785
434.811601	0.444844
435.188355	0.427400
435.565050	0.436371
435.941683	0.437791
436.318257	0.421235
436.694770	0.422565
437.071222	0.420811
437.447614	0.425161
437.823946	0.431395
438.200218	0.420623
438.576429	0.430450
438.952580	0.423702
439.328670	0.420193
439.704700	0.426414
440.080670	0.427888
440.456580	0.408782
440.832429	0.416764
441.208218	0.428041
441.583947	0.416810
441.959616	0.416083
442.335224	0.422111
442.710773	0.412691
443.086261	0.410718
443.461689	0.424728
443.837057	0.414729
444.212365	0.404013
444.587612	0.411819
444.962800	0.401213
445.337927	0.402725
445.712995	0.428934
446.088002	0.391098
446.462949	0.401381
446.837837	0.406193
447.212664	0.395230
447.587431	0.386530
447.962139	0.356824
448.336786	0.316133
448.711374	0.326551
449.085901	0.371138
449.460369	0.374931
449.834776	0.378335
450.209124	0.357562
450.583412	0.350318
450.957640	0.343084
451.331808	0.354933
451.705917	0.378454
452.079965	0.383008
452.453954	0.371177
452.827883	0.377829
453.201752	0.372964
453.575562	0.384254
453.949311	0.372573
454.323001	0.378790
454.696632	0.374385
455.070202	0.367133
455.443713	0.358767
455.817164	0.353288
456.190556	0.349476
456.563888	0.346448
456.937160	0.344036
457.310373	0.361337
457.683526	0.359590
458.056619	0.366033
458.429653	0.365891
458.802628	0.369881
459.175542	0.364116
459.548398	0.346533
459.921194	0.339119
460.293930	0.338960
460.666607	0.316596
461.039224	0.304900
461.411782	0.300369
461.784280	0.299827
462.156719	0.303856
462.529099	0.308530
462.901419	0.324234
463.273680	0.328678
463.645882	0.327879
464.018024	0.334007
464.390106	0.326639
464.762130	0.311026
465.134094	0.294632
465.505999	0.263116
465.877845	0.233444
466.249631	0.220546
466.621358	0.227854
466.993026	0.242055
467.364634	0.248282
467.736184	0.256975
468.107674	0.265860
468.479105	0.264819
468.850477	0.271751
469.221790	0.278262
469.593043	0.288886
469.964238	0.293559
470.335373	0.293040
470.706449	0.291580
471.077467	0.291641
471.448425	0.253780
471.819324	0.229081
472.190164	0.229017
472.560945	0.257557
472.931667	0.280080
473.302330	0.284390
473.672934	0.296039
474.043479	0.284225
474.413965	0.285984
474.784393	0.289721
475.154761	0.284543
475.525070	0.281573
475.895321	0.287320
476.265513	0.281709
476.635645	0.276961
477.005719	0.276817
477.375734	0.273369
477.745691	0.266317
478.115588	0.263068
478.485427	0.256453
478.855207	0.243480
479.224928	0.225606
479.594591	0.213761
479.964194	0.217252
480.333739	0.218482
480.703226	0.219986
481.072653	0.218313
481.442022	0.213766
481.811333	0.210585
482.180584	0.214068
482.549777	0.219740
482.918912	0.222636
483.287988	0.222422
483.657005	0.221920
484.025964	0.228575
484.394864	0.225834
484.763706	0.226353
485.132489	0.231343
485.501213	0.232163
485.869879	0.230648
486.238487	0.233726
486.607036	0.231679
486.975527	0.236526
487.343959	0.231913
487.712333	0.231414
488.080648	0.232648
488.448905	0.232058
488.817104	0.233239
489.185244	0.227544
489.553326	0.224459
489.921350	0.214346
490.289315	0.196543
490.657222	0.191725
491.025070	0.193154
491.392861	0.195065
491.760593	0.200876
492.128267	0.206433
492.495883	0.211969
492.863440	0.218271
493.230939	0.224568
493.598380	0.226105
493.965763	0.228201
494.333088	0.230409
494.700354	0.232039
495.067563	0.230916
495.434713	0.234461
495.801805	0.232229
496.168839	0.233700
496.535815	0.235196
496.902733	0.234924
497.269593	0.236691
497.636395	0.234239
498.003139	0.234505
498.369825	0.237381
498.736453	0.234001
499.103023	0.235699
499.469535	0.235004
499.835989	0.235195
500.202385	0.235973
500.568723	0.239390
500.935003	0.234694
501.301226	0.238711
501.667390	0.232705
502.033497	0.231159
502.399546	0.233966
502.765537	0.236011
503.131470	0.234413
503.497345	0.231242
503.863163	0.239360
504.228923	0.232235
504.594625	0.230933
504.960269	0.236396
505.325856	0.231843
505.691385	0.236298
506.056856	0.232800
506.422270	0.232163
506.787625	0.234948
507.152924	0.232245
507.518164	0.232468
507.883347	0.234222
508.248472	0.236214
508.613540	0.230839
508.978550	0.233632
509.343503	0.234308
509.708398	0.231839
510.073236	0.229049
510.438016	0.229105
510.802738	0.229992
511.167403	0.229379
511.532010	0.231198
511.896561	0.226252
512.261053	0.225196
512.625488	0.227423
512.989866	0.227654
513.354186	0.228050
513.718449	0.229853
514.082655	0.226031
514.446803	0.228520
514.810894	0.226075
515.174927	0.228676
515.538904	0.228217
515.902822	0.225291
516.266684	0.227227
516.630488	0.228697
516.994235	0.227752
517.357925	0.226328
517.721558	0.224360
518.085133	0.224142
518.448651	0.224173
518.812112	0.226565
519.175516	0.226089
519.538863	0.223648
519.902152	0.225368
520.265385	0.222108
520.628560	0.224027
520.991678	0.224523
521.354739	0.223168
521.717743	0.224358
522.080690	0.224858
522.443580	0.222187
522.806413	0.222722
523.169189	0.222697
523.531908	0.221130
523.894569	0.224962
524.257174	0.224781
524.619722	0.222598
524.982213	0.223519
525.344647	0.222273
525.707025	0.223308
526.069345	0.221406
526.431608	0.223221
526.793815	0.221206
527.155964	0.225411
527.518057	0.224240
527.880093	0.225373
528.242072	0.223910
528.603995	0.225791
528.965860	0.227556
529.327669	0.226327
529.689421	0.227058
530.051117	0.228087
530.412755	0.225916
530.774337	0.228082
531.135862	0.228702
531.497331	0.227758
531.858743	0.230950
532.220098	0.227405
532.581396	0.230009
532.942638	0.230595
533.303824	0.231277
533.664953	0.230918
534.026025	0.233220
534.387040	0.230878
534.747999	0.230569
535.108902	0.229692
535.469748	0.234939
535.830537	0.232352
536.191270	0.232933
536.551947	0.232826
536.912567	0.232457
537.273131	0.234280
537.633638	0.234666
537.994089	0.235095
538.354483	0.236064
538.714821	0.232753
539.075103	0.232675
539.435328	0.233467
539.795497	0.237166
540.155609	0.233894
540.515665	0.232131
540.875665	0.237464
541.235609	0.236162
541.595496	0.236317
541.955328	0.233097
542.315102	0.235603
542.674821	0.236478
543.034483	0.236664
543.394090	0.236262
543.753640	0.238131
544.113134	0.232969
544.472571	0.236548
544.831953	0.233375
545.191278	0.237498
545.550548	0.236850
545.909761	0.233667
546.268918	0.234426
546.628019	0.233015
546.987064	0.235580
547.346053	0.237140
547.704986	0.235335
548.063863	0.235604
548.422684	0.235567
548.781449	0.237490
549.140158	0.235443
549.498811	0.238013
549.857408	0.241051
550.215949	0.235446
550.574434	0.238779
550.932864	0.236974
551.291237	0.235440
551.649555	0.236994
552.007817	0.236752
552.366022	0.237753
552.724173	0.237863
553.082267	0.238172
553.440305	0.234877
553.798288	0.239179
554.156215	0.235928
554.514086	0.236479
554.871902	0.239941
555.229661	0.239101
555.587365	0.239534
555.945014	0.242090
556.302606	0.239184
556.660143	0.241643
557.017625	0.238370
557.375050	0.240399
557.732421	0.237642
558.089735	0.239517
558.446994	0.239436
558.804197	0.238592
559.161345	0.238255
559.518437	0.242075
559.875474	0.240383
560.232455	0.239144
560.589381	0.240663
560.946251	0.240606
561.303065	0.238080
561.659825	0.239544
562.016528	0.241271
562.373177	0.244013
562.729770	0.240873
563.086307	0.242996
563.442789	0.241129
563.799216	0.243804
564.155587	0.242799
564.511904	0.243948
564.868164	0.243676
565.224370	0.243805
565.580520	0.245549
565.936615	0.245262
566.292654	0.248332
566.648638	0.245253
567.004567	0.246071
567.360441	0.246925
567.716260	0.248728
568.072023	0.246075
568.427732	0.247218
568.783385	0.249451
569.138982	0.247860
569.494525	0.247449
569.850013	0.250407
570.205445	0.248972
570.560823	0.251189
570.916145	0.253285
571.271412	0.251834
571.626625	0.253023
571.981782	0.253575
572.336884	0.254366
572.691931	0.254234
573.046923	0.255571
573.401860	0.256592
573.756743	0.258175
574.111570	0.257137
574.466342	0.257672
574.821059	0.256766
575.175722	0.259575
575.530330	0.259586
575.884882	0.259681
576.239380	0.261439
576.593823	0.262259
576.948211	0.261663
577.302544	0.265211
577.656823	0.264542
578.011047	0.264094
578.365216	0.265703
578.719330	0.267241
579.073389	0.266404
579.427394	0.267999
579.781344	0.269103
580.135239	0.270313
580.489080	0.270301
580.842866	0.273370
581.196597	0.273293
581.550273	0.271839
581.903895	0.272845
582.257463	0.271034
582.610975	0.274432
582.964434	0.273651
583.317837	0.276126
583.671186	0.276503
584.024481	0.276594
584.377721	0.278752
584.730906	0.279894
585.084037	0.278890
585.437113	0.280755
585.790135	0.280198
586.143103	0.283564
586.496016	0.284228
586.848874	0.281800
587.201679	0.282138
587.554428	0.285530
587.907124	0.284829
588.259765	0.285127
588.612352	0.285808
588.964884	0.289681
589.317362	0.289162
589.669786	0.288758
590.022155	0.287481
590.374470	0.287415
590.726731	0.288936
591.078937	0.294078
591.431090	0.290342
591.783188	0.294347
592.135232	0.294872
592.487222	0.294729
592.839157	0.292898
593.191038	0.295030
593.542866	0.297203
593.894639	0.300452
594.246358	0.298784
594.598022	0.298010
594.949633	0.301896
595.301190	0.302481
595.652692	0.301304
596.004141	0.297700
596.355535	0.305714
596.706876	0.306624
597.058162	0.309014
597.409395	0.305864
597.760573	0.303680
598.111698	0.307111
598.462768	0.307718
598.813785	0.308745
599.164748	0.310178
599.515657	0.310257
599.866511	0.314173
600.217312	0.309005
600.568060	0.314496
600.918753	0.310909
601.269392	0.311549
601.619978	0.315302
601.970510	0.312703
602.320988	0.312539
602.671412	0.310833
603.021783	0.312918
603.372100	0.314357
603.722363	0.314192
604.072572	0.315004
604.422728	0.314512
604.772830	0.316798
605.122878	0.316388
605.472872	0.317130
605.822813	0.315329
606.172701	0.318514
606.522534	0.315122
606.872314	0.315320
607.222041	0.316468
607.571714	0.314301
607.921333	0.316082
608.270899	0.315733
608.620411	0.312208
608.969870	0.316252
609.319276	0.316406
609.668627	0.316214
610.017926	0.314801
610.367171	0.313222
610.716362	0.314286
611.065500	0.314021
611.414585	0.313024
611.763616	0.313125
612.112594	0.313952
612.461518	0.312895
612.810389	0.311244
613.159207	0.313154
613.507971	0.315066
613.856682	0.311059
614.205340	0.312085
614.553945	0.309543
614.902496	0.313284
615.250994	0.311221
615.599439	0.312037
615.947830	0.311371
616.296169	0.312188
616.644454	0.311894
616.992686	0.312070
617.340864	0.310039
617.688990	0.313021
618.037063	0.309789
618.385082	0.311488
618.733048	0.308675
619.080961	0.310891
619.428821	0.310438
619.776628	0.309930
620.124382	0.312150
620.472083	0.312876
620.819731	0.311725
621.167326	0.315958
621.514868	0.315409
621.862357	0.319772
622.209793	0.319221
622.557176	0.321833
622.904506	0.322838
623.251783	0.325094
623.599007	0.327889
623.946179	0.326956
624.293297	0.329008
624.640363	0.333095
624.987376	0.333534
625.334336	0.335759
625.681243	0.338274
626.028097	0.338434
626.374899	0.339648
626.721647	0.340117
627.068343	0.343033
627.414987	0.344341
627.761577	0.346698
628.108115	0.344581
628.454600	0.349931
628.801032	0.347607
629.147412	0.349266
629.493739	0.350145
629.840014	0.352998
630.186236	0.349896
630.532405	0.355939
630.878521	0.353368
631.224585	0.355412
631.570597	0.359230
631.916556	0.357864
632.262462	0.357918
632.608316	0.359843
632.954117	0.360733
633.299866	0.361719
633.645562	0.361894
633.991206	0.366139
634.336797	0.368960
634.682336	0.371831
635.027823	0.372988
635.373257	0.373419
635.718639	0.377620
636.063968	0.376917
636.409245	0.382772
636.754470	0.383044
637.099642	0.385304
637.444762	0.388931
637.789829	0.388098
638.134845	0.391502
638.479808	0.392450
638.824719	0.391751
639.169577	0.396492
639.514383	0.394644
639.859137	0.399464
640.203839	0.399139
640.548489	0.400350
640.893086	0.400842
641.237632	0.402203
641.582125	0.401572
641.926566	0.403766
642.270955	0.403041
642.615292	0.402950
642.959576	0.402154
643.303809	0.403103
643.647990	0.402443
643.992118	0.402980
644.336195	0.406484
644.680219	0.404851
645.024192	0.405938
645.368112	0.399448
645.711981	0.398043
646.055797	0.393526
646.399562	0.395701
646.743274	0.388637
647.086935	0.385030
647.430544	0.385796
647.774101	0.384828
648.117606	0.383744
648.461059	0.384988
648.804460	0.387480
649.147810	0.392130
649.491108	0.394323
649.834354	0.395454
650.177548	0.400645
650.520690	0.406072
650.863781	0.407243
651.206820	0.406926
651.549807	0.411613
651.892742	0.415549
652.235626	0.414814
652.578458	0.415935
652.921238	0.422460
653.263967	0.419427
653.606644	0.423528
653.949269	0.423957
654.291843	0.427609
654.634365	0.424883
654.976836	0.427110
655.319255	0.427997
655.661622	0.429505
656.003938	0.429732
656.346203	0.432473
656.688416	0.430546
657.030577	0.433376
657.372687	0.435902
657.714746	0.436715
658.056753	0.433910
658.398708	0.437061
658.740612	0.438864
659.082465	0.434533
659.424266	0.435434
659.766016	0.434813
660.107715	0.438478
660.449362	0.436734
660.790958	0.437782
661.132503	0.438640
661.473996	0.435672
661.815438	0.436848
662.156829	0.436921
662.498168	0.437925
662.839456	0.438880
663.180693	0.437066
663.521879	0.436897
663.863013	0.437233
664.204097	0.436062
664.545129	0.433082
664.886110	0.433165
665.227040	0.431205
665.567918	0.432975
665.908746	0.431759
666.249522	0.431410
666.590248	0.432693
666.930922	0.430404
667.271545	0.429555
667.612118	0.429483
667.952639	0.431647
668.293109	0.429898
668.633528	0.432878
668.973896	0.432447
669.314213	0.433166
669.654480	0.435192
669.994695	0.435143
670.334859	0.435908
670.674973	0.436564
671.015035	0.436570
671.355047	0.436587
671.695008	0.437179
672.034918	0.439509
672.374777	0.439508
672.714585	0.439935
673.054342	0.439999
673.394049	0.440299
673.733705	0.438269
674.073310	0.440068
674.412864	0.442435
674.752368	0.443201
675.091820	0.443235
675.431223	0.447902
675.770574	0.447830
676.109875	0.451175
676.449125	0.450757
676.788324	0.453588
677.127473	0.458912
677.466571	0.458523
677.805619	0.460234
678.144616	0.461814
678.483562	0.464258
678.822458	0.466336
679.161303	0.466706
679.500098	0.467496
679.838842	0.469148
680.177535	0.468554
680.516179	0.467109
680.854771	0.466718
681.193314	0.460120
681.531805	0.451656
681.870247	0.441113
682.208638	0.433942
682.546978	0.432759
682.885268	0.434355
683.223508	0.440691
683.561697	0.444973
683.899836	0.448309
684.237925	0.451055
684.575963	0.454201
684.913951	0.457151
685.251889	0.452947
685.589776	0.455793
685.927614	0.457637
686.265401	0.452198
686.603137	0.454057
686.940824	0.448176
687.278460	0.447326
687.616046	0.446224
687.953582	0.442041
688.291068	0.443551
688.628504	0.439556
688.965889	0.441554
689.303224	0.445453
689.640510	0.449998
689.977745	0.455611
690.314930	0.463238
690.652065	0.468474
690.989150	0.475029
691.326185	0.482250
691.663170	0.486783
692.000105	0.493949
692.336990	0.500909
692.673825	0.503305
693.010610	0.510592
693.347345	0.515516
693.684030	0.517234
694.020665	0.522273
694.357251	0.530831
694.693786	0.531473
695.030272	0.534126
695.366707	0.538722
695.703093	0.542719
696.039429	0.539722
696.375716	0.542870
696.711952	0.545033
697.048139	0.546502
697.384276	0.549386
697.720363	0.547845
698.056400	0.547075
698.392388	0.553195
698.728326	0.555575
699.064214	0.558172
699.400053	0.559135
699.735842	0.563931
700.071581	0.566741
700.407270	0.569484
700.742910	0.571838
701.078501	0.577179
701.414042	0.578830
701.749533	0.581378
702.084974	0.591310
702.420366	0.583492
702.755709	0.590932
703.091002	0.599050
703.426246	0.593632
703.761440	0.597808
704.096584	0.602682
704.431679	0.600934
704.766725	0.603083
705.101721	0.605829
705.436668	0.601915
705.771565	0.607570
706.106413	0.603587
706.441212	0.600912
706.775961	0.600752
707.110661	0.602053
707.445311	0.598833
707.779913	0.597631
708.114465	0.595903
708.448967	0.593024
708.783421	0.585617
709.117825	0.581390
709.452180	0.580541
709.786485	0.575279
710.120742	0.566081
710.454949	0.567406
710.789107	0.560198
711.123216	0.551917
711.457275	0.552953
711.791286	0.546169
712.125247	0.546859
712.459159	0.555087
712.793023	0.547412
713.126837	0.554097
713.460602	0.554255
713.794318	0.561335
714.127985	0.561470
714.461602	0.571270
714.795171	0.573182
715.128691	0.582482
715.462162	0.589581
715.795584	0.595916
716.128957	0.598423
716.462281	0.604326
716.795556	0.607305
717.128782	0.613089
717.461960	0.622445
717.795088	0.621352
718.128167	0.627065
718.461198	0.634621
718.794180	0.636036
719.127113	0.639990
719.459997	0.642550
719.792833	0.648465
720.125619	0.649573
720.458357	0.655166
720.791046	0.656315
721.123686	0.659765
721.456278	0.665804
721.788821	0.663570
722.121315	0.668450
722.453761	0.672180
722.786158	0.670694
723.118506	0.667193
723.450805	0.673651
723.783056	0.670604
724.115259	0.670011
724.447412	0.669737
724.779518	0.669603
725.111574	0.669075
725.443582	0.664873
725.775542	0.668319
726.107453	0.661386
726.439315	0.661515
726.771129	0.660085
727.102895	0.654248
727.434612	0.648242
727.766281	0.646390
728.097901	0.645734
728.429473	0.645886
728.760996	0.644258
729.092471	0.644181
729.423897	0.648087
729.755276	0.648325
730.086606	0.647806
730.417887	0.642373
730.749120	0.634128
731.080305	0.627388
731.411442	0.623492
731.742530	0.626033
732.073570	0.625906
732.404562	0.621077
732.735506	0.622242
733.066401	0.626747
733.397249	0.634953
733.728048	0.644998
734.058798	0.658908
734.389501	0.669158
734.720156	0.677404
735.050762	0.684584
735.381320	0.687219
735.711831	0.693819
736.042293	0.698700
736.372707	0.697031
736.703073	0.700269
737.033391	0.702141
737.363661	0.698564
737.693883	0.695874
738.024056	0.693505
738.354182	0.694359
738.684260	0.686181
739.014290	0.682293
739.344272	0.682634
739.674207	0.677063
740.004093	0.677058
740.333931	0.677305
740.663722	0.678047
740.993464	0.679647
741.323159	0.682158
741.652806	0.687836
741.982405	0.692561
742.311956	0.697527
742.641460	0.699283
742.970915	0.702577
743.300323	0.709800
743.629683	0.714070
743.958996	0.716958
744.288260	0.720643
744.617477	0.727603
744.946647	0.728304
745.275768	0.734114
745.604842	0.735213
745.933869	0.742198
746.262847	0.744046
746.591778	0.739025
746.920662	0.743862
747.249498	0.749430
747.578286	0.743757
747.907027	0.739842
748.235720	0.738018
748.564365	0.735909
748.892963	0.735481
749.221514	0.738902
749.550017	0.741873
749.878473	0.743581
750.206881	0.749245
750.535242	0.750206
750.863555	0.749503
751.191821	0.751232
751.520039	0.753770
751.848210	0.755936
752.176334	0.751917
752.504411	0.752321
752.832440	0.758227
753.160421	0.761135
753.488356	0.761296
753.816243	0.759831
754.144082	0.766981
754.471875	0.768826
754.799620	0.766777
755.127318	0.767236
755.454969	0.767909
755.782572	0.768946
756.110129	0.770940
756.437638	0.773943
756.765100	0.772056
757.092515	0.770312
757.419882	0.769342
757.747203	0.774137
758.074477	0.774632
758.401703	0.771710
758.728882	0.767819
759.056014	0.766357
759.383099	0.765499
759.710138	0.765029
760.037129	0.761933
760.364073	0.759216
760.690970	0.760939
761.017820	0.763360
761.344623	0.761247
761.671379	0.753745
761.998088	0.744691
762.324751	0.725117
762.651366	0.685764
762.977935	0.624952
763.304456	0.582278
763.630931	0.577101
763.957359	0.610381
764.283740	0.649275
764.610074	0.675380
764.936362	0.704073
765.262602	0.727349
765.588796	0.746110
765.914943	0.760364
766.241044	0.775155
766.567097	0.782182
766.893104	0.790821
767.219064	0.795391
767.544978	0.802527
767.870845	0.812101
768.196665	0.815840
768.522438	0.816018
768.848165	0.817290
769.173846	0.824566
769.499479	0.828047
769.825066	0.831421
770.150607	0.835568
770.476101	0.832445
770.801548	0.836112
771.126949	0.843294
771.452303	0.846497
771.777611	0.847453
772.102872	0.846134
772.428087	0.850723
772.753256	0.854376
773.078378	0.856266
773.403453	0.862781
773.728482	0.866630
774.053465	0.861333
774.378401	0.865166
774.703291	0.870097
775.028135	0.872487
775.352932	0.871219
775.677683	0.875772
776.002388	0.876443
776.327046	0.876255
776.651658	0.880141
776.976224	0.882304
777.300743	0.881896
777.625216	0.883750
777.949643	0.885774
778.274024	0.883715
778.598359	0.886413
778.922647	0.885617
779.246889	0.887454
779.571086	0.888491
779.895236	0.891109
780.219339	0.890767
780.543397	0.886745
780.867409	0.887313
781.191374	0.888555
781.515294	0.889227
781.839167	0.888801
782.162995	0.890635
782.486776	0.888814
782.810511	0.889132
783.134201	0.893642
783.457844	0.892436
783.781441	0.894217
784.104993	0.898183
784.428498	0.897925
784.751958	0.896079
785.075372	0.897721
785.398739	0.900499
785.722061	0.896157
786.045337	0.894531
786.368568	0.896321
786.691752	0.898063
787.014891	0.888358
787.337983	0.881437
787.661030	0.872279
787.984031	0.858766
788.306987	0.850417
788.629897	0.849566
788.952760	0.855943
789.275579	0.859858
789.598351	0.871857
789.921078	0.882253
790.243759	0.884893
790.566395	0.889586
790.888984	0.895633
791.211529	0.898478
791.534027	0.901647
791.856480	0.904841
792.178888	0.906875
792.501249	0.909066
792.823566	0.911134
793.145836	0.910503
793.468062	0.912352
793.790241	0.912708
794.112375	0.910137
794.434464	0.909544
794.756507	0.906581
795.078505	0.905705
795.400457	0.900892
795.722364	0.892247
796.044226	0.887594
796.366042	0.885397
796.687812	0.887404
797.009538	0.885184
797.331218	0.889714
797.652852	0.892625
797.974442	0.894141
798.295986	0.896838
798.617484	0.898504
798.938938	0.902813
799.260346	0.905858
799.581709	0.907358
799.903026	0.910165
800.224299	0.910516
800.545526	0.912653
800.866708	0.915583
801.187845	0.918421
801.508936	0.919101
801.829983	0.917788
802.150984	0.920895
802.471940	0.924941
802.792851	0.923338
803.113717	0.924599
803.434538	0.924572
803.755314	0.925494
804.076045	0.926281
804.396731	0.925623
804.717372	0.925165
805.037967	0.927790
805.358518	0.925551
805.679024	0.923027
805.999485	0.924577
806.319901	0.923930
806.640272	0.925616
806.960598	0.923875
807.280879	0.921579
807.601115	0.920581
807.921306	0.923822
808.241453	0.922761
808.561554	0.922183
808.881611	0.922839
809.201623	0.923783
809.521590	0.924801
809.841513	0.924637
810.161390	0.924541
810.481223	0.925291
810.801011	0.927964
811.120755	0.929826
811.440453	0.928867
811.760107	0.928834
812.079716	0.928891
812.399281	0.930312
812.718801	0.932758
813.038276	0.932863
813.357707	0.933344
813.677093	0.934333
813.996434	0.934573
814.315731	0.935634
814.634983	0.937189
814.954191	0.936622
815.273354	0.932401
815.592473	0.931051
815.911547	0.931171
816.230577	0.928915
816.549562	0.927393
816.868502	0.925395
817.187399	0.925978
817.506250	0.921308
817.825058	0.921820
818.143821	0.919458
818.462539	0.916719
818.781213	0.910746
819.099843	0.902809
819.418429	0.887569
819.736970	0.875733
820.055466	0.860371
820.373919	0.842905
820.692327	0.819615
821.010691	0.789771
821.329011	0.721889
821.647286	0.619111
821.965517	0.520929
822.283704	0.483347
822.601847	0.486054
822.919945	0.524785
823.237999	0.565900
823.556010	0.608758
823.873976	0.656106
824.191897	0.699074
824.509775	0.733755
824.827609	0.766350
825.145398	0.785014
825.463144	0.786081
825.780845	0.773281
826.098502	0.756766
826.416116	0.719862
826.733685	0.682633
827.051210	0.675062
827.368692	0.689857
827.686129	0.725672
828.003522	0.766723
828.320872	0.804640
828.638177	0.836771
828.955439	0.860995
829.272656	0.875563
829.589830	0.888699
829.906960	0.900440
830.224046	0.908361
830.541088	0.917595
830.858086	0.920405
831.175041	0.925009
831.491952	0.924671
831.808819	0.922402
832.125642	0.916426
832.442421	0.908322
832.759157	0.889614
833.075849	0.853140
833.392497	0.804260
833.709101	0.775625
834.025662	0.784439
834.342179	0.809641
834.658653	0.840333
834.975083	0.866815
835.291469	0.887941
835.607811	0.902718
835.924110	0.914728
836.240366	0.926805
836.556578	0.936111
836.872746	0.941099
837.188871	0.945595
837.504952	0.949546
837.820990	0.952315
838.136984	0.954545
838.452935	0.955955
838.768842	0.956473
839.084706	0.951349
839.400526	0.934298
839.716303	0.901401
840.032037	0.884516
840.347727	0.889214
840.663373	0.904359
840.978977	0.921758
841.294537	0.938275
841.610054	0.948525
841.925527	0.954947
842.240957	0.959190
842.556344	0.963759
842.871687	0.966959
843.186987	0.970115
843.502244	0.971295
843.817458	0.971818
844.132629	0.974046
844.447756	0.976958
844.762840	0.976596
845.077881	0.978318
845.392879	0.976372
845.707833	0.979098
846.022745	0.980469
846.337613	0.981146
846.652438	0.981203
846.967221	0.981049
847.281960	0.981884
847.596656	0.982722
847.911309	0.982904
848.225919	0.981801
848.540485	0.982538
848.855009	0.984529
849.169490	0.984390
849.483928	0.983602
849.798323	0.982615
850.112675	0.984274
850.426984	0.984195
850.741251	0.984561
851.055474	0.984871
851.369654	0.983340
851.683792	0.982887
851.997887	0.984317
852.311938	0.984935
852.625947	0.984171
852.939914	0.983552
853.253837	0.984218
853.567718	0.985784
853.881555	0.984723
854.195350	0.984043
854.509103	0.984844
854.822812	0.984955
855.136479	0.984531
855.450103	0.984127
855.763685	0.984802
856.077224	0.985123
856.390720	0.984687
856.704173	0.985364
857.017584	0.984109
857.330953	0.984261
857.644278	0.982979
857.957561	0.983978
858.270802	0.984784
858.584000	0.984768
858.897155	0.983427
859.210268	0.982733
859.523339	0.984669
859.836367	0.985566
860.149352	0.984601
860.462295	0.985320
860.775195	0.984467
861.088054	0.983417
861.400869	0.985611
861.713642	0.984426
862.026373	0.985748
862.339062	0.986016
862.651708	0.983908
862.964312	0.984108
863.276873	0.984169
863.589392	0.983176
863.901869	0.982793
864.214303	0.981787
864.526696	0.981676
864.839045	0.981202
865.151353	0.980371
865.463619	0.980059
865.775842	0.981616
866.088023	0.981883
866.400162	0.980847
866.712258	0.981988
867.024313	0.980719
867.336325	0.982879
867.648296	0.981152
867.960224	0.980606
868.272110	0.981801
868.583954	0.982168
868.895755	0.983152
869.207515	0.980158
869.519233	0.980944
869.830909	0.979071
870.142542	0.979428
870.454134	0.980079
870.765684	0.979758
871.077191	0.978967
871.388657	0.977699
871.700081	0.978861
872.011463	0.978033
872.322803	0.977894
872.634101	0.975452
872.945357	0.975945
873.256571	0.975070
873.567744	0.974783
873.878874	0.975820
874.189963	0.974886
874.501010	0.975767
874.812015	0.973316
875.122979	0.974372
875.433900	0.975542
875.744780	0.976504
876.055618	0.973313
876.366415	0.974062
876.677169	0.973998
876.987882	0.974420
877.298554	0.975628
877.609183	0.973143
877.919771	0.971761
878.230317	0.971687
878.540822	0.969113
878.851285	0.965598
879.161707	0.962131
879.472087	0.956586
879.782425	0.944960
880.092722	0.922253
880.402977	0.885298
880.713191	0.833951
881.023363	0.782447
881.333494	0.751037
881.643583	0.734575
881.953631	0.741635
882.263637	0.765778
882.573602	0.797547
882.883526	0.820239
883.193408	0.840472
883.503248	0.858242
883.813048	0.878435
884.122806	0.896577
884.432522	0.912183
884.742197	0.926315
885.051831	0.932592
885.361424	0.940321
885.670975	0.947638
885.980485	0.952406
886.289954	0.956745
886.599382	0.959052
886.908768	0.963343
887.218113	0.964530
887.527417	0.968364
887.836680	0.970537
888.145901	0.971529
888.455082	0.974001
888.764221	0.976287
889.073319	0.976193
889.382376	0.977924
889.691392	0.976641
890.000366	0.977900
890.309300	0.978018
890.618193	0.977357
890.927044	0.975825
891.235855	0.976092
891.544625	0.976169
891.853353	0.976387
892.162041	0.974315
892.470687	0.971856
892.779293	0.967669
893.087858	0.963701
893.396381	0.958841
893.704864	0.950182
894.013306	0.935776
894.321707	0.918084
894.630068	0.907721
894.938387	0.904540
895.246665	0.907629
895.554903	0.916679
895.863100	0.927473
896.171256	0.938541
896.479371	0.948616
896.787446	0.956610
897.095480	0.961121
897.403473	0.963908
897.711425	0.966141
898.019336	0.970278
898.327207	0.973273
898.635038	0.971432
898.942827	0.972888
899.250576	0.973368
899.558284	0.976193
899.865952	0.977220
900.173579	0.978440
900.481165	0.979846
900.788711	0.980225
901.096216	0.981957
901.403681	0.982813
901.711105	0.982264
902.018489	0.982208
902.325832	0.982985
902.633135	0.981441
902.940397	0.979660
903.247619	0.972246
903.554800	0.955200
903.861941	0.930204
904.169041	0.903393
904.476101	0.891385
904.783121	0.894612
905.090100	0.906259
905.397039	0.921708
905.703938	0.937002
906.010796	0.948848
906.317614	0.958961
906.624391	0.967419
906.931129	0.972194
907.237826	0.976644
907.544483	0.980344
907.851099	0.982772
908.157675	0.985355
908.464211	0.985839
908.770707	0.986613
909.077163	0.988954
909.383578	0.989784
909.689954	0.989740
909.996289	0.990464
910.302584	0.992170
910.608839	0.993021
910.915054	0.991264
911.221229	0.991174
911.527363	0.991124
911.833458	0.991540
912.139513	0.991926
912.445527	0.991868
912.751502	0.989676
913.057436	0.987568
913.363331	0.987606
913.669186	0.985091
913.975000	0.982413
914.280775	0.978078
914.586510	0.973176
914.892205	0.964855
915.197859	0.951439
915.503475	0.935828
915.809050	0.921562
916.114585	0.915877
916.420081	0.914651
916.725536	0.915658
917.030952	0.921555
917.336328	0.929792
917.641665	0.939795
917.946961	0.950075
918.252218	0.955394
918.557435	0.962488
918.862612	0.966508
919.167750	0.970444
919.472848	0.974996
919.777906	0.978278
920.082925	0.980059
920.387904	0.981687
920.692843	0.982314
920.997743	0.982904
921.302603	0.985699
921.607423	0.986046
921.912204	0.987473
922.216946	0.990096
922.521647	0.988713
922.826310	0.990337
923.130932	0.991457
923.435516	0.992101
923.740059	0.991028
924.044564	0.991511
924.349028	0.991753
924.653454	0.994436
924.957840	0.994128
925.262186	0.994590
925.566493	0.994228
925.870761	0.993947
926.174989	0.994954
926.479178	0.997384
926.783328	0.997414
927.087438	0.996209
927.391509	0.996483
927.695541	0.997398
927.999533	0.998123
928.303486	0.998285
928.607400	0.998603
928.911275	0.997504
929.215110	0.999245
929.518906	0.998145
929.822663	0.999076
930.126381	0.998283
930.430060	0.998610
930.733699	0.997369
931.037299	0.998821
931.340861	0.998131
931.644383	0.997160
931.947866	0.997966
932.251309	0.997501
932.554714	0.997672
932.858080	0.998716
933.161407	0.997367
933.464694	0.998101
933.767943	0.998488
934.071153	0.997758
934.374323	0.999932
934.677455	0.997973
934.980548	0.998855
935.283602	0.999781
935.586617	0.998897
935.889593	1.000286
936.192530	1.000102
936.495428	0.998295
936.798287	0.999057
937.101108	0.998144
937.403890	0.997155
937.706632	0.998182
938.009336	0.997544
938.312002	0.995405
938.614628	0.996019
938.917216	0.994386
939.219765	0.994142
939.522275	0.993228
939.824747	0.994673
940.127179	0.994617
940.429573	0.995322
940.731929	0.994965
941.034246	0.994066
941.336524	0.994483
941.638763	0.995918
941.940964	0.996042
942.243126	0.996173
942.545250	0.996221
942.847335	0.997060
943.149381	0.997741
943.451389	0.997164
943.753359	0.998500
944.055290	0.998982
944.357182	0.997567
944.659036	0.998550
944.960851	0.998219
945.262628	0.997972
945.564367	0.997260
945.866067	0.997743
946.167729	0.998847
946.469352	0.999354
946.770937	0.996629
947.072484	0.998762
947.373992	0.998773
947.675462	0.998273
947.976893	0.998856
948.278286	0.999739
948.579641	0.999877
948.880958	0.999045
949.182236	0.999040
949.483476	0.999712
949.784678	0.999328
950.085841	0.998685
950.386967	0.998931
950.688054	0.998433
950.989103	0.997750
951.290114	0.999025
951.591087	0.997456
951.892021	0.998192
952.192917	0.997356
952.493776	0.997525
952.794596	0.997682
953.095378	0.996246
953.396122	0.997174
953.696828	0.997671
953.997496	0.997502
954.298126	0.999455
954.598718	0.997722
954.899272	0.999643
955.199788	0.997817
955.500266	1.000141
955.800706	0.999995
956.101108	0.998504
956.401472	1.001748
956.701798	1.000118
957.002087	1.000743
957.302337	1.000154
957.602550	1.000643
957.902724	0.999830
958.202861	1.001738
958.502960	0.999815
958.803022	1.001586
959.103045	1.002510
959.403031	1.001987
959.702979	1.002691
960.002889	1.001719
960.302762	1.001546
960.602596	1.001195
960.902393	1.002228
961.202153	1.003059
961.501875	1.001689
961.801559	1.001959
962.101205	1.001541
962.400814	1.002034
962.700385	1.003388
962.999918	1.001670
963.299414	1.001282
963.598873	1.002204
963.898293	1.002816
964.197677	1.001686
964.497022	1.001748
964.796331	1.001353
965.095601	1.002613
965.394835	1.002412
965.694030	1.003958
965.993189	1.001713
966.292309	1.003355
966.591393	1.001567
966.890439	1.003914
967.189447	1.002544
967.488419	1.002672
967.787353	1.000946
968.086249	1.002233
968.385108	1.002686
968.683930	1.002977
968.982714	1.002050
969.281462	1.001893
969.580172	1.002609
969.878844	1.002576
970.177480	1.002761
970.476078	1.003975
970.774639	1.002376
971.073162	1.002049
971.371649	1.001645
971.670098	1.002819
971.968510	1.002711
972.266885	1.001887
972.565223	1.002487
972.863524	1.002356
973.161788	1.001285
973.460014	1.003821
973.758204	1.001525
974.056356	1.002012
974.354471	1.002014
974.652550	1.002736
974.950591	1.001382
975.248595	1.001350
975.546563	1.003271
975.844493	1.002316
976.142386	1.002274
976.440243	1.004257
976.738062	1.003338
977.035845	1.001789
977.333590	1.003071
977.631299	1.001667
977.928971	1.002257
978.226606	1.003048
978.524204	1.001221
978.821765	1.003296
979.119290	1.002781
979.416777	1.003017
979.714228	1.002509
980.011642	1.002519
980.309020	1.002218
980.606360	1.001922
980.903664	1.001876
981.200931	1.001519
981.498162	1.001765
981.795356	1.003730
982.092513	1.001015
982.389633	1.002057
982.686717	0.998359
982.983764	0.999145
983.280775	0.999356
983.577749	0.999631
983.874686	0.999165
984.171587	1.000449
984.468451	0.999954
984.765279	1.001008
985.062070	1.001535
985.358824	1.001814
985.655543	1.003568
985.952224	1.002479
986.248869	1.002227
986.545478	1.003767
986.842050	1.002667
987.138586	1.002288
987.435086	1.003184
987.731549	1.004040
988.027975	1.003826
988.324366	1.002721
988.620719	1.005091
988.917037	1.002778
989.213318	1.003744
989.509563	1.003553
989.805772	1.003195
990.101944	1.004443
990.398080	1.003065
990.694180	1.004408
990.990244	1.001867
991.286271	1.003507
991.582262	1.003615
991.878217	1.001829
992.174136	1.003503
992.470019	1.002941
992.765865	1.004616
993.061676	1.003589
993.357450	1.003145
993.653188	1.003773
993.948890	1.002433
994.244556	1.002364
994.540186	1.004187
994.835780	1.003438
995.131337	1.004588
995.426859	1.003869
995.722345	1.002846
996.017795	1.002890
996.313208	1.002469
996.608586	1.002634
996.903928	1.001985
997.199234	1.002247
997.494504	1.004010
997.789738	1.002052
998.084936	1.003182
998.380099	1.001552
998.675225	1.003611
998.970316	1.003262
999.265371	1.003923
999.560390	1.003069
999.855373	1.003352
1000.150320	1.003283
1000.445232	1.002314
1000.740108	1.003264
1001.034948	1.002738
1001.329752	1.004888
1001.624521	1.003101
1001.919254	1.002815
1002.213951	1.003829
1002.508613	1.003263
1002.803239	1.003062
1003.097829	1.004077
1003.392384	1.003743
1003.686903	1.003042
1003.981386	1.004378
1004.275834	1.003444
1004.570246	1.003160
1004.864623	1.003313
1005.158964	1.003299
1005.453270	1.003081
1005.747540	1.003924
1006.041775	1.004821
1006.335974	1.003752
1006.630138	1.003907
1006.924266	1.002260
1007.218359	1.001971
1007.512416	1.004854
1007.806438	1.003245
1008.100425	1.003759
1008.394376	1.003240
1008.688292	1.003420
1008.982172	1.004343
1009.276017	1.005212
1009.569827	1.005359
1009.863602	1.002714
1010.157341	1.004811
1010.451045	1.004696
1010.744714	1.005353
1011.038347	1.003764
1011.331945	1.002106
1011.625508	1.005117
1011.919036	1.003419
1012.212528	1.004511
1012.505986	1.003460
1012.799408	1.005063
1013.092795	1.003660
1013.386147	1.004265
1013.679464	1.004170
1013.972745	1.003878
1014.265992	1.003826
1014.559204	1.003002
1014.852380	1.004851
1015.145521	1.003780
1015.438628	1.004275
1015.731699	1.004451
1016.024736	1.004496
1016.317737	1.003672
1016.610703	1.003991
1016.903635	1.003545
1017.196531	1.003670
1017.489393	1.003637
1017.782219	1.002628
1018.075011	1.003268
1018.367768	1.004327
1018.660490	1.003135
1018.953177	1.003135
1019.245829	1.003135
