Dividing Wavelength (nm)	Counts (n)	Blue Motor Position (mm): 41.000000	Red Motor Position (mm): 0.000000	
326.493990	0.999996
326.888308	0.999996
327.282561	0.999996
327.676750	0.999556
328.070874	1.000533
328.464933	0.999074
328.858929	1.000398
329.252859	0.999002
329.646726	0.998469
330.040528	0.998589
330.434265	0.999687
330.827938	0.998806
331.221547	0.999581
331.615091	1.000750
332.008571	1.000410
332.401986	0.998698
332.795338	1.000624
333.188625	0.999183
333.581847	0.999845
333.975006	1.000023
334.368100	0.999989
334.761129	0.997881
335.154095	0.999765
335.546996	0.999266
335.939833	0.998847
336.332606	0.999401
336.725315	0.998515
337.117960	0.999715
337.510540	0.997623
337.903056	0.998679
338.295508	1.000620
338.687896	0.999622
339.080220	0.998239
339.472480	0.999270
339.864676	1.000425
340.256807	0.998970
340.648875	0.999157
341.040879	0.998557
341.432818	0.999995
341.824694	0.999786
342.216506	0.999961
342.608253	0.999479
342.999937	0.998551
343.391557	0.999025
343.783113	0.999336
344.174605	0.999686
344.566033	0.998509
344.957397	1.000088
345.348697	1.000395
345.739934	0.999024
346.131106	0.998709
346.522215	0.998566
346.913260	0.999808
347.304241	0.998755
347.695159	0.999345
348.086012	0.999259
348.476802	0.999644
348.867528	0.998176
349.258191	0.998630
349.648789	0.999575
350.039324	0.998888
350.429796	0.998993
350.820203	0.997520
351.210548	0.998990
351.600828	0.999673
351.991045	0.998385
352.381198	0.999445
352.771288	0.997991
353.161314	0.999671
353.551276	0.998914
353.941175	0.996466
354.331010	1.000379
354.720782	0.998942
355.110490	0.999008
355.500135	0.998779
355.889717	0.997510
356.279235	0.998380
356.668689	0.999687
357.058080	0.998416
357.447408	0.997402
357.836672	0.998946
358.225873	0.997464
358.615010	0.997548
359.004084	0.997037
359.393095	0.998097
359.782043	0.997552
360.170927	0.998504
360.559748	0.997921
360.948505	0.998548
361.337199	0.997987
361.725830	0.998904
362.114398	0.997269
362.502903	0.996858
362.891344	0.997470
363.279722	0.996604
363.668037	0.998199
364.056289	0.997463
364.444478	0.998807
364.832603	0.997630
365.220665	0.998589
365.608665	0.997383
365.996601	0.997048
366.384474	0.997292
366.772284	0.997763
367.160031	0.995009
367.547715	0.997342
367.935336	0.996136
368.322893	0.995072
368.710388	0.992304
369.097820	0.990986
369.485189	0.989467
369.872495	0.988306
370.259738	0.985663
370.646918	0.983821
371.034035	0.980901
371.421090	0.978364
371.808081	0.973165
372.195010	0.971039
372.581875	0.964998
372.968678	0.960918
373.355418	0.957108
373.742096	0.950450
374.128710	0.946064
374.515262	0.941993
374.901751	0.934975
375.288177	0.930590
375.674540	0.924413
376.060841	0.918306
376.447079	0.910618
376.833254	0.904227
377.219367	0.900826
377.605417	0.888573
377.991404	0.885334
378.377329	0.878730
378.763191	0.873038
379.148991	0.864459
379.534727	0.855365
379.920402	0.848285
380.306013	0.844159
380.691563	0.832535
381.077049	0.825207
381.462474	0.821067
381.847835	0.810648
382.233134	0.805165
382.618371	0.805957
383.003545	0.788487
383.388657	0.786511
383.773706	0.779046
384.158693	0.775710
384.543618	0.770778
384.928480	0.763569
385.313280	0.753978
385.698017	0.754711
386.082692	0.745178
386.467305	0.745220
386.851856	0.742099
387.236344	0.738996
387.620770	0.736954
388.005133	0.734585
388.389435	0.732385
388.773674	0.733060
389.157851	0.729678
389.541965	0.731211
389.926018	0.741401
390.310008	0.734398
390.693936	0.736295
391.077802	0.734950
391.461606	0.741165
391.845348	0.738253
392.229027	0.742693
392.612645	0.747864
392.996200	0.745081
393.379694	0.745358
393.763125	0.745875
394.146494	0.756558
394.529801	0.757244
394.913047	0.760948
395.296230	0.772568
395.679351	0.775510
396.062410	0.781226
396.445408	0.790533
396.828343	0.797713
397.211217	0.802083
397.594028	0.816941
397.976778	0.820911
398.359466	0.827816
398.742092	0.834808
399.124656	0.846577
399.507158	0.850694
399.889598	0.857495
400.271977	0.862651
400.654294	0.872303
401.036549	0.879351
401.418742	0.888392
401.800874	0.892246
402.182944	0.896966
402.564952	0.902379
402.946898	0.910027
403.328783	0.917330
403.710606	0.924816
404.092367	0.926311
404.474067	0.934407
404.855705	0.939515
405.237282	0.944083
405.618797	0.947547
406.000250	0.950986
406.381642	0.954527
406.762972	0.959733
407.144240	0.964075
407.525447	0.966175
407.906593	0.969624
408.287677	0.972336
408.668700	0.976306
409.049661	0.978430
409.430560	0.980988
409.811399	0.981730
410.192176	0.984964
410.572891	0.987330
410.953545	0.987552
411.334138	0.989706
411.714669	0.990779
412.095139	0.992625
412.475547	0.992881
412.855894	0.993888
413.236180	0.995301
413.616405	0.995391
413.996568	0.996565
414.376670	0.996745
414.756711	0.996550
415.136691	0.997009
415.516609	0.996184
415.896466	0.997705
416.276262	0.997331
416.655997	0.998524
417.035670	0.998313
417.415283	0.998821
417.794834	0.998623
418.174324	0.998917
418.553753	0.998994
418.933121	0.998883
419.312428	0.999669
419.691674	0.999146
420.070859	0.998770
420.449983	1.000067
420.829045	0.999045
421.208047	0.999708
421.586988	0.998997
421.965867	0.998676
422.344686	0.998743
422.723444	0.999201
423.102141	1.000013
423.480777	0.998215
423.859352	0.999492
424.237866	1.000329
424.616319	1.000006
424.994712	1.000157
425.373044	0.999828
425.751314	1.000066
426.129524	0.999768
426.507673	0.998839
426.885762	1.000008
427.263789	0.999775
427.641756	0.999171
428.019662	0.999001
428.397508	1.000039
428.775292	1.000055
429.153016	0.999627
429.530679	0.999197
429.908282	1.000171
430.285824	0.999983
430.663305	1.000058
431.040726	1.000639
431.418086	1.000448
431.795385	1.000014
432.172624	1.000958
432.549802	0.999971
432.926920	0.999819
433.303977	1.000521
433.680974	0.999852
434.057910	0.999857
434.434786	0.999755
434.811601	1.000510
435.188355	1.000119
435.565050	1.000215
435.941683	0.999327
436.318257	0.999662
436.694770	0.999673
437.071222	1.001050
437.447614	0.999264
437.823946	0.999480
438.200218	0.999748
438.576429	0.999289
438.952580	1.000902
439.328670	0.999196
439.704700	0.999464
440.080670	1.000416
440.456580	0.999299
440.832429	0.999947
441.208218	0.999990
441.583947	0.999712
441.959616	0.999219
442.335224	1.000535
442.710773	1.000235
443.086261	0.999535
443.461689	0.999949
443.837057	0.999714
444.212365	1.000493
444.587612	1.000476
444.962800	1.000049
445.337927	1.000858
445.712995	1.000012
446.088002	0.999577
446.462949	0.999749
446.837837	1.000943
447.212664	1.000179
447.587431	1.000960
447.962139	0.999914
448.336786	0.999558
448.711374	0.999125
449.085901	1.000571
449.460369	1.000155
449.834776	0.999324
450.209124	1.000073
450.583412	1.000015
450.957640	0.999786
451.331808	1.000659
451.705917	0.999200
452.079965	1.000272
452.453954	0.999924
452.827883	1.000837
453.201752	0.999998
453.575562	0.999561
453.949311	1.000616
454.323001	0.999466
454.696632	1.000478
455.070202	1.000626
455.443713	0.999539
455.817164	1.000015
456.190556	0.999566
456.563888	1.000637
456.937160	1.000357
457.310373	1.000111
457.683526	1.000559
458.056619	0.999753
458.429653	0.999924
458.802628	1.000270
459.175542	1.000750
459.548398	1.000803
459.921194	1.000316
460.293930	1.000544
460.666607	1.000665
461.039224	1.000091
461.411782	1.000052
461.784280	1.000011
462.156719	1.000988
462.529099	1.000840
462.901419	0.999757
463.273680	0.999716
463.645882	1.000068
464.018024	1.000907
464.390106	1.000366
464.762130	1.000128
465.134094	1.000531
465.505999	1.000456
465.877845	0.999348
466.249631	0.999969
466.621358	0.999730
466.993026	0.999958
467.364634	1.000121
467.736184	1.000117
468.107674	1.000187
468.479105	0.999556
468.850477	0.999745
469.221790	1.000838
469.593043	0.999532
469.964238	1.000008
470.335373	0.999438
470.706449	0.999830
471.077467	0.999776
471.448425	0.999742
471.819324	1.000233
472.190164	0.999819
472.560945	0.999895
472.931667	1.000102
473.302330	0.999746
473.672934	1.000074
474.043479	0.999916
474.413965	1.000204
474.784393	1.000225
475.154761	0.999762
475.525070	0.999862
475.895321	1.000691
476.265513	1.000506
476.635645	1.000100
477.005719	0.999506
477.375734	1.000104
477.745691	0.999259
478.115588	0.999589
478.485427	0.999871
478.855207	0.999688
479.224928	0.999946
479.594591	1.000369
479.964194	1.000230
480.333739	1.000112
480.703226	0.999766
481.072653	0.999912
481.442022	0.999939
481.811333	1.000155
482.180584	0.999981
482.549777	1.000214
482.918912	0.999450
483.287988	1.000087
483.657005	0.999496
484.025964	0.999591
484.394864	0.999849
484.763706	1.000001
485.132489	1.000420
485.501213	1.000427
485.869879	1.000004
486.238487	0.999466
486.607036	1.000049
486.975527	1.000352
487.343959	0.999520
487.712333	0.999534
488.080648	0.999401
488.448905	1.000772
488.817104	0.999742
489.185244	0.999913
489.553326	1.000161
489.921350	0.999963
490.289315	0.999943
490.657222	0.999422
491.025070	1.000319
491.392861	0.999742
491.760593	1.000088
492.128267	0.999857
492.495883	0.999221
492.863440	1.000046
493.230939	0.999650
493.598380	0.999539
493.965763	0.999604
494.333088	0.999210
494.700354	0.999395
495.067563	1.000043
495.434713	1.000710
495.801805	0.999739
496.168839	0.999881
496.535815	1.000421
496.902733	0.999499
497.269593	0.999742
497.636395	0.999270
498.003139	0.999561
498.369825	1.000367
498.736453	0.999710
499.103023	1.000462
499.469535	0.999472
499.835989	1.000296
500.202385	1.000103
500.568723	0.999456
500.935003	1.000369
501.301226	1.000187
501.667390	0.999399
502.033497	1.000180
502.399546	0.999261
502.765537	0.999639
503.131470	0.999936
503.497345	1.000573
503.863163	1.000520
504.228923	0.999756
504.594625	0.999586
504.960269	0.999442
505.325856	1.001000
505.691385	1.000300
506.056856	1.000004
506.422270	0.999644
506.787625	1.000913
507.152924	1.000428
507.518164	1.000026
507.883347	1.000108
508.248472	1.000461
508.613540	0.999787
508.978550	0.999841
509.343503	0.999408
509.708398	1.000384
510.073236	1.000261
510.438016	0.999454
510.802738	0.999353
511.167403	0.999321
511.532010	0.999863
511.896561	0.999559
512.261053	0.999572
512.625488	1.000139
512.989866	0.999543
513.354186	0.999368
513.718449	0.999579
514.082655	0.999396
514.446803	0.999576
514.810894	1.000641
515.174927	1.000211
515.538904	1.000575
515.902822	0.999884
516.266684	1.000140
516.630488	0.999818
516.994235	1.000354
517.357925	1.001052
517.721558	1.000411
518.085133	0.999232
518.448651	1.000475
518.812112	1.000155
519.175516	0.999847
519.538863	1.000088
519.902152	1.001105
520.265385	1.000309
520.628560	0.999898
520.991678	0.999949
521.354739	1.000748
521.717743	0.999497
522.080690	0.999506
522.443580	0.999891
522.806413	0.999986
523.169189	1.000492
523.531908	0.999747
523.894569	1.000289
524.257174	0.999603
524.619722	1.000288
524.982213	0.999940
525.344647	0.999741
525.707025	0.999565
526.069345	0.999409
526.431608	1.000151
526.793815	0.999915
527.155964	0.999561
527.518057	1.000418
527.880093	0.999982
528.242072	0.999710
528.603995	1.000082
528.965860	0.999824
529.327669	0.999962
529.689421	0.999605
530.051117	1.000342
530.412755	1.000026
530.774337	1.000320
531.135862	0.999508
531.497331	0.999235
531.858743	1.000629
532.220098	0.999589
532.581396	0.999910
532.942638	1.000008
533.303824	1.000656
533.664953	0.999523
534.026025	1.000246
534.387040	1.000227
534.747999	0.999579
535.108902	1.000017
535.469748	1.000411
535.830537	1.000327
536.191270	1.000472
536.551947	1.000435
536.912567	0.999785
537.273131	1.000199
537.633638	1.000020
537.994089	1.000276
538.354483	0.999928
538.714821	1.000419
539.075103	1.000198
539.435328	1.000143
539.795497	1.000066
540.155609	1.000065
540.515665	1.000411
540.875665	0.999542
541.235609	1.000638
541.595496	0.999886
541.955328	1.000622
542.315102	1.000296
542.674821	1.000570
543.034483	1.000159
543.394090	0.999634
543.753640	1.000120
544.113134	0.999695
544.472571	1.000529
544.831953	1.000038
545.191278	1.000341
545.550548	0.999436
545.909761	0.999541
546.268918	1.000542
546.628019	1.000449
546.987064	1.000159
547.346053	0.999935
547.704986	1.000346
548.063863	0.999364
548.422684	0.999804
548.781449	1.000117
549.140158	1.000231
549.498811	0.999919
549.857408	0.999967
550.215949	0.999612
550.574434	0.999544
550.932864	1.000310
551.291237	0.999759
551.649555	1.000860
552.007817	1.000540
552.366022	1.000819
552.724173	1.000834
553.082267	0.999673
553.440305	1.000071
553.798288	0.998853
554.156215	1.000207
554.514086	0.999820
554.871902	1.000153
555.229661	0.999704
555.587365	1.000558
555.945014	1.000797
556.302606	0.999900
556.660143	1.000398
557.017625	0.999539
557.375050	1.000082
557.732421	0.999633
558.089735	1.000012
558.446994	0.999839
558.804197	0.999821
559.161345	0.999712
559.518437	0.999452
559.875474	1.000280
560.232455	1.000690
560.589381	1.000307
560.946251	0.999467
561.303065	1.000737
561.659825	0.999715
562.016528	1.000186
562.373177	0.999905
562.729770	0.999925
563.086307	0.999463
563.442789	1.000107
563.799216	0.999590
564.155587	1.000661
564.511904	1.000513
564.868164	0.998396
565.224370	1.000258
565.580520	1.000211
565.936615	1.000090
566.292654	0.999965
566.648638	1.000622
567.004567	0.999938
567.360441	1.000136
567.716260	0.999896
568.072023	0.999600
568.427732	1.000222
568.783385	0.999829
569.138982	0.999990
569.494525	1.000190
569.850013	1.000937
570.205445	1.000332
570.560823	0.999644
570.916145	1.000159
571.271412	1.000398
571.626625	1.000104
571.981782	1.000229
572.336884	1.000461
572.691931	1.000145
573.046923	1.000709
573.401860	0.999475
573.756743	1.000502
574.111570	1.000344
574.466342	1.000994
574.821059	1.000124
575.175722	1.000424
575.530330	0.999699
575.884882	0.999757
576.239380	0.999800
576.593823	1.000493
576.948211	1.000261
577.302544	0.999926
577.656823	1.000407
578.011047	0.999180
578.365216	1.000514
578.719330	0.999964
579.073389	0.999006
579.427394	0.999882
579.781344	1.000647
580.135239	0.999536
580.489080	1.000247
580.842866	0.999963
581.196597	0.999311
581.550273	0.999567
581.903895	1.000308
582.257463	1.000297
582.610975	0.999676
582.964434	1.000322
583.317837	1.000103
583.671186	1.000055
584.024481	0.999804
584.377721	0.999252
584.730906	0.999871
585.084037	1.000755
585.437113	1.001094
585.790135	0.999924
586.143103	0.999914
586.496016	1.000079
586.848874	0.999770
587.201679	0.999796
587.554428	0.999685
587.907124	1.000448
588.259765	1.000419
588.612352	1.000135
588.964884	1.000744
589.317362	1.000056
589.669786	0.999647
590.022155	0.998792
590.374470	1.000220
590.726731	0.999615
591.078937	0.999700
591.431090	1.000100
591.783188	0.999419
592.135232	1.000180
592.487222	0.999823
592.839157	1.000004
593.191038	1.000050
593.542866	1.000366
593.894639	0.999526
594.246358	0.999667
594.598022	0.999570
594.949633	1.000082
595.301190	0.999899
595.652692	0.999651
596.004141	0.999321
596.355535	0.999725
596.706876	1.000245
597.058162	0.999639
597.409395	1.000095
597.760573	1.000220
598.111698	0.999618
598.462768	0.998857
598.813785	0.999388
599.164748	0.999343
599.515657	0.999560
599.866511	1.000637
600.217312	1.000469
600.568060	1.000045
600.918753	1.000460
601.269392	0.999812
601.619978	1.000211
601.970510	0.999933
602.320988	0.999765
602.671412	0.999277
603.021783	1.000208
603.372100	1.000062
603.722363	0.999936
604.072572	0.999575
604.422728	0.999198
604.772830	0.999055
605.122878	1.000034
605.472872	1.000124
605.822813	0.999010
606.172701	1.000040
606.522534	0.999902
606.872314	1.000151
607.222041	1.000267
607.571714	0.999841
607.921333	0.999756
608.270899	0.999233
608.620411	0.999781
608.969870	1.000264
609.319276	0.999821
609.668627	1.000486
610.017926	0.999141
610.367171	1.000202
610.716362	0.999799
611.065500	0.998922
611.414585	0.999534
611.763616	0.999884
612.112594	0.999628
612.461518	0.999059
612.810389	0.999599
613.159207	0.999338
613.507971	0.999054
613.856682	1.001227
614.205340	0.998744
614.553945	0.999548
614.902496	0.999110
615.250994	0.999567
615.599439	1.000173
615.947830	0.998933
616.296169	0.999305
616.644454	1.000145
616.992686	1.000247
617.340864	1.000102
617.688990	0.999325
618.037063	1.000243
618.385082	0.999646
618.733048	0.999306
619.080961	0.999534
619.428821	0.999890
619.776628	0.999363
620.124382	1.000853
620.472083	0.999986
620.819731	1.000819
621.167326	1.000021
621.514868	1.000077
621.862357	0.999045
622.209793	1.000163
622.557176	1.000032
622.904506	0.999126
623.251783	1.000063
623.599007	0.999500
623.946179	0.999014
624.293297	1.000367
624.640363	1.000447
624.987376	0.998225
625.334336	0.999483
625.681243	0.999527
626.028097	1.000139
626.374899	0.999738
626.721647	1.000354
627.068343	0.999922
627.414987	0.999231
627.761577	0.999291
628.108115	0.999659
628.454600	0.999784
628.801032	0.999394
629.147412	0.999601
629.493739	0.999984
629.840014	0.999896
630.186236	0.999521
630.532405	0.999248
630.878521	0.999361
631.224585	0.999695
631.570597	0.999257
631.916556	0.999590
632.262462	0.998444
632.608316	0.999547
632.954117	0.999006
633.299866	0.999211
633.645562	0.999377
633.991206	0.999763
634.336797	0.999436
634.682336	0.999975
635.027823	0.999135
635.373257	1.000121
635.718639	0.999852
636.063968	0.999230
636.409245	0.998352
636.754470	1.000162
637.099642	1.000268
637.444762	1.000142
637.789829	0.999599
638.134845	1.000113
638.479808	0.998838
638.824719	1.000171
639.169577	0.999890
639.514383	0.999597
639.859137	0.999488
640.203839	0.999776
640.548489	0.999560
640.893086	0.998672
641.237632	0.999561
641.582125	0.998563
641.926566	1.000503
642.270955	0.999813
642.615292	0.998228
642.959576	0.999698
643.303809	1.000318
643.647990	0.999298
643.992118	0.999560
644.336195	0.999337
644.680219	0.999731
645.024192	0.999796
645.368112	0.999415
645.711981	0.998940
646.055797	0.999455
646.399562	0.998335
646.743274	0.999834
647.086935	0.999500
647.430544	0.999275
647.774101	0.998926
648.117606	0.999740
648.461059	0.999913
648.804460	0.999725
649.147810	0.999353
649.491108	0.999798
649.834354	0.999087
650.177548	0.999639
650.520690	0.998736
650.863781	0.998000
651.206820	0.999941
651.549807	0.999332
651.892742	0.999654
652.235626	0.999881
652.578458	0.999545
652.921238	1.000309
653.263967	0.999370
653.606644	0.999443
653.949269	1.000089
654.291843	0.999088
654.634365	1.000319
654.976836	0.998351
655.319255	0.999947
655.661622	0.999715
656.003938	0.999200
656.346203	0.998943
656.688416	0.999636
657.030577	0.998951
657.372687	0.998983
657.714746	0.998835
658.056753	0.998868
658.398708	0.998913
658.740612	1.000933
659.082465	0.998714
659.424266	0.999717
659.766016	0.998073
660.107715	1.000271
660.449362	0.999248
660.790958	0.998528
661.132503	0.999649
661.473996	0.998883
661.815438	0.999319
662.156829	0.999174
662.498168	1.000155
662.839456	0.998469
663.180693	0.998779
663.521879	0.998951
663.863013	0.999313
664.204097	0.999106
664.545129	1.000074
664.886110	0.999394
665.227040	0.999359
665.567918	0.998529
665.908746	0.999236
666.249522	0.998896
666.590248	0.998970
666.930922	0.998867
667.271545	0.999207
667.612118	0.998364
667.952639	0.999627
668.293109	0.999070
668.633528	0.998411
668.973896	0.998967
669.314213	0.999053
669.654480	0.999675
669.994695	0.998902
670.334859	0.999134
670.674973	0.998817
671.015035	0.999092
671.355047	0.999162
671.695008	0.997925
672.034918	0.998949
672.374777	0.998301
672.714585	0.998883
673.054342	0.998853
673.394049	0.999001
673.733705	0.998785
674.073310	0.998361
674.412864	0.999842
674.752368	0.998388
675.091820	1.000022
675.431223	0.999048
675.770574	0.998479
676.109875	0.999825
676.449125	0.998347
676.788324	0.998979
677.127473	0.998800
677.466571	0.999593
677.805619	0.998100
678.144616	0.999782
678.483562	0.998888
678.822458	0.999863
679.161303	0.998424
679.500098	0.998624
679.838842	0.998761
680.177535	0.998847
680.516179	0.997824
680.854771	0.998105
681.193314	0.998425
681.531805	0.998910
681.870247	0.998460
682.208638	0.998984
682.546978	0.997822
682.885268	0.998236
683.223508	0.997602
683.561697	0.998617
683.899836	0.998514
684.237925	0.998747
684.575963	0.999032
684.913951	0.999265
685.251889	0.997853
685.589776	0.998921
685.927614	0.998451
686.265401	0.999200
686.603137	0.998439
686.940824	0.998515
687.278460	0.999119
687.616046	0.998606
687.953582	0.998310
688.291068	0.998208
688.628504	0.998163
688.965889	0.997892
689.303224	0.997823
689.640510	0.998553
689.977745	0.998092
690.314930	0.997941
690.652065	0.999164
690.989150	0.998393
691.326185	0.998813
691.663170	0.998643
692.000105	0.998089
692.336990	0.998067
692.673825	0.998869
693.010610	0.998445
693.347345	0.998518
693.684030	0.998284
694.020665	0.998233
694.357251	0.997810
694.693786	0.998611
695.030272	0.997153
695.366707	0.998422
695.703093	0.998208
696.039429	0.997765
696.375716	0.998546
696.711952	0.998289
697.048139	0.999482
697.384276	0.998714
697.720363	0.998673
698.056400	0.997724
698.392388	0.998183
698.728326	0.998359
699.064214	0.999000
699.400053	0.998042
699.735842	0.999096
700.071581	0.998500
700.407270	0.997555
700.742910	0.998750
701.078501	0.997510
701.414042	0.999223
701.749533	0.997697
702.084974	0.998476
702.420366	0.997669
702.755709	0.997469
703.091002	0.998283
703.426246	0.998678
703.761440	0.998128
704.096584	0.997778
704.431679	0.997435
704.766725	0.998170
705.101721	0.998535
705.436668	0.998833
705.771565	0.997626
706.106413	0.997347
706.441212	0.998493
706.775961	0.998997
707.110661	0.997593
707.445311	0.998464
707.779913	0.999197
708.114465	0.998769
708.448967	0.997857
708.783421	0.998385
709.117825	0.997912
709.452180	0.997976
709.786485	0.998231
710.120742	0.997367
710.454949	0.996937
710.789107	0.998037
711.123216	0.997315
711.457275	0.997485
711.791286	0.998313
712.125247	1.000323
712.459159	0.997357
712.793023	0.997837
713.126837	0.998058
713.460602	0.998311
713.794318	0.997540
714.127985	0.998738
714.461602	0.998283
714.795171	0.998077
715.128691	0.997170
715.462162	0.998903
715.795584	0.997856
716.128957	0.997993
716.462281	0.998452
716.795556	0.997535
717.128782	0.999064
717.461960	0.998219
717.795088	0.998490
718.128167	0.999300
718.461198	0.997510
718.794180	0.998818
719.127113	0.998001
719.459997	0.996811
719.792833	0.997650
720.125619	0.997900
720.458357	0.997721
720.791046	0.999238
721.123686	0.997398
721.456278	0.998299
721.788821	0.996963
722.121315	0.999073
722.453761	0.998588
722.786158	0.997384
723.118506	0.998876
723.450805	0.997593
723.783056	0.998635
724.115259	0.998353
724.447412	0.998321
724.779518	0.998919
725.111574	0.997168
725.443582	0.998367
725.775542	0.999320
726.107453	0.998124
726.439315	0.998444
726.771129	0.999093
727.102895	0.998767
727.434612	0.998469
727.766281	0.998004
728.097901	0.997820
728.429473	0.998201
728.760996	0.997793
729.092471	0.998213
729.423897	0.998257
729.755276	0.997978
730.086606	0.997225
730.417887	0.998182
730.749120	0.998039
731.080305	0.998344
731.411442	0.996512
731.742530	0.997030
732.073570	0.997999
732.404562	0.997385
732.735506	0.999009
733.066401	0.997556
733.397249	0.998036
733.728048	0.997811
734.058798	0.998223
734.389501	0.998293
734.720156	0.998763
735.050762	0.999300
735.381320	0.997729
735.711831	0.997880
736.042293	0.997575
736.372707	0.997932
736.703073	0.997000
737.033391	0.998287
737.363661	0.998491
737.693883	0.997983
738.024056	0.997877
738.354182	0.998754
738.684260	0.998129
739.014290	0.998150
739.344272	0.998108
739.674207	0.998744
740.004093	0.998445
740.333931	0.998555
740.663722	0.997853
740.993464	0.998185
741.323159	0.997899
741.652806	0.997814
741.982405	0.998055
742.311956	0.998155
742.641460	0.997760
742.970915	0.997134
743.300323	0.996572
743.629683	0.997865
743.958996	0.998857
744.288260	0.997953
744.617477	0.998645
744.946647	0.997352
745.275768	0.998201
745.604842	0.997687
745.933869	0.998144
746.262847	0.998793
746.591778	0.996764
746.920662	0.999192
747.249498	0.998728
747.578286	0.999469
747.907027	0.998239
748.235720	0.998279
748.564365	0.998320
748.892963	0.997912
749.221514	0.998574
749.550017	0.997659
749.878473	0.997560
750.206881	0.998834
750.535242	0.997705
750.863555	0.997349
751.191821	0.998309
751.520039	0.998289
751.848210	0.996278
752.176334	0.998292
752.504411	0.997380
752.832440	0.997837
753.160421	0.998504
753.488356	0.997883
753.816243	0.997371
754.144082	0.998353
754.471875	0.998358
754.799620	0.998891
755.127318	0.997596
755.454969	0.998104
755.782572	0.999761
756.110129	0.997456
756.437638	0.999439
756.765100	0.998733
757.092515	0.998292
757.419882	0.999190
757.747203	0.997373
758.074477	0.998739
758.401703	0.997676
758.728882	0.997457
759.056014	0.998475
759.383099	0.998222
759.710138	0.997432
760.037129	0.997398
760.364073	0.998906
760.690970	0.998597
761.017820	0.996467
761.344623	0.998945
761.671379	0.999002
761.998088	0.998308
762.324751	0.998121
762.651366	0.997768
762.977935	0.997246
763.304456	0.997477
763.630931	0.996105
763.957359	0.995518
764.283740	0.997197
764.610074	0.998218
764.936362	0.996599
765.262602	0.997896
765.588796	0.998069
765.914943	0.998326
766.241044	0.997055
766.567097	0.997974
766.893104	0.998671
767.219064	0.997016
767.544978	0.997859
767.870845	0.997883
768.196665	0.998339
768.522438	0.998279
768.848165	0.998757
769.173846	0.999109
769.499479	0.999248
769.825066	0.998841
770.150607	0.998815
770.476101	0.998680
770.801548	0.999608
771.126949	0.998890
771.452303	0.998278
771.777611	0.998586
772.102872	0.997767
772.428087	0.998560
772.753256	0.998146
773.078378	0.998362
773.403453	0.997884
773.728482	0.998646
774.053465	0.997547
774.378401	0.998582
774.703291	0.998776
775.028135	0.999636
775.352932	0.996981
775.677683	0.999891
776.002388	0.998405
776.327046	0.997627
776.651658	1.000061
776.976224	0.997928
777.300743	0.997968
777.625216	0.998012
777.949643	0.998444
778.274024	0.997796
778.598359	0.998570
778.922647	0.997928
779.246889	0.998906
779.571086	0.998864
779.895236	0.998475
780.219339	0.998389
780.543397	0.997649
780.867409	0.998447
781.191374	0.999341
781.515294	0.999176
781.839167	0.998831
782.162995	0.998618
782.486776	0.998094
782.810511	0.998170
783.134201	0.998035
783.457844	0.999365
783.781441	0.998869
784.104993	0.998107
784.428498	0.999086
784.751958	0.999140
785.075372	0.999319
785.398739	0.997750
785.722061	0.998138
786.045337	0.997903
786.368568	0.998841
786.691752	0.997919
787.014891	0.998644
787.337983	0.997487
787.661030	0.998778
787.984031	0.997865
788.306987	0.999624
788.629897	0.997304
788.952760	0.997093
789.275579	0.998143
789.598351	0.997581
789.921078	0.999334
790.243759	0.997407
790.566395	0.997265
790.888984	0.999697
791.211529	0.998412
791.534027	0.998383
791.856480	0.999196
792.178888	0.998555
792.501249	0.997644
792.823566	1.000085
793.145836	0.998431
793.468062	0.997746
793.790241	0.998891
794.112375	0.997352
794.434464	0.997641
794.756507	0.997903
795.078505	0.998679
795.400457	0.999032
795.722364	0.998247
796.044226	0.998862
796.366042	0.998218
796.687812	0.997845
797.009538	0.997724
797.331218	0.999600
797.652852	1.000356
797.974442	0.997403
798.295986	0.997841
798.617484	0.996930
798.938938	0.998657
799.260346	0.998167
799.581709	0.997826
799.903026	0.999503
800.224299	0.997273
800.545526	0.997769
800.866708	0.998157
801.187845	0.998265
801.508936	0.998606
801.829983	0.998274
802.150984	0.997876
802.471940	0.998140
802.792851	0.998067
803.113717	0.998988
803.434538	0.998758
803.755314	1.000439
804.076045	0.999013
804.396731	0.998570
804.717372	0.997270
805.037967	0.998808
805.358518	0.998809
805.679024	0.997545
805.999485	0.998983
806.319901	0.998620
806.640272	0.999990
806.960598	0.998037
807.280879	0.998050
807.601115	0.999558
807.921306	0.999815
808.241453	0.997548
808.561554	0.997992
808.881611	0.999511
809.201623	0.998456
809.521590	0.997509
809.841513	0.997798
810.161390	0.997826
810.481223	0.997992
810.801011	0.998614
811.120755	1.000296
811.440453	0.998881
811.760107	0.998611
812.079716	0.998835
812.399281	0.998333
812.718801	0.998117
813.038276	0.997293
813.357707	0.999008
813.677093	0.999136
813.996434	0.999243
814.315731	0.999603
814.634983	0.999415
814.954191	0.998957
815.273354	0.997373
815.592473	0.998747
815.911547	0.999127
816.230577	0.998680
816.549562	0.999193
816.868502	0.998576
817.187399	0.998447
817.506250	0.999451
817.825058	0.997822
818.143821	0.999488
818.462539	0.998843
818.781213	0.997831
819.099843	0.998605
819.418429	0.998100
819.736970	0.998940
820.055466	0.998110
820.373919	0.997925
820.692327	0.997139
821.010691	0.997530
821.329011	0.996298
821.647286	0.994890
821.965517	0.994701
822.283704	0.993756
822.601847	0.993742
822.919945	0.993204
823.237999	0.994253
823.556010	0.994333
823.873976	0.994542
824.191897	0.995231
824.509775	0.996355
824.827609	0.996155
825.145398	0.996972
825.463144	0.995181
825.780845	0.995654
826.098502	0.995844
826.416116	0.996220
826.733685	0.995694
827.051210	0.995070
827.368692	0.995886
827.686129	0.994835
828.003522	0.996904
828.320872	0.996680
828.638177	0.996243
828.955439	0.998960
829.272656	0.997690
829.589830	0.997247
829.906960	0.999284
830.224046	0.998618
830.541088	0.997370
830.858086	0.998091
831.175041	0.998261
831.491952	0.997992
831.808819	0.998023
832.125642	0.997618
832.442421	0.997752
832.759157	0.998565
833.075849	0.997274
833.392497	0.997039
833.709101	0.996064
834.025662	0.996900
834.342179	0.996198
834.658653	0.998350
834.975083	0.997934
835.291469	0.997871
835.607811	0.998058
835.924110	0.998574
836.240366	0.999274
836.556578	0.998529
836.872746	0.999075
837.188871	0.998853
837.504952	0.997863
837.820990	0.999117
838.136984	0.998296
838.452935	0.999598
838.768842	0.998431
839.084706	0.998477
839.400526	0.998927
839.716303	0.997712
840.032037	0.998991
840.347727	0.998069
840.663373	0.998069
840.978977	0.998193
841.294537	0.999013
841.610054	0.998174
841.925527	0.999028
842.240957	1.000065
842.556344	0.998598
842.871687	0.998757
843.186987	0.998853
843.502244	0.999004
843.817458	0.998189
844.132629	0.998752
844.447756	0.998128
844.762840	0.998364
845.077881	1.000670
845.392879	0.997625
845.707833	0.998833
846.022745	0.999906
846.337613	0.999249
846.652438	0.998563
846.967221	0.999464
847.281960	0.999347
847.596656	0.999492
847.911309	0.998990
848.225919	0.998555
848.540485	0.998581
848.855009	1.000485
849.169490	0.999542
849.483928	0.998746
849.798323	0.998335
850.112675	0.999556
850.426984	1.000281
850.741251	0.999848
851.055474	0.998224
851.369654	0.999024
851.683792	0.998452
851.997887	0.999260
852.311938	0.999452
852.625947	0.997700
852.939914	0.999091
853.253837	0.999526
853.567718	0.999489
853.881555	0.999237
854.195350	0.998691
854.509103	0.999589
854.822812	0.999409
855.136479	0.999528
855.450103	0.999104
855.763685	0.999038
856.077224	0.999429
856.390720	0.998445
856.704173	1.000242
857.017584	0.999344
857.330953	0.999162
857.644278	0.999113
857.957561	0.999447
858.270802	0.999243
858.584000	0.999312
858.897155	0.998642
859.210268	1.000430
859.523339	0.999431
859.836367	1.000256
860.149352	0.998226
860.462295	0.999060
860.775195	0.999847
861.088054	0.998172
861.400869	0.998840
861.713642	0.998043
862.026373	0.999453
862.339062	0.999968
862.651708	0.999362
862.964312	0.999302
863.276873	0.997944
863.589392	0.999108
863.901869	0.998095
864.214303	0.999344
864.526696	0.998981
864.839045	0.999820
865.151353	0.999377
865.463619	0.999447
865.775842	1.000042
866.088023	1.000338
866.400162	0.999212
866.712258	0.999423
867.024313	0.998888
867.336325	1.000517
867.648296	0.999597
867.960224	0.999031
868.272110	0.999252
868.583954	0.998487
868.895755	1.000116
869.207515	0.998550
869.519233	1.000058
869.830909	0.998981
870.142542	0.998073
870.454134	0.998685
870.765684	0.998067
871.077191	0.999153
871.388657	0.998103
871.700081	0.999181
872.011463	0.999421
872.322803	0.999050
872.634101	0.999306
872.945357	0.998128
873.256571	0.998511
873.567744	0.999012
873.878874	0.998974
874.189963	0.999218
874.501010	1.000840
874.812015	0.998274
875.122979	0.998470
875.433900	0.998289
875.744780	0.999594
876.055618	0.998671
876.366415	0.997309
876.677169	0.999118
876.987882	0.998885
877.298554	1.000068
877.609183	0.999613
877.919771	0.999171
878.230317	1.000027
878.540822	0.998812
878.851285	0.999122
879.161707	0.998158
879.472087	0.999805
879.782425	0.997618
880.092722	0.997751
880.402977	0.996299
880.713191	0.995268
881.023363	0.994208
881.333494	0.994575
881.643583	0.995501
881.953631	0.995128
882.263637	0.994759
882.573602	0.994972
882.883526	0.996104
883.193408	0.996712
883.503248	0.996007
883.813048	0.996149
884.122806	0.997188
884.432522	0.996508
884.742197	0.998900
885.051831	0.997821
885.361424	0.997568
885.670975	0.999561
885.980485	0.997827
886.289954	0.998219
886.599382	0.997835
886.908768	0.998704
887.218113	0.998482
887.527417	0.998057
887.836680	1.000255
888.145901	0.999630
888.455082	1.000226
888.764221	0.999205
889.073319	0.998313
889.382376	0.999475
889.691392	0.998296
890.000366	0.999376
890.309300	0.999054
890.618193	0.999839
890.927044	0.998980
891.235855	0.999536
891.544625	0.998489
891.853353	0.998856
892.162041	0.998441
892.470687	0.999129
892.779293	0.998434
893.087858	0.997824
893.396381	0.998654
893.704864	0.998579
894.013306	0.998644
894.321707	0.998189
894.630068	0.996821
894.938387	0.996997
895.246665	0.996901
895.554903	0.996083
895.863100	0.997370
896.171256	0.996881
896.479371	0.997925
896.787446	0.997258
897.095480	0.997453
897.403473	0.998785
897.711425	0.998741
898.019336	0.998662
898.327207	0.998969
898.635038	0.998131
898.942827	0.999338
899.250576	0.998992
899.558284	0.998822
899.865952	0.998962
900.173579	0.998994
900.481165	1.000066
900.788711	0.997910
901.096216	0.999082
901.403681	0.999690
901.711105	0.998729
902.018489	0.998468
902.325832	0.998687
902.633135	0.999013
902.940397	1.000269
903.247619	0.998823
903.554800	0.997449
903.861941	0.998048
904.169041	0.996779
904.476101	0.997597
904.783121	0.996367
905.090100	0.996896
905.397039	0.997494
905.703938	0.997616
906.010796	0.996479
906.317614	0.998687
906.624391	0.997907
906.931129	0.998971
907.237826	0.998250
907.544483	0.998773
907.851099	0.998796
908.157675	0.998966
908.464211	0.999591
908.770707	0.997479
909.077163	0.998627
909.383578	0.998428
909.689954	0.998649
909.996289	0.999944
910.302584	0.999324
910.608839	1.000471
910.915054	0.999038
911.221229	1.000721
911.527363	0.997936
911.833458	1.000067
912.139513	1.000177
912.445527	0.999327
912.751502	0.998443
913.057436	0.998450
913.363331	0.999594
913.669186	1.000339
913.975000	0.999191
914.280775	0.998709
914.586510	0.999763
914.892205	0.997985
915.197859	0.997783
915.503475	0.998025
915.809050	0.996385
916.114585	0.995878
916.420081	0.997017
916.725536	0.997307
917.030952	0.996796
917.336328	0.996753
917.641665	0.995695
917.946961	0.997724
918.252218	0.997981
918.557435	0.997599
918.862612	0.997668
919.167750	0.998854
919.472848	0.999715
919.777906	1.000900
920.082925	0.999470
920.387904	0.998347
920.692843	0.998511
920.997743	0.997271
921.302603	0.999264
921.607423	0.998092
921.912204	0.998455
922.216946	1.000120
922.521647	0.999307
922.826310	0.997907
923.130932	0.999323
923.435516	0.999518
923.740059	0.999074
924.044564	0.998364
924.349028	0.998556
924.653454	0.998664
924.957840	0.998215
925.262186	1.000042
925.566493	0.999619
925.870761	0.998378
926.174989	0.999611
926.479178	0.999853
926.783328	0.999326
927.087438	0.998869
927.391509	0.999583
927.695541	1.000578
927.999533	0.998958
928.303486	0.999201
928.607400	0.999505
928.911275	0.999474
929.215110	1.000391
929.518906	0.999612
929.822663	1.000776
930.126381	0.999326
930.430060	1.000472
930.733699	0.999582
931.037299	1.000700
931.340861	1.000510
931.644383	0.999427
931.947866	0.999623
932.251309	1.000975
932.554714	0.998455
932.858080	0.999822
933.161407	0.997627
933.464694	0.999134
933.767943	0.998626
934.071153	1.000445
934.374323	0.999858
934.677455	0.999597
934.980548	0.999628
935.283602	1.001238
935.586617	1.000106
935.889593	1.000276
936.192530	0.999859
936.495428	0.999908
936.798287	0.998413
937.101108	0.998959
937.403890	0.999468
937.706632	1.000535
938.009336	0.999312
938.312002	0.998906
938.614628	0.999914
938.917216	0.999423
939.219765	0.998454
939.522275	0.998829
939.824747	0.999706
940.127179	0.999315
940.429573	0.999463
940.731929	0.999548
941.034246	0.998343
941.336524	0.997988
941.638763	0.998520
941.940964	0.999377
942.243126	0.999347
942.545250	0.999689
942.847335	0.998788
943.149381	0.999193
943.451389	1.000004
943.753359	0.999288
944.055290	1.001114
944.357182	0.999109
944.659036	1.000530
944.960851	0.999578
945.262628	0.999802
945.564367	0.999058
945.866067	0.998649
946.167729	0.999611
946.469352	1.000439
946.770937	0.998166
947.072484	0.999355
947.373992	0.999643
947.675462	0.998785
947.976893	0.999208
948.278286	1.000262
948.579641	1.000206
948.880958	0.998266
949.182236	1.000205
949.483476	1.000392
949.784678	1.000021
950.085841	0.999055
950.386967	0.998843
950.688054	0.999415
950.989103	0.998169
951.290114	0.997938
951.591087	1.000214
951.892021	0.999607
952.192917	0.999953
952.493776	0.999424
952.794596	0.999414
953.095378	0.998697
953.396122	0.998888
953.696828	0.998953
953.997496	1.000890
954.298126	0.998217
954.598718	0.998424
954.899272	0.999006
955.199788	0.999613
955.500266	1.000393
955.800706	0.998051
956.101108	0.999214
956.401472	1.000779
956.701798	0.999788
957.002087	0.999328
957.302337	0.998541
957.602550	0.999548
957.902724	0.999879
958.202861	0.998343
958.502960	0.998588
958.803022	1.000721
959.103045	0.999617
959.403031	1.000144
959.702979	1.000430
960.002889	1.000323
960.302762	0.998587
960.602596	1.000471
960.902393	0.999895
961.202153	1.000538
961.501875	1.000185
961.801559	0.999564
962.101205	0.999177
962.400814	1.001099
962.700385	0.999656
962.999918	1.000473
963.299414	0.998322
963.598873	0.999171
963.898293	0.999503
964.197677	0.999309
964.497022	0.999869
964.796331	0.998494
965.095601	1.000822
965.394835	0.999622
965.694030	1.000628
965.993189	0.999253
966.292309	1.000254
966.591393	0.999474
966.890439	1.000030
967.189447	0.999280
967.488419	0.999428
967.787353	0.999548
968.086249	0.999191
968.385108	0.998887
968.683930	1.001150
968.982714	0.999764
969.281462	0.999518
969.580172	0.998879
969.878844	1.000955
970.177480	0.999835
970.476078	1.000949
970.774639	1.000418
971.073162	0.999071
971.371649	1.000006
971.670098	0.999092
971.968510	0.999929
972.266885	0.998747
972.565223	1.000015
972.863524	0.997981
973.161788	0.998624
973.460014	1.001185
973.758204	0.997856
974.056356	0.999190
974.354471	0.998455
974.652550	1.001329
974.950591	0.998484
975.248595	0.998891
975.546563	0.999459
975.844493	1.000022
976.142386	0.998606
976.440243	0.999834
976.738062	0.999353
977.035845	0.998162
977.333590	1.000050
977.631299	0.998472
977.928971	0.998861
978.226606	0.999404
978.524204	0.998915
978.821765	0.999521
979.119290	1.000491
979.416777	0.999294
979.714228	0.998994
980.011642	1.000077
980.309020	0.999583
980.606360	0.998168
980.903664	0.998569
981.200931	0.999090
981.498162	1.000043
981.795356	0.999328
982.092513	0.999381
982.389633	1.000306
982.686717	0.997754
982.983764	1.000327
983.280775	0.999077
983.577749	1.000386
983.874686	0.997782
984.171587	0.998512
984.468451	0.999423
984.765279	0.998206
985.062070	0.999210
985.358824	1.000119
985.655543	1.000413
985.952224	0.999504
986.248869	1.000056
986.545478	1.001185
986.842050	0.999322
987.138586	0.998229
987.435086	0.999823
987.731549	1.000249
988.027975	1.000274
988.324366	0.999395
988.620719	1.001295
988.917037	0.999182
989.213318	0.999503
989.509563	0.999262
989.805772	0.999620
990.101944	1.001662
990.398080	0.999725
990.694180	1.000331
990.990244	0.999304
991.286271	0.998451
991.582262	0.999958
991.878217	0.998612
992.174136	1.000544
992.470019	0.999461
992.765865	1.000249
993.061676	1.000696
993.357450	0.998962
993.653188	1.001251
993.948890	0.999925
994.244556	0.998878
994.540186	0.999416
994.835780	0.998513
995.131337	1.001372
995.426859	0.999639
995.722345	1.000651
996.017795	0.998916
996.313208	0.999623
996.608586	0.998842
996.903928	0.998754
997.199234	0.998889
997.494504	1.000757
997.789738	0.999052
998.084936	1.000535
998.380099	0.998610
998.675225	1.000102
998.970316	0.999861
999.265371	1.000405
999.560390	0.999902
999.855373	1.000353
1000.150320	0.998842
1000.445232	0.999200
1000.740108	0.999004
1001.034948	0.999140
1001.329752	1.001304
1001.624521	0.998813
1001.919254	0.999065
1002.213951	0.999614
1002.508613	0.999611
1002.803239	1.000168
1003.097829	0.999873
1003.392384	0.998778
1003.686903	1.000339
1003.981386	1.000202
1004.275834	0.999618
1004.570246	0.999419
1004.864623	1.000287
1005.158964	1.000653
1005.453270	0.998349
1005.747540	0.999956
1006.041775	0.998464
1006.335974	0.999939
1006.630138	0.999501
1006.924266	0.998288
1007.218359	0.998906
1007.512416	1.000988
1007.806438	0.999969
1008.100425	0.999914
1008.394376	1.000164
1008.688292	0.999263
1008.982172	0.998593
1009.276017	0.999375
1009.569827	1.000562
1009.863602	0.999852
1010.157341	0.999110
1010.451045	0.999409
1010.744714	1.000750
1011.038347	1.000203
1011.331945	0.997817
1011.625508	0.999798
1011.919036	0.999245
1012.212528	0.999073
1012.505986	1.000478
1012.799408	0.999848
1013.092795	1.000659
1013.386147	0.999860
1013.679464	1.000322
1013.972745	0.999480
1014.265992	0.999500
1014.559204	0.998987
1014.852380	1.000734
1015.145521	0.999710
1015.438628	0.999461
1015.731699	0.998935
1016.024736	0.999681
1016.317737	0.999904
1016.610703	0.999556
1016.903635	0.999573
1017.196531	0.999598
1017.489393	0.999343
1017.782219	0.998387
1018.075011	0.998893
1018.367768	0.999249
1018.660490	0.999302
1018.953177	0.999302
1019.245829	0.999302
