Dividing Wavelength (nm)	Counts (n)	Blue Motor Position (mm): 0.100000	Red Motor Position (mm): 0.000000	
326.493990	1.004817
326.888308	1.004817
327.282561	1.004817
327.676750	1.007603
328.070874	1.007078
328.464933	1.007347
328.858929	1.007552
329.252859	1.006184
329.646726	1.005593
330.040528	1.006075
330.434265	1.006889
330.827938	1.004950
331.221547	1.006428
331.615091	1.007665
332.008571	1.006552
332.401986	1.005037
332.795338	1.005976
333.188625	1.005543
333.581847	1.005775
333.975006	1.005562
334.368100	1.006665
334.761129	1.005827
335.154095	1.006080
335.546996	1.003675
335.939833	0.998462
336.332606	0.999861
336.725315	0.997475
337.117960	0.999918
337.510540	0.998416
337.903056	1.000683
338.295508	0.999889
338.687896	1.000505
339.080220	0.998636
339.472480	0.999063
339.864676	0.998853
340.256807	0.997921
340.648875	0.999200
341.040879	0.999810
341.432818	0.999880
341.824694	0.999220
342.216506	0.999571
342.608253	1.000079
342.999937	0.998694
343.391557	1.000437
343.783113	0.999759
344.174605	1.000606
344.566033	0.999761
344.957397	1.001014
345.348697	0.999629
345.739934	0.999145
346.131106	0.998712
346.522215	0.999677
346.913260	0.999079
347.304241	0.998851
347.695159	0.999926
348.086012	0.998448
348.476802	0.999067
348.867528	0.997464
349.258191	0.999643
349.648789	0.998816
350.039324	0.998106
350.429796	0.997696
350.820203	0.998098
351.210548	0.998249
351.600828	0.999314
351.991045	0.998969
352.381198	0.999144
352.771288	0.998752
353.161314	1.000322
353.551276	0.997903
353.941175	0.996606
354.331010	0.999591
354.720782	0.998092
355.110490	0.997972
355.500135	0.998888
355.889717	0.997532
356.279235	0.996830
356.668689	0.999328
357.058080	0.997132
357.447408	0.997339
357.836672	0.997155
358.225873	0.997426
358.615010	0.997636
359.004084	0.996777
359.393095	0.998403
359.782043	0.997746
360.170927	0.998564
360.559748	0.997410
360.948505	0.997257
361.337199	0.998310
361.725830	0.997946
362.114398	0.996929
362.502903	0.996856
362.891344	0.996132
363.279722	0.996962
363.668037	0.998032
364.056289	0.996801
364.444478	0.998081
364.832603	0.996304
365.220665	0.997710
365.608665	0.996310
365.996601	0.996408
366.384474	0.995791
366.772284	0.996845
367.160031	0.994798
367.547715	0.996167
367.935336	0.994994
368.322893	0.994006
368.710388	0.992105
369.097820	0.990636
369.485189	0.988181
369.872495	0.987112
370.259738	0.984055
370.646918	0.982548
371.034035	0.979534
371.421090	0.977243
371.808081	0.971168
372.195010	0.969144
372.581875	0.964004
372.968678	0.959991
373.355418	0.957003
373.742096	0.948889
374.128710	0.943502
374.515262	0.939484
374.901751	0.934426
375.288177	0.929246
375.674540	0.922405
376.060841	0.915786
376.447079	0.909727
376.833254	0.903055
377.219367	0.897693
377.605417	0.885867
377.991404	0.882448
378.377329	0.877251
378.763191	0.869558
379.148991	0.862064
379.534727	0.853265
379.920402	0.845423
380.306013	0.841242
380.691563	0.829191
381.077049	0.822862
381.462474	0.818848
381.847835	0.806603
382.233134	0.802207
382.618371	0.803236
383.003545	0.784508
383.388657	0.783643
383.773706	0.776271
384.158693	0.771761
384.543618	0.766918
384.928480	0.757359
385.313280	0.747474
385.698017	0.746440
386.082692	0.736498
386.467305	0.734009
386.851856	0.728929
387.236344	0.723416
387.620770	0.718465
388.005133	0.711721
388.389435	0.706700
388.773674	0.704360
389.157851	0.695658
389.541965	0.693558
389.926018	0.699907
390.310008	0.686898
390.693936	0.683385
391.077802	0.675718
391.461606	0.677126
391.845348	0.666219
392.229027	0.666315
392.612645	0.663835
392.996200	0.650422
393.379694	0.643502
393.763125	0.634968
394.146494	0.638879
394.529801	0.629233
394.913047	0.621527
395.296230	0.627649
395.679351	0.619185
396.062410	0.615647
396.445408	0.618183
396.828343	0.614185
397.211217	0.608360
397.594028	0.621271
397.976778	0.611219
398.359466	0.606923
398.742092	0.603365
399.124656	0.615209
399.507158	0.603085
399.889598	0.600861
400.271977	0.591716
400.654294	0.595498
401.036549	0.594439
401.418742	0.598839
401.800874	0.585100
402.182944	0.581302
402.564952	0.573558
402.946898	0.574838
403.328783	0.575922
403.710606	0.587068
404.092367	0.561585
404.474067	0.567646
404.855705	0.565984
405.237282	0.575236
405.618797	0.561419
406.000250	0.556697
406.381642	0.546579
406.762972	0.552149
407.144240	0.550693
407.525447	0.550415
407.906593	0.542565
408.287677	0.538575
408.668700	0.546803
409.049661	0.540916
409.430560	0.535938
409.811399	0.544766
410.192176	0.526228
410.572891	0.533753
410.953545	0.521401
411.334138	0.535195
411.714669	0.527665
412.095139	0.540104
412.475547	0.523755
412.855894	0.526393
413.236180	0.524862
413.616405	0.529847
413.996568	0.520295
414.376670	0.526397
414.756711	0.531382
415.136691	0.528464
415.516609	0.519718
415.896466	0.516129
416.276262	0.512042
416.655997	0.514681
417.035670	0.495523
417.415283	0.486758
417.794834	0.492191
418.174324	0.497716
418.553753	0.506055
418.933121	0.488733
419.312428	0.482781
419.691674	0.488161
420.070859	0.476579
420.449983	0.484932
420.829045	0.473812
421.208047	0.483031
421.586988	0.475339
421.965867	0.474916
422.344686	0.463367
422.723444	0.475892
423.102141	0.493302
423.480777	0.465762
423.859352	0.486734
424.237866	0.463400
424.616319	0.464783
424.994712	0.455348
425.373044	0.466139
425.751314	0.453734
426.129524	0.470656
426.507673	0.454221
426.885762	0.447522
427.263789	0.452835
427.641756	0.462765
428.019662	0.453091
428.397508	0.452229
428.775292	0.456307
429.153016	0.448139
429.530679	0.454229
429.908282	0.447990
430.285824	0.457732
430.663305	0.436177
431.040726	0.457823
431.418086	0.457510
431.795385	0.449658
432.172624	0.448283
432.549802	0.448279
432.926920	0.448093
433.303977	0.447138
433.680974	0.443938
434.057910	0.442582
434.434786	0.441644
434.811601	0.444802
435.188355	0.427032
435.565050	0.436703
435.941683	0.437819
436.318257	0.421667
436.694770	0.422640
437.071222	0.420698
437.447614	0.425341
437.823946	0.431851
438.200218	0.420955
438.576429	0.430616
438.952580	0.423440
439.328670	0.420483
439.704700	0.426399
440.080670	0.428216
440.456580	0.408962
440.832429	0.417481
441.208218	0.427870
441.583947	0.417524
441.959616	0.416394
442.335224	0.421865
442.710773	0.412697
443.086261	0.410717
443.461689	0.424823
443.837057	0.414781
444.212365	0.404866
444.587612	0.412147
444.962800	0.401271
445.337927	0.403261
445.712995	0.429003
446.088002	0.390761
446.462949	0.401426
446.837837	0.406769
447.212664	0.394948
447.587431	0.386795
447.962139	0.357189
448.336786	0.316261
448.711374	0.326394
449.085901	0.371149
449.460369	0.375497
449.834776	0.378862
450.209124	0.357370
450.583412	0.350483
450.957640	0.343535
451.331808	0.355239
451.705917	0.378503
452.079965	0.383183
452.453954	0.371335
452.827883	0.378008
453.201752	0.372374
453.575562	0.384122
453.949311	0.372891
454.323001	0.378524
454.696632	0.374707
455.070202	0.367091
455.443713	0.358967
455.817164	0.353482
456.190556	0.349843
456.563888	0.346405
456.937160	0.344034
457.310373	0.361044
457.683526	0.360352
458.056619	0.365935
458.429653	0.366378
458.802628	0.370011
459.175542	0.364207
459.548398	0.346697
459.921194	0.339129
460.293930	0.339098
460.666607	0.316844
461.039224	0.304731
461.411782	0.300351
461.784280	0.299720
462.156719	0.304054
462.529099	0.308222
462.901419	0.324248
463.273680	0.329097
463.645882	0.328328
464.018024	0.334282
464.390106	0.326814
464.762130	0.311531
465.134094	0.294669
465.505999	0.263404
465.877845	0.233757
466.249631	0.220642
466.621358	0.228201
466.993026	0.242227
467.364634	0.248057
467.736184	0.257122
468.107674	0.265957
468.479105	0.265211
468.850477	0.271931
469.221790	0.278943
469.593043	0.288717
469.964238	0.293887
470.335373	0.293311
470.706449	0.291312
471.077467	0.291876
471.448425	0.253843
471.819324	0.229442
472.190164	0.228740
472.560945	0.257695
472.931667	0.280435
473.302330	0.284464
473.672934	0.296193
474.043479	0.284107
474.413965	0.286287
474.784393	0.289402
475.154761	0.284807
475.525070	0.281621
475.895321	0.287462
476.265513	0.281486
476.635645	0.276840
477.005719	0.276803
477.375734	0.273280
477.745691	0.266431
478.115588	0.263024
478.485427	0.256556
478.855207	0.243335
479.224928	0.225789
479.594591	0.213757
479.964194	0.217381
480.333739	0.218409
480.703226	0.220204
481.072653	0.218159
481.442022	0.213896
481.811333	0.210868
482.180584	0.214138
482.549777	0.219642
482.918912	0.222702
483.287988	0.222385
483.657005	0.221954
484.025964	0.228751
484.394864	0.225805
484.763706	0.226455
485.132489	0.231751
485.501213	0.232326
485.869879	0.230575
486.238487	0.233779
486.607036	0.231646
486.975527	0.236226
487.343959	0.232308
487.712333	0.231122
488.080648	0.232641
488.448905	0.231890
488.817104	0.233031
489.185244	0.227635
489.553326	0.224667
489.921350	0.214485
490.289315	0.196835
490.657222	0.191660
491.025070	0.193267
491.392861	0.195050
491.760593	0.200779
492.128267	0.206300
492.495883	0.211857
492.863440	0.218428
493.230939	0.224541
493.598380	0.226246
493.965763	0.228343
494.333088	0.230574
494.700354	0.232310
495.067563	0.231003
495.434713	0.234417
495.801805	0.231969
496.168839	0.233467
496.535815	0.235215
496.902733	0.234993
497.269593	0.236851
497.636395	0.234339
498.003139	0.234760
498.369825	0.237689
498.736453	0.234072
499.103023	0.235659
499.469535	0.235115
499.835989	0.235375
500.202385	0.236077
500.568723	0.239375
500.935003	0.234367
501.301226	0.238867
501.667390	0.233038
502.033497	0.231219
502.399546	0.233957
502.765537	0.236121
503.131470	0.234663
503.497345	0.230927
503.863163	0.239360
504.228923	0.232524
504.594625	0.230737
504.960269	0.236587
505.325856	0.231784
505.691385	0.236250
506.056856	0.233160
506.422270	0.232593
506.787625	0.234904
507.152924	0.232412
507.518164	0.232788
507.883347	0.234229
508.248472	0.236180
508.613540	0.230959
508.978550	0.233480
509.343503	0.234229
509.708398	0.231839
510.073236	0.229268
510.438016	0.228890
510.802738	0.230067
511.167403	0.229263
511.532010	0.231271
511.896561	0.226514
512.261053	0.225135
512.625488	0.227246
512.989866	0.227555
513.354186	0.227967
513.718449	0.229958
514.082655	0.226102
514.446803	0.228534
514.810894	0.226423
515.174927	0.229105
515.538904	0.228446
515.902822	0.225069
516.266684	0.227646
516.630488	0.228722
516.994235	0.227816
517.357925	0.226383
517.721558	0.224443
518.085133	0.224036
518.448651	0.224242
518.812112	0.226602
519.175516	0.226287
519.538863	0.223454
519.902152	0.225574
520.265385	0.222092
520.628560	0.224188
520.991678	0.224220
521.354739	0.223445
521.717743	0.224597
522.080690	0.224927
522.443580	0.222026
522.806413	0.223267
523.169189	0.222723
523.531908	0.221248
523.894569	0.224790
524.257174	0.224788
524.619722	0.222411
524.982213	0.223751
525.344647	0.222574
525.707025	0.223427
526.069345	0.221483
526.431608	0.223103
526.793815	0.221325
527.155964	0.225233
527.518057	0.224255
527.880093	0.225356
528.242072	0.223983
528.603995	0.225833
528.965860	0.227511
529.327669	0.226791
529.689421	0.227441
530.051117	0.228064
530.412755	0.226028
530.774337	0.228040
531.135862	0.228836
531.497331	0.227829
531.858743	0.230786
532.220098	0.227272
532.581396	0.230157
532.942638	0.230592
533.303824	0.231572
533.664953	0.231246
534.026025	0.233132
534.387040	0.230967
534.747999	0.230803
535.108902	0.229539
535.469748	0.234747
535.830537	0.232637
536.191270	0.232989
536.551947	0.232618
536.912567	0.232582
537.273131	0.234418
537.633638	0.234457
537.994089	0.234844
538.354483	0.236041
538.714821	0.232759
539.075103	0.232614
539.435328	0.233557
539.795497	0.237098
540.155609	0.233636
540.515665	0.231963
540.875665	0.237604
541.235609	0.235972
541.595496	0.236032
541.955328	0.232800
542.315102	0.235195
542.674821	0.236197
543.034483	0.236457
543.394090	0.236128
543.753640	0.238251
544.113134	0.232871
544.472571	0.236426
544.831953	0.233066
545.191278	0.237631
545.550548	0.236745
545.909761	0.233598
546.268918	0.234399
546.628019	0.232581
546.987064	0.235404
547.346053	0.236945
547.704986	0.234810
548.063863	0.235129
548.422684	0.235671
548.781449	0.237257
549.140158	0.234948
549.498811	0.237679
549.857408	0.240920
550.215949	0.235594
550.574434	0.238893
550.932864	0.236847
551.291237	0.235182
551.649555	0.236781
552.007817	0.236710
552.366022	0.237179
552.724173	0.237480
553.082267	0.237812
553.440305	0.234791
553.798288	0.239170
554.156215	0.235854
554.514086	0.236238
554.871902	0.239618
555.229661	0.238734
555.587365	0.239359
555.945014	0.241949
556.302606	0.238824
556.660143	0.241476
557.017625	0.237893
557.375050	0.240193
557.732421	0.237124
558.089735	0.238755
558.446994	0.239030
558.804197	0.238510
559.161345	0.238159
559.518437	0.241562
559.875474	0.239860
560.232455	0.239281
560.589381	0.240134
560.946251	0.240179
561.303065	0.237951
561.659825	0.239157
562.016528	0.241141
562.373177	0.243409
562.729770	0.241111
563.086307	0.242708
563.442789	0.240625
563.799216	0.243432
564.155587	0.242463
564.511904	0.243537
564.868164	0.243467
565.224370	0.243514
565.580520	0.245123
565.936615	0.245061
566.292654	0.248000
566.648638	0.245021
567.004567	0.245666
567.360441	0.246104
567.716260	0.248232
568.072023	0.246221
568.427732	0.246888
568.783385	0.249374
569.138982	0.247836
569.494525	0.247370
569.850013	0.249989
570.205445	0.248595
570.560823	0.250932
570.916145	0.253008
571.271412	0.251169
571.626625	0.252744
571.981782	0.253507
572.336884	0.254120
572.691931	0.253881
573.046923	0.255504
573.401860	0.256370
573.756743	0.257937
574.111570	0.256849
574.466342	0.257420
574.821059	0.256477
575.175722	0.259468
575.530330	0.259026
575.884882	0.259540
576.239380	0.261287
576.593823	0.261893
576.948211	0.261807
577.302544	0.264543
577.656823	0.264489
578.011047	0.264443
578.365216	0.264991
578.719330	0.267097
579.073389	0.266597
579.427394	0.268051
579.781344	0.268801
580.135239	0.270202
580.489080	0.269941
580.842866	0.273020
581.196597	0.273126
581.550273	0.271401
581.903895	0.272679
582.257463	0.270495
582.610975	0.274062
582.964434	0.273221
583.317837	0.276046
583.671186	0.276233
584.024481	0.276364
584.377721	0.278863
584.730906	0.279404
585.084037	0.278909
585.437113	0.280780
585.790135	0.280233
586.143103	0.283163
586.496016	0.284202
586.848874	0.281649
587.201679	0.282390
587.554428	0.285901
587.907124	0.284689
588.259765	0.285359
588.612352	0.285650
588.964884	0.289744
589.317362	0.289265
589.669786	0.289036
590.022155	0.287577
590.374470	0.286633
590.726731	0.288878
591.078937	0.293926
591.431090	0.290441
591.783188	0.294314
592.135232	0.294904
592.487222	0.294770
592.839157	0.292730
593.191038	0.294909
593.542866	0.297049
593.894639	0.300490
594.246358	0.298778
594.598022	0.298055
594.949633	0.301430
595.301190	0.302577
595.652692	0.301501
596.004141	0.297556
596.355535	0.305611
596.706876	0.306512
597.058162	0.308706
597.409395	0.305765
597.760573	0.303527
598.111698	0.307016
598.462768	0.307154
598.813785	0.308727
599.164748	0.310045
599.515657	0.310197
599.866511	0.314284
600.217312	0.309142
600.568060	0.314339
600.918753	0.310602
601.269392	0.311734
601.619978	0.315072
601.970510	0.312515
602.320988	0.312632
602.671412	0.310608
603.021783	0.313115
603.372100	0.314042
603.722363	0.313852
604.072572	0.315139
604.422728	0.314572
604.772830	0.316809
605.122878	0.316644
605.472872	0.316709
605.822813	0.315217
606.172701	0.317978
606.522534	0.315317
606.872314	0.315723
607.222041	0.316280
607.571714	0.314234
607.921333	0.315693
608.270899	0.315741
608.620411	0.312294
608.969870	0.316601
609.319276	0.316202
609.668627	0.316441
610.017926	0.314873
610.367171	0.313298
610.716362	0.313930
611.065500	0.314246
611.414585	0.312930
611.763616	0.313084
612.112594	0.313885
612.461518	0.312941
612.810389	0.310811
613.159207	0.313261
613.507971	0.314915
613.856682	0.310781
614.205340	0.312211
614.553945	0.309345
614.902496	0.313082
615.250994	0.311180
615.599439	0.311927
615.947830	0.311198
616.296169	0.312145
616.644454	0.311880
616.992686	0.311792
617.340864	0.309593
617.688990	0.312950
618.037063	0.309833
618.385082	0.311461
618.733048	0.308529
619.080961	0.311083
619.428821	0.310130
619.776628	0.309956
620.124382	0.312448
620.472083	0.312900
620.819731	0.311598
621.167326	0.315694
621.514868	0.315600
621.862357	0.319621
622.209793	0.319334
622.557176	0.321630
622.904506	0.322278
623.251783	0.324921
623.599007	0.327196
623.946179	0.326882
624.293297	0.328930
624.640363	0.332981
624.987376	0.333214
625.334336	0.335741
625.681243	0.337976
626.028097	0.338526
626.374899	0.339560
626.721647	0.340198
627.068343	0.342885
627.414987	0.344125
627.761577	0.345900
628.108115	0.344185
628.454600	0.349870
628.801032	0.347277
629.147412	0.349151
629.493739	0.350161
629.840014	0.352770
630.186236	0.350075
630.532405	0.355803
630.878521	0.353077
631.224585	0.354959
631.570597	0.358795
631.916556	0.357224
632.262462	0.357187
632.608316	0.359614
632.954117	0.360344
633.299866	0.361212
633.645562	0.361774
633.991206	0.365829
634.336797	0.368772
634.682336	0.371354
635.027823	0.372904
635.373257	0.373556
635.718639	0.377067
636.063968	0.376500
636.409245	0.382053
636.754470	0.382472
637.099642	0.384649
637.444762	0.388269
637.789829	0.387527
638.134845	0.390535
638.479808	0.391702
638.824719	0.391884
639.169577	0.395966
639.514383	0.395081
639.859137	0.399808
640.203839	0.398779
640.548489	0.399639
640.893086	0.400347
641.237632	0.401981
641.582125	0.400898
641.926566	0.402620
642.270955	0.402750
642.615292	0.402582
642.959576	0.401912
643.303809	0.403150
643.647990	0.402327
643.992118	0.402686
644.336195	0.406477
644.680219	0.404225
645.024192	0.405007
645.368112	0.398574
645.711981	0.398115
646.055797	0.393333
646.399562	0.395340
646.743274	0.388243
647.086935	0.384807
647.430544	0.385228
647.774101	0.383328
648.117606	0.383775
648.461059	0.384195
648.804460	0.386235
649.147810	0.392166
649.491108	0.393806
649.834354	0.394978
650.177548	0.400190
650.520690	0.405857
650.863781	0.407128
651.206820	0.406025
651.549807	0.410784
651.892742	0.414970
652.235626	0.414581
652.578458	0.415573
652.921238	0.421984
653.263967	0.418811
653.606644	0.423179
653.949269	0.423104
654.291843	0.426828
654.634365	0.424112
654.976836	0.426589
655.319255	0.427638
655.661622	0.428120
656.003938	0.429136
656.346203	0.431530
656.688416	0.429406
657.030577	0.433040
657.372687	0.435311
657.714746	0.436065
658.056753	0.432220
658.398708	0.436669
658.740612	0.438091
659.082465	0.433519
659.424266	0.434429
659.766016	0.433402
660.107715	0.436612
660.449362	0.435856
660.790958	0.435985
661.132503	0.437296
661.473996	0.434382
661.815438	0.435234
662.156829	0.435748
662.498168	0.436514
662.839456	0.437421
663.180693	0.435585
663.521879	0.435383
663.863013	0.436042
664.204097	0.434688
664.545129	0.431646
664.886110	0.432288
665.227040	0.429260
665.567918	0.432199
665.908746	0.429621
666.249522	0.429240
666.590248	0.430182
666.930922	0.428693
667.271545	0.427773
667.612118	0.427219
667.952639	0.428939
668.293109	0.427937
668.633528	0.430616
668.973896	0.430305
669.314213	0.431308
669.654480	0.432433
669.994695	0.432576
670.334859	0.433381
670.674973	0.434237
671.015035	0.434074
671.355047	0.434377
671.695008	0.434998
672.034918	0.436948
672.374777	0.436537
672.714585	0.437225
673.054342	0.437539
673.394049	0.437682
673.733705	0.435183
674.073310	0.436549
674.412864	0.439556
674.752368	0.439821
675.091820	0.440103
675.431223	0.444727
675.770574	0.444351
676.109875	0.447210
676.449125	0.447790
676.788324	0.449681
677.127473	0.454943
677.466571	0.454985
677.805619	0.456118
678.144616	0.457771
678.483562	0.459562
678.822458	0.462689
679.161303	0.462488
679.500098	0.463568
679.838842	0.464933
680.177535	0.464098
680.516179	0.462996
680.854771	0.461724
681.193314	0.455580
681.531805	0.446525
681.870247	0.435318
682.208638	0.427780
682.546978	0.426379
682.885268	0.428334
683.223508	0.434862
683.561697	0.438386
683.899836	0.440865
684.237925	0.444652
684.575963	0.447328
684.913951	0.450282
685.251889	0.445570
685.589776	0.447776
685.927614	0.450065
686.265401	0.444357
686.603137	0.445764
686.940824	0.440000
687.278460	0.438427
687.616046	0.437363
687.953582	0.432481
688.291068	0.433676
688.628504	0.429405
688.965889	0.431733
689.303224	0.435458
689.640510	0.439243
689.977745	0.445006
690.314930	0.452900
690.652065	0.458235
690.989150	0.465293
691.326185	0.472190
691.663170	0.476808
692.000105	0.484176
692.336990	0.491332
692.673825	0.493409
693.010610	0.500169
693.347345	0.505828
693.684030	0.507267
694.020665	0.512119
694.357251	0.520659
694.693786	0.520761
695.030272	0.524445
695.366707	0.528065
695.703093	0.531652
696.039429	0.529108
696.375716	0.531505
696.711952	0.533485
697.048139	0.536072
697.384276	0.538205
697.720363	0.536817
698.056400	0.535495
698.392388	0.541559
698.728326	0.543417
699.064214	0.546737
699.400053	0.546803
699.735842	0.551297
700.071581	0.554133
700.407270	0.556188
700.742910	0.559387
701.078501	0.565444
701.414042	0.566781
701.749533	0.569044
702.084974	0.578294
702.420366	0.571114
702.755709	0.578080
703.091002	0.585652
703.426246	0.580231
703.761440	0.584992
704.096584	0.589856
704.431679	0.587154
704.766725	0.589293
705.101721	0.591391
705.436668	0.587353
705.771565	0.593983
706.106413	0.590206
706.441212	0.585319
706.775961	0.585153
707.110661	0.586959
707.445311	0.584137
707.779913	0.581129
708.114465	0.579556
708.448967	0.577273
708.783421	0.568774
709.117825	0.563379
709.452180	0.562782
709.786485	0.557053
710.120742	0.546118
710.454949	0.547984
710.789107	0.540218
711.123216	0.531023
711.457275	0.533015
711.791286	0.524317
712.125247	0.523087
712.459159	0.533319
712.793023	0.525882
713.126837	0.530093
713.460602	0.530501
713.794318	0.538758
714.127985	0.538467
714.461602	0.548958
714.795171	0.552091
715.128691	0.559895
715.462162	0.567832
715.795584	0.573848
716.128957	0.576676
716.462281	0.583356
716.795556	0.586520
717.128782	0.591943
717.461960	0.601258
717.795088	0.600458
718.128167	0.606016
718.461198	0.614369
718.794180	0.615633
719.127113	0.617867
719.459997	0.620842
719.792833	0.627507
720.125619	0.629025
720.458357	0.634659
720.791046	0.634503
721.123686	0.638702
721.456278	0.645165
721.788821	0.641964
722.121315	0.647380
722.453761	0.650487
722.786158	0.648634
723.118506	0.645263
723.450805	0.652726
723.783056	0.649604
724.115259	0.645575
724.447412	0.646126
724.779518	0.646723
725.111574	0.645415
725.443582	0.641499
725.775542	0.643460
726.107453	0.636336
726.439315	0.635512
726.771129	0.634835
727.102895	0.627350
727.434612	0.620459
727.766281	0.618304
728.097901	0.617689
728.429473	0.617387
728.760996	0.616084
729.092471	0.615920
729.423897	0.619987
729.755276	0.618503
730.086606	0.618166
730.417887	0.613013
730.749120	0.604248
731.080305	0.594432
731.411442	0.590773
731.742530	0.594751
732.073570	0.594548
732.404562	0.587006
732.735506	0.588331
733.066401	0.592870
733.397249	0.602341
733.728048	0.613421
734.058798	0.626107
734.389501	0.638017
734.720156	0.647378
735.050762	0.654804
735.381320	0.655719
735.711831	0.663988
736.042293	0.669627
736.372707	0.666219
736.703073	0.670638
737.033391	0.672837
737.363661	0.669707
737.693883	0.665424
738.024056	0.663380
738.354182	0.664345
738.684260	0.653024
739.014290	0.650017
739.344272	0.650246
739.674207	0.644474
740.004093	0.643776
740.333931	0.643439
740.663722	0.643151
740.993464	0.644695
741.323159	0.648365
741.652806	0.652606
741.982405	0.658568
742.311956	0.663365
742.641460	0.664185
742.970915	0.668778
743.300323	0.674924
743.629683	0.682798
743.958996	0.684589
744.288260	0.688474
744.617477	0.694639
744.946647	0.696611
745.275768	0.702920
745.604842	0.701379
745.933869	0.711396
746.262847	0.714355
746.591778	0.705738
746.920662	0.712163
747.249498	0.718989
747.578286	0.710153
747.907027	0.705874
748.235720	0.706323
748.564365	0.702173
748.892963	0.701046
749.221514	0.704847
749.550017	0.708969
749.878473	0.709922
750.206881	0.716437
750.535242	0.716518
750.863555	0.715642
751.191821	0.717064
751.520039	0.720847
751.848210	0.724160
752.176334	0.718065
752.504411	0.716402
752.832440	0.725656
753.160421	0.730282
753.488356	0.727071
753.816243	0.724184
754.144082	0.733637
754.471875	0.736545
754.799620	0.732651
755.127318	0.733924
755.454969	0.735187
755.782572	0.734307
756.110129	0.737624
756.437638	0.741504
756.765100	0.737714
757.092515	0.735307
757.419882	0.733524
757.747203	0.740166
758.074477	0.740136
758.401703	0.735477
758.728882	0.731027
759.056014	0.730302
759.383099	0.728799
759.710138	0.730014
760.037129	0.726146
760.364073	0.720694
760.690970	0.723233
761.017820	0.727780
761.344623	0.723790
761.671379	0.714722
761.998088	0.703689
762.324751	0.680015
762.651366	0.637524
762.977935	0.569149
763.304456	0.518043
763.630931	0.507598
763.957359	0.547354
764.283740	0.591291
764.610074	0.619428
764.936362	0.650656
765.262602	0.679038
765.588796	0.699296
765.914943	0.716510
766.241044	0.735723
766.567097	0.741452
766.893104	0.752395
767.219064	0.758600
767.544978	0.765699
767.870845	0.778595
768.196665	0.783427
768.522438	0.780864
768.848165	0.782432
769.173846	0.791241
769.499479	0.795797
769.825066	0.799960
770.150607	0.805063
770.476101	0.799867
770.801548	0.801803
771.126949	0.813900
771.452303	0.817616
771.777611	0.815636
772.102872	0.814346
772.428087	0.820695
772.753256	0.824159
773.078378	0.825606
773.403453	0.834323
773.728482	0.838169
774.053465	0.831504
774.378401	0.835247
774.703291	0.844419
775.028135	0.845058
775.352932	0.845073
775.677683	0.849084
776.002388	0.850107
776.327046	0.848565
776.651658	0.852507
776.976224	0.856169
777.300743	0.855662
777.625216	0.857161
777.949643	0.860541
778.274024	0.858489
778.598359	0.860861
778.922647	0.859714
779.246889	0.860680
779.571086	0.863859
779.895236	0.866934
780.219339	0.864309
780.543397	0.859956
780.867409	0.859314
781.191374	0.861525
781.515294	0.862471
781.839167	0.862646
782.162995	0.864417
782.486776	0.861660
782.810511	0.863243
783.134201	0.867547
783.457844	0.864903
783.781441	0.868056
784.104993	0.872849
784.428498	0.873573
784.751958	0.869739
785.075372	0.870925
785.398739	0.875418
785.722061	0.870431
786.045337	0.867268
786.368568	0.871017
786.691752	0.873532
787.014891	0.859965
787.337983	0.850710
787.661030	0.843622
787.984031	0.824892
788.306987	0.813592
788.629897	0.813907
788.952760	0.819137
789.275579	0.823738
789.598351	0.838907
789.921078	0.852853
790.243759	0.854067
790.566395	0.859459
790.888984	0.866794
791.211529	0.871007
791.534027	0.873821
791.856480	0.876613
792.178888	0.881536
792.501249	0.884161
792.823566	0.886508
793.145836	0.886885
793.468062	0.887485
793.790241	0.888472
794.112375	0.885376
794.434464	0.881651
794.756507	0.881426
795.078505	0.879535
795.400457	0.874764
795.722364	0.863218
796.044226	0.855655
796.366042	0.854343
796.687812	0.856828
797.009538	0.853443
797.331218	0.857548
797.652852	0.862505
797.974442	0.866647
798.295986	0.867539
798.617484	0.868040
798.938938	0.873785
799.260346	0.878725
799.581709	0.879163
799.903026	0.882371
800.224299	0.883848
800.545526	0.886604
800.866708	0.890667
801.187845	0.895214
801.508936	0.894948
801.829983	0.892898
802.150984	0.896293
802.471940	0.900725
802.792851	0.900212
803.113717	0.901583
803.434538	0.899571
803.755314	0.902254
804.076045	0.903319
804.396731	0.903069
804.717372	0.902318
805.037967	0.905740
805.358518	0.902389
805.679024	0.899313
805.999485	0.899672
806.319901	0.899069
806.640272	0.902785
806.960598	0.899562
807.280879	0.896187
807.601115	0.895153
807.921306	0.898304
808.241453	0.899879
808.561554	0.897624
808.881611	0.897152
809.201623	0.898258
809.521590	0.898863
809.841513	0.901127
810.161390	0.898075
810.481223	0.900945
810.801011	0.904213
811.120755	0.905976
811.440453	0.903980
811.760107	0.905063
812.079716	0.904031
812.399281	0.907622
812.718801	0.909442
813.038276	0.909524
813.357707	0.909814
813.677093	0.907827
813.996434	0.909278
814.315731	0.912476
814.634983	0.913046
814.954191	0.912992
815.273354	0.907200
815.592473	0.904104
815.911547	0.904430
816.230577	0.900890
816.549562	0.898449
816.868502	0.897577
817.187399	0.896458
817.506250	0.890933
817.825058	0.891983
818.143821	0.888417
818.462539	0.883128
818.781213	0.875685
819.099843	0.864646
819.418429	0.846826
819.736970	0.831236
820.055466	0.810069
820.373919	0.784492
820.692327	0.750599
821.010691	0.715738
821.329011	0.634633
821.647286	0.517685
821.965517	0.402394
822.283704	0.359127
822.601847	0.360219
822.919945	0.395676
823.237999	0.430766
823.556010	0.478558
823.873976	0.535356
824.191897	0.586371
824.509775	0.630415
824.827609	0.676923
825.145398	0.700153
825.463144	0.700698
825.780845	0.684405
826.098502	0.665923
826.416116	0.619661
826.733685	0.574137
827.051210	0.565209
827.368692	0.581270
827.686129	0.618514
828.003522	0.674519
828.320872	0.722083
828.638177	0.766488
828.955439	0.800612
829.272656	0.820665
829.589830	0.838499
829.906960	0.855537
830.224046	0.867202
830.541088	0.878691
830.858086	0.884561
831.175041	0.890439
831.491952	0.888430
831.808819	0.884194
832.125642	0.877249
832.442421	0.864873
832.759157	0.841368
833.075849	0.794015
833.392497	0.728395
833.709101	0.687629
834.025662	0.697169
834.342179	0.730313
834.658653	0.768959
834.975083	0.806427
835.291469	0.833652
835.607811	0.855916
835.924110	0.873885
836.240366	0.891161
836.556578	0.904126
836.872746	0.911589
837.188871	0.919306
837.504952	0.923354
837.820990	0.926039
838.136984	0.930132
838.452935	0.934352
838.768842	0.934103
839.084706	0.928652
839.400526	0.902386
839.716303	0.859679
840.032037	0.838248
840.347727	0.841178
840.663373	0.858587
840.978977	0.881478
841.294537	0.905760
841.610054	0.920793
841.925527	0.927771
842.240957	0.935362
842.556344	0.945021
842.871687	0.949293
843.186987	0.953004
843.502244	0.954747
843.817458	0.956084
844.132629	0.960310
844.447756	0.964878
844.762840	0.964658
845.077881	0.964809
845.392879	0.963486
845.707833	0.967809
846.022745	0.968885
846.337613	0.969285
846.652438	0.969003
846.967221	0.970006
847.281960	0.970566
847.596656	0.971480
847.911309	0.971496
848.225919	0.970932
848.540485	0.972260
848.855009	0.974061
849.169490	0.972834
849.483928	0.973436
849.798323	0.972737
850.112675	0.974736
850.426984	0.974291
850.741251	0.975395
851.055474	0.974436
851.369654	0.973928
851.683792	0.972164
851.997887	0.974839
852.311938	0.974119
852.625947	0.973665
852.939914	0.971225
853.253837	0.973054
853.567718	0.975234
853.881555	0.975025
854.195350	0.973266
854.509103	0.975143
854.822812	0.974707
855.136479	0.975290
855.450103	0.973768
855.763685	0.973346
856.077224	0.974107
856.390720	0.974904
856.704173	0.974793
857.017584	0.972564
857.330953	0.971786
857.644278	0.972146
857.957561	0.972925
858.270802	0.973471
858.584000	0.974039
858.897155	0.970853
859.210268	0.971800
859.523339	0.974365
859.836367	0.975759
860.149352	0.974550
860.462295	0.975309
860.775195	0.975238
861.088054	0.973652
861.400869	0.974705
861.713642	0.974681
862.026373	0.976945
862.339062	0.975762
862.651708	0.973722
862.964312	0.972671
863.276873	0.973638
863.589392	0.972327
863.901869	0.969949
864.214303	0.969867
864.526696	0.968069
864.839045	0.967657
865.151353	0.965956
865.463619	0.966384
865.775842	0.967408
866.088023	0.966749
866.400162	0.966863
866.712258	0.966498
867.024313	0.967351
867.336325	0.968763
867.648296	0.969004
867.960224	0.964934
868.272110	0.966527
868.583954	0.968589
868.895755	0.968661
869.207515	0.966312
869.519233	0.965229
869.830909	0.963853
870.142542	0.966311
870.454134	0.965823
870.765684	0.964848
871.077191	0.963808
871.388657	0.962326
871.700081	0.961722
872.011463	0.963189
872.322803	0.961812
872.634101	0.960417
872.945357	0.958359
873.256571	0.955554
873.567744	0.957180
873.878874	0.958719
874.189963	0.956939
874.501010	0.957726
874.812015	0.954263
875.122979	0.953187
875.433900	0.958225
875.744780	0.957728
876.055618	0.954369
876.366415	0.953652
876.677169	0.952878
876.987882	0.954973
877.298554	0.955276
877.609183	0.951012
877.919771	0.949365
878.230317	0.946623
878.540822	0.942269
878.851285	0.937834
879.161707	0.929776
879.472087	0.917340
879.782425	0.899619
880.092722	0.864870
880.402977	0.810623
880.713191	0.747237
881.023363	0.686137
881.333494	0.651002
881.643583	0.623946
881.953631	0.624239
882.263637	0.651648
882.573602	0.692450
882.883526	0.718606
883.193408	0.744563
883.503248	0.767244
883.813048	0.796177
884.122806	0.826192
884.432522	0.850699
884.742197	0.870958
885.051831	0.881649
885.361424	0.892780
885.670975	0.905574
885.980485	0.914543
886.289954	0.921282
886.599382	0.925529
886.908768	0.931919
887.218113	0.936470
887.527417	0.942435
887.836680	0.945114
888.145901	0.947282
888.455082	0.950450
888.764221	0.954888
889.073319	0.955625
889.382376	0.957780
889.691392	0.956512
890.000366	0.957254
890.309300	0.957025
890.618193	0.955806
890.927044	0.954837
891.235855	0.955171
891.544625	0.955707
891.853353	0.955122
892.162041	0.952301
892.470687	0.946896
892.779293	0.941850
893.087858	0.936799
893.396381	0.927733
893.704864	0.914433
894.013306	0.890210
894.321707	0.862878
894.630068	0.847251
894.938387	0.840882
895.246665	0.843918
895.554903	0.855700
895.863100	0.870451
896.171256	0.888077
896.479371	0.907282
896.787446	0.921109
897.095480	0.927109
897.403473	0.930898
897.711425	0.936608
898.019336	0.942558
898.327207	0.947189
898.635038	0.946756
898.942827	0.949919
899.250576	0.952440
899.558284	0.956077
899.865952	0.957481
900.173579	0.959204
900.481165	0.959028
900.788711	0.962023
901.096216	0.964924
901.403681	0.966579
901.711105	0.966216
902.018489	0.966753
902.325832	0.966517
902.633135	0.964399
902.940397	0.959178
903.247619	0.945091
903.554800	0.920498
903.861941	0.878382
904.169041	0.841469
904.476101	0.822906
904.783121	0.824146
905.090100	0.840854
905.397039	0.863160
905.703938	0.885141
906.010796	0.906877
906.317614	0.924014
906.624391	0.938050
906.931129	0.947302
907.237826	0.956178
907.544483	0.961306
907.851099	0.967365
908.157675	0.971617
908.464211	0.973060
908.770707	0.975268
909.077163	0.978008
909.383578	0.980103
909.689954	0.979154
909.996289	0.981316
910.302584	0.982291
910.608839	0.984933
910.915054	0.983577
911.221229	0.982906
911.527363	0.980670
911.833458	0.981935
912.139513	0.981770
912.445527	0.981129
912.751502	0.979014
913.057436	0.976934
913.363331	0.976000
913.669186	0.971282
913.975000	0.966167
914.280775	0.958734
914.586510	0.950963
914.892205	0.937516
915.197859	0.915072
915.503475	0.887024
915.809050	0.866774
916.114585	0.860195
916.420081	0.857299
916.725536	0.854044
917.030952	0.862105
917.336328	0.875735
917.641665	0.892734
917.946961	0.907802
918.252218	0.920017
918.557435	0.928715
918.862612	0.937799
919.167750	0.943359
919.472848	0.950768
919.777906	0.957433
920.082925	0.962342
920.387904	0.964653
920.692843	0.966712
920.997743	0.968200
921.302603	0.971227
921.607423	0.972307
921.912204	0.975805
922.216946	0.978681
922.521647	0.977454
922.826310	0.979515
923.130932	0.980553
923.435516	0.982947
923.740059	0.983705
924.044564	0.984063
924.349028	0.984999
924.653454	0.986296
924.957840	0.987249
925.262186	0.988303
925.566493	0.987793
925.870761	0.990094
926.174989	0.990496
926.479178	0.992590
926.783328	0.992022
927.087438	0.992891
927.391509	0.992094
927.695541	0.993555
927.999533	0.994164
928.303486	0.994685
928.607400	0.995132
928.911275	0.995497
929.215110	0.995897
929.518906	0.995350
929.822663	0.995855
930.126381	0.995734
930.430060	0.996139
930.733699	0.995954
931.037299	0.995832
931.340861	0.995071
931.644383	0.994041
931.947866	0.996587
932.251309	0.994708
932.554714	0.995333
932.858080	0.995868
933.161407	0.994684
933.464694	0.995652
933.767943	0.996087
934.071153	0.996381
934.374323	0.997059
934.677455	0.996386
934.980548	0.996497
935.283602	0.996764
935.586617	0.995220
935.889593	0.998144
936.192530	0.997444
936.495428	0.996468
936.798287	0.994863
937.101108	0.995204
937.403890	0.994014
937.706632	0.994725
938.009336	0.992085
938.312002	0.989996
938.614628	0.988782
938.917216	0.987030
939.219765	0.986415
939.522275	0.986584
939.824747	0.987780
940.127179	0.988596
940.429573	0.990048
940.731929	0.987499
941.034246	0.989128
941.336524	0.988333
941.638763	0.990469
941.940964	0.990450
942.243126	0.991580
942.545250	0.992930
942.847335	0.991875
943.149381	0.993110
943.451389	0.992740
943.753359	0.994905
944.055290	0.995458
944.357182	0.995779
944.659036	0.994937
944.960851	0.994628
945.262628	0.995394
945.564367	0.994658
945.866067	0.994935
946.167729	0.994578
946.469352	0.995021
946.770937	0.993216
947.072484	0.996137
947.373992	0.994906
947.675462	0.994206
947.976893	0.995616
948.278286	0.997515
948.579641	0.997420
948.880958	0.996585
949.182236	0.994823
949.483476	0.996502
949.784678	0.997888
950.085841	0.996379
950.386967	0.996272
950.688054	0.996309
950.989103	0.994092
951.290114	0.993173
951.591087	0.995294
951.892021	0.993982
952.192917	0.994040
952.493776	0.993472
952.794596	0.993207
953.095378	0.992209
953.396122	0.992536
953.696828	0.993903
953.997496	0.994326
954.298126	0.995665
954.598718	0.994588
954.899272	0.995386
955.199788	0.994399
955.500266	0.997671
955.800706	0.996434
956.101108	0.997385
956.401472	0.999747
956.701798	0.998332
957.002087	0.999197
957.302337	0.999482
957.602550	0.999102
957.902724	1.000535
958.202861	1.000224
958.502960	1.000480
958.803022	1.001565
959.103045	1.000899
959.403031	1.001405
959.702979	1.001463
960.002889	1.000518
960.302762	1.000162
960.602596	1.001891
960.902393	1.001292
961.202153	1.001866
961.501875	1.001932
961.801559	1.001687
962.101205	1.000898
962.400814	1.003444
962.700385	1.002145
962.999918	1.002115
963.299414	1.000790
963.598873	1.002858
963.898293	1.002745
964.197677	1.002634
964.497022	1.002348
964.796331	1.001092
965.095601	1.002779
965.394835	1.002685
965.694030	1.002681
965.993189	1.002639
966.292309	1.002687
966.591393	1.001681
966.890439	1.002582
967.189447	1.001823
967.488419	1.002769
967.787353	1.001985
968.086249	1.002049
968.385108	1.001204
968.683930	1.003707
968.982714	1.002159
969.281462	1.002442
969.580172	1.002010
969.878844	1.002072
970.177480	1.003290
970.476078	1.003085
970.774639	1.001966
971.073162	1.001536
971.371649	1.001581
971.670098	1.000988
971.968510	1.001706
972.266885	1.000176
972.565223	1.001705
972.863524	1.000426
973.161788	1.001078
973.460014	1.002565
973.758204	1.001825
974.056356	1.002076
974.354471	1.000950
974.652550	1.002339
974.950591	1.001482
975.248595	0.999911
975.546563	1.002813
975.844493	1.002684
976.142386	1.001752
976.440243	1.002162
976.738062	1.002490
977.035845	1.000376
977.333590	1.001918
977.631299	1.002411
977.928971	1.002799
978.226606	1.002119
978.524204	1.001395
978.821765	1.002641
979.119290	1.003250
979.416777	1.001150
979.714228	1.002437
980.011642	1.002420
980.309020	1.001479
980.606360	1.001670
980.903664	1.001762
981.200931	1.002293
981.498162	1.000389
981.795356	1.000523
982.092513	1.000996
982.389633	0.999940
982.686717	0.996522
982.983764	0.995102
983.280775	0.995571
983.577749	0.997253
983.874686	0.996217
984.171587	0.997712
984.468451	0.998818
984.765279	1.000476
985.062070	1.000254
985.358824	1.000495
985.655543	1.001811
985.952224	1.001951
986.248869	1.001004
986.545478	1.003810
986.842050	1.002397
987.138586	1.002969
987.435086	1.002682
987.731549	1.004850
988.027975	1.004407
988.324366	1.002885
988.620719	1.003562
988.917037	1.002862
989.213318	1.004274
989.509563	1.003544
989.805772	1.003542
990.101944	1.003400
990.398080	1.004692
990.694180	1.004911
990.990244	1.003665
991.286271	1.003200
991.582262	1.003553
991.878217	1.002954
992.174136	1.004951
992.470019	1.003981
992.765865	1.004138
993.061676	1.003515
993.357450	1.005032
993.653188	1.003664
993.948890	1.002233
994.244556	1.003200
994.540186	1.003716
994.835780	1.002027
995.131337	1.003892
995.426859	1.003026
995.722345	1.001584
996.017795	1.002146
996.313208	1.001083
996.608586	1.001254
996.903928	1.001187
997.199234	1.001834
997.494504	1.002467
997.789738	1.001519
998.084936	1.003223
998.380099	1.002509
998.675225	1.003845
998.970316	1.002715
999.265371	1.002983
999.560390	1.003578
999.855373	1.004111
1000.150320	1.003124
1000.445232	1.003013
1000.740108	1.004207
1001.034948	1.003177
1001.329752	1.004470
1001.624521	1.003380
1001.919254	1.003697
1002.213951	1.004516
1002.508613	1.003288
1002.803239	1.003721
1003.097829	1.004610
1003.392384	1.003779
1003.686903	1.004038
1003.981386	1.003573
1004.275834	1.005370
1004.570246	1.002307
1004.864623	1.004880
1005.158964	1.004836
1005.453270	1.004302
1005.747540	1.003856
1006.041775	1.004199
1006.335974	1.003815
1006.630138	1.004651
1006.924266	1.003340
1007.218359	1.001991
1007.512416	1.005301
1007.806438	1.004837
1008.100425	1.004940
1008.394376	1.005060
1008.688292	1.004364
1008.982172	1.004007
1009.276017	1.005182
1009.569827	1.005778
1009.863602	1.003642
1010.157341	1.004371
1010.451045	1.005414
1010.744714	1.005776
1011.038347	1.005417
1011.331945	1.003397
1011.625508	1.004900
1011.919036	1.003756
1012.212528	1.004603
1012.505986	1.004933
1012.799408	1.004062
1013.092795	1.004666
1013.386147	1.004150
1013.679464	1.005716
1013.972745	1.004421
1014.265992	1.004555
1014.559204	1.004125
1014.852380	1.005924
1015.145521	1.003516
1015.438628	1.005299
1015.731699	1.004576
1016.024736	1.004223
1016.317737	1.004344
1016.610703	1.004889
1016.903635	1.003877
1017.196531	1.004545
1017.489393	1.004685
1017.782219	1.004371
1018.075011	1.003076
1018.367768	1.003452
1018.660490	1.004876
1018.953177	1.004876
1019.245829	1.004876
