Dividing Wavelength (nm)	Counts (n)	Blue Motor Position (mm): 30.200000	Red Motor Position (mm): 0.000000	
326.493990	1.000376
326.888308	1.000376
327.282561	1.000376
327.676750	1.001405
328.070874	1.001934
328.464933	1.003125
328.858929	1.001780
329.252859	1.000598
329.646726	0.999914
330.040528	1.000100
330.434265	1.001208
330.827938	0.999648
331.221547	1.000849
331.615091	1.002047
332.008571	1.001211
332.401986	1.001143
332.795338	1.001024
333.188625	1.002212
333.581847	0.999972
333.975006	1.000727
334.368100	1.001212
334.761129	0.999805
335.154095	0.999558
335.546996	1.001174
335.939833	0.998433
336.332606	1.000592
336.725315	0.999761
337.117960	1.000453
337.510540	0.999512
337.903056	0.998926
338.295508	1.002526
338.687896	1.000702
339.080220	1.000261
339.472480	0.999634
339.864676	0.999951
340.256807	0.999388
340.648875	1.000404
341.040879	0.999921
341.432818	0.999260
341.824694	0.999897
342.216506	1.000517
342.608253	0.999412
342.999937	1.001246
343.391557	1.000142
343.783113	1.001141
344.174605	0.998947
344.566033	0.997292
344.957397	0.999331
345.348697	0.999443
345.739934	1.000289
346.131106	0.999076
346.522215	0.999776
346.913260	0.999149
347.304241	0.998922
347.695159	1.000098
348.086012	0.999141
348.476802	0.999446
348.867528	0.997960
349.258191	0.999733
349.648789	0.999105
350.039324	0.999991
350.429796	0.999625
350.820203	0.997363
351.210548	0.999720
351.600828	0.998625
351.991045	0.999790
352.381198	1.000112
352.771288	0.998787
353.161314	0.999662
353.551276	0.998678
353.941175	0.997315
354.331010	0.999519
354.720782	0.998943
355.110490	0.998575
355.500135	0.999411
355.889717	0.998158
356.279235	0.998250
356.668689	0.999834
357.058080	0.999072
357.447408	0.998320
357.836672	0.998335
358.225873	0.998433
358.615010	0.998691
359.004084	0.997370
359.393095	0.999337
359.782043	0.997115
360.170927	0.998797
360.559748	0.998504
360.948505	0.998042
361.337199	0.997068
361.725830	0.999818
362.114398	0.997998
362.502903	0.996812
362.891344	0.997403
363.279722	0.998143
363.668037	0.999162
364.056289	0.998563
364.444478	0.999325
364.832603	0.997065
365.220665	0.997803
365.608665	0.996757
365.996601	0.997279
366.384474	0.996086
366.772284	0.997306
367.160031	0.995013
367.547715	0.997224
367.935336	0.995071
368.322893	0.995655
368.710388	0.993594
369.097820	0.991635
369.485189	0.989640
369.872495	0.987942
370.259738	0.986123
370.646918	0.982643
371.034035	0.980957
371.421090	0.977718
371.808081	0.972366
372.195010	0.969457
372.581875	0.964519
372.968678	0.961143
373.355418	0.956463
373.742096	0.949577
374.128710	0.945387
374.515262	0.940909
374.901751	0.934112
375.288177	0.929475
375.674540	0.923350
376.060841	0.916111
376.447079	0.909305
376.833254	0.903771
377.219367	0.898344
377.605417	0.886567
377.991404	0.884023
378.377329	0.877275
378.763191	0.871114
379.148991	0.862811
379.534727	0.854079
379.920402	0.846436
380.306013	0.841787
380.691563	0.830334
381.077049	0.823666
381.462474	0.819240
381.847835	0.807501
382.233134	0.803142
382.618371	0.802613
383.003545	0.786193
383.388657	0.784227
383.773706	0.776725
384.158693	0.772242
384.543618	0.766776
384.928480	0.757762
385.313280	0.748264
385.698017	0.748117
386.082692	0.736181
386.467305	0.735181
386.851856	0.729039
387.236344	0.723901
387.620770	0.719156
388.005133	0.712644
388.389435	0.706852
388.773674	0.705553
389.157851	0.696886
389.541965	0.694538
389.926018	0.701676
390.310008	0.687092
390.693936	0.684160
391.077802	0.676421
391.461606	0.678355
391.845348	0.667492
392.229027	0.667190
392.612645	0.664847
392.996200	0.652367
393.379694	0.644601
393.763125	0.635342
394.146494	0.639306
394.529801	0.630080
394.913047	0.622491
395.296230	0.629257
395.679351	0.620109
396.062410	0.615972
396.445408	0.618515
396.828343	0.614303
397.211217	0.609920
397.594028	0.621671
397.976778	0.611801
398.359466	0.608274
398.742092	0.603627
399.124656	0.616348
399.507158	0.604090
399.889598	0.601423
400.271977	0.592844
400.654294	0.596960
401.036549	0.596093
401.418742	0.599357
401.800874	0.586380
402.182944	0.582155
402.564952	0.574462
402.946898	0.576007
403.328783	0.577798
403.710606	0.588588
404.092367	0.563367
404.474067	0.568216
404.855705	0.567392
405.237282	0.576093
405.618797	0.562091
406.000250	0.557176
406.381642	0.547942
406.762972	0.553471
407.144240	0.551977
407.525447	0.551807
407.906593	0.544074
408.287677	0.539518
408.668700	0.548149
409.049661	0.542786
409.430560	0.537581
409.811399	0.546286
410.192176	0.527721
410.572891	0.535085
410.953545	0.523099
411.334138	0.536619
411.714669	0.529150
412.095139	0.540796
412.475547	0.525557
412.855894	0.527335
413.236180	0.526148
413.616405	0.532391
413.996568	0.522397
414.376670	0.528727
414.756711	0.533507
415.136691	0.530639
415.516609	0.521509
415.896466	0.517869
416.276262	0.514475
416.655997	0.516355
417.035670	0.497909
417.415283	0.490170
417.794834	0.493908
418.174324	0.499602
418.553753	0.508407
418.933121	0.490849
419.312428	0.485393
419.691674	0.490610
420.070859	0.479276
420.449983	0.487513
420.829045	0.476655
421.208047	0.485779
421.586988	0.479417
421.965867	0.478313
422.344686	0.467005
422.723444	0.481061
423.102141	0.497661
423.480777	0.471286
423.859352	0.492375
424.237866	0.470628
424.616319	0.472451
424.994712	0.464462
425.373044	0.475447
425.751314	0.465024
426.129524	0.482475
426.507673	0.467344
426.885762	0.462629
427.263789	0.469907
427.641756	0.480983
428.019662	0.473116
428.397508	0.474777
428.775292	0.481131
429.153016	0.474988
429.530679	0.483344
429.908282	0.479032
430.285824	0.491203
430.663305	0.473939
431.040726	0.496740
431.418086	0.499090
431.795385	0.494944
432.172624	0.497142
432.549802	0.500819
432.926920	0.504067
433.303977	0.506595
433.680974	0.508076
434.057910	0.511686
434.434786	0.515486
434.811601	0.522004
435.188355	0.511206
435.565050	0.524109
435.941683	0.530208
436.318257	0.522111
436.694770	0.528905
437.071222	0.533227
437.447614	0.542213
437.823946	0.552863
438.200218	0.550879
438.576429	0.564634
438.952580	0.566220
439.328670	0.570146
439.704700	0.581594
440.080670	0.589994
440.456580	0.583663
440.832429	0.596350
441.208218	0.611566
441.583947	0.611828
441.959616	0.618682
442.335224	0.630095
442.710773	0.631688
443.086261	0.639731
443.461689	0.654959
443.837057	0.657416
444.212365	0.660257
444.587612	0.672055
444.962800	0.674345
445.337927	0.683590
445.712995	0.706669
446.088002	0.694914
446.462949	0.708411
446.837837	0.720848
447.212664	0.720878
447.587431	0.728024
447.962139	0.722502
448.336786	0.710889
448.711374	0.724388
449.085901	0.753408
449.460369	0.764622
449.834776	0.772609
450.209124	0.774408
450.583412	0.781139
450.957640	0.783485
451.331808	0.797651
451.705917	0.813043
452.079965	0.821972
452.453954	0.826399
452.827883	0.835005
453.201752	0.841133
453.575562	0.850029
453.949311	0.855637
454.323001	0.862358
454.696632	0.866905
455.070202	0.871355
455.443713	0.875324
455.817164	0.881446
456.190556	0.886010
456.563888	0.892029
456.937160	0.896619
457.310373	0.904028
457.683526	0.909762
458.056619	0.917341
458.429653	0.921392
458.802628	0.925338
459.175542	0.929424
459.548398	0.931494
459.921194	0.934017
460.293930	0.937739
460.666607	0.937738
461.039224	0.940103
461.411782	0.943286
461.784280	0.946793
462.156719	0.952325
462.529099	0.956060
462.901419	0.959733
463.273680	0.962798
463.645882	0.965899
464.018024	0.968913
464.390106	0.970679
464.762130	0.972257
465.134094	0.972824
465.505999	0.972037
465.877845	0.971518
466.249631	0.973105
466.621358	0.975790
466.993026	0.979214
467.364634	0.981075
467.736184	0.982732
468.107674	0.984615
468.479105	0.985241
468.850477	0.986145
469.221790	0.987827
469.593043	0.987980
469.964238	0.989302
470.335373	0.989777
470.706449	0.990768
471.077467	0.991260
471.448425	0.991373
471.819324	0.991132
472.190164	0.991152
472.560945	0.991686
472.931667	0.992992
473.302330	0.993191
473.672934	0.993683
474.043479	0.993021
474.413965	0.993682
474.784393	0.993977
475.154761	0.994246
475.525070	0.994442
475.895321	0.994488
476.265513	0.994697
476.635645	0.995261
477.005719	0.994534
477.375734	0.994730
477.745691	0.994673
478.115588	0.993746
478.485427	0.994723
478.855207	0.995274
479.224928	0.995330
479.594591	0.995211
479.964194	0.995032
480.333739	0.995155
480.703226	0.994419
481.072653	0.994500
481.442022	0.995690
481.811333	0.994834
482.180584	0.995600
482.549777	0.995574
482.918912	0.995109
483.287988	0.995181
483.657005	0.995327
484.025964	0.995640
484.394864	0.995343
484.763706	0.994945
485.132489	0.995101
485.501213	0.996210
485.869879	0.995713
486.238487	0.994687
486.607036	0.996616
486.975527	0.996203
487.343959	0.995330
487.712333	0.995722
488.080648	0.995440
488.448905	0.995596
488.817104	0.995544
489.185244	0.995353
489.553326	0.995874
489.921350	0.995110
490.289315	0.996337
490.657222	0.994916
491.025070	0.996440
491.392861	0.995942
491.760593	0.995528
492.128267	0.995652
492.495883	0.995110
492.863440	0.996400
493.230939	0.996144
493.598380	0.996556
493.965763	0.996112
494.333088	0.995086
494.700354	0.995765
495.067563	0.995213
495.434713	0.996187
495.801805	0.995964
496.168839	0.996424
496.535815	0.996304
496.902733	0.996262
497.269593	0.996127
497.636395	0.995411
498.003139	0.996236
498.369825	0.996697
498.736453	0.996116
499.103023	0.995883
499.469535	0.996601
499.835989	0.996644
500.202385	0.996223
500.568723	0.996517
500.935003	0.996457
501.301226	0.996304
501.667390	0.996469
502.033497	0.996112
502.399546	0.996751
502.765537	0.995956
503.131470	0.997147
503.497345	0.996621
503.863163	0.996504
504.228923	0.996478
504.594625	0.996067
504.960269	0.996796
505.325856	0.996881
505.691385	0.996848
506.056856	0.996504
506.422270	0.996713
506.787625	0.996403
507.152924	0.996921
507.518164	0.996517
507.883347	0.996542
508.248472	0.996971
508.613540	0.996577
508.978550	0.997162
509.343503	0.996411
509.708398	0.996873
510.073236	0.996813
510.438016	0.996240
510.802738	0.996134
511.167403	0.996509
511.532010	0.996581
511.896561	0.996700
512.261053	0.996523
512.625488	0.996342
512.989866	0.996335
513.354186	0.995747
513.718449	0.996484
514.082655	0.996578
514.446803	0.996490
514.810894	0.996482
515.174927	0.996504
515.538904	0.997204
515.902822	0.997092
516.266684	0.996799
516.630488	0.997032
516.994235	0.996734
517.357925	0.996774
517.721558	0.996253
518.085133	0.995938
518.448651	0.996688
518.812112	0.996984
519.175516	0.996252
519.538863	0.996490
519.902152	0.996230
520.265385	0.996709
520.628560	0.996228
520.991678	0.996291
521.354739	0.996977
521.717743	0.996176
522.080690	0.995707
522.443580	0.996625
522.806413	0.996348
523.169189	0.996696
523.531908	0.996175
523.894569	0.996535
524.257174	0.996606
524.619722	0.996200
524.982213	0.996553
525.344647	0.996306
525.707025	0.996175
526.069345	0.995864
526.431608	0.996686
526.793815	0.996798
527.155964	0.996745
527.518057	0.996657
527.880093	0.995949
528.242072	0.996825
528.603995	0.996220
528.965860	0.996494
529.327669	0.996693
529.689421	0.995844
530.051117	0.996724
530.412755	0.996616
530.774337	0.996598
531.135862	0.997182
531.497331	0.995911
531.858743	0.996824
532.220098	0.996077
532.581396	0.996325
532.942638	0.996713
533.303824	0.997627
533.664953	0.996596
534.026025	0.996346
534.387040	0.996726
534.747999	0.996076
535.108902	0.996490
535.469748	0.997023
535.830537	0.996672
536.191270	0.996762
536.551947	0.996191
536.912567	0.996370
537.273131	0.996777
537.633638	0.996019
537.994089	0.996663
538.354483	0.996774
538.714821	0.995955
539.075103	0.996150
539.435328	0.997510
539.795497	0.996921
540.155609	0.996684
540.515665	0.996862
540.875665	0.996583
541.235609	0.997093
541.595496	0.995999
541.955328	0.996480
542.315102	0.995905
542.674821	0.996547
543.034483	0.996629
543.394090	0.996276
543.753640	0.997105
544.113134	0.995949
544.472571	0.997262
544.831953	0.996352
545.191278	0.996609
545.550548	0.996165
545.909761	0.996308
546.268918	0.997380
546.628019	0.997502
546.987064	0.996363
547.346053	0.995658
547.704986	0.996068
548.063863	0.996356
548.422684	0.996991
548.781449	0.996598
549.140158	0.997010
549.498811	0.995993
549.857408	0.995845
550.215949	0.995622
550.574434	0.996227
550.932864	0.996507
551.291237	0.996170
551.649555	0.996858
552.007817	0.995984
552.366022	0.995933
552.724173	0.996674
553.082267	0.996307
553.440305	0.995807
553.798288	0.995633
554.156215	0.996229
554.514086	0.996179
554.871902	0.996825
555.229661	0.995988
555.587365	0.995755
555.945014	0.997039
556.302606	0.995933
556.660143	0.996767
557.017625	0.996897
557.375050	0.996314
557.732421	0.996103
558.089735	0.996073
558.446994	0.996224
558.804197	0.996610
559.161345	0.995545
559.518437	0.996117
559.875474	0.996207
560.232455	0.996381
560.589381	0.996777
560.946251	0.995888
561.303065	0.996340
561.659825	0.995724
562.016528	0.996767
562.373177	0.996697
562.729770	0.996461
563.086307	0.995317
563.442789	0.995956
563.799216	0.995333
564.155587	0.996090
564.511904	0.996864
564.868164	0.995330
565.224370	0.996255
565.580520	0.996218
565.936615	0.996027
566.292654	0.995349
566.648638	0.995915
567.004567	0.995933
567.360441	0.996515
567.716260	0.995433
568.072023	0.995589
568.427732	0.996393
568.783385	0.995561
569.138982	0.996183
569.494525	0.995783
569.850013	0.996124
570.205445	0.996344
570.560823	0.995812
570.916145	0.995886
571.271412	0.996238
571.626625	0.996024
571.981782	0.995416
572.336884	0.996323
572.691931	0.995975
573.046923	0.996738
573.401860	0.996003
573.756743	0.996397
574.111570	0.996507
574.466342	0.996859
574.821059	0.996039
575.175722	0.997497
575.530330	0.996432
575.884882	0.995439
576.239380	0.995932
576.593823	0.996177
576.948211	0.996511
577.302544	0.996045
577.656823	0.996458
578.011047	0.995700
578.365216	0.996707
578.719330	0.995903
579.073389	0.995900
579.427394	0.995501
579.781344	0.996476
580.135239	0.995273
580.489080	0.996213
580.842866	0.995898
581.196597	0.996066
581.550273	0.995399
581.903895	0.996479
582.257463	0.995956
582.610975	0.995859
582.964434	0.996390
583.317837	0.996480
583.671186	0.996674
584.024481	0.995384
584.377721	0.995387
584.730906	0.996392
585.084037	0.996973
585.437113	0.996462
585.790135	0.995763
586.143103	0.995876
586.496016	0.996252
586.848874	0.996857
587.201679	0.996582
587.554428	0.996219
587.907124	0.997070
588.259765	0.996705
588.612352	0.996157
588.964884	0.996538
589.317362	0.995845
589.669786	0.996355
590.022155	0.995829
590.374470	0.996455
590.726731	0.995741
591.078937	0.995787
591.431090	0.996772
591.783188	0.995802
592.135232	0.996567
592.487222	0.997064
592.839157	0.995671
593.191038	0.996965
593.542866	0.996614
593.894639	0.995607
594.246358	0.996699
594.598022	0.996777
594.949633	0.996415
595.301190	0.995998
595.652692	0.995984
596.004141	0.996507
596.355535	0.995040
596.706876	0.995921
597.058162	0.997070
597.409395	0.996321
597.760573	0.995982
598.111698	0.996041
598.462768	0.995944
598.813785	0.994872
599.164748	0.996324
599.515657	0.995747
599.866511	0.997098
600.217312	0.996870
600.568060	0.995838
600.918753	0.996491
601.269392	0.996450
601.619978	0.996664
601.970510	0.995970
602.320988	0.996876
602.671412	0.995850
603.021783	0.997062
603.372100	0.996815
603.722363	0.996814
604.072572	0.995918
604.422728	0.996623
604.772830	0.996545
605.122878	0.996120
605.472872	0.996386
605.822813	0.996084
606.172701	0.997051
606.522534	0.996946
606.872314	0.996606
607.222041	0.996292
607.571714	0.996726
607.921333	0.996316
608.270899	0.996707
608.620411	0.996138
608.969870	0.997074
609.319276	0.996509
609.668627	0.996889
610.017926	0.996107
610.367171	0.996515
610.716362	0.996305
611.065500	0.995803
611.414585	0.996824
611.763616	0.995674
612.112594	0.996414
612.461518	0.995754
612.810389	0.995933
613.159207	0.996847
613.507971	0.995723
613.856682	0.997323
614.205340	0.995212
614.553945	0.996595
614.902496	0.996073
615.250994	0.996789
615.599439	0.996717
615.947830	0.996069
616.296169	0.996538
616.644454	0.996461
616.992686	0.995967
617.340864	0.996790
617.688990	0.996477
618.037063	0.996389
618.385082	0.995808
618.733048	0.995918
619.080961	0.995377
619.428821	0.997331
619.776628	0.995909
620.124382	0.997876
620.472083	0.997376
620.819731	0.997261
621.167326	0.996874
621.514868	0.996988
621.862357	0.996176
622.209793	0.996336
622.557176	0.995659
622.904506	0.996576
623.251783	0.996279
623.599007	0.996605
623.946179	0.995764
624.293297	0.997262
624.640363	0.997200
624.987376	0.996299
625.334336	0.996301
625.681243	0.996987
626.028097	0.997150
626.374899	0.996430
626.721647	0.996911
627.068343	0.996926
627.414987	0.995931
627.761577	0.996136
628.108115	0.995915
628.454600	0.997150
628.801032	0.996631
629.147412	0.997203
629.493739	0.997920
629.840014	0.996582
630.186236	0.996810
630.532405	0.996836
630.878521	0.995920
631.224585	0.996423
631.570597	0.995990
631.916556	0.996664
632.262462	0.995545
632.608316	0.997728
632.954117	0.996058
633.299866	0.996669
633.645562	0.995695
633.991206	0.996904
634.336797	0.996538
634.682336	0.997607
635.027823	0.996361
635.373257	0.997276
635.718639	0.996671
636.063968	0.996342
636.409245	0.996476
636.754470	0.996693
637.099642	0.996613
637.444762	0.997801
637.789829	0.996269
638.134845	0.996010
638.479808	0.996210
638.824719	0.996965
639.169577	0.996699
639.514383	0.997789
639.859137	0.997111
640.203839	0.996245
640.548489	0.996878
640.893086	0.996739
641.237632	0.996755
641.582125	0.996010
641.926566	0.997479
642.270955	0.997520
642.615292	0.996750
642.959576	0.996913
643.303809	0.997259
643.647990	0.996699
643.992118	0.996892
644.336195	0.996473
644.680219	0.996558
645.024192	0.997303
645.368112	0.995917
645.711981	0.995938
646.055797	0.997005
646.399562	0.995875
646.743274	0.996995
647.086935	0.996472
647.430544	0.996702
647.774101	0.996427
648.117606	0.997444
648.461059	0.996712
648.804460	0.996400
649.147810	0.996532
649.491108	0.996177
649.834354	0.996161
650.177548	0.996723
650.520690	0.996542
650.863781	0.996542
651.206820	0.996285
651.549807	0.996921
651.892742	0.997002
652.235626	0.996698
652.578458	0.996669
652.921238	0.997491
653.263967	0.997660
653.606644	0.996680
653.949269	0.998229
654.291843	0.996176
654.634365	0.996607
654.976836	0.996556
655.319255	0.997871
655.661622	0.996726
656.003938	0.996546
656.346203	0.997212
656.688416	0.996958
657.030577	0.996707
657.372687	0.997253
657.714746	0.996561
658.056753	0.996719
658.398708	0.996946
658.740612	0.998025
659.082465	0.997348
659.424266	0.998190
659.766016	0.995568
660.107715	0.997006
660.449362	0.997320
660.790958	0.996410
661.132503	0.997079
661.473996	0.996625
661.815438	0.997985
662.156829	0.996817
662.498168	0.997321
662.839456	0.996890
663.180693	0.997301
663.521879	0.997090
663.863013	0.997030
664.204097	0.997151
664.545129	0.996943
664.886110	0.996877
665.227040	0.996989
665.567918	0.996552
665.908746	0.996793
666.249522	0.996829
666.590248	0.996538
666.930922	0.996714
667.271545	0.996980
667.612118	0.996425
667.952639	0.997281
668.293109	0.997789
668.633528	0.996300
668.973896	0.996968
669.314213	0.996119
669.654480	0.997332
669.994695	0.996289
670.334859	0.996622
670.674973	0.996874
671.015035	0.996492
671.355047	0.997392
671.695008	0.997408
672.034918	0.997093
672.374777	0.996572
672.714585	0.996710
673.054342	0.997488
673.394049	0.996269
673.733705	0.996649
674.073310	0.996089
674.412864	0.996389
674.752368	0.996678
675.091820	0.998137
675.431223	0.996963
675.770574	0.996478
676.109875	0.997075
676.449125	0.996885
676.788324	0.995989
677.127473	0.996741
677.466571	0.996600
677.805619	0.997205
678.144616	0.997826
678.483562	0.997660
678.822458	0.997776
679.161303	0.996712
679.500098	0.997563
679.838842	0.997337
680.177535	0.997070
680.516179	0.996245
680.854771	0.996822
681.193314	0.996617
681.531805	0.996634
681.870247	0.996481
682.208638	0.996703
682.546978	0.996503
682.885268	0.997086
683.223508	0.995909
683.561697	0.996738
683.899836	0.997368
684.237925	0.996387
684.575963	0.997352
684.913951	0.996535
685.251889	0.996447
685.589776	0.996334
685.927614	0.996122
686.265401	0.996593
686.603137	0.995575
686.940824	0.996388
687.278460	0.997283
687.616046	0.996199
687.953582	0.996892
688.291068	0.997070
688.628504	0.995627
688.965889	0.996180
689.303224	0.995117
689.640510	0.996069
689.977745	0.995687
690.314930	0.996682
690.652065	0.997268
690.989150	0.996569
691.326185	0.997169
691.663170	0.996328
692.000105	0.996718
692.336990	0.996726
692.673825	0.997225
693.010610	0.996367
693.347345	0.996746
693.684030	0.996266
694.020665	0.997178
694.357251	0.996871
694.693786	0.996735
695.030272	0.996176
695.366707	0.996951
695.703093	0.997081
696.039429	0.996396
696.375716	0.996953
696.711952	0.996108
697.048139	0.997574
697.384276	0.997981
697.720363	0.997426
698.056400	0.995891
698.392388	0.995982
698.728326	0.996721
699.064214	0.997713
699.400053	0.998048
699.735842	0.997788
700.071581	0.996584
700.407270	0.997268
700.742910	0.997171
701.078501	0.996713
701.414042	0.997928
701.749533	0.996443
702.084974	0.996245
702.420366	0.997722
702.755709	0.996255
703.091002	0.997345
703.426246	0.998668
703.761440	0.997340
704.096584	0.996881
704.431679	0.995773
704.766725	0.997201
705.101721	0.996986
705.436668	0.997469
705.771565	0.995900
706.106413	0.995550
706.441212	0.997140
706.775961	0.997897
707.110661	0.996791
707.445311	0.997019
707.779913	0.997423
708.114465	0.997803
708.448967	0.997774
708.783421	0.997699
709.117825	0.996710
709.452180	0.997240
709.786485	0.997156
710.120742	0.996037
710.454949	0.996817
710.789107	0.996982
711.123216	0.995751
711.457275	0.996464
711.791286	0.996732
712.125247	0.998330
712.459159	0.995827
712.793023	0.996630
713.126837	0.997615
713.460602	0.995904
713.794318	0.996672
714.127985	0.995891
714.461602	0.996526
714.795171	0.996281
715.128691	0.997052
715.462162	0.997036
715.795584	0.997551
716.128957	0.996907
716.462281	0.996883
716.795556	0.996579
717.128782	0.997571
717.461960	0.996926
717.795088	0.997762
718.128167	0.998054
718.461198	0.996871
718.794180	0.997089
719.127113	0.997429
719.459997	0.996946
719.792833	0.997000
720.125619	0.996623
720.458357	0.996885
720.791046	0.998126
721.123686	0.997510
721.456278	0.997451
721.788821	0.995988
722.121315	0.998432
722.453761	0.998468
722.786158	0.996199
723.118506	0.997270
723.450805	0.996647
723.783056	0.997968
724.115259	0.996537
724.447412	0.997407
724.779518	0.997002
725.111574	0.996191
725.443582	0.997416
725.775542	0.997419
726.107453	0.997262
726.439315	0.997634
726.771129	0.997343
727.102895	0.997195
727.434612	0.996828
727.766281	0.996478
728.097901	0.996551
728.429473	0.997436
728.760996	0.996482
729.092471	0.996796
729.423897	0.997158
729.755276	0.997185
730.086606	0.996975
730.417887	0.997508
730.749120	0.996966
731.080305	0.996853
731.411442	0.996320
731.742530	0.996231
732.073570	0.997054
732.404562	0.997058
732.735506	0.997739
733.066401	0.997146
733.397249	0.997245
733.728048	0.996824
734.058798	0.996892
734.389501	0.997408
734.720156	0.997669
735.050762	0.997710
735.381320	0.997491
735.711831	0.995840
736.042293	0.998010
736.372707	0.998026
736.703073	0.996674
737.033391	0.997160
737.363661	0.997205
737.693883	0.997877
738.024056	0.996438
738.354182	0.997404
738.684260	0.996632
739.014290	0.998059
739.344272	0.996798
739.674207	0.997516
740.004093	0.996746
740.333931	0.997432
740.663722	0.996888
740.993464	0.997122
741.323159	0.996778
741.652806	0.997423
741.982405	0.997194
742.311956	0.998178
742.641460	0.997874
742.970915	0.997578
743.300323	0.996622
743.629683	0.996797
743.958996	0.997564
744.288260	0.996186
744.617477	0.997979
744.946647	0.996666
745.275768	0.997057
745.604842	0.997505
745.933869	0.997342
746.262847	0.997764
746.591778	0.996648
746.920662	0.998352
747.249498	0.998705
747.578286	0.998036
747.907027	0.998089
748.235720	0.998401
748.564365	0.998436
748.892963	0.996874
749.221514	0.997284
749.550017	0.997304
749.878473	0.997875
750.206881	0.999161
750.535242	0.997532
750.863555	0.996911
751.191821	0.996770
751.520039	0.997603
751.848210	0.996988
752.176334	0.997173
752.504411	0.997217
752.832440	0.997063
753.160421	0.997582
753.488356	0.996807
753.816243	0.996711
754.144082	0.997375
754.471875	0.997698
754.799620	0.997854
755.127318	0.997246
755.454969	0.997329
755.782572	0.999043
756.110129	0.997911
756.437638	0.997977
756.765100	0.997481
757.092515	0.996977
757.419882	0.998263
757.747203	0.996769
758.074477	0.998503
758.401703	0.998295
758.728882	0.997656
759.056014	0.997707
759.383099	0.998114
759.710138	0.997136
760.037129	0.998052
760.364073	0.997847
760.690970	0.997708
761.017820	0.996414
761.344623	0.997412
761.671379	0.998269
761.998088	0.997028
762.324751	0.997828
762.651366	0.996565
762.977935	0.995896
763.304456	0.996754
763.630931	0.994445
763.957359	0.994783
764.283740	0.994820
764.610074	0.995857
764.936362	0.996703
765.262602	0.996717
765.588796	0.997007
765.914943	0.997465
766.241044	0.996937
766.567097	0.996866
766.893104	0.997727
767.219064	0.995905
767.544978	0.998186
767.870845	0.997461
768.196665	0.998140
768.522438	0.998249
768.848165	0.997621
769.173846	0.998201
769.499479	0.998414
769.825066	0.999435
770.150607	0.999812
770.476101	0.996908
770.801548	0.997721
771.126949	0.999210
771.452303	0.998313
771.777611	0.998469
772.102872	0.998315
772.428087	0.997429
772.753256	0.998483
773.078378	0.998007
773.403453	0.998967
773.728482	0.999160
774.053465	0.997867
774.378401	0.998537
774.703291	0.998356
775.028135	0.998851
775.352932	0.997758
775.677683	0.998368
776.002388	0.999004
776.327046	0.998362
776.651658	1.000447
776.976224	0.998311
777.300743	0.997833
777.625216	0.998935
777.949643	0.999454
778.274024	0.998041
778.598359	0.998428
778.922647	0.998572
779.246889	0.999684
779.571086	0.999497
779.895236	1.000081
780.219339	0.999854
780.543397	0.998164
780.867409	0.999191
781.191374	0.998427
781.515294	0.999951
781.839167	0.998356
782.162995	0.998122
782.486776	0.998429
782.810511	0.998659
783.134201	1.000044
783.457844	0.999004
783.781441	0.998544
784.104993	0.998516
784.428498	0.999233
784.751958	0.999820
785.075372	0.999825
785.398739	0.999024
785.722061	0.999351
786.045337	0.999046
786.368568	0.999132
786.691752	0.998168
787.014891	0.998570
787.337983	0.997718
787.661030	0.997674
787.984031	0.999629
788.306987	0.997829
788.629897	0.996969
788.952760	0.997624
789.275579	0.997874
789.598351	0.998097
789.921078	0.998374
790.243759	0.998217
790.566395	0.998530
790.888984	0.998572
791.211529	0.999412
791.534027	0.998127
791.856480	0.999710
792.178888	0.998436
792.501249	0.998378
792.823566	1.000686
793.145836	0.998015
793.468062	0.998982
793.790241	1.000149
794.112375	0.997982
794.434464	0.999341
794.756507	0.999257
795.078505	0.997965
795.400457	0.998109
795.722364	0.998763
796.044226	0.999295
796.366042	0.998122
796.687812	0.997274
797.009538	0.997663
797.331218	0.999406
797.652852	0.998799
797.974442	0.997260
798.295986	0.998452
798.617484	0.997297
798.938938	0.998944
799.260346	0.997999
799.581709	0.998228
799.903026	0.999760
800.224299	0.998328
800.545526	0.998528
800.866708	0.999101
801.187845	1.000195
801.508936	0.999633
801.829983	0.999025
802.150984	0.998499
802.471940	0.999655
802.792851	0.998567
803.113717	0.999577
803.434538	1.000179
803.755314	0.999634
804.076045	0.998500
804.396731	0.998211
804.717372	0.998232
805.037967	0.999320
805.358518	0.999026
805.679024	0.998741
805.999485	0.998128
806.319901	0.999370
806.640272	0.998707
806.960598	0.998719
807.280879	0.999036
807.601115	0.999646
807.921306	1.000172
808.241453	0.998148
808.561554	0.998591
808.881611	0.998554
809.201623	0.999007
809.521590	0.998666
809.841513	0.999344
810.161390	0.998678
810.481223	0.998533
810.801011	0.998793
811.120755	0.999459
811.440453	0.998168
811.760107	0.999461
812.079716	0.998534
812.399281	0.998710
812.718801	0.998458
813.038276	0.998352
813.357707	0.998503
813.677093	0.999270
813.996434	0.999122
814.315731	1.000592
814.634983	0.998807
814.954191	0.999379
815.273354	0.998067
815.592473	0.997945
815.911547	0.999520
816.230577	0.998040
816.549562	0.997942
816.868502	0.997747
817.187399	0.998212
817.506250	0.999288
817.825058	0.997625
818.143821	0.999149
818.462539	0.997986
818.781213	0.998812
819.099843	0.998342
819.418429	0.997375
819.736970	0.997260
820.055466	0.997008
820.373919	0.996964
820.692327	0.995359
821.010691	0.995636
821.329011	0.993639
821.647286	0.991192
821.965517	0.990228
822.283704	0.988205
822.601847	0.986375
822.919945	0.987058
823.237999	0.988326
823.556010	0.989886
823.873976	0.990294
824.191897	0.991948
824.509775	0.992431
824.827609	0.993621
825.145398	0.994036
825.463144	0.993524
825.780845	0.994142
826.098502	0.993928
826.416116	0.993109
826.733685	0.992571
827.051210	0.990962
827.368692	0.991313
827.686129	0.992640
828.003522	0.995091
828.320872	0.993924
828.638177	0.995365
828.955439	0.996660
829.272656	0.997053
829.589830	0.997175
829.906960	0.996903
830.224046	0.997452
830.541088	0.997962
830.858086	0.998155
831.175041	0.998787
831.491952	0.998306
831.808819	0.998480
832.125642	0.998417
832.442421	0.997568
832.759157	0.998146
833.075849	0.996003
833.392497	0.995233
833.709101	0.994454
834.025662	0.994438
834.342179	0.994344
834.658653	0.996512
834.975083	0.996374
835.291469	0.996563
835.607811	0.997608
835.924110	0.997581
836.240366	0.998511
836.556578	0.998927
836.872746	0.998338
837.188871	0.998668
837.504952	0.998703
837.820990	0.999490
838.136984	0.997920
838.452935	0.998014
838.768842	0.999423
839.084706	0.999021
839.400526	0.998825
839.716303	0.996194
840.032037	0.998196
840.347727	0.996303
840.663373	0.997505
840.978977	0.997169
841.294537	0.998824
841.610054	0.998053
841.925527	0.998867
842.240957	0.999083
842.556344	0.998754
842.871687	0.998930
843.186987	0.999596
843.502244	0.999482
843.817458	0.998491
844.132629	0.997111
844.447756	0.998849
844.762840	0.999642
845.077881	1.000908
845.392879	0.997598
845.707833	0.999474
846.022745	0.999965
846.337613	1.000296
846.652438	0.999241
846.967221	1.000036
847.281960	1.000405
847.596656	1.000414
847.911309	1.000049
848.225919	0.998444
848.540485	1.000110
848.855009	1.000501
849.169490	0.999264
849.483928	0.999711
849.798323	0.998742
850.112675	1.000637
850.426984	0.999165
850.741251	1.000923
851.055474	0.999151
851.369654	1.000294
851.683792	0.999288
851.997887	0.999308
852.311938	0.999808
852.625947	0.998967
852.939914	0.998928
853.253837	1.001117
853.567718	0.999478
853.881555	0.999953
854.195350	0.999868
854.509103	1.000467
854.822812	0.999900
855.136479	1.000097
855.450103	1.000657
855.763685	0.999498
856.077224	0.999215
856.390720	0.999519
856.704173	1.000935
857.017584	1.000329
857.330953	1.000606
857.644278	0.999998
857.957561	1.000775
858.270802	0.999494
858.584000	0.998620
858.897155	0.999679
859.210268	0.999742
859.523339	0.999823
859.836367	1.000050
860.149352	0.999807
860.462295	0.999544
860.775195	0.999817
861.088054	0.998921
861.400869	0.999557
861.713642	0.999066
862.026373	1.001165
862.339062	0.999862
862.651708	1.000251
862.964312	1.000906
863.276873	0.998933
863.589392	1.000010
863.901869	0.999101
864.214303	0.999823
864.526696	0.999710
864.839045	0.999327
865.151353	0.999538
865.463619	0.998165
865.775842	0.999548
866.088023	1.000476
866.400162	1.000556
866.712258	1.000536
867.024313	1.000404
867.336325	1.000389
867.648296	1.001061
867.960224	0.999566
868.272110	1.000733
868.583954	0.999929
868.895755	1.000801
869.207515	0.999403
869.519233	0.999334
869.830909	0.998542
870.142542	0.998118
870.454134	0.999861
870.765684	0.998563
871.077191	0.999917
871.388657	0.999675
871.700081	1.000360
872.011463	0.999587
872.322803	0.999152
872.634101	0.998287
872.945357	0.998460
873.256571	0.998325
873.567744	0.999685
873.878874	0.999068
874.189963	0.999989
874.501010	1.000892
874.812015	0.998916
875.122979	0.999929
875.433900	0.999052
875.744780	0.998850
876.055618	0.998161
876.366415	0.998673
876.677169	0.998290
876.987882	0.998596
877.298554	0.999440
877.609183	0.998962
877.919771	0.999004
878.230317	0.999670
878.540822	0.998210
878.851285	0.998118
879.161707	0.997687
879.472087	0.999756
879.782425	0.995715
880.092722	0.996862
880.402977	0.994430
880.713191	0.991489
881.023363	0.989218
881.333494	0.987579
881.643583	0.988974
881.953631	0.988298
882.263637	0.987782
882.573602	0.988740
882.883526	0.989571
883.193408	0.991324
883.503248	0.991874
883.813048	0.992598
884.122806	0.993757
884.432522	0.994169
884.742197	0.996445
885.051831	0.996779
885.361424	0.996675
885.670975	0.996898
885.980485	0.997409
886.289954	0.996785
886.599382	0.996930
886.908768	0.998314
887.218113	0.997516
887.527417	0.998590
887.836680	0.998426
888.145901	0.999725
888.455082	1.000350
888.764221	0.999387
889.073319	0.997810
889.382376	0.999236
889.691392	0.997878
890.000366	0.999883
890.309300	0.998895
890.618193	0.999766
890.927044	0.999622
891.235855	0.998981
891.544625	0.999221
891.853353	0.997695
892.162041	0.998359
892.470687	0.999455
892.779293	0.997894
893.087858	0.997323
893.396381	0.998181
893.704864	0.995812
894.013306	0.997024
894.321707	0.996184
894.630068	0.994757
894.938387	0.993130
895.246665	0.993998
895.554903	0.994114
895.863100	0.995649
896.171256	0.995942
896.479371	0.996700
896.787446	0.995725
897.095480	0.997235
897.403473	0.997674
897.711425	0.998254
898.019336	0.998503
898.327207	0.998119
898.635038	0.997189
898.942827	0.998722
899.250576	0.997937
899.558284	0.999140
899.865952	0.998302
900.173579	0.998416
900.481165	0.998493
900.788711	0.997505
901.096216	0.997247
901.403681	0.999004
901.711105	0.999265
902.018489	0.998996
902.325832	0.999289
902.633135	0.998444
902.940397	0.998801
903.247619	0.998125
903.554800	0.997010
903.861941	0.996716
904.169041	0.994190
904.476101	0.993711
904.783121	0.992856
905.090100	0.993225
905.397039	0.995101
905.703938	0.994578
906.010796	0.995908
906.317614	0.997258
906.624391	0.997340
906.931129	0.998567
907.237826	0.998278
907.544483	0.999007
907.851099	0.998028
908.157675	0.998774
908.464211	0.999155
908.770707	0.998153
909.077163	0.999269
909.383578	0.999199
909.689954	0.998888
909.996289	0.999222
910.302584	1.000345
910.608839	0.999594
910.915054	0.999231
911.221229	1.001109
911.527363	0.998836
911.833458	1.000266
912.139513	0.999255
912.445527	0.999286
912.751502	0.998992
913.057436	0.998997
913.363331	0.999366
913.669186	0.999400
913.975000	0.999820
914.280775	0.998888
914.586510	0.996972
914.892205	0.996244
915.197859	0.995483
915.503475	0.995922
915.809050	0.994500
916.114585	0.992443
916.420081	0.991943
916.725536	0.993844
917.030952	0.993510
917.336328	0.993699
917.641665	0.992788
917.946961	0.994598
918.252218	0.995787
918.557435	0.995346
918.862612	0.996759
919.167750	0.997322
919.472848	0.997853
919.777906	0.998473
920.082925	0.998881
920.387904	0.998893
920.692843	0.998770
920.997743	0.997502
921.302603	0.997949
921.607423	0.998827
921.912204	0.998313
922.216946	0.999929
922.521647	0.999381
922.826310	0.998321
923.130932	1.000052
923.435516	0.999235
923.740059	0.999033
924.044564	0.998072
924.349028	0.998905
924.653454	1.000275
924.957840	0.998900
925.262186	0.999336
925.566493	0.999305
925.870761	0.999806
926.174989	0.998430
926.479178	0.999915
926.783328	1.000270
927.087438	0.999816
927.391509	0.998915
927.695541	1.000426
927.999533	0.999923
928.303486	0.999401
928.607400	1.000707
928.911275	1.000780
929.215110	1.001525
929.518906	1.000666
929.822663	1.001544
930.126381	1.001311
930.430060	0.998565
930.733699	0.999528
931.037299	1.000870
931.340861	1.000698
931.644383	0.998822
931.947866	1.000434
932.251309	1.001014
932.554714	0.999218
932.858080	1.000025
933.161407	0.999266
933.464694	0.999599
933.767943	1.001584
934.071153	1.000679
934.374323	1.000539
934.677455	0.999958
934.980548	0.999394
935.283602	0.999970
935.586617	0.999547
935.889593	1.002156
936.192530	1.001519
936.495428	1.000126
936.798287	0.999615
937.101108	1.000239
937.403890	0.998796
937.706632	1.001328
938.009336	0.999286
938.312002	0.999522
938.614628	0.999210
938.917216	0.999085
939.219765	0.999204
939.522275	0.999647
939.824747	0.998968
940.127179	0.999775
940.429573	0.999829
940.731929	0.999419
941.034246	0.998966
941.336524	0.998586
941.638763	0.999556
941.940964	0.999197
942.243126	0.999330
942.545250	0.999725
942.847335	1.000523
943.149381	0.999773
943.451389	0.998711
943.753359	0.999972
944.055290	1.001279
944.357182	0.998614
944.659036	1.000622
944.960851	0.999203
945.262628	1.001537
945.564367	1.001040
945.866067	0.999039
946.167729	1.000736
946.469352	0.999895
946.770937	0.998331
947.072484	1.000291
947.373992	0.999972
947.675462	1.000090
947.976893	0.998997
948.278286	1.001776
948.579641	1.000635
948.880958	0.999331
949.182236	0.999957
949.483476	1.000425
949.784678	0.998793
950.085841	1.000596
950.386967	0.998611
950.688054	1.000245
950.989103	0.998555
951.290114	0.998525
951.591087	0.999950
951.892021	0.999624
952.192917	0.999842
952.493776	1.001001
952.794596	1.000113
953.095378	0.999357
953.396122	0.999252
953.696828	0.999878
953.997496	1.000316
954.298126	1.000739
954.598718	0.999628
954.899272	0.999723
955.199788	0.999010
955.500266	0.999852
955.800706	0.998933
956.101108	0.999452
956.401472	1.001555
956.701798	1.000697
957.002087	1.000694
957.302337	0.998963
957.602550	1.001012
957.902724	0.999539
958.202861	1.000047
958.502960	1.000210
958.803022	1.001275
959.103045	1.000016
959.403031	1.000924
959.702979	1.000931
960.002889	1.000712
960.302762	0.999358
960.602596	1.001758
960.902393	1.000351
961.202153	1.000501
961.501875	1.001228
961.801559	1.000601
962.101205	0.999658
962.400814	1.002035
962.700385	1.000744
962.999918	0.999959
963.299414	1.000420
963.598873	1.000561
963.898293	1.000600
964.197677	0.999841
964.497022	1.001467
964.796331	1.000572
965.095601	1.001193
965.394835	1.001503
965.694030	1.000912
965.993189	1.000321
966.292309	1.001733
966.591393	0.999708
966.890439	1.001662
967.189447	1.000152
967.488419	0.999777
967.787353	1.000260
968.086249	1.001372
968.385108	1.000013
968.683930	1.001802
968.982714	1.000455
969.281462	1.000765
969.580172	0.999563
969.878844	1.001805
970.177480	1.000622
970.476078	1.001524
970.774639	1.001169
971.073162	1.000882
971.371649	0.999308
971.670098	1.000487
971.968510	1.000725
972.266885	1.000083
972.565223	1.000011
972.863524	0.999455
973.161788	1.000374
973.460014	1.001460
973.758204	0.999196
974.056356	0.999780
974.354471	1.000460
974.652550	1.000791
974.950591	0.999298
975.248595	0.999401
975.546563	1.000858
975.844493	1.001015
976.142386	0.999464
976.440243	1.001035
976.738062	1.001894
977.035845	0.999860
977.333590	1.001406
977.631299	0.998933
977.928971	1.000967
978.226606	1.000460
978.524204	0.999097
978.821765	1.000240
979.119290	1.002241
979.416777	1.001264
979.714228	1.000954
980.011642	1.000274
980.309020	0.999229
980.606360	0.999504
980.903664	1.000567
981.200931	0.999784
981.498162	1.000652
981.795356	1.000224
982.092513	1.000851
982.389633	1.000038
982.686717	0.999765
982.983764	0.998967
983.280775	0.999496
983.577749	1.001458
983.874686	0.999695
984.171587	0.999019
984.468451	0.999745
984.765279	1.000879
985.062070	0.999852
985.358824	0.998889
985.655543	1.000987
985.952224	1.001471
986.248869	0.999604
986.545478	1.001829
986.842050	1.000401
987.138586	0.999358
987.435086	0.999886
987.731549	1.002401
988.027975	1.001146
988.324366	0.999945
988.620719	1.001056
988.917037	1.000958
989.213318	1.001375
989.509563	1.000869
989.805772	1.002033
990.101944	1.001781
990.398080	1.000329
990.694180	1.001722
990.990244	0.999597
991.286271	1.000364
991.582262	1.001223
991.878217	1.000611
992.174136	1.001435
992.470019	1.001582
992.765865	1.003356
993.061676	1.001319
993.357450	1.001590
993.653188	1.001920
993.948890	1.000973
994.244556	0.999322
994.540186	1.000458
994.835780	1.000960
995.131337	1.001184
995.426859	1.000576
995.722345	1.000407
996.017795	1.000352
996.313208	1.000415
996.608586	0.999955
996.903928	1.001329
997.199234	1.000783
997.494504	1.001760
997.789738	0.998627
998.084936	1.001973
998.380099	0.999806
998.675225	1.001326
998.970316	0.999963
999.265371	1.001109
999.560390	1.000476
999.855373	1.001834
1000.150320	1.000580
1000.445232	1.000960
1000.740108	1.000402
1001.034948	0.999687
1001.329752	1.001698
1001.624521	1.000283
1001.919254	1.000022
1002.213951	1.000384
1002.508613	0.999077
1002.803239	1.000288
1003.097829	1.001367
1003.392384	1.000368
1003.686903	1.001265
1003.981386	1.000077
1004.275834	1.001536
1004.570246	0.999650
1004.864623	1.001382
1005.158964	0.999896
1005.453270	1.000158
1005.747540	1.000494
1006.041775	1.002109
1006.335974	1.001029
1006.630138	1.001405
1006.924266	1.000192
1007.218359	1.000316
1007.512416	1.001385
1007.806438	1.000843
1008.100425	1.000892
1008.394376	1.001586
1008.688292	0.999945
1008.982172	1.000014
1009.276017	1.001127
1009.569827	1.000960
1009.863602	1.000374
1010.157341	1.001685
1010.451045	1.000055
1010.744714	1.001772
1011.038347	1.000873
1011.331945	0.999809
1011.625508	1.000600
1011.919036	1.000511
1012.212528	1.000906
1012.505986	1.000889
1012.799408	1.001530
1013.092795	1.001096
1013.386147	0.999886
1013.679464	1.002049
1013.972745	1.000797
1014.265992	0.999092
1014.559204	0.999887
1014.852380	1.001923
1015.145521	1.000514
1015.438628	0.999976
1015.731699	0.999952
1016.024736	1.000835
1016.317737	1.001275
1016.610703	1.001020
1016.903635	1.000552
1017.196531	1.000248
1017.489393	0.999481
1017.782219	1.000095
1018.075011	1.000775
1018.367768	0.999846
1018.660490	1.001326
1018.953177	1.001326
1019.245829	1.001326
