Dividing Wavelength (nm)	Counts (n)	Blue Motor Position (mm): 35.700000	Red Motor Position (mm): 0.000000	
326.493990	1.000388
326.888308	1.000388
327.282561	1.000388
327.676750	1.000998
328.070874	1.001203
328.464933	1.000207
328.858929	1.000250
329.252859	1.000958
329.646726	0.999774
330.040528	0.999263
330.434265	1.000164
330.827938	0.999521
331.221547	0.999931
331.615091	1.000772
332.008571	1.000739
332.401986	0.999194
332.795338	1.000703
333.188625	1.000869
333.581847	1.001002
333.975006	0.999966
334.368100	0.999409
334.761129	0.999801
335.154095	1.000522
335.546996	1.000851
335.939833	0.998802
336.332606	0.999924
336.725315	0.998797
337.117960	0.999649
337.510540	0.998363
337.903056	1.000811
338.295508	1.001179
338.687896	1.000777
339.080220	0.999706
339.472480	0.999940
339.864676	0.999896
340.256807	0.997869
340.648875	1.001013
341.040879	1.000184
341.432818	1.000373
341.824694	0.999274
342.216506	1.001195
342.608253	1.000247
342.999937	0.999927
343.391557	0.999123
343.783113	1.001490
344.174605	0.999498
344.566033	0.998915
344.957397	1.000485
345.348697	1.000088
345.739934	1.000870
346.131106	1.000993
346.522215	0.998554
346.913260	0.999603
347.304241	0.998984
347.695159	1.000189
348.086012	1.000190
348.476802	1.000212
348.867528	0.999019
349.258191	1.000646
349.648789	1.000219
350.039324	1.000412
350.429796	0.999007
350.820203	0.998566
351.210548	0.999262
351.600828	0.998943
351.991045	0.999001
352.381198	0.999143
352.771288	0.998893
353.161314	0.999594
353.551276	0.998511
353.941175	0.998131
354.331010	1.000596
354.720782	0.999575
355.110490	0.999249
355.500135	0.998926
355.889717	0.998943
356.279235	0.998617
356.668689	0.999596
357.058080	0.999005
357.447408	0.997527
357.836672	0.998967
358.225873	0.998635
358.615010	0.998383
359.004084	0.998395
359.393095	0.999169
359.782043	0.998427
360.170927	0.998688
360.559748	0.998810
360.948505	0.997784
361.337199	0.998442
361.725830	0.998444
362.114398	0.997713
362.502903	0.997575
362.891344	0.997248
363.279722	0.997465
363.668037	0.998339
364.056289	0.997125
364.444478	0.999232
364.832603	0.998077
365.220665	0.997665
365.608665	0.997378
365.996601	0.997476
366.384474	0.995887
366.772284	0.997815
367.160031	0.996534
367.547715	0.995946
367.935336	0.994765
368.322893	0.994945
368.710388	0.992436
369.097820	0.990283
369.485189	0.989611
369.872495	0.988339
370.259738	0.985741
370.646918	0.982645
371.034035	0.979636
371.421090	0.978030
371.808081	0.972557
372.195010	0.970280
372.581875	0.964028
372.968678	0.960237
373.355418	0.956680
373.742096	0.949784
374.128710	0.945592
374.515262	0.939374
374.901751	0.934419
375.288177	0.929795
375.674540	0.922815
376.060841	0.917303
376.447079	0.910095
376.833254	0.904195
377.219367	0.899726
377.605417	0.887938
377.991404	0.884068
378.377329	0.878014
378.763191	0.871131
379.148991	0.862625
379.534727	0.855292
379.920402	0.847462
380.306013	0.843988
380.691563	0.830711
381.077049	0.824017
381.462474	0.820131
381.847835	0.808552
382.233134	0.803655
382.618371	0.804248
383.003545	0.786126
383.388657	0.785017
383.773706	0.776915
384.158693	0.773074
384.543618	0.767489
384.928480	0.758720
385.313280	0.748122
385.698017	0.749221
386.082692	0.736070
386.467305	0.735090
386.851856	0.730390
387.236344	0.725518
387.620770	0.720422
388.005133	0.713651
388.389435	0.708345
388.773674	0.706090
389.157851	0.697132
389.541965	0.695432
389.926018	0.701785
390.310008	0.688535
390.693936	0.686035
391.077802	0.678326
391.461606	0.679745
391.845348	0.668609
392.229027	0.667775
392.612645	0.666361
392.996200	0.652701
393.379694	0.646535
393.763125	0.636925
394.146494	0.641605
394.529801	0.631999
394.913047	0.624235
395.296230	0.629912
395.679351	0.621480
396.062410	0.618451
396.445408	0.621401
396.828343	0.615821
397.211217	0.611306
397.594028	0.623422
397.976778	0.614450
398.359466	0.610914
398.742092	0.605892
399.124656	0.618410
399.507158	0.606586
399.889598	0.604547
400.271977	0.595898
400.654294	0.600185
401.036549	0.600090
401.418742	0.604995
401.800874	0.591596
402.182944	0.589115
402.564952	0.582320
402.946898	0.585314
403.328783	0.587775
403.710606	0.601131
404.092367	0.578092
404.474067	0.586029
404.855705	0.586618
405.237282	0.598413
405.618797	0.588167
406.000250	0.586560
406.381642	0.581026
406.762972	0.589929
407.144240	0.591839
407.525447	0.595347
407.906593	0.593192
408.287677	0.592895
408.668700	0.605479
409.049661	0.604981
409.430560	0.606401
409.811399	0.619119
410.192176	0.610291
410.572891	0.622058
410.953545	0.617908
411.334138	0.635292
411.714669	0.635163
412.095139	0.651345
412.475547	0.646868
412.855894	0.654952
413.236180	0.662182
413.616405	0.673075
413.996568	0.673577
414.376670	0.685098
414.756711	0.696575
415.136691	0.702838
415.516609	0.705442
415.896466	0.711345
416.276262	0.717375
416.655997	0.727606
417.035670	0.725459
417.415283	0.729839
417.794834	0.741219
418.174324	0.752742
418.553753	0.765597
418.933121	0.765419
419.312428	0.772546
419.691674	0.785084
420.070859	0.788127
420.449983	0.801042
420.829045	0.803529
421.208047	0.816685
421.586988	0.822180
421.965867	0.830065
422.344686	0.835965
422.723444	0.847236
423.102141	0.860319
423.480777	0.858941
423.859352	0.873024
424.237866	0.874840
424.616319	0.882098
424.994712	0.887254
425.373044	0.896146
425.751314	0.900714
426.129524	0.909956
426.507673	0.912832
426.885762	0.917320
427.263789	0.923935
427.641756	0.929364
428.019662	0.933659
428.397508	0.938694
428.775292	0.943484
429.153016	0.946935
429.530679	0.951638
429.908282	0.955832
430.285824	0.958898
430.663305	0.961573
431.040726	0.966824
431.418086	0.968540
431.795385	0.971736
432.172624	0.975212
432.549802	0.976907
432.926920	0.978689
433.303977	0.980166
433.680974	0.982513
434.057910	0.983573
434.434786	0.985582
434.811601	0.987127
435.188355	0.987964
435.565050	0.988991
435.941683	0.990339
436.318257	0.990666
436.694770	0.992031
437.071222	0.993826
437.447614	0.993475
437.823946	0.993321
438.200218	0.994748
438.576429	0.994738
438.952580	0.995815
439.328670	0.994651
439.704700	0.995468
440.080670	0.996160
440.456580	0.997109
440.832429	0.996383
441.208218	0.997592
441.583947	0.997878
441.959616	0.996423
442.335224	0.999013
442.710773	0.998221
443.086261	0.998238
443.461689	0.997226
443.837057	0.998122
444.212365	0.998124
444.587612	0.998651
444.962800	0.998624
445.337927	0.999281
445.712995	0.998394
446.088002	0.997606
446.462949	0.997721
446.837837	1.000196
447.212664	0.998393
447.587431	0.998930
447.962139	0.998762
448.336786	0.998381
448.711374	0.998125
449.085901	0.998819
449.460369	0.999210
449.834776	0.998705
450.209124	0.998985
450.583412	0.998925
450.957640	0.998655
451.331808	0.999339
451.705917	0.998744
452.079965	0.999579
452.453954	0.999141
452.827883	0.999657
453.201752	0.999232
453.575562	0.999273
453.949311	1.000258
454.323001	0.998679
454.696632	0.998902
455.070202	0.999151
455.443713	0.999205
455.817164	0.999142
456.190556	0.998357
456.563888	0.999658
456.937160	0.998972
457.310373	0.998599
457.683526	0.999008
458.056619	0.998908
458.429653	0.998487
458.802628	0.998383
459.175542	0.999527
459.548398	0.998846
459.921194	0.999369
460.293930	1.000120
460.666607	0.998686
461.039224	0.998170
461.411782	0.998621
461.784280	0.998402
462.156719	0.999551
462.529099	0.998725
462.901419	0.998563
463.273680	0.998531
463.645882	0.998096
464.018024	0.999307
464.390106	0.999017
464.762130	0.998425
465.134094	0.998031
465.505999	0.997810
465.877845	0.997780
466.249631	0.998064
466.621358	0.998086
466.993026	0.998139
467.364634	0.998236
467.736184	0.998313
468.107674	0.998234
468.479105	0.998104
468.850477	0.998149
469.221790	0.998652
469.593043	0.998620
469.964238	0.998993
470.335373	0.998212
470.706449	0.998180
471.077467	0.998452
471.448425	0.998467
471.819324	0.998452
472.190164	0.997814
472.560945	0.998366
472.931667	0.998255
473.302330	0.998664
473.672934	0.999233
474.043479	0.998481
474.413965	0.998696
474.784393	0.998802
475.154761	0.997819
475.525070	0.997954
475.895321	0.999049
476.265513	0.998106
476.635645	0.999034
477.005719	0.998659
477.375734	0.997770
477.745691	0.998262
478.115588	0.997544
478.485427	0.997988
478.855207	0.997689
479.224928	0.997149
479.594591	0.997674
479.964194	0.997294
480.333739	0.997543
480.703226	0.997014
481.072653	0.997039
481.442022	0.997414
481.811333	0.998019
482.180584	0.997275
482.549777	0.997337
482.918912	0.997873
483.287988	0.997609
483.657005	0.997248
484.025964	0.997578
484.394864	0.997588
484.763706	0.998161
485.132489	0.998303
485.501213	0.998009
485.869879	0.997634
486.238487	0.997295
486.607036	0.998684
486.975527	0.998026
487.343959	0.997641
487.712333	0.998195
488.080648	0.997861
488.448905	0.997964
488.817104	0.998456
489.185244	0.997690
489.553326	0.998426
489.921350	0.997776
490.289315	0.997383
490.657222	0.997479
491.025070	0.998135
491.392861	0.998117
491.760593	0.997618
492.128267	0.997374
492.495883	0.997355
492.863440	0.998113
493.230939	0.998214
493.598380	0.998579
493.965763	0.997901
494.333088	0.997283
494.700354	0.997729
495.067563	0.998560
495.434713	0.998318
495.801805	0.998576
496.168839	0.998338
496.535815	0.998683
496.902733	0.998391
497.269593	0.998035
497.636395	0.997554
498.003139	0.998165
498.369825	0.998590
498.736453	0.997951
499.103023	0.998194
499.469535	0.998415
499.835989	0.998449
500.202385	0.998146
500.568723	0.998462
500.935003	0.998734
501.301226	0.998354
501.667390	0.997652
502.033497	0.998163
502.399546	0.997987
502.765537	0.998122
503.131470	0.998067
503.497345	0.997491
503.863163	0.997793
504.228923	0.997563
504.594625	0.997768
504.960269	0.998636
505.325856	0.999279
505.691385	0.998751
506.056856	0.998272
506.422270	0.998228
506.787625	0.998313
507.152924	0.998163
507.518164	0.997570
507.883347	0.997834
508.248472	0.998975
508.613540	0.997462
508.978550	0.998325
509.343503	0.997690
509.708398	0.999045
510.073236	0.998458
510.438016	0.998274
510.802738	0.997715
511.167403	0.997745
511.532010	0.998039
511.896561	0.998853
512.261053	0.997942
512.625488	0.997862
512.989866	0.997654
513.354186	0.997505
513.718449	0.997779
514.082655	0.997923
514.446803	0.997530
514.810894	0.998436
515.174927	0.998483
515.538904	0.998174
515.902822	0.998225
516.266684	0.998201
516.630488	0.998283
516.994235	0.998074
517.357925	0.998684
517.721558	0.997972
518.085133	0.997902
518.448651	0.997870
518.812112	0.998133
519.175516	0.998000
519.538863	0.997199
519.902152	0.998380
520.265385	0.998243
520.628560	0.997966
520.991678	0.998550
521.354739	0.998916
521.717743	0.997984
522.080690	0.998111
522.443580	0.998371
522.806413	0.997978
523.169189	0.998370
523.531908	0.997826
523.894569	0.998552
524.257174	0.997315
524.619722	0.998515
524.982213	0.997753
525.344647	0.998098
525.707025	0.997634
526.069345	0.997592
526.431608	0.998663
526.793815	0.998647
527.155964	0.998978
527.518057	0.998560
527.880093	0.998739
528.242072	0.998206
528.603995	0.998063
528.965860	0.998361
529.327669	0.998397
529.689421	0.997728
530.051117	0.997958
530.412755	0.998458
530.774337	0.997927
531.135862	0.998606
531.497331	0.998266
531.858743	0.998994
532.220098	0.998189
532.581396	0.998427
532.942638	0.998328
533.303824	0.999079
533.664953	0.997639
534.026025	0.998953
534.387040	0.998378
534.747999	0.998019
535.108902	0.998040
535.469748	0.999128
535.830537	0.998549
536.191270	0.997809
536.551947	0.998102
536.912567	0.998140
537.273131	0.998756
537.633638	0.998245
537.994089	0.999206
538.354483	0.998712
538.714821	0.998735
539.075103	0.999249
539.435328	0.998626
539.795497	0.998521
540.155609	0.998601
540.515665	0.998962
540.875665	0.997576
541.235609	0.998165
541.595496	0.998192
541.955328	0.998384
542.315102	0.998769
542.674821	0.998622
543.034483	0.998673
543.394090	0.997579
543.753640	0.998295
544.113134	0.998172
544.472571	0.998821
544.831953	0.998777
545.191278	0.998876
545.550548	0.997874
545.909761	0.998195
546.268918	0.999074
546.628019	0.999530
546.987064	0.998194
547.346053	0.998415
547.704986	0.997879
548.063863	0.998488
548.422684	0.998602
548.781449	0.998705
549.140158	0.998612
549.498811	0.997792
549.857408	0.997871
550.215949	0.997857
550.574434	0.997909
550.932864	0.998846
551.291237	0.998001
551.649555	0.998916
552.007817	0.998306
552.366022	0.998848
552.724173	0.998962
553.082267	0.998341
553.440305	0.997993
553.798288	0.997461
554.156215	0.998207
554.514086	0.998358
554.871902	0.998219
555.229661	0.998068
555.587365	0.998090
555.945014	0.998665
556.302606	0.997785
556.660143	0.998836
557.017625	0.998767
557.375050	0.998287
557.732421	0.998236
558.089735	0.998513
558.446994	0.997865
558.804197	0.998788
559.161345	0.997988
559.518437	0.998120
559.875474	0.998790
560.232455	0.999201
560.589381	0.999025
560.946251	0.998271
561.303065	0.998943
561.659825	0.998004
562.016528	0.999243
562.373177	0.998755
562.729770	0.998313
563.086307	0.997941
563.442789	0.998753
563.799216	0.997759
564.155587	0.998855
564.511904	0.999887
564.868164	0.998160
565.224370	0.998409
565.580520	0.998363
565.936615	0.998471
566.292654	0.998440
566.648638	0.999135
567.004567	0.998310
567.360441	0.999146
567.716260	0.998371
568.072023	0.997991
568.427732	0.998838
568.783385	0.998581
569.138982	0.999006
569.494525	0.998797
569.850013	0.998660
570.205445	0.998456
570.560823	0.998475
570.916145	0.998569
571.271412	0.998913
571.626625	0.998400
571.981782	0.998583
572.336884	0.998900
572.691931	0.998590
573.046923	0.999233
573.401860	0.998359
573.756743	0.998989
574.111570	0.998529
574.466342	0.999782
574.821059	0.998093
575.175722	0.999869
575.530330	0.998458
575.884882	0.998847
576.239380	0.999151
576.593823	0.998915
576.948211	0.998965
577.302544	0.998526
577.656823	0.999022
578.011047	0.998434
578.365216	0.999355
578.719330	0.999117
579.073389	0.998313
579.427394	0.998356
579.781344	0.998827
580.135239	0.998592
580.489080	0.998979
580.842866	0.999280
581.196597	0.998281
581.550273	0.998522
581.903895	0.998703
582.257463	0.998460
582.610975	0.999441
582.964434	0.998556
583.317837	0.999257
583.671186	0.999088
584.024481	0.999061
584.377721	0.998016
584.730906	0.998727
585.084037	0.998854
585.437113	0.999577
585.790135	0.998547
586.143103	0.998610
586.496016	0.998276
586.848874	0.999263
587.201679	0.998193
587.554428	0.998119
587.907124	0.999948
588.259765	0.999569
588.612352	0.999095
588.964884	0.999062
589.317362	0.998560
589.669786	0.998776
590.022155	0.998427
590.374470	0.998866
590.726731	0.998021
591.078937	0.999810
591.431090	0.998679
591.783188	0.998283
592.135232	0.999353
592.487222	0.999014
592.839157	0.998671
593.191038	0.998935
593.542866	0.998846
593.894639	0.997919
594.246358	0.999282
594.598022	0.999459
594.949633	0.998891
595.301190	0.998710
595.652692	0.998574
596.004141	0.999176
596.355535	0.998918
596.706876	0.999513
597.058162	0.998925
597.409395	0.998575
597.760573	0.998563
598.111698	0.998585
598.462768	0.998492
598.813785	0.998502
599.164748	0.999245
599.515657	0.998331
599.866511	0.998448
600.217312	0.999585
600.568060	0.999039
600.918753	0.999057
601.269392	0.999145
601.619978	0.999084
601.970510	0.998564
602.320988	0.998851
602.671412	0.998136
603.021783	0.999158
603.372100	0.999761
603.722363	0.999459
604.072572	0.998281
604.422728	0.998451
604.772830	0.998074
605.122878	0.998721
605.472872	0.999327
605.822813	0.998526
606.172701	0.998737
606.522534	0.998809
606.872314	0.999350
607.222041	0.998395
607.571714	0.998977
607.921333	0.998821
608.270899	0.998710
608.620411	0.999298
608.969870	1.000301
609.319276	0.999103
609.668627	0.999682
610.017926	0.998977
610.367171	0.998962
610.716362	0.998873
611.065500	0.998095
611.414585	0.998937
611.763616	0.998381
612.112594	0.999317
612.461518	0.997762
612.810389	0.999141
613.159207	0.999286
613.507971	0.998308
613.856682	1.000072
614.205340	0.998120
614.553945	0.998598
614.902496	0.998869
615.250994	0.999557
615.599439	0.999058
615.947830	0.998595
616.296169	0.998644
616.644454	0.999213
616.992686	0.998312
617.340864	0.999475
617.688990	0.998433
618.037063	0.998782
618.385082	0.999123
618.733048	0.998723
619.080961	0.998345
619.428821	0.998729
619.776628	0.998278
620.124382	0.999249
620.472083	0.999351
620.819731	1.000200
621.167326	0.999005
621.514868	0.998958
621.862357	0.998993
622.209793	0.999400
622.557176	0.998297
622.904506	0.998144
623.251783	0.998963
623.599007	0.999173
623.946179	0.998200
624.293297	0.998610
624.640363	0.999135
624.987376	0.997810
625.334336	0.999442
625.681243	0.998250
626.028097	0.999162
626.374899	0.998844
626.721647	0.999606
627.068343	0.998251
627.414987	0.998900
627.761577	0.998482
628.108115	0.998412
628.454600	0.999741
628.801032	0.999102
629.147412	0.999285
629.493739	0.999383
629.840014	0.998782
630.186236	0.998673
630.532405	0.998335
630.878521	0.998072
631.224585	0.998414
631.570597	0.998731
631.916556	0.998978
632.262462	0.997490
632.608316	0.998863
632.954117	0.998207
633.299866	0.998407
633.645562	0.998725
633.991206	0.999097
634.336797	0.998661
634.682336	0.998912
635.027823	0.999547
635.373257	0.999412
635.718639	0.999549
636.063968	0.998747
636.409245	0.998036
636.754470	0.998885
637.099642	0.998608
637.444762	0.999530
637.789829	0.999165
638.134845	0.998597
638.479808	0.999277
638.824719	0.999518
639.169577	0.998996
639.514383	0.998347
639.859137	0.999224
640.203839	0.998499
640.548489	0.998898
640.893086	0.998632
641.237632	0.999233
641.582125	0.998594
641.926566	0.999448
642.270955	0.998872
642.615292	0.998837
642.959576	0.999057
643.303809	0.999542
643.647990	0.999363
643.992118	0.999075
644.336195	0.998394
644.680219	0.998415
645.024192	0.999024
645.368112	0.997911
645.711981	0.998227
646.055797	0.998873
646.399562	0.998050
646.743274	0.999742
647.086935	0.997784
647.430544	0.998590
647.774101	0.998744
648.117606	0.999432
648.461059	0.998886
648.804460	0.999298
649.147810	0.997831
649.491108	0.998486
649.834354	0.998217
650.177548	0.998905
650.520690	0.998274
650.863781	0.998557
651.206820	0.998714
651.549807	0.998626
651.892742	0.999130
652.235626	0.998567
652.578458	0.998511
652.921238	0.998713
653.263967	0.998518
653.606644	0.998697
653.949269	0.999052
654.291843	0.998283
654.634365	0.998557
654.976836	0.998096
655.319255	0.999066
655.661622	0.999138
656.003938	0.997778
656.346203	0.998702
656.688416	0.998940
657.030577	0.998296
657.372687	0.998442
657.714746	0.998031
658.056753	0.997923
658.398708	0.998178
658.740612	0.999742
659.082465	0.998346
659.424266	0.998526
659.766016	0.997750
660.107715	0.999422
660.449362	0.998834
660.790958	0.997267
661.132503	0.999242
661.473996	0.997723
661.815438	0.999119
662.156829	0.998444
662.498168	0.998657
662.839456	0.998428
663.180693	0.998564
663.521879	0.998499
663.863013	0.998486
664.204097	0.997703
664.545129	0.998832
664.886110	0.997874
665.227040	0.998705
665.567918	0.998331
665.908746	0.998148
666.249522	0.997967
666.590248	0.998378
666.930922	0.997513
667.271545	0.998154
667.612118	0.998102
667.952639	0.998698
668.293109	0.998286
668.633528	0.997523
668.973896	0.998454
669.314213	0.998204
669.654480	0.998478
669.994695	0.997497
670.334859	0.998189
670.674973	0.998362
671.015035	0.998238
671.355047	0.998197
671.695008	0.997332
672.034918	0.997979
672.374777	0.998552
672.714585	0.997508
673.054342	0.998237
673.394049	0.997377
673.733705	0.997304
674.073310	0.998306
674.412864	0.998123
674.752368	0.996630
675.091820	0.999221
675.431223	0.997512
675.770574	0.997257
676.109875	0.998033
676.449125	0.997972
676.788324	0.996826
677.127473	0.998009
677.466571	0.998512
677.805619	0.997890
678.144616	0.998939
678.483562	0.999022
678.822458	0.998312
679.161303	0.998047
679.500098	0.998814
679.838842	0.999197
680.177535	0.998092
680.516179	0.997837
680.854771	0.997681
681.193314	0.997911
681.531805	0.997761
681.870247	0.997530
682.208638	0.997729
682.546978	0.996862
682.885268	0.997484
683.223508	0.998135
683.561697	0.996969
683.899836	0.998096
684.237925	0.997240
684.575963	0.997789
684.913951	0.997861
685.251889	0.997631
685.589776	0.997502
685.927614	0.997141
686.265401	0.997550
686.603137	0.997640
686.940824	0.997116
687.278460	0.997919
687.616046	0.997536
687.953582	0.997265
688.291068	0.997741
688.628504	0.997661
688.965889	0.997152
689.303224	0.996179
689.640510	0.997535
689.977745	0.996967
690.314930	0.996935
690.652065	0.997414
690.989150	0.996528
691.326185	0.998605
691.663170	0.997598
692.000105	0.998366
692.336990	0.997245
692.673825	0.997874
693.010610	0.997507
693.347345	0.998129
693.684030	0.997274
694.020665	0.997532
694.357251	0.997911
694.693786	0.997723
695.030272	0.995968
695.366707	0.997694
695.703093	0.996867
696.039429	0.997134
696.375716	0.998294
696.711952	0.997759
697.048139	0.998556
697.384276	0.997189
697.720363	0.997154
698.056400	0.995586
698.392388	0.997378
698.728326	0.997954
699.064214	0.998739
699.400053	0.997239
699.735842	0.998342
700.071581	0.996836
700.407270	0.997148
700.742910	0.997909
701.078501	0.997928
701.414042	0.998799
701.749533	0.996130
702.084974	0.997588
702.420366	0.997817
702.755709	0.997517
703.091002	0.997273
703.426246	0.997796
703.761440	0.997539
704.096584	0.996367
704.431679	0.997436
704.766725	0.996657
705.101721	0.998210
705.436668	0.998163
705.771565	0.997100
706.106413	0.996652
706.441212	0.997310
706.775961	0.997989
707.110661	0.996788
707.445311	0.997738
707.779913	0.998262
708.114465	0.998157
708.448967	0.997535
708.783421	0.997603
709.117825	0.997260
709.452180	0.997103
709.786485	0.997521
710.120742	0.996735
710.454949	0.995964
710.789107	0.996617
711.123216	0.995847
711.457275	0.995595
711.791286	0.997129
712.125247	0.997920
712.459159	0.996786
712.793023	0.995589
713.126837	0.997376
713.460602	0.996461
713.794318	0.996467
714.127985	0.997176
714.461602	0.997491
714.795171	0.996849
715.128691	0.996727
715.462162	0.997381
715.795584	0.997714
716.128957	0.998268
716.462281	0.998154
716.795556	0.996774
717.128782	0.997643
717.461960	0.996306
717.795088	0.996711
718.128167	0.997693
718.461198	0.996783
718.794180	0.998439
719.127113	0.997352
719.459997	0.996814
719.792833	0.997671
720.125619	0.997201
720.458357	0.996744
720.791046	0.997936
721.123686	0.997452
721.456278	0.997020
721.788821	0.996852
722.121315	0.997679
722.453761	0.997708
722.786158	0.997205
723.118506	0.997655
723.450805	0.996845
723.783056	0.997942
724.115259	0.997152
724.447412	0.997879
724.779518	0.996788
725.111574	0.997315
725.443582	0.997838
725.775542	0.998500
726.107453	0.997724
726.439315	0.998628
726.771129	0.997708
727.102895	0.997399
727.434612	0.997223
727.766281	0.997834
728.097901	0.996802
728.429473	0.997793
728.760996	0.995794
729.092471	0.996918
729.423897	0.996773
729.755276	0.997126
730.086606	0.997387
730.417887	0.996963
730.749120	0.997185
731.080305	0.996831
731.411442	0.995447
731.742530	0.996124
732.073570	0.996073
732.404562	0.996293
732.735506	0.996711
733.066401	0.997121
733.397249	0.996961
733.728048	0.996919
734.058798	0.996994
734.389501	0.998145
734.720156	0.996203
735.050762	0.997955
735.381320	0.997054
735.711831	0.996969
736.042293	0.997119
736.372707	0.998821
736.703073	0.996819
737.033391	0.996934
737.363661	0.997595
737.693883	0.996370
738.024056	0.996835
738.354182	0.997361
738.684260	0.996519
739.014290	0.997454
739.344272	0.997528
739.674207	0.997362
740.004093	0.996526
740.333931	0.997295
740.663722	0.996407
740.993464	0.997329
741.323159	0.996735
741.652806	0.996919
741.982405	0.996920
742.311956	0.996927
742.641460	0.997597
742.970915	0.997295
743.300323	0.996019
743.629683	0.996742
743.958996	0.998070
744.288260	0.996725
744.617477	0.996539
744.946647	0.997795
745.275768	0.997877
745.604842	0.997222
745.933869	0.997177
746.262847	0.998050
746.591778	0.996767
746.920662	0.998230
747.249498	0.998369
747.578286	0.997753
747.907027	0.996751
748.235720	0.998611
748.564365	0.997252
748.892963	0.997773
749.221514	0.997707
749.550017	0.996128
749.878473	0.997008
750.206881	0.998610
750.535242	0.996731
750.863555	0.997351
751.191821	0.997486
751.520039	0.997511
751.848210	0.995852
752.176334	0.997045
752.504411	0.996968
752.832440	0.996748
753.160421	0.997336
753.488356	0.997513
753.816243	0.997229
754.144082	0.996635
754.471875	0.997966
754.799620	0.997801
755.127318	0.997625
755.454969	0.997173
755.782572	0.999123
756.110129	0.997776
756.437638	0.997833
756.765100	0.998047
757.092515	0.997482
757.419882	0.997434
757.747203	0.997431
758.074477	0.997569
758.401703	0.996868
758.728882	0.997594
759.056014	0.996437
759.383099	0.997472
759.710138	0.997052
760.037129	0.997701
760.364073	0.997845
760.690970	0.997712
761.017820	0.996598
761.344623	0.997089
761.671379	0.997945
761.998088	0.997736
762.324751	0.998009
762.651366	0.996371
762.977935	0.995459
763.304456	0.995470
763.630931	0.994421
763.957359	0.994708
764.283740	0.995410
764.610074	0.995733
764.936362	0.996487
765.262602	0.996039
765.588796	0.997285
765.914943	0.997363
766.241044	0.996938
766.567097	0.997283
766.893104	0.998025
767.219064	0.997770
767.544978	0.997471
767.870845	0.997942
768.196665	0.997855
768.522438	0.998305
768.848165	0.997459
769.173846	0.998031
769.499479	0.998647
769.825066	0.998828
770.150607	0.998533
770.476101	0.998703
770.801548	0.997836
771.126949	0.998279
771.452303	0.998340
771.777611	0.998966
772.102872	0.997559
772.428087	0.998318
772.753256	0.998726
773.078378	0.998067
773.403453	0.997389
773.728482	0.999098
774.053465	0.996695
774.378401	0.998259
774.703291	0.997622
775.028135	0.999549
775.352932	0.997304
775.677683	0.998271
776.002388	0.998327
776.327046	0.997663
776.651658	0.999339
776.976224	0.998831
777.300743	0.998415
777.625216	0.998151
777.949643	0.998859
778.274024	0.996883
778.598359	0.998082
778.922647	0.999066
779.246889	0.999225
779.571086	0.998145
779.895236	0.998348
780.219339	0.998777
780.543397	0.998546
780.867409	0.999016
781.191374	0.997774
781.515294	0.998316
781.839167	0.997927
782.162995	0.998723
782.486776	0.998757
782.810511	0.998177
783.134201	0.999314
783.457844	0.997201
783.781441	0.997921
784.104993	0.998088
784.428498	0.998791
784.751958	0.999132
785.075372	0.998965
785.398739	0.998594
785.722061	0.998200
786.045337	0.998105
786.368568	0.998628
786.691752	0.997749
787.014891	0.997705
787.337983	0.997799
787.661030	0.997718
787.984031	0.998881
788.306987	0.998207
788.629897	0.996842
788.952760	0.997930
789.275579	0.997886
789.598351	0.997601
789.921078	0.999115
790.243759	0.998806
790.566395	0.997347
790.888984	0.998958
791.211529	0.998374
791.534027	0.998534
791.856480	0.997571
792.178888	0.997241
792.501249	0.997945
792.823566	0.999138
793.145836	0.998146
793.468062	0.998318
793.790241	0.997840
794.112375	0.997308
794.434464	0.997505
794.756507	0.998589
795.078505	0.999360
795.400457	0.998129
795.722364	0.998156
796.044226	0.998664
796.366042	0.997186
796.687812	0.996839
797.009538	0.997550
797.331218	0.998557
797.652852	0.999613
797.974442	0.997094
798.295986	0.997368
798.617484	0.997344
798.938938	0.998827
799.260346	0.997651
799.581709	0.997467
799.903026	0.999662
800.224299	0.997704
800.545526	0.998592
800.866708	0.997392
801.187845	0.999177
801.508936	0.998198
801.829983	0.998469
802.150984	0.998436
802.471940	0.998834
802.792851	0.998294
803.113717	0.999283
803.434538	0.999787
803.755314	0.999999
804.076045	0.998838
804.396731	0.998280
804.717372	0.997388
805.037967	1.000044
805.358518	0.999735
805.679024	0.998735
805.999485	0.998389
806.319901	0.998596
806.640272	0.998964
806.960598	0.998189
807.280879	0.997970
807.601115	0.999390
807.921306	0.999334
808.241453	0.997665
808.561554	0.998334
808.881611	0.998423
809.201623	0.997879
809.521590	0.997110
809.841513	0.999251
810.161390	0.997470
810.481223	0.997645
810.801011	0.998428
811.120755	0.998656
811.440453	0.998370
811.760107	0.999249
812.079716	0.998323
812.399281	0.997981
812.718801	0.999222
813.038276	0.999125
813.357707	0.998349
813.677093	0.999996
813.996434	0.998910
814.315731	0.999782
814.634983	0.999182
814.954191	0.998538
815.273354	0.997832
815.592473	0.997911
815.911547	1.000025
816.230577	0.998156
816.549562	0.998294
816.868502	0.997751
817.187399	0.999065
817.506250	0.998505
817.825058	0.996421
818.143821	0.998886
818.462539	0.998291
818.781213	0.999284
819.099843	0.997259
819.418429	0.997071
819.736970	0.996848
820.055466	0.996133
820.373919	0.995679
820.692327	0.995711
821.010691	0.996037
821.329011	0.993240
821.647286	0.990253
821.965517	0.990754
822.283704	0.988587
822.601847	0.988279
822.919945	0.988270
823.237999	0.989793
823.556010	0.990244
823.873976	0.990813
824.191897	0.992204
824.509775	0.993146
824.827609	0.994461
825.145398	0.995197
825.463144	0.993218
825.780845	0.993586
826.098502	0.993229
826.416116	0.993402
826.733685	0.993217
827.051210	0.991021
827.368692	0.991307
827.686129	0.991435
828.003522	0.995058
828.320872	0.994251
828.638177	0.995480
828.955439	0.997090
829.272656	0.996404
829.589830	0.996643
829.906960	0.997953
830.224046	0.996842
830.541088	0.996891
830.858086	0.997716
831.175041	0.998228
831.491952	0.997765
831.808819	0.997092
832.125642	0.996856
832.442421	0.998121
832.759157	0.997845
833.075849	0.995474
833.392497	0.994561
833.709101	0.993581
834.025662	0.994709
834.342179	0.994650
834.658653	0.996036
834.975083	0.996600
835.291469	0.996027
835.607811	0.996817
835.924110	0.997825
836.240366	0.998153
836.556578	0.997996
836.872746	0.998307
837.188871	0.998665
837.504952	0.997782
837.820990	0.999072
838.136984	0.998153
838.452935	0.998688
838.768842	0.999437
839.084706	0.997718
839.400526	0.998322
839.716303	0.996212
840.032037	0.997820
840.347727	0.996989
840.663373	0.997715
840.978977	0.996856
841.294537	0.997699
841.610054	0.998467
841.925527	0.999065
842.240957	0.997874
842.556344	0.997924
842.871687	0.998756
843.186987	0.999130
843.502244	0.999229
843.817458	0.999124
844.132629	0.999151
844.447756	0.999782
844.762840	0.998881
845.077881	0.999809
845.392879	0.998720
845.707833	0.999388
846.022745	0.999984
846.337613	0.999429
846.652438	0.998042
846.967221	0.999307
847.281960	0.999122
847.596656	0.999851
847.911309	0.999740
848.225919	0.997625
848.540485	0.999939
848.855009	1.000369
849.169490	0.998865
849.483928	0.998739
849.798323	0.998697
850.112675	1.000369
850.426984	0.999079
850.741251	0.999265
851.055474	0.999608
851.369654	0.999410
851.683792	0.998540
851.997887	0.999725
852.311938	0.999568
852.625947	0.998367
852.939914	0.998334
853.253837	0.999476
853.567718	0.999452
853.881555	0.998758
854.195350	1.000348
854.509103	0.999676
854.822812	0.999218
855.136479	1.000415
855.450103	0.999047
855.763685	1.000115
856.077224	1.000544
856.390720	0.999149
856.704173	0.999409
857.017584	1.000405
857.330953	1.000485
857.644278	0.999462
857.957561	0.999004
858.270802	0.999235
858.584000	0.999052
858.897155	0.999195
859.210268	0.998703
859.523339	0.999721
859.836367	0.998977
860.149352	0.999196
860.462295	0.999604
860.775195	0.999799
861.088054	0.998708
861.400869	0.998696
861.713642	0.997454
862.026373	0.999556
862.339062	1.000158
862.651708	1.000406
862.964312	1.000738
863.276873	0.999464
863.589392	0.999441
863.901869	0.999097
864.214303	0.999282
864.526696	0.998974
864.839045	0.999904
865.151353	0.998888
865.463619	0.998446
865.775842	0.999159
866.088023	0.999903
866.400162	0.999159
866.712258	1.001148
867.024313	0.999039
867.336325	0.999856
867.648296	0.999619
867.960224	0.999808
868.272110	1.000638
868.583954	0.999867
868.895755	1.000100
869.207515	0.998355
869.519233	0.999948
869.830909	0.998498
870.142542	0.998552
870.454134	0.999675
870.765684	0.999996
871.077191	0.998949
871.388657	0.999179
871.700081	0.999594
872.011463	0.999792
872.322803	0.999518
872.634101	0.999712
872.945357	0.999083
873.256571	0.998813
873.567744	0.999839
873.878874	0.999456
874.189963	0.999052
874.501010	1.000700
874.812015	0.998147
875.122979	0.998623
875.433900	0.997987
875.744780	0.999415
876.055618	0.997981
876.366415	0.998704
876.677169	0.999191
876.987882	0.999156
877.298554	0.999458
877.609183	0.998887
877.919771	0.999797
878.230317	0.999722
878.540822	0.997821
878.851285	0.997944
879.161707	0.998430
879.472087	0.998027
879.782425	0.997025
880.092722	0.996641
880.402977	0.993639
880.713191	0.993044
881.023363	0.991173
881.333494	0.989512
881.643583	0.990562
881.953631	0.990803
882.263637	0.989633
882.573602	0.990711
882.883526	0.991913
883.193408	0.992664
883.503248	0.993855
883.813048	0.992658
884.122806	0.994372
884.432522	0.995251
884.742197	0.996661
885.051831	0.996352
885.361424	0.996281
885.670975	0.998577
885.980485	0.997729
886.289954	0.997739
886.599382	0.996235
886.908768	0.997970
887.218113	0.996541
887.527417	0.998262
887.836680	0.998079
888.145901	0.999285
888.455082	0.999643
888.764221	0.998920
889.073319	0.999168
889.382376	0.999584
889.691392	0.997679
890.000366	0.999723
890.309300	0.999152
890.618193	0.998773
890.927044	0.998974
891.235855	0.998668
891.544625	0.998326
891.853353	0.998707
892.162041	0.999367
892.470687	0.999234
892.779293	0.998325
893.087858	0.996734
893.396381	0.997694
893.704864	0.997179
894.013306	0.996767
894.321707	0.996182
894.630068	0.995032
894.938387	0.994285
895.246665	0.994528
895.554903	0.995015
895.863100	0.995764
896.171256	0.996492
896.479371	0.996603
896.787446	0.997096
897.095480	0.997564
897.403473	0.998381
897.711425	0.998343
898.019336	0.998564
898.327207	0.998872
898.635038	0.997367
898.942827	0.999136
899.250576	0.998061
899.558284	0.999315
899.865952	0.997803
900.173579	0.998277
900.481165	0.998329
900.788711	0.997693
901.096216	0.998756
901.403681	0.999714
901.711105	0.998515
902.018489	0.998455
902.325832	0.998674
902.633135	0.999116
902.940397	0.998792
903.247619	0.997508
903.554800	0.996630
903.861941	0.995732
904.169041	0.994527
904.476101	0.994408
904.783121	0.993828
905.090100	0.995899
905.397039	0.995529
905.703938	0.996792
906.010796	0.996714
906.317614	0.997275
906.624391	0.996988
906.931129	0.997947
907.237826	0.998349
907.544483	0.999026
907.851099	0.998920
908.157675	0.998793
908.464211	1.000110
908.770707	0.998374
909.077163	0.999435
909.383578	0.998525
909.689954	0.999541
909.996289	0.998582
910.302584	0.998699
910.608839	0.999855
910.915054	0.997931
911.221229	0.999211
911.527363	0.999337
911.833458	1.000363
912.139513	0.999696
912.445527	0.999284
912.751502	1.000244
913.057436	0.998766
913.363331	0.999747
913.669186	1.000845
913.975000	0.999312
914.280775	0.998917
914.586510	0.998644
914.892205	0.997580
915.197859	0.996466
915.503475	0.996300
915.809050	0.995322
916.114585	0.993346
916.420081	0.993934
916.725536	0.994856
917.030952	0.995279
917.336328	0.994378
917.641665	0.994340
917.946961	0.996657
918.252218	0.996143
918.557435	0.995965
918.862612	0.997134
919.167750	0.998289
919.472848	0.998282
919.777906	0.998816
920.082925	1.000237
920.387904	0.999460
920.692843	0.998061
920.997743	0.997680
921.302603	0.998990
921.607423	0.998764
921.912204	0.999347
922.216946	0.999785
922.521647	0.998881
922.826310	0.997954
923.130932	0.998674
923.435516	1.000020
923.740059	0.998994
924.044564	0.998219
924.349028	0.998846
924.653454	0.998811
924.957840	0.998736
925.262186	0.999934
925.566493	0.999155
925.870761	0.998645
926.174989	0.998902
926.479178	0.999337
926.783328	1.000430
927.087438	0.999567
927.391509	0.998920
927.695541	0.998634
927.999533	0.999705
928.303486	0.998790
928.607400	1.000459
928.911275	0.999957
929.215110	1.001477
929.518906	1.000710
929.822663	1.001393
930.126381	1.000186
930.430060	0.999368
930.733699	0.999245
931.037299	1.001917
931.340861	1.000307
931.644383	0.997825
931.947866	0.999683
932.251309	0.999801
932.554714	1.000260
932.858080	0.999807
933.161407	0.999342
933.464694	1.000257
933.767943	0.999914
934.071153	0.999737
934.374323	0.999656
934.677455	0.999275
934.980548	0.999275
935.283602	0.999529
935.586617	0.999046
935.889593	1.001052
936.192530	1.000123
936.495428	1.000312
936.798287	0.998993
937.101108	1.000109
937.403890	0.998630
937.706632	1.000526
938.009336	0.999805
938.312002	0.999102
938.614628	1.000282
938.917216	0.998687
939.219765	0.999540
939.522275	0.999376
939.824747	1.000207
940.127179	0.998925
940.429573	1.000555
940.731929	0.999262
941.034246	0.997869
941.336524	0.998033
941.638763	0.998919
941.940964	0.998916
942.243126	0.998971
942.545250	1.000856
942.847335	0.999824
943.149381	0.999536
943.451389	0.998023
943.753359	0.999826
944.055290	0.999950
944.357182	0.999183
944.659036	0.999265
944.960851	0.999701
945.262628	1.000385
945.564367	1.000255
945.866067	0.999928
946.167729	1.000075
946.469352	0.999948
946.770937	0.998758
947.072484	1.000186
947.373992	0.999232
947.675462	0.998200
947.976893	0.999390
948.278286	1.000979
948.579641	1.000640
948.880958	0.998593
949.182236	1.000849
949.483476	1.000217
949.784678	1.000467
950.085841	0.999246
950.386967	0.998724
950.688054	0.999706
950.989103	0.999763
951.290114	0.997626
951.591087	0.999830
951.892021	0.999560
952.192917	0.999608
952.493776	1.000473
952.794596	0.999697
953.095378	0.999677
953.396122	0.999110
953.696828	0.999684
953.997496	0.999226
954.298126	1.000928
954.598718	0.999082
954.899272	0.999846
955.199788	0.999517
955.500266	0.999303
955.800706	0.999162
956.101108	0.999071
956.401472	1.000854
956.701798	0.999552
957.002087	0.999907
957.302337	0.999447
957.602550	1.000574
957.902724	1.000214
958.202861	0.999530
958.502960	0.998682
958.803022	1.001383
959.103045	1.000456
959.403031	1.001226
959.702979	1.000896
960.002889	0.998924
960.302762	0.999249
960.602596	1.001315
960.902393	1.000757
961.202153	1.000223
961.501875	0.999934
961.801559	1.000644
962.101205	0.999751
962.400814	1.000587
962.700385	1.000787
962.999918	0.999724
963.299414	0.998834
963.598873	1.001325
963.898293	1.001279
964.197677	0.999757
964.497022	1.000477
964.796331	1.000458
965.095601	1.000862
965.394835	0.999428
965.694030	1.001575
965.993189	0.999199
966.292309	1.001080
966.591393	0.998889
966.890439	1.000292
967.189447	0.999452
967.488419	0.999956
967.787353	0.999954
968.086249	1.000493
968.385108	1.000686
968.683930	1.001979
968.982714	1.000202
969.281462	1.000817
969.580172	1.001098
969.878844	1.000515
970.177480	0.999795
970.476078	1.000925
970.774639	0.999718
971.073162	0.999863
971.371649	1.000132
971.670098	1.000185
971.968510	1.000618
972.266885	0.999192
972.565223	0.999384
972.863524	0.999375
973.161788	1.000301
973.460014	1.001265
973.758204	1.000669
974.056356	1.000237
974.354471	0.999178
974.652550	1.000145
974.950591	0.999834
975.248595	1.000484
975.546563	1.000512
975.844493	1.001148
976.142386	1.000255
976.440243	1.000659
976.738062	1.000578
977.035845	0.999570
977.333590	1.000382
977.631299	1.000421
977.928971	1.000518
978.226606	0.999597
978.524204	0.999418
978.821765	1.000167
979.119290	1.000575
979.416777	0.999962
979.714228	1.000070
980.011642	1.000751
980.309020	1.000351
980.606360	0.999142
980.903664	1.000021
981.200931	0.999833
981.498162	1.000429
981.795356	0.999798
982.092513	0.999276
982.389633	1.001794
982.686717	0.998942
982.983764	0.998708
983.280775	1.000104
983.577749	1.000666
983.874686	0.998893
984.171587	0.999002
984.468451	0.999701
984.765279	1.000843
985.062070	0.999526
985.358824	0.999442
985.655543	1.000882
985.952224	0.999730
986.248869	1.000298
986.545478	1.001394
986.842050	0.999986
987.138586	0.999825
987.435086	0.999298
987.731549	1.000726
988.027975	1.000989
988.324366	0.999675
988.620719	1.001233
988.917037	1.000119
989.213318	1.001193
989.509563	1.000767
989.805772	1.000268
990.101944	1.000849
990.398080	1.001832
990.694180	1.000688
990.990244	0.999210
991.286271	0.999076
991.582262	1.000050
991.878217	0.999625
992.174136	1.001014
992.470019	1.000607
992.765865	1.001569
993.061676	1.000190
993.357450	1.001105
993.653188	1.001002
993.948890	1.000667
994.244556	0.999427
994.540186	1.000117
994.835780	1.001387
995.131337	1.001917
995.426859	1.000732
995.722345	1.000392
996.017795	0.999178
996.313208	1.000716
996.608586	0.999525
996.903928	1.000386
997.199234	1.000678
997.494504	1.001568
997.789738	0.999122
998.084936	1.000564
998.380099	0.999365
998.675225	1.000638
998.970316	1.000766
999.265371	0.999819
999.560390	1.000353
999.855373	1.000129
1000.150320	0.999601
1000.445232	1.000874
1000.740108	1.001332
1001.034948	0.999073
1001.329752	1.001365
1001.624521	0.999685
1001.919254	0.999685
1002.213951	1.000370
1002.508613	0.999138
1002.803239	1.000172
1003.097829	1.001092
1003.392384	1.000201
1003.686903	1.001302
1003.981386	1.000556
1004.275834	1.000833
1004.570246	0.999762
1004.864623	1.001198
1005.158964	1.001134
1005.453270	0.999205
1005.747540	0.999692
1006.041775	0.999896
1006.335974	1.000600
1006.630138	1.001021
1006.924266	0.998921
1007.218359	0.999260
1007.512416	1.002251
1007.806438	1.000048
1008.100425	0.999712
1008.394376	1.000674
1008.688292	0.999517
1008.982172	0.999892
1009.276017	1.000778
1009.569827	1.001421
1009.863602	0.998873
1010.157341	1.001276
1010.451045	0.999832
1010.744714	1.002208
1011.038347	1.000604
1011.331945	1.000011
1011.625508	1.000154
1011.919036	1.001267
1012.212528	1.000441
1012.505986	0.999220
1012.799408	1.002048
1013.092795	1.001016
1013.386147	1.000312
1013.679464	1.001268
1013.972745	1.000518
1014.265992	0.999736
1014.559204	0.999884
1014.852380	1.000037
1015.145521	1.000334
1015.438628	1.000581
1015.731699	0.999844
1016.024736	1.001591
1016.317737	1.000409
1016.610703	1.001137
1016.903635	1.000674
1017.196531	1.001387
1017.489393	0.998856
1017.782219	1.000164
1018.075011	0.999353
1018.367768	0.999448
1018.660490	1.000751
1018.953177	1.000751
1019.245829	1.000751
