Dividing Wavelength (nm)	Counts (n)	Blue Motor Position (mm): 30.300000	Red Motor Position (mm): 0.000000	
326.493990	0.999817
326.888308	0.999817
327.282561	0.999817
327.676750	1.000636
328.070874	1.001491
328.464933	1.001955
328.858929	1.001332
329.252859	1.001294
329.646726	1.001165
330.040528	1.000286
330.434265	0.999700
330.827938	1.000161
331.221547	1.001357
331.615091	1.001912
332.008571	1.001920
332.401986	1.001038
332.795338	0.999667
333.188625	1.001104
333.581847	1.001723
333.975006	1.000762
334.368100	1.000555
334.761129	0.999779
335.154095	1.000816
335.546996	1.001626
335.939833	0.999670
336.332606	1.000473
336.725315	0.998145
337.117960	1.000737
337.510540	0.999720
337.903056	1.000304
338.295508	1.000358
338.687896	1.000892
339.080220	0.999510
339.472480	0.999310
339.864676	0.999676
340.256807	0.998890
340.648875	1.001023
341.040879	0.999333
341.432818	0.999541
341.824694	0.999292
342.216506	1.000455
342.608253	0.999575
342.999937	0.999865
343.391557	1.000181
343.783113	1.000718
344.174605	0.999340
344.566033	0.999965
344.957397	0.999640
345.348697	1.000135
345.739934	0.999225
346.131106	0.999367
346.522215	0.999914
346.913260	1.000154
347.304241	1.000222
347.695159	0.999326
348.086012	0.998907
348.476802	0.999239
348.867528	0.998564
349.258191	1.000914
349.648789	0.999193
350.039324	1.001006
350.429796	0.998498
350.820203	0.997658
351.210548	0.999914
351.600828	0.998987
351.991045	0.999657
352.381198	1.000656
352.771288	0.998217
353.161314	0.999397
353.551276	0.998549
353.941175	0.997541
354.331010	1.000010
354.720782	0.999698
355.110490	0.999295
355.500135	0.999264
355.889717	0.997284
356.279235	0.998718
356.668689	0.999013
357.058080	0.998609
357.447408	0.998006
357.836672	0.997806
358.225873	0.998538
358.615010	0.998637
359.004084	0.997560
359.393095	0.997698
359.782043	0.998533
360.170927	0.999227
360.559748	0.998876
360.948505	0.998259
361.337199	0.998626
361.725830	0.998800
362.114398	0.997617
362.502903	0.997327
362.891344	0.997131
363.279722	0.998247
363.668037	0.998184
364.056289	0.998208
364.444478	0.998726
364.832603	0.997242
365.220665	0.998414
365.608665	0.997971
365.996601	0.998983
366.384474	0.997366
366.772284	0.997060
367.160031	0.995803
367.547715	0.996595
367.935336	0.995489
368.322893	0.994550
368.710388	0.992830
369.097820	0.992135
369.485189	0.989049
369.872495	0.987707
370.259738	0.984988
370.646918	0.983025
371.034035	0.980086
371.421090	0.977653
371.808081	0.972807
372.195010	0.969791
372.581875	0.964038
372.968678	0.960460
373.355418	0.956517
373.742096	0.949983
374.128710	0.945697
374.515262	0.941005
374.901751	0.933730
375.288177	0.929990
375.674540	0.922830
376.060841	0.916728
376.447079	0.909798
376.833254	0.904277
377.219367	0.899023
377.605417	0.887525
377.991404	0.882978
378.377329	0.876909
378.763191	0.871558
379.148991	0.862167
379.534727	0.854714
379.920402	0.846514
380.306013	0.842759
380.691563	0.830460
381.077049	0.824100
381.462474	0.819685
381.847835	0.808705
382.233134	0.802676
382.618371	0.803890
383.003545	0.785959
383.388657	0.783500
383.773706	0.776546
384.158693	0.772240
384.543618	0.767852
384.928480	0.758365
385.313280	0.748883
385.698017	0.747684
386.082692	0.736940
386.467305	0.734746
386.851856	0.729247
387.236344	0.724158
387.620770	0.718494
388.005133	0.712725
388.389435	0.707352
388.773674	0.705273
389.157851	0.696811
389.541965	0.693955
389.926018	0.700980
390.310008	0.687073
390.693936	0.685309
391.077802	0.676866
391.461606	0.677717
391.845348	0.667822
392.229027	0.666940
392.612645	0.664351
392.996200	0.652721
393.379694	0.645100
393.763125	0.635251
394.146494	0.639696
394.529801	0.630769
394.913047	0.622519
395.296230	0.628754
395.679351	0.619591
396.062410	0.616745
396.445408	0.619525
396.828343	0.613818
397.211217	0.610129
397.594028	0.621436
397.976778	0.612706
398.359466	0.608815
398.742092	0.604016
399.124656	0.616522
399.507158	0.604219
399.889598	0.601957
400.271977	0.592897
400.654294	0.597005
401.036549	0.595692
401.418742	0.599774
401.800874	0.586273
402.182944	0.581848
402.564952	0.574463
402.946898	0.575935
403.328783	0.577162
403.710606	0.588447
404.092367	0.563170
404.474067	0.568111
404.855705	0.566318
405.237282	0.575945
405.618797	0.562660
406.000250	0.557627
406.381642	0.547412
406.762972	0.553285
407.144240	0.551825
407.525447	0.551933
407.906593	0.544661
408.287677	0.539847
408.668700	0.548447
409.049661	0.542471
409.430560	0.537885
409.811399	0.546451
410.192176	0.528006
410.572891	0.535361
410.953545	0.522654
411.334138	0.536940
411.714669	0.528995
412.095139	0.541701
412.475547	0.525709
412.855894	0.528019
413.236180	0.526493
413.616405	0.532012
413.996568	0.522235
414.376670	0.528582
414.756711	0.533520
415.136691	0.530604
415.516609	0.521460
415.896466	0.518518
416.276262	0.514662
416.655997	0.516387
417.035670	0.497847
417.415283	0.489658
417.794834	0.494581
418.174324	0.500003
418.553753	0.509151
418.933121	0.491293
419.312428	0.484864
419.691674	0.491288
420.070859	0.479475
420.449983	0.487446
420.829045	0.477479
421.208047	0.486272
421.586988	0.479662
421.965867	0.479088
422.344686	0.467798
422.723444	0.480826
423.102141	0.498076
423.480777	0.471919
423.859352	0.493713
424.237866	0.471718
424.616319	0.473919
424.994712	0.465274
425.373044	0.476959
425.751314	0.466877
426.129524	0.484732
426.507673	0.470136
426.885762	0.465159
427.263789	0.472160
427.641756	0.483353
428.019662	0.475612
428.397508	0.477515
428.775292	0.484366
429.153016	0.478443
429.530679	0.486917
429.908282	0.483502
430.285824	0.495635
430.663305	0.478587
431.040726	0.501334
431.418086	0.504935
431.795385	0.499523
432.172624	0.502976
432.549802	0.506926
432.926920	0.509550
433.303977	0.513396
433.680974	0.515312
434.057910	0.518198
434.434786	0.522374
434.811601	0.529408
435.188355	0.519099
435.565050	0.532342
435.941683	0.539277
436.318257	0.531479
436.694770	0.538475
437.071222	0.543288
437.447614	0.552209
437.823946	0.563242
438.200218	0.560685
438.576429	0.575471
438.952580	0.577053
439.328670	0.581542
439.704700	0.593104
440.080670	0.601292
440.456580	0.595754
440.832429	0.609353
441.208218	0.624720
441.583947	0.623804
441.959616	0.631720
442.335224	0.643706
442.710773	0.645654
443.086261	0.652895
443.461689	0.668898
443.837057	0.671096
444.212365	0.674336
444.587612	0.687154
444.962800	0.689379
445.337927	0.699148
445.712995	0.720983
446.088002	0.709671
446.462949	0.723416
446.837837	0.735578
447.212664	0.736281
447.587431	0.743541
447.962139	0.738607
448.336786	0.727300
448.711374	0.740434
449.085901	0.768994
449.460369	0.779838
449.834776	0.788005
450.209124	0.789065
450.583412	0.795998
450.957640	0.798464
451.331808	0.812809
451.705917	0.826390
452.079965	0.835355
452.453954	0.839740
452.827883	0.848619
453.201752	0.854147
453.575562	0.862444
453.949311	0.867728
454.323001	0.874719
454.696632	0.879512
455.070202	0.883989
455.443713	0.887832
455.817164	0.892411
456.190556	0.897790
456.563888	0.903167
456.937160	0.907621
457.310373	0.915137
457.683526	0.920680
458.056619	0.926345
458.429653	0.931007
458.802628	0.934565
459.175542	0.938128
459.548398	0.940029
459.921194	0.941998
460.293930	0.945842
460.666607	0.945934
461.039224	0.948237
461.411782	0.951059
461.784280	0.954539
462.156719	0.959013
462.529099	0.962622
462.901419	0.965941
463.273680	0.968764
463.645882	0.971495
464.018024	0.975043
464.390106	0.975863
464.762130	0.976787
465.134094	0.977875
465.505999	0.977397
465.877845	0.976571
466.249631	0.978078
466.621358	0.980288
466.993026	0.983467
467.364634	0.985384
467.736184	0.986995
468.107674	0.987984
468.479105	0.987943
468.850477	0.989410
469.221790	0.990588
469.593043	0.991644
469.964238	0.992521
470.335373	0.992614
470.706449	0.992894
471.077467	0.993487
471.448425	0.994214
471.819324	0.993966
472.190164	0.993415
472.560945	0.994316
472.931667	0.994564
473.302330	0.995509
473.672934	0.995619
474.043479	0.995222
474.413965	0.995681
474.784393	0.995748
475.154761	0.995229
475.525070	0.995487
475.895321	0.996839
476.265513	0.996286
476.635645	0.997007
477.005719	0.996836
477.375734	0.996854
477.745691	0.996361
478.115588	0.995745
478.485427	0.996792
478.855207	0.996760
479.224928	0.996609
479.594591	0.997229
479.964194	0.996538
480.333739	0.996680
480.703226	0.996148
481.072653	0.996067
481.442022	0.996994
481.811333	0.996554
482.180584	0.996930
482.549777	0.997101
482.918912	0.997236
483.287988	0.997375
483.657005	0.996721
484.025964	0.997514
484.394864	0.997272
484.763706	0.997610
485.132489	0.997453
485.501213	0.997428
485.869879	0.997372
486.238487	0.996559
486.607036	0.997573
486.975527	0.997525
487.343959	0.996484
487.712333	0.997050
488.080648	0.997416
488.448905	0.997843
488.817104	0.997731
489.185244	0.996814
489.553326	0.997738
489.921350	0.998000
490.289315	0.996966
490.657222	0.996521
491.025070	0.997383
491.392861	0.997409
491.760593	0.997571
492.128267	0.997392
492.495883	0.996042
492.863440	0.997325
493.230939	0.997765
493.598380	0.998027
493.965763	0.997870
494.333088	0.997178
494.700354	0.997531
495.067563	0.997110
495.434713	0.997882
495.801805	0.997403
496.168839	0.997877
496.535815	0.997898
496.902733	0.997645
497.269593	0.997792
497.636395	0.996925
498.003139	0.997606
498.369825	0.998391
498.736453	0.997145
499.103023	0.998654
499.469535	0.997452
499.835989	0.998188
500.202385	0.997648
500.568723	0.997574
500.935003	0.997977
501.301226	0.998283
501.667390	0.997234
502.033497	0.998093
502.399546	0.997719
502.765537	0.998095
503.131470	0.997922
503.497345	0.997654
503.863163	0.998098
504.228923	0.998103
504.594625	0.997533
504.960269	0.997600
505.325856	0.998396
505.691385	0.998303
506.056856	0.998631
506.422270	0.998067
506.787625	0.998003
507.152924	0.998217
507.518164	0.997530
507.883347	0.997620
508.248472	0.997763
508.613540	0.997686
508.978550	0.998481
509.343503	0.997549
509.708398	0.998627
510.073236	0.998305
510.438016	0.997424
510.802738	0.997010
511.167403	0.996917
511.532010	0.997980
511.896561	0.997841
512.261053	0.997772
512.625488	0.997535
512.989866	0.997810
513.354186	0.997410
513.718449	0.997484
514.082655	0.997586
514.446803	0.997580
514.810894	0.998793
515.174927	0.998353
515.538904	0.998220
515.902822	0.998085
516.266684	0.998920
516.630488	0.997898
516.994235	0.998145
517.357925	0.999179
517.721558	0.997949
518.085133	0.997638
518.448651	0.997986
518.812112	0.998043
519.175516	0.997306
519.538863	0.997473
519.902152	0.998882
520.265385	0.998339
520.628560	0.998137
520.991678	0.997902
521.354739	0.999322
521.717743	0.998126
522.080690	0.997858
522.443580	0.998468
522.806413	0.997538
523.169189	0.998436
523.531908	0.997696
523.894569	0.997739
524.257174	0.997718
524.619722	0.997579
524.982213	0.997741
525.344647	0.998028
525.707025	0.997368
526.069345	0.997033
526.431608	0.998195
526.793815	0.998540
527.155964	0.997981
527.518057	0.998698
527.880093	0.998237
528.242072	0.998140
528.603995	0.998079
528.965860	0.998348
529.327669	0.998306
529.689421	0.998083
530.051117	0.998265
530.412755	0.998198
530.774337	0.997794
531.135862	0.998406
531.497331	0.997812
531.858743	0.998533
532.220098	0.997518
532.581396	0.997783
532.942638	0.998163
533.303824	0.998769
533.664953	0.997629
534.026025	0.998957
534.387040	0.998226
534.747999	0.997729
535.108902	0.997551
535.469748	0.998570
535.830537	0.998244
536.191270	0.998194
536.551947	0.997413
536.912567	0.997796
537.273131	0.998429
537.633638	0.997560
537.994089	0.998426
538.354483	0.997530
538.714821	0.998537
539.075103	0.997953
539.435328	0.998474
539.795497	0.998036
540.155609	0.998258
540.515665	0.998030
540.875665	0.998029
541.235609	0.997931
541.595496	0.997623
541.955328	0.997553
542.315102	0.997864
542.674821	0.999185
543.034483	0.998788
543.394090	0.997245
543.753640	0.997194
544.113134	0.996862
544.472571	0.998109
544.831953	0.998110
545.191278	0.998105
545.550548	0.997455
545.909761	0.997292
546.268918	0.998415
546.628019	0.998184
546.987064	0.997690
547.346053	0.997456
547.704986	0.997503
548.063863	0.997873
548.422684	0.997872
548.781449	0.998183
549.140158	0.998248
549.498811	0.997514
549.857408	0.997425
550.215949	0.996444
550.574434	0.997696
550.932864	0.998526
551.291237	0.997885
551.649555	0.998027
552.007817	0.997872
552.366022	0.997955
552.724173	0.998238
553.082267	0.997946
553.440305	0.997520
553.798288	0.997435
554.156215	0.997321
554.514086	0.998039
554.871902	0.997845
555.229661	0.997681
555.587365	0.998236
555.945014	0.998374
556.302606	0.997269
556.660143	0.998355
557.017625	0.998750
557.375050	0.997469
557.732421	0.997659
558.089735	0.997203
558.446994	0.997891
558.804197	0.998346
559.161345	0.997254
559.518437	0.997817
559.875474	0.997433
560.232455	0.997727
560.589381	0.998424
560.946251	0.997585
561.303065	0.998064
561.659825	0.998050
562.016528	0.998063
562.373177	0.997554
562.729770	0.998380
563.086307	0.997689
563.442789	0.998356
563.799216	0.997130
564.155587	0.997848
564.511904	0.998354
564.868164	0.996953
565.224370	0.997603
565.580520	0.997560
565.936615	0.997850
566.292654	0.997665
566.648638	0.998281
567.004567	0.998101
567.360441	0.997547
567.716260	0.997367
568.072023	0.997619
568.427732	0.997896
568.783385	0.997058
569.138982	0.997214
569.494525	0.997736
569.850013	0.998117
570.205445	0.997812
570.560823	0.997591
570.916145	0.997823
571.271412	0.997711
571.626625	0.998365
571.981782	0.997612
572.336884	0.997366
572.691931	0.997915
573.046923	0.998200
573.401860	0.997365
573.756743	0.997528
574.111570	0.997884
574.466342	0.998749
574.821059	0.997355
575.175722	0.997692
575.530330	0.997365
575.884882	0.997561
576.239380	0.998210
576.593823	0.997189
576.948211	0.997629
577.302544	0.997318
577.656823	0.998390
578.011047	0.997075
578.365216	0.998142
578.719330	0.997967
579.073389	0.997131
579.427394	0.997245
579.781344	0.998003
580.135239	0.997325
580.489080	0.997777
580.842866	0.997780
581.196597	0.997867
581.550273	0.997078
581.903895	0.997821
582.257463	0.997924
582.610975	0.997998
582.964434	0.998382
583.317837	0.997785
583.671186	0.997638
584.024481	0.997896
584.377721	0.997725
584.730906	0.998614
585.084037	0.998435
585.437113	0.998050
585.790135	0.998183
586.143103	0.997549
586.496016	0.997667
586.848874	0.998120
587.201679	0.997449
587.554428	0.997251
587.907124	0.998561
588.259765	0.997491
588.612352	0.998974
588.964884	0.997777
589.317362	0.998183
589.669786	0.998170
590.022155	0.997040
590.374470	0.997855
590.726731	0.996867
591.078937	0.997999
591.431090	0.997828
591.783188	0.997218
592.135232	0.998652
592.487222	0.997928
592.839157	0.997845
593.191038	0.997869
593.542866	0.998147
593.894639	0.997257
594.246358	0.997966
594.598022	0.997978
594.949633	0.997851
595.301190	0.997865
595.652692	0.997819
596.004141	0.998461
596.355535	0.997788
596.706876	0.998663
597.058162	0.997993
597.409395	0.997747
597.760573	0.997566
598.111698	0.997833
598.462768	0.997287
598.813785	0.996931
599.164748	0.997353
599.515657	0.997831
599.866511	0.998146
600.217312	0.998373
600.568060	0.998044
600.918753	0.997748
601.269392	0.997089
601.619978	0.997995
601.970510	0.997509
602.320988	0.998246
602.671412	0.997435
603.021783	0.998055
603.372100	0.998473
603.722363	0.998347
604.072572	0.998176
604.422728	0.996926
604.772830	0.998094
605.122878	0.997867
605.472872	0.998273
605.822813	0.997646
606.172701	0.997811
606.522534	0.997999
606.872314	0.997772
607.222041	0.998199
607.571714	0.997744
607.921333	0.997805
608.270899	0.997354
608.620411	0.997919
608.969870	0.998710
609.319276	0.997948
609.668627	0.997950
610.017926	0.997945
610.367171	0.998069
610.716362	0.998057
611.065500	0.997315
611.414585	0.997719
611.763616	0.997232
612.112594	0.998074
612.461518	0.997351
612.810389	0.998119
613.159207	0.998161
613.507971	0.997385
613.856682	0.998598
614.205340	0.995971
614.553945	0.997792
614.902496	0.997556
615.250994	0.998145
615.599439	0.998164
615.947830	0.997729
616.296169	0.997382
616.644454	0.998004
616.992686	0.997664
617.340864	0.998212
617.688990	0.997477
618.037063	0.997791
618.385082	0.997054
618.733048	0.997337
619.080961	0.997810
619.428821	0.998431
619.776628	0.996805
620.124382	0.998107
620.472083	0.998762
620.819731	0.998157
621.167326	0.997651
621.514868	0.998481
621.862357	0.997564
622.209793	0.998649
622.557176	0.997730
622.904506	0.997499
623.251783	0.997850
623.599007	0.998180
623.946179	0.998057
624.293297	0.997972
624.640363	0.998395
624.987376	0.997467
625.334336	0.997907
625.681243	0.997753
626.028097	0.998577
626.374899	0.997696
626.721647	0.999110
627.068343	0.997967
627.414987	0.998189
627.761577	0.997489
628.108115	0.997618
628.454600	0.998641
628.801032	0.998645
629.147412	0.998662
629.493739	0.998635
629.840014	0.997924
630.186236	0.997779
630.532405	0.998492
630.878521	0.997657
631.224585	0.997454
631.570597	0.997417
631.916556	0.998587
632.262462	0.997206
632.608316	0.998562
632.954117	0.997332
633.299866	0.997442
633.645562	0.997884
633.991206	0.997674
634.336797	0.998099
634.682336	0.999123
635.027823	0.998418
635.373257	0.997623
635.718639	0.998612
636.063968	0.997900
636.409245	0.998173
636.754470	0.998597
637.099642	0.998008
637.444762	0.997756
637.789829	0.998004
638.134845	0.997760
638.479808	0.998253
638.824719	0.998021
639.169577	0.997940
639.514383	0.999231
639.859137	0.998023
640.203839	0.998258
640.548489	0.997827
640.893086	0.998190
641.237632	0.998729
641.582125	0.998236
641.926566	0.999255
642.270955	0.998250
642.615292	0.997688
642.959576	0.998563
643.303809	0.998207
643.647990	0.998595
643.992118	0.998731
644.336195	0.998247
644.680219	0.998154
645.024192	0.998363
645.368112	0.997267
645.711981	0.997318
646.055797	0.997129
646.399562	0.997618
646.743274	0.998491
647.086935	0.998066
647.430544	0.997145
647.774101	0.997537
648.117606	0.997897
648.461059	0.997726
648.804460	0.998038
649.147810	0.997913
649.491108	0.997789
649.834354	0.997983
650.177548	0.998115
650.520690	0.998161
650.863781	0.996962
651.206820	0.997727
651.549807	0.997666
651.892742	0.999117
652.235626	0.998167
652.578458	0.998126
652.921238	0.998413
653.263967	0.997524
653.606644	0.997694
653.949269	0.998446
654.291843	0.997166
654.634365	0.998857
654.976836	0.997319
655.319255	0.998339
655.661622	0.998234
656.003938	0.997815
656.346203	0.997312
656.688416	0.998563
657.030577	0.998642
657.372687	0.998652
657.714746	0.998176
658.056753	0.998315
658.398708	0.997780
658.740612	0.998760
659.082465	0.998164
659.424266	0.998114
659.766016	0.997833
660.107715	0.998199
660.449362	0.998279
660.790958	0.997470
661.132503	0.998166
661.473996	0.998079
661.815438	0.997939
662.156829	0.998493
662.498168	0.998119
662.839456	0.996513
663.180693	0.998361
663.521879	0.998164
663.863013	0.998539
664.204097	0.997774
664.545129	0.997270
664.886110	0.997289
665.227040	0.997495
665.567918	0.997997
665.908746	0.997349
666.249522	0.998247
666.590248	0.997500
666.930922	0.998669
667.271545	0.997953
667.612118	0.997819
667.952639	0.997792
668.293109	0.997939
668.633528	0.997609
668.973896	0.997615
669.314213	0.997199
669.654480	0.997554
669.994695	0.996901
670.334859	0.997753
670.674973	0.997936
671.015035	0.998118
671.355047	0.997310
671.695008	0.997098
672.034918	0.996766
672.374777	0.997433
672.714585	0.998366
673.054342	0.997679
673.394049	0.997537
673.733705	0.997268
674.073310	0.998288
674.412864	0.997616
674.752368	0.997318
675.091820	0.998559
675.431223	0.998138
675.770574	0.996593
676.109875	0.997177
676.449125	0.997777
676.788324	0.997794
677.127473	0.997638
677.466571	0.997404
677.805619	0.997247
678.144616	0.998909
678.483562	0.998357
678.822458	0.997731
679.161303	0.997381
679.500098	0.997842
679.838842	0.998812
680.177535	0.997470
680.516179	0.996481
680.854771	0.996762
681.193314	0.997226
681.531805	0.997285
681.870247	0.997766
682.208638	0.997679
682.546978	0.996769
682.885268	0.997190
683.223508	0.996900
683.561697	0.997080
683.899836	0.998114
684.237925	0.996273
684.575963	0.997062
684.913951	0.997300
685.251889	0.996891
685.589776	0.996589
685.927614	0.996720
686.265401	0.996900
686.603137	0.996517
686.940824	0.997130
687.278460	0.997726
687.616046	0.997023
687.953582	0.997101
688.291068	0.996812
688.628504	0.996343
688.965889	0.997292
689.303224	0.995760
689.640510	0.996477
689.977745	0.996223
690.314930	0.996258
690.652065	0.997629
690.989150	0.996399
691.326185	0.997159
691.663170	0.996959
692.000105	0.997183
692.336990	0.997137
692.673825	0.997182
693.010610	0.997541
693.347345	0.997283
693.684030	0.997286
694.020665	0.997017
694.357251	0.996786
694.693786	0.997983
695.030272	0.996753
695.366707	0.997438
695.703093	0.996716
696.039429	0.996150
696.375716	0.997586
696.711952	0.996747
697.048139	0.997578
697.384276	0.996786
697.720363	0.996435
698.056400	0.996834
698.392388	0.996377
698.728326	0.997098
699.064214	0.997923
699.400053	0.996959
699.735842	0.997996
700.071581	0.997582
700.407270	0.996760
700.742910	0.997131
701.078501	0.996342
701.414042	0.998138
701.749533	0.996154
702.084974	0.997607
702.420366	0.997362
702.755709	0.996890
703.091002	0.997313
703.426246	0.997754
703.761440	0.996176
704.096584	0.996699
704.431679	0.997019
704.766725	0.996107
705.101721	0.997728
705.436668	0.997315
705.771565	0.996682
706.106413	0.995278
706.441212	0.997846
706.775961	0.997511
707.110661	0.996802
707.445311	0.997049
707.779913	0.997468
708.114465	0.997908
708.448967	0.997351
708.783421	0.997418
709.117825	0.997140
709.452180	0.997431
709.786485	0.997511
710.120742	0.996442
710.454949	0.996234
710.789107	0.996851
711.123216	0.995530
711.457275	0.996305
711.791286	0.996314
712.125247	0.997686
712.459159	0.996810
712.793023	0.996050
713.126837	0.997540
713.460602	0.996095
713.794318	0.995427
714.127985	0.995818
714.461602	0.997439
714.795171	0.996095
715.128691	0.996477
715.462162	0.996575
715.795584	0.995917
716.128957	0.997194
716.462281	0.996907
716.795556	0.996157
717.128782	0.997745
717.461960	0.996247
717.795088	0.997298
718.128167	0.998573
718.461198	0.996584
718.794180	0.998246
719.127113	0.997396
719.459997	0.996906
719.792833	0.997611
720.125619	0.996521
720.458357	0.997190
720.791046	0.997653
721.123686	0.996837
721.456278	0.997184
721.788821	0.996415
722.121315	0.998475
722.453761	0.997157
722.786158	0.997683
723.118506	0.997847
723.450805	0.996064
723.783056	0.996810
724.115259	0.996289
724.447412	0.997443
724.779518	0.996977
725.111574	0.996628
725.443582	0.997244
725.775542	0.997805
726.107453	0.997591
726.439315	0.998172
726.771129	0.997306
727.102895	0.996011
727.434612	0.996466
727.766281	0.996741
728.097901	0.997239
728.429473	0.997670
728.760996	0.996329
729.092471	0.997112
729.423897	0.998682
729.755276	0.997002
730.086606	0.995829
730.417887	0.996933
730.749120	0.996204
731.080305	0.996784
731.411442	0.995569
731.742530	0.995923
732.073570	0.996265
732.404562	0.995886
732.735506	0.997324
733.066401	0.995845
733.397249	0.995959
733.728048	0.996586
734.058798	0.996644
734.389501	0.996742
734.720156	0.996865
735.050762	0.998041
735.381320	0.996573
735.711831	0.996075
736.042293	0.996378
736.372707	0.998662
736.703073	0.995530
737.033391	0.997372
737.363661	0.997067
737.693883	0.998188
738.024056	0.996303
738.354182	0.997391
738.684260	0.996993
739.014290	0.996636
739.344272	0.995962
739.674207	0.997070
740.004093	0.997017
740.333931	0.996510
740.663722	0.996683
740.993464	0.997374
741.323159	0.996588
741.652806	0.996246
741.982405	0.996382
742.311956	0.998286
742.641460	0.997605
742.970915	0.996861
743.300323	0.996452
743.629683	0.996664
743.958996	0.997984
744.288260	0.996477
744.617477	0.997083
744.946647	0.996628
745.275768	0.998036
745.604842	0.995879
745.933869	0.998004
746.262847	0.998026
746.591778	0.995935
746.920662	0.997879
747.249498	0.998096
747.578286	0.997396
747.907027	0.997225
748.235720	0.997558
748.564365	0.996866
748.892963	0.996305
749.221514	0.997984
749.550017	0.996074
749.878473	0.996572
750.206881	0.997759
750.535242	0.996719
750.863555	0.996723
751.191821	0.995923
751.520039	0.996669
751.848210	0.995382
752.176334	0.996923
752.504411	0.996661
752.832440	0.996311
753.160421	0.996607
753.488356	0.997779
753.816243	0.996365
754.144082	0.996820
754.471875	0.997597
754.799620	0.996883
755.127318	0.996722
755.454969	0.997606
755.782572	0.998472
756.110129	0.996615
756.437638	0.998000
756.765100	0.998389
757.092515	0.997552
757.419882	0.998104
757.747203	0.996250
758.074477	0.997986
758.401703	0.998694
758.728882	0.997329
759.056014	0.995988
759.383099	0.997950
759.710138	0.995885
760.037129	0.997029
760.364073	0.997914
760.690970	0.997169
761.017820	0.996178
761.344623	0.996425
761.671379	0.996800
761.998088	0.997142
762.324751	0.996334
762.651366	0.995557
762.977935	0.994745
763.304456	0.994958
763.630931	0.992928
763.957359	0.993878
764.283740	0.994451
764.610074	0.994771
764.936362	0.994741
765.262602	0.996117
765.588796	0.996387
765.914943	0.997105
766.241044	0.996033
766.567097	0.996700
766.893104	0.997354
767.219064	0.996747
767.544978	0.997338
767.870845	0.997582
768.196665	0.996398
768.522438	0.997220
768.848165	0.997541
769.173846	0.997827
769.499479	0.997763
769.825066	0.998816
770.150607	0.999158
770.476101	0.997932
770.801548	0.997733
771.126949	0.998337
771.452303	0.997600
771.777611	0.998608
772.102872	0.997627
772.428087	0.998283
772.753256	0.997254
773.078378	0.998079
773.403453	0.996279
773.728482	0.998699
774.053465	0.998006
774.378401	0.996898
774.703291	0.998455
775.028135	0.998632
775.352932	0.996291
775.677683	0.997970
776.002388	0.998063
776.327046	0.997543
776.651658	0.999927
776.976224	0.997966
777.300743	0.998424
777.625216	0.998266
777.949643	0.998098
778.274024	0.997536
778.598359	0.998176
778.922647	0.997365
779.246889	0.999218
779.571086	0.999635
779.895236	0.997925
780.219339	0.998742
780.543397	0.997346
780.867409	0.998937
781.191374	0.998422
781.515294	0.998656
781.839167	0.998316
782.162995	0.998174
782.486776	0.997103
782.810511	0.998775
783.134201	0.999118
783.457844	0.998371
783.781441	0.997690
784.104993	0.997937
784.428498	0.997851
784.751958	0.998081
785.075372	0.998564
785.398739	0.997552
785.722061	0.996885
786.045337	0.997947
786.368568	0.997903
786.691752	0.998098
787.014891	0.997916
787.337983	0.996752
787.661030	0.996860
787.984031	0.998344
788.306987	0.998324
788.629897	0.996329
788.952760	0.997421
789.275579	0.998450
789.598351	0.998024
789.921078	0.998996
790.243759	0.997412
790.566395	0.997361
790.888984	0.998430
791.211529	0.998389
791.534027	0.998302
791.856480	0.998014
792.178888	0.997899
792.501249	0.996905
792.823566	0.999524
793.145836	0.998041
793.468062	0.998120
793.790241	0.998519
794.112375	0.997528
794.434464	0.998376
794.756507	0.998522
795.078505	0.998001
795.400457	0.998464
795.722364	0.998728
796.044226	0.998200
796.366042	0.997621
796.687812	0.997362
797.009538	0.998549
797.331218	0.999014
797.652852	0.998516
797.974442	0.997064
798.295986	0.998767
798.617484	0.997445
798.938938	0.998815
799.260346	0.997391
799.581709	0.998276
799.903026	0.998799
800.224299	0.997366
800.545526	0.997435
800.866708	0.998159
801.187845	0.998536
801.508936	0.998761
801.829983	0.997695
802.150984	0.998516
802.471940	0.998850
802.792851	0.998338
803.113717	0.998766
803.434538	0.998677
803.755314	0.999195
804.076045	0.998436
804.396731	0.998801
804.717372	0.996905
805.037967	0.998211
805.358518	0.999259
805.679024	0.998083
805.999485	0.998882
806.319901	0.998120
806.640272	0.998288
806.960598	0.998999
807.280879	0.997870
807.601115	0.999502
807.921306	0.998674
808.241453	0.997864
808.561554	0.998161
808.881611	0.998594
809.201623	0.996955
809.521590	0.998526
809.841513	0.998595
810.161390	0.997285
810.481223	0.998195
810.801011	0.998349
811.120755	0.999027
811.440453	0.996939
811.760107	0.998723
812.079716	0.998834
812.399281	0.998994
812.718801	0.998624
813.038276	0.997801
813.357707	0.998023
813.677093	0.999419
813.996434	0.998861
814.315731	0.999242
814.634983	0.998832
814.954191	0.999026
815.273354	0.997645
815.592473	0.997521
815.911547	0.999962
816.230577	0.998276
816.549562	0.998398
816.868502	0.996997
817.187399	0.998733
817.506250	0.998180
817.825058	0.997658
818.143821	0.997663
818.462539	0.997580
818.781213	0.997716
819.099843	0.997630
819.418429	0.995942
819.736970	0.996752
820.055466	0.995258
820.373919	0.994167
820.692327	0.994352
821.010691	0.993588
821.329011	0.992074
821.647286	0.989660
821.965517	0.988018
822.283704	0.985539
822.601847	0.984544
822.919945	0.984785
823.237999	0.987151
823.556010	0.987828
823.873976	0.989078
824.191897	0.989608
824.509775	0.992060
824.827609	0.992172
825.145398	0.993218
825.463144	0.992430
825.780845	0.992333
826.098502	0.993227
826.416116	0.992114
826.733685	0.990693
827.051210	0.988619
827.368692	0.990032
827.686129	0.989941
828.003522	0.992434
828.320872	0.992621
828.638177	0.994139
828.955439	0.995472
829.272656	0.995841
829.589830	0.997574
829.906960	0.997858
830.224046	0.996363
830.541088	0.997336
830.858086	0.997973
831.175041	0.998190
831.491952	0.997648
831.808819	0.996487
832.125642	0.996866
832.442421	0.997150
832.759157	0.997577
833.075849	0.994624
833.392497	0.994510
833.709101	0.992179
834.025662	0.992339
834.342179	0.992535
834.658653	0.994484
834.975083	0.996421
835.291469	0.995617
835.607811	0.996830
835.924110	0.996669
836.240366	0.998702
836.556578	0.997949
836.872746	0.997443
837.188871	0.998424
837.504952	0.998203
837.820990	0.998643
838.136984	0.997995
838.452935	0.998965
838.768842	0.999145
839.084706	0.998564
839.400526	0.998256
839.716303	0.996114
840.032037	0.996796
840.347727	0.995697
840.663373	0.997124
840.978977	0.997068
841.294537	0.998029
841.610054	0.997792
841.925527	0.999136
842.240957	0.998599
842.556344	0.998164
842.871687	0.999059
843.186987	0.999014
843.502244	0.999385
843.817458	0.997029
844.132629	0.999251
844.447756	1.000319
844.762840	0.999544
845.077881	1.000470
845.392879	0.998556
845.707833	0.998898
846.022745	0.999222
846.337613	0.999894
846.652438	0.999682
846.967221	1.000106
847.281960	0.999721
847.596656	0.999482
847.911309	0.999625
848.225919	0.999070
848.540485	1.000170
848.855009	1.000556
849.169490	1.000818
849.483928	0.999981
849.798323	0.998440
850.112675	0.999898
850.426984	0.999708
850.741251	1.000101
851.055474	0.998567
851.369654	0.999733
851.683792	0.999303
851.997887	0.999059
852.311938	1.000403
852.625947	0.998033
852.939914	0.998456
853.253837	1.000199
853.567718	0.999876
853.881555	0.999375
854.195350	0.999399
854.509103	1.000310
854.822812	1.000436
855.136479	1.000253
855.450103	0.999712
855.763685	0.999346
856.077224	0.999944
856.390720	0.998749
856.704173	1.001130
857.017584	0.999211
857.330953	1.000059
857.644278	0.999220
857.957561	0.999254
858.270802	0.999098
858.584000	0.999876
858.897155	0.999275
859.210268	0.999872
859.523339	1.000688
859.836367	0.999351
860.149352	0.999316
860.462295	0.998253
860.775195	0.999824
861.088054	0.998801
861.400869	1.000010
861.713642	0.998912
862.026373	1.000072
862.339062	1.000613
862.651708	0.999664
862.964312	0.999355
863.276873	0.997881
863.589392	0.999534
863.901869	0.999407
864.214303	1.000692
864.526696	0.999299
864.839045	1.000143
865.151353	1.000093
865.463619	0.999447
865.775842	0.998913
866.088023	0.999606
866.400162	1.000060
866.712258	1.000090
867.024313	1.000295
867.336325	1.000031
867.648296	0.999833
867.960224	0.999698
868.272110	0.999441
868.583954	0.999747
868.895755	1.001275
869.207515	0.999924
869.519233	1.000125
869.830909	0.999051
870.142542	0.998908
870.454134	0.998892
870.765684	0.998808
871.077191	0.998991
871.388657	0.999063
871.700081	1.000504
872.011463	0.999452
872.322803	0.999819
872.634101	0.998352
872.945357	0.998924
873.256571	0.997102
873.567744	0.999340
873.878874	0.998632
874.189963	0.998663
874.501010	1.000140
874.812015	0.998755
875.122979	0.999014
875.433900	0.998571
875.744780	0.999077
876.055618	0.997884
876.366415	0.998820
876.677169	0.998732
876.987882	0.999047
877.298554	1.000186
877.609183	0.998442
877.919771	0.997816
878.230317	0.998995
878.540822	0.997798
878.851285	0.997370
879.161707	0.997073
879.472087	0.998598
879.782425	0.995505
880.092722	0.994428
880.402977	0.992347
880.713191	0.990281
881.023363	0.987265
881.333494	0.986501
881.643583	0.987310
881.953631	0.986205
882.263637	0.986256
882.573602	0.987030
882.883526	0.987748
883.193408	0.990255
883.503248	0.990924
883.813048	0.990717
884.122806	0.993075
884.432522	0.993172
884.742197	0.995715
885.051831	0.995163
885.361424	0.995873
885.670975	0.998156
885.980485	0.996265
886.289954	0.996725
886.599382	0.995847
886.908768	0.998515
887.218113	0.997119
887.527417	0.998087
887.836680	0.998794
888.145901	0.998838
888.455082	0.998870
888.764221	0.998729
889.073319	0.998165
889.382376	0.999867
889.691392	0.997263
890.000366	0.999016
890.309300	0.998111
890.618193	0.998828
890.927044	0.997751
891.235855	0.997479
891.544625	0.998757
891.853353	0.998551
892.162041	0.997846
892.470687	0.998759
892.779293	0.997404
893.087858	0.996942
893.396381	0.996900
893.704864	0.995988
894.013306	0.995602
894.321707	0.994217
894.630068	0.994004
894.938387	0.992850
895.246665	0.992645
895.554903	0.993954
895.863100	0.994429
896.171256	0.994936
896.479371	0.995668
896.787446	0.995972
897.095480	0.996087
897.403473	0.997523
897.711425	0.996903
898.019336	0.997552
898.327207	0.998256
898.635038	0.996450
898.942827	0.997950
899.250576	0.997932
899.558284	0.998306
899.865952	0.997385
900.173579	0.998628
900.481165	0.998976
900.788711	0.997530
901.096216	0.999321
901.403681	0.999698
901.711105	0.998610
902.018489	0.997492
902.325832	0.998092
902.633135	0.998030
902.940397	0.998283
903.247619	0.997580
903.554800	0.996302
903.861941	0.995019
904.169041	0.993587
904.476101	0.991496
904.783121	0.991083
905.090100	0.992117
905.397039	0.993199
905.703938	0.994030
906.010796	0.994932
906.317614	0.995894
906.624391	0.995910
906.931129	0.998098
907.237826	0.998126
907.544483	0.998670
907.851099	0.997515
908.157675	0.999310
908.464211	0.999341
908.770707	0.998119
909.077163	0.999102
909.383578	1.000456
909.689954	0.999352
909.996289	0.999050
910.302584	1.000202
910.608839	1.000603
910.915054	0.999308
911.221229	1.000462
911.527363	0.998050
911.833458	0.999061
912.139513	0.997422
912.445527	1.000400
912.751502	0.998878
913.057436	0.999289
913.363331	0.999346
913.669186	0.998533
913.975000	0.998027
914.280775	0.998361
914.586510	0.996849
914.892205	0.995225
915.197859	0.995544
915.503475	0.994139
915.809050	0.993281
916.114585	0.992138
916.420081	0.991643
916.725536	0.992277
917.030952	0.993126
917.336328	0.993546
917.641665	0.993799
917.946961	0.993244
918.252218	0.995300
918.557435	0.995430
918.862612	0.996378
919.167750	0.996611
919.472848	0.997033
919.777906	0.999099
920.082925	0.999888
920.387904	0.998241
920.692843	0.998316
920.997743	0.996865
921.302603	0.997756
921.607423	0.997567
921.912204	0.998404
922.216946	0.999541
922.521647	0.998578
922.826310	0.997507
923.130932	0.999083
923.435516	0.999032
923.740059	0.998810
924.044564	0.999508
924.349028	0.999357
924.653454	0.999727
924.957840	0.999346
925.262186	1.000120
925.566493	0.998954
925.870761	0.999734
926.174989	0.999315
926.479178	1.000029
926.783328	0.999898
927.087438	1.000128
927.391509	0.999154
927.695541	0.999914
927.999533	1.000489
928.303486	1.000078
928.607400	1.000284
928.911275	1.000753
929.215110	1.001677
929.518906	1.000710
929.822663	1.000490
930.126381	1.002165
930.430060	0.999801
930.733699	1.000272
931.037299	1.000061
931.340861	1.000874
931.644383	0.999054
931.947866	1.000545
932.251309	1.000856
932.554714	0.999013
932.858080	1.000055
933.161407	0.999091
933.464694	1.000204
933.767943	0.999751
934.071153	1.000549
934.374323	1.000704
934.677455	1.000114
934.980548	0.999341
935.283602	0.999877
935.586617	1.000049
935.889593	1.001031
936.192530	1.000447
936.495428	1.000341
936.798287	0.998074
937.101108	1.000349
937.403890	1.000096
937.706632	1.001524
938.009336	0.999361
938.312002	0.999901
938.614628	0.999503
938.917216	0.998868
939.219765	0.998391
939.522275	0.999940
939.824747	0.999237
940.127179	0.999079
940.429573	1.000951
940.731929	0.998243
941.034246	0.998800
941.336524	0.999006
941.638763	0.999382
941.940964	0.999590
942.243126	0.999426
942.545250	1.001576
942.847335	1.000491
943.149381	0.999499
943.451389	0.998355
943.753359	0.999844
944.055290	1.000606
944.357182	1.000552
944.659036	1.000237
944.960851	1.000465
945.262628	1.000166
945.564367	0.999968
945.866067	0.999680
946.167729	1.000091
946.469352	1.000806
946.770937	0.998068
947.072484	1.000595
947.373992	1.000787
947.675462	0.998732
947.976893	0.999428
948.278286	1.001958
948.579641	1.000916
948.880958	1.000288
949.182236	0.999644
949.483476	1.001208
949.784678	0.999835
950.085841	0.999912
950.386967	0.999395
950.688054	1.000068
950.989103	0.998603
951.290114	0.999900
951.591087	1.000927
951.892021	0.998804
952.192917	1.000327
952.493776	1.000001
952.794596	0.998872
953.095378	0.999748
953.396122	0.999216
953.696828	1.000454
953.997496	1.000368
954.298126	1.001658
954.598718	0.999906
954.899272	0.999461
955.199788	0.999272
955.500266	1.000623
955.800706	1.000066
956.101108	0.999868
956.401472	1.002146
956.701798	0.999140
957.002087	0.999822
957.302337	0.999853
957.602550	0.999749
957.902724	1.000570
958.202861	1.000217
958.502960	0.999491
958.803022	1.001028
959.103045	1.001138
959.403031	1.000756
959.702979	1.000993
960.002889	0.999480
960.302762	0.999577
960.602596	1.000743
960.902393	0.998585
961.202153	1.000846
961.501875	1.000443
961.801559	1.000665
962.101205	0.999872
962.400814	1.000625
962.700385	1.001171
962.999918	1.001179
963.299414	1.000263
963.598873	1.001249
963.898293	1.000935
964.197677	0.999133
964.497022	1.000965
964.796331	1.000974
965.095601	1.000590
965.394835	1.000349
965.694030	1.001814
965.993189	1.000145
966.292309	1.000722
966.591393	0.999032
966.890439	1.002244
967.189447	1.000969
967.488419	0.999965
967.787353	0.999973
968.086249	1.002151
968.385108	1.000134
968.683930	1.001190
968.982714	1.000408
969.281462	1.000943
969.580172	1.000217
969.878844	1.001328
970.177480	1.000463
970.476078	1.001547
970.774639	1.001379
971.073162	1.000276
971.371649	1.000525
971.670098	1.000201
971.968510	1.000944
972.266885	1.000906
972.565223	1.000136
972.863524	1.000404
973.161788	1.000080
973.460014	1.002414
973.758204	0.999599
974.056356	1.000874
974.354471	0.999895
974.652550	1.001491
974.950591	0.999617
975.248595	0.999752
975.546563	1.001370
975.844493	1.001415
976.142386	0.999542
976.440243	1.001556
976.738062	1.001241
977.035845	1.000427
977.333590	1.001619
977.631299	1.000151
977.928971	1.000721
978.226606	1.000409
978.524204	0.999063
978.821765	1.002694
979.119290	1.001973
979.416777	1.001031
979.714228	1.000684
980.011642	1.001305
980.309020	1.000499
980.606360	0.999441
980.903664	1.000623
981.200931	0.999577
981.498162	0.999919
981.795356	1.000732
982.092513	1.000457
982.389633	1.000884
982.686717	0.999718
982.983764	1.000944
983.280775	0.999766
983.577749	1.000772
983.874686	0.999484
984.171587	0.999414
984.468451	0.999782
984.765279	1.000222
985.062070	1.000050
985.358824	0.999759
985.655543	1.001929
985.952224	1.000798
986.248869	1.001672
986.545478	1.001137
986.842050	0.999330
987.138586	0.999511
987.435086	1.000469
987.731549	1.000663
988.027975	1.001219
988.324366	1.000015
988.620719	1.001434
988.917037	1.000495
989.213318	1.000925
989.509563	1.000670
989.805772	1.000395
990.101944	1.001139
990.398080	1.000015
990.694180	1.001570
990.990244	1.000287
991.286271	1.001161
991.582262	1.001403
991.878217	0.999456
992.174136	1.000786
992.470019	1.001068
992.765865	1.002762
993.061676	1.001495
993.357450	1.000895
993.653188	1.001430
993.948890	1.001044
994.244556	0.999951
994.540186	1.000127
994.835780	0.999980
995.131337	1.001435
995.426859	1.001119
995.722345	0.999209
996.017795	1.000699
996.313208	1.000716
996.608586	0.999812
996.903928	1.000775
997.199234	1.000007
997.494504	1.001003
997.789738	1.000185
998.084936	1.000407
998.380099	0.999143
998.675225	1.000450
998.970316	1.001602
999.265371	1.000552
999.560390	1.000383
999.855373	0.999690
1000.150320	1.000042
1000.445232	1.000147
1000.740108	0.999658
1001.034948	1.000074
1001.329752	1.001383
1001.624521	1.000936
1001.919254	1.000930
1002.213951	1.001054
1002.508613	0.999966
1002.803239	1.000721
1003.097829	1.002094
1003.392384	1.000609
1003.686903	1.001416
1003.981386	1.000569
1004.275834	1.001190
1004.570246	1.000264
1004.864623	1.001569
1005.158964	1.000966
1005.453270	1.001202
1005.747540	1.001291
1006.041775	1.001165
1006.335974	1.001608
1006.630138	1.001396
1006.924266	0.999772
1007.218359	0.999270
1007.512416	1.001925
1007.806438	1.000219
1008.100425	1.001228
1008.394376	1.001472
1008.688292	1.000585
1008.982172	0.998964
1009.276017	1.000678
1009.569827	1.001937
1009.863602	0.998608
1010.157341	1.000492
1010.451045	1.000479
1010.744714	1.002559
1011.038347	1.001218
1011.331945	1.001148
1011.625508	1.000880
1011.919036	0.999933
1012.212528	1.000951
1012.505986	1.001563
1012.799408	1.000635
1013.092795	1.000781
1013.386147	1.001002
1013.679464	1.001450
1013.972745	1.001208
1014.265992	1.001415
1014.559204	0.998996
1014.852380	1.000888
1015.145521	1.000755
1015.438628	1.000187
1015.731699	1.000187
1016.024736	1.002001
1016.317737	1.000228
1016.610703	1.001467
1016.903635	1.000540
1017.196531	0.999850
1017.489393	1.000393
1017.782219	0.999479
1018.075011	1.000317
1018.367768	0.999163
1018.660490	1.001123
1018.953177	1.001123
1019.245829	1.001123
