Dividing Wavelength (nm)	Counts (n)	Blue Motor Position (mm): 40.900000	Red Motor Position (mm): 0.000000	
326.493990	0.999015
326.888308	0.999015
327.282561	0.999015
327.676750	1.000191
328.070874	1.001454
328.464933	1.001128
328.858929	1.001427
329.252859	1.000939
329.646726	0.999976
330.040528	0.999357
330.434265	0.999762
330.827938	0.998811
331.221547	0.999748
331.615091	0.999651
332.008571	0.999805
332.401986	0.998370
332.795338	0.999565
333.188625	0.999312
333.581847	1.000237
333.975006	1.000106
334.368100	0.999506
334.761129	0.998832
335.154095	0.999592
335.546996	1.000639
335.939833	0.999567
336.332606	0.999884
336.725315	0.998866
337.117960	1.000713
337.510540	0.998401
337.903056	0.999543
338.295508	1.000124
338.687896	1.000047
339.080220	1.000877
339.472480	0.999775
339.864676	1.001352
340.256807	0.998264
340.648875	1.000244
341.040879	0.999588
341.432818	1.000988
341.824694	0.999251
342.216506	1.000843
342.608253	0.999307
342.999937	0.999949
343.391557	0.998737
343.783113	1.000704
344.174605	0.999608
344.566033	0.998566
344.957397	1.000496
345.348697	0.999668
345.739934	0.999813
346.131106	0.999842
346.522215	0.999422
346.913260	0.999804
347.304241	0.999022
347.695159	1.000492
348.086012	1.000295
348.476802	0.999817
348.867528	0.998813
349.258191	0.999547
349.648789	1.000266
350.039324	0.999281
350.429796	0.999155
350.820203	0.998714
351.210548	1.000778
351.600828	0.998962
351.991045	0.998295
352.381198	0.999834
352.771288	0.998788
353.161314	0.998698
353.551276	0.998788
353.941175	0.997086
354.331010	0.999624
354.720782	0.999450
355.110490	0.999040
355.500135	0.999365
355.889717	0.998824
356.279235	0.998754
356.668689	0.998612
357.058080	0.997726
357.447408	0.997838
357.836672	0.999406
358.225873	0.999342
358.615010	0.999120
359.004084	0.998414
359.393095	0.999285
359.782043	0.998327
360.170927	0.999957
360.559748	0.998634
360.948505	0.998048
361.337199	0.998302
361.725830	0.998289
362.114398	0.998449
362.502903	0.997410
362.891344	0.997560
363.279722	0.997412
363.668037	0.999748
364.056289	0.998378
364.444478	0.999887
364.832603	0.997919
365.220665	1.000027
365.608665	0.997954
365.996601	0.998352
366.384474	0.996224
366.772284	0.997392
367.160031	0.996257
367.547715	0.996883
367.935336	0.996388
368.322893	0.995058
368.710388	0.993867
369.097820	0.992989
369.485189	0.989890
369.872495	0.988092
370.259738	0.986419
370.646918	0.983340
371.034035	0.982225
371.421090	0.978623
371.808081	0.973017
372.195010	0.972252
372.581875	0.965744
372.968678	0.961454
373.355418	0.958627
373.742096	0.950328
374.128710	0.945283
374.515262	0.942438
374.901751	0.935991
375.288177	0.931768
375.674540	0.924747
376.060841	0.917998
376.447079	0.911427
376.833254	0.906686
377.219367	0.899880
377.605417	0.888530
377.991404	0.885501
378.377329	0.879412
378.763191	0.873084
379.148991	0.864678
379.534727	0.856756
379.920402	0.848718
380.306013	0.845259
380.691563	0.832326
381.077049	0.825669
381.462474	0.822468
381.847835	0.810913
382.233134	0.805894
382.618371	0.805389
383.003545	0.788927
383.388657	0.787131
383.773706	0.779863
384.158693	0.776021
384.543618	0.771165
384.928480	0.762915
385.313280	0.753828
385.698017	0.754006
386.082692	0.744643
386.467305	0.744523
386.851856	0.740159
387.236344	0.737580
387.620770	0.734975
388.005133	0.731780
388.389435	0.729111
388.773674	0.730487
389.157851	0.726270
389.541965	0.728151
389.926018	0.737290
390.310008	0.730312
390.693936	0.732371
391.077802	0.730585
391.461606	0.736538
391.845348	0.733620
392.229027	0.738296
392.612645	0.743209
392.996200	0.738812
393.379694	0.739546
393.763125	0.739664
394.146494	0.749896
394.529801	0.750733
394.913047	0.752942
395.296230	0.764922
395.679351	0.766688
396.062410	0.773644
396.445408	0.783202
396.828343	0.789396
397.211217	0.794317
397.594028	0.810003
397.976778	0.814096
398.359466	0.819949
398.742092	0.827483
399.124656	0.839629
399.507158	0.842218
399.889598	0.850145
400.271977	0.854924
400.654294	0.864512
401.036549	0.872987
401.418742	0.881104
401.800874	0.884372
402.182944	0.890328
402.564952	0.895646
402.946898	0.903609
403.328783	0.911481
403.710606	0.919326
404.092367	0.921311
404.474067	0.929069
404.855705	0.933564
405.237282	0.939455
405.618797	0.943052
406.000250	0.946075
406.381642	0.949664
406.762972	0.956163
407.144240	0.959068
407.525447	0.961531
407.906593	0.965399
408.287677	0.969437
408.668700	0.973330
409.049661	0.976315
409.430560	0.977970
409.811399	0.980297
410.192176	0.982449
410.572891	0.985228
410.953545	0.986011
411.334138	0.988033
411.714669	0.988415
412.095139	0.990917
412.475547	0.991235
412.855894	0.992563
413.236180	0.992660
413.616405	0.994026
413.996568	0.994207
414.376670	0.995527
414.756711	0.995725
415.136691	0.996604
415.516609	0.996598
415.896466	0.996734
416.276262	0.995935
416.655997	0.997757
417.035670	0.997937
417.415283	0.997297
417.794834	0.997672
418.174324	0.999339
418.553753	0.998315
418.933121	0.998511
419.312428	0.998764
419.691674	0.999347
420.070859	0.999387
420.449983	0.998779
420.829045	0.998859
421.208047	0.999989
421.586988	0.998260
421.965867	0.997511
422.344686	0.999033
422.723444	0.997942
423.102141	0.998863
423.480777	0.998559
423.859352	0.998386
424.237866	0.999070
424.616319	0.999682
424.994712	0.999681
425.373044	0.999415
425.751314	0.999038
426.129524	0.999970
426.507673	0.998711
426.885762	0.999705
427.263789	0.998453
427.641756	0.999462
428.019662	0.998892
428.397508	0.998911
428.775292	0.999263
429.153016	0.997280
429.530679	0.999016
429.908282	0.999698
430.285824	0.998380
430.663305	0.999557
431.040726	0.998375
431.418086	0.999461
431.795385	0.999196
432.172624	0.999880
432.549802	0.999357
432.926920	0.999519
433.303977	0.999293
433.680974	0.999858
434.057910	0.999626
434.434786	0.999600
434.811601	0.999528
435.188355	0.999258
435.565050	0.999325
435.941683	0.998968
436.318257	0.998491
436.694770	0.998912
437.071222	0.999771
437.447614	0.998686
437.823946	0.998840
438.200218	0.999225
438.576429	0.998907
438.952580	0.999262
439.328670	0.998518
439.704700	0.998470
440.080670	0.999080
440.456580	0.999197
440.832429	0.998837
441.208218	0.999572
441.583947	0.998648
441.959616	0.998569
442.335224	1.000112
442.710773	0.999412
443.086261	0.999477
443.461689	0.998721
443.837057	0.999451
444.212365	0.998848
444.587612	0.999691
444.962800	0.999236
445.337927	0.999598
445.712995	0.999706
446.088002	0.999006
446.462949	0.998752
446.837837	1.000228
447.212664	0.998608
447.587431	0.999369
447.962139	0.999263
448.336786	0.999057
448.711374	0.998978
449.085901	0.999213
449.460369	1.000181
449.834776	0.999307
450.209124	0.999291
450.583412	0.999672
450.957640	0.999055
451.331808	1.000212
451.705917	0.999302
452.079965	0.999083
452.453954	0.999959
452.827883	0.999528
453.201752	1.000391
453.575562	0.998706
453.949311	0.999918
454.323001	0.998808
454.696632	0.999415
455.070202	0.999452
455.443713	0.999330
455.817164	0.999169
456.190556	0.999158
456.563888	1.000159
456.937160	0.999356
457.310373	0.999069
457.683526	0.999221
458.056619	0.999186
458.429653	0.999138
458.802628	0.999365
459.175542	0.999469
459.548398	0.999247
459.921194	0.999271
460.293930	1.000431
460.666607	0.999711
461.039224	1.000111
461.411782	0.999743
461.784280	0.998805
462.156719	1.000158
462.529099	0.999177
462.901419	0.999345
463.273680	0.998574
463.645882	0.999210
464.018024	0.999660
464.390106	0.999491
464.762130	0.999623
465.134094	0.999995
465.505999	0.999585
465.877845	0.999370
466.249631	0.999227
466.621358	0.998676
466.993026	0.998346
467.364634	0.998942
467.736184	0.998497
468.107674	0.999007
468.479105	0.999123
468.850477	0.999167
469.221790	0.998949
469.593043	0.999118
469.964238	0.998921
470.335373	0.999091
470.706449	0.999206
471.077467	0.999035
471.448425	0.999573
471.819324	0.999497
472.190164	0.999287
472.560945	0.998898
472.931667	0.999253
473.302330	0.999074
473.672934	0.999565
474.043479	0.999168
474.413965	0.998808
474.784393	0.998744
475.154761	0.999266
475.525070	0.999111
475.895321	0.999097
476.265513	0.999107
476.635645	0.999329
477.005719	0.999410
477.375734	0.999149
477.745691	0.998340
478.115588	0.998658
478.485427	0.998498
478.855207	0.999368
479.224928	0.999481
479.594591	0.999251
479.964194	0.998962
480.333739	0.999331
480.703226	0.998653
481.072653	0.998438
481.442022	0.999273
481.811333	0.999142
482.180584	0.999288
482.549777	0.998949
482.918912	0.998322
483.287988	0.999133
483.657005	0.998732
484.025964	0.999149
484.394864	0.998857
484.763706	0.998893
485.132489	0.999388
485.501213	0.999269
485.869879	0.999227
486.238487	0.998525
486.607036	0.999823
486.975527	0.998756
487.343959	0.998108
487.712333	0.998726
488.080648	0.998305
488.448905	0.998895
488.817104	0.998847
489.185244	0.999297
489.553326	0.998726
489.921350	0.999039
490.289315	0.998735
490.657222	0.998672
491.025070	0.998983
491.392861	0.999026
491.760593	0.998832
492.128267	0.998841
492.495883	0.998300
492.863440	0.998898
493.230939	0.998999
493.598380	0.999562
493.965763	0.998907
494.333088	0.998185
494.700354	0.997943
495.067563	0.998944
495.434713	0.999775
495.801805	0.999193
496.168839	0.998907
496.535815	0.999220
496.902733	0.999115
497.269593	0.998662
497.636395	0.998225
498.003139	0.998247
498.369825	0.999794
498.736453	0.998610
499.103023	0.998621
499.469535	0.999046
499.835989	0.999239
500.202385	0.999080
500.568723	0.998351
500.935003	0.999115
501.301226	0.999718
501.667390	0.998167
502.033497	0.998786
502.399546	0.998279
502.765537	0.999007
503.131470	0.999488
503.497345	0.999233
503.863163	0.999245
504.228923	0.999269
504.594625	0.998335
504.960269	0.999222
505.325856	0.999759
505.691385	0.999379
506.056856	0.998397
506.422270	0.998876
506.787625	0.999262
507.152924	0.999043
507.518164	0.998570
507.883347	0.998578
508.248472	0.999185
508.613540	0.998433
508.978550	0.999140
509.343503	0.998311
509.708398	0.999431
510.073236	0.998693
510.438016	0.998598
510.802738	0.998504
511.167403	0.998677
511.532010	0.999126
511.896561	0.998864
512.261053	0.998227
512.625488	0.999092
512.989866	0.999060
513.354186	0.998893
513.718449	0.999426
514.082655	0.998277
514.446803	0.998639
514.810894	0.999018
515.174927	0.999020
515.538904	0.998965
515.902822	0.999214
516.266684	0.998847
516.630488	0.998990
516.994235	0.999314
517.357925	0.999769
517.721558	0.998958
518.085133	0.998539
518.448651	0.999335
518.812112	0.999387
519.175516	0.999122
519.538863	0.998860
519.902152	0.999030
520.265385	0.998957
520.628560	0.998767
520.991678	0.998516
521.354739	0.999694
521.717743	0.998518
522.080690	0.998320
522.443580	0.999244
522.806413	0.998616
523.169189	0.999828
523.531908	0.998596
523.894569	0.998865
524.257174	0.999402
524.619722	0.999452
524.982213	0.999552
525.344647	0.998719
525.707025	0.998548
526.069345	0.998463
526.431608	0.999803
526.793815	0.999261
527.155964	0.999650
527.518057	0.999514
527.880093	0.999370
528.242072	0.998777
528.603995	0.999109
528.965860	0.999366
529.327669	0.999324
529.689421	0.998700
530.051117	0.998843
530.412755	0.999011
530.774337	0.998853
531.135862	0.999519
531.497331	0.999370
531.858743	0.999274
532.220098	0.998308
532.581396	0.998954
532.942638	0.999527
533.303824	0.999828
533.664953	0.998996
534.026025	0.999816
534.387040	0.999519
534.747999	0.998609
535.108902	0.999070
535.469748	0.999635
535.830537	0.999823
536.191270	0.998912
536.551947	0.998904
536.912567	0.999328
537.273131	0.999993
537.633638	0.999092
537.994089	0.999457
538.354483	0.999309
538.714821	0.999189
539.075103	0.999243
539.435328	0.999106
539.795497	0.998954
540.155609	0.999231
540.515665	0.999219
540.875665	0.999014
541.235609	0.998766
541.595496	0.998614
541.955328	0.999290
542.315102	0.999129
542.674821	0.999391
543.034483	0.999202
543.394090	0.998756
543.753640	0.999230
544.113134	0.999065
544.472571	0.999823
544.831953	0.999514
545.191278	0.999373
545.550548	0.998672
545.909761	0.999069
546.268918	0.999378
546.628019	1.000155
546.987064	0.998424
547.346053	0.999063
547.704986	0.999080
548.063863	0.999173
548.422684	0.999723
548.781449	0.999839
549.140158	0.999077
549.498811	0.998954
549.857408	0.998547
550.215949	0.998162
550.574434	0.998842
550.932864	0.999242
551.291237	0.999360
551.649555	0.999289
552.007817	0.999185
552.366022	0.999884
552.724173	1.000141
553.082267	0.999357
553.440305	0.998397
553.798288	0.998485
554.156215	0.998509
554.514086	0.999382
554.871902	0.998968
555.229661	0.998593
555.587365	0.999382
555.945014	1.000054
556.302606	0.998804
556.660143	0.999915
557.017625	0.999987
557.375050	0.998631
557.732421	0.998837
558.089735	0.998369
558.446994	0.998987
558.804197	0.999091
559.161345	0.998748
559.518437	0.998858
559.875474	0.999409
560.232455	0.998850
560.589381	1.000219
560.946251	0.998893
561.303065	0.999818
561.659825	0.999257
562.016528	0.999168
562.373177	0.999365
562.729770	0.998940
563.086307	0.998167
563.442789	0.999494
563.799216	0.999103
564.155587	0.998733
564.511904	0.999190
564.868164	0.999040
565.224370	0.999025
565.580520	0.999188
565.936615	0.999339
566.292654	0.999404
566.648638	0.999642
567.004567	0.999181
567.360441	0.999813
567.716260	0.999552
568.072023	0.999231
568.427732	0.998936
568.783385	0.999244
569.138982	0.999942
569.494525	0.998880
569.850013	0.999537
570.205445	0.999585
570.560823	0.999438
570.916145	0.999030
571.271412	0.999600
571.626625	0.999578
571.981782	0.998849
572.336884	0.999333
572.691931	0.998977
573.046923	0.999512
573.401860	0.999063
573.756743	1.000077
574.111570	0.998585
574.466342	1.000454
574.821059	0.999097
575.175722	1.000076
575.530330	0.999590
575.884882	0.999895
576.239380	0.999421
576.593823	0.999438
576.948211	0.999873
577.302544	0.999550
577.656823	0.999832
578.011047	0.998831
578.365216	1.000228
578.719330	0.999336
579.073389	0.998626
579.427394	0.998885
579.781344	0.999623
580.135239	0.998418
580.489080	0.999429
580.842866	0.999248
581.196597	0.999427
581.550273	0.999500
581.903895	0.999790
582.257463	0.998904
582.610975	0.999738
582.964434	0.999773
583.317837	1.000049
583.671186	0.999803
584.024481	0.998929
584.377721	0.998329
584.730906	0.999237
585.084037	0.999887
585.437113	0.999967
585.790135	0.999376
586.143103	1.000120
586.496016	0.998998
586.848874	0.999748
587.201679	0.998796
587.554428	0.999335
587.907124	1.000001
588.259765	0.999796
588.612352	0.999602
588.964884	0.999766
589.317362	0.999037
589.669786	0.998952
590.022155	0.998982
590.374470	0.998896
590.726731	0.998714
591.078937	0.999112
591.431090	0.999312
591.783188	0.998764
592.135232	0.999976
592.487222	0.999330
592.839157	0.999230
593.191038	0.999302
593.542866	0.999840
593.894639	0.998835
594.246358	0.999672
594.598022	0.999475
594.949633	0.999521
595.301190	0.999866
595.652692	0.999257
596.004141	0.999167
596.355535	0.999631
596.706876	0.999395
597.058162	0.999738
597.409395	1.000095
597.760573	0.999012
598.111698	0.999389
598.462768	0.998628
598.813785	0.998756
599.164748	0.999327
599.515657	0.998705
599.866511	0.999650
600.217312	0.999690
600.568060	1.000020
600.918753	0.999407
601.269392	0.999730
601.619978	0.999257
601.970510	0.999274
602.320988	0.999626
602.671412	0.998819
603.021783	0.999616
603.372100	1.000003
603.722363	0.999728
604.072572	0.999039
604.422728	0.999661
604.772830	0.999109
605.122878	0.998991
605.472872	1.000480
605.822813	0.998744
606.172701	0.999350
606.522534	0.999637
606.872314	0.999940
607.222041	0.999394
607.571714	0.999680
607.921333	0.999365
608.270899	0.999273
608.620411	0.999608
608.969870	0.999731
609.319276	0.999316
609.668627	1.000557
610.017926	0.999647
610.367171	0.999322
610.716362	0.999739
611.065500	0.999223
611.414585	0.999608
611.763616	0.999125
612.112594	0.999220
612.461518	0.998660
612.810389	0.999532
613.159207	0.999086
613.507971	0.998643
613.856682	0.999834
614.205340	0.998485
614.553945	0.999128
614.902496	0.998895
615.250994	0.999534
615.599439	0.999771
615.947830	0.999163
616.296169	0.999697
616.644454	0.999035
616.992686	0.999671
617.340864	0.999181
617.688990	0.998394
618.037063	0.999624
618.385082	0.999170
618.733048	0.999539
619.080961	0.999022
619.428821	0.999678
619.776628	0.998330
620.124382	0.999211
620.472083	0.999434
620.819731	0.999665
621.167326	0.999117
621.514868	0.999752
621.862357	0.999440
622.209793	0.999567
622.557176	0.999752
622.904506	0.998759
623.251783	0.998793
623.599007	0.999681
623.946179	0.998619
624.293297	0.999875
624.640363	1.000272
624.987376	0.998467
625.334336	0.998674
625.681243	0.999466
626.028097	0.999575
626.374899	0.999454
626.721647	1.000194
627.068343	0.999279
627.414987	0.999577
627.761577	0.998841
628.108115	0.999411
628.454600	1.000055
628.801032	0.999442
629.147412	0.999469
629.493739	1.000224
629.840014	0.999062
630.186236	0.998979
630.532405	0.998905
630.878521	0.998718
631.224585	0.998790
631.570597	0.998770
631.916556	0.999337
632.262462	0.998401
632.608316	0.998963
632.954117	0.998458
633.299866	0.999015
633.645562	0.998969
633.991206	0.999749
634.336797	0.998463
634.682336	1.000385
635.027823	0.999968
635.373257	0.999448
635.718639	0.999237
636.063968	0.999422
636.409245	0.999147
636.754470	0.999392
637.099642	1.000133
637.444762	0.999798
637.789829	0.998942
638.134845	0.998422
638.479808	0.999391
638.824719	0.998981
639.169577	0.999310
639.514383	0.999665
639.859137	1.000119
640.203839	0.998764
640.548489	0.999531
640.893086	0.998757
641.237632	0.999386
641.582125	0.998790
641.926566	1.000677
642.270955	0.999743
642.615292	0.998982
642.959576	1.000013
643.303809	0.999014
643.647990	0.999098
643.992118	0.999144
644.336195	0.998306
644.680219	0.998771
645.024192	0.998802
645.368112	0.998693
645.711981	0.998720
646.055797	0.998520
646.399562	0.998440
646.743274	0.999711
647.086935	0.998397
647.430544	0.998223
647.774101	0.998955
648.117606	0.999453
648.461059	0.999492
648.804460	0.999076
649.147810	0.999143
649.491108	0.998785
649.834354	0.998835
650.177548	0.998958
650.520690	0.998795
650.863781	0.997866
651.206820	0.999366
651.549807	0.998645
651.892742	0.999329
652.235626	0.998943
652.578458	0.998997
652.921238	0.999610
653.263967	0.999576
653.606644	0.998758
653.949269	1.000166
654.291843	0.998516
654.634365	0.999398
654.976836	0.998622
655.319255	0.999002
655.661622	0.999037
656.003938	0.998465
656.346203	0.998382
656.688416	1.000042
657.030577	0.998665
657.372687	0.999864
657.714746	0.998523
658.056753	0.998899
658.398708	0.998695
658.740612	0.999221
659.082465	0.998630
659.424266	0.999414
659.766016	0.998193
660.107715	0.998825
660.449362	0.998507
660.790958	0.998448
661.132503	0.998805
661.473996	0.997968
661.815438	0.999085
662.156829	0.999196
662.498168	0.999268
662.839456	0.998110
663.180693	0.999252
663.521879	0.999215
663.863013	0.998655
664.204097	0.998371
664.545129	0.998316
664.886110	0.998835
665.227040	0.998918
665.567918	0.999041
665.908746	0.998519
666.249522	0.997906
666.590248	0.998748
666.930922	0.998020
667.271545	0.998174
667.612118	0.998436
667.952639	0.998995
668.293109	0.998514
668.633528	0.997868
668.973896	0.999421
669.314213	0.998586
669.654480	0.998308
669.994695	0.998231
670.334859	0.999312
670.674973	0.998573
671.015035	0.999103
671.355047	0.998445
671.695008	0.998240
672.034918	0.998060
672.374777	0.998543
672.714585	0.997969
673.054342	0.998858
673.394049	0.998975
673.733705	0.998629
674.073310	0.998213
674.412864	0.997651
674.752368	0.998489
675.091820	1.000028
675.431223	0.999511
675.770574	0.998164
676.109875	0.998785
676.449125	0.997812
676.788324	0.998697
677.127473	0.999102
677.466571	0.999296
677.805619	0.998626
678.144616	0.998891
678.483562	0.998669
678.822458	0.999076
679.161303	0.999086
679.500098	0.998342
679.838842	0.998724
680.177535	0.999071
680.516179	0.997704
680.854771	0.998722
681.193314	0.998758
681.531805	0.997616
681.870247	0.998894
682.208638	0.998868
682.546978	0.997672
682.885268	0.998138
683.223508	0.997716
683.561697	0.997595
683.899836	0.998357
684.237925	0.998235
684.575963	0.998337
684.913951	0.998626
685.251889	0.998700
685.589776	0.998165
685.927614	0.998131
686.265401	0.998493
686.603137	0.997436
686.940824	0.997168
687.278460	0.998767
687.616046	0.998170
687.953582	0.998157
688.291068	0.999142
688.628504	0.997457
688.965889	0.997999
689.303224	0.996722
689.640510	0.997736
689.977745	0.997428
690.314930	0.998090
690.652065	0.998187
690.989150	0.997616
691.326185	0.997537
691.663170	0.997882
692.000105	0.998468
692.336990	0.998191
692.673825	0.997528
693.010610	0.997872
693.347345	0.998250
693.684030	0.998085
694.020665	0.997798
694.357251	0.997499
694.693786	0.998361
695.030272	0.997230
695.366707	0.998152
695.703093	0.997567
696.039429	0.997048
696.375716	0.997554
696.711952	0.998326
697.048139	0.997956
697.384276	0.998625
697.720363	0.998482
698.056400	0.996563
698.392388	0.997451
698.728326	0.997402
699.064214	0.999275
699.400053	0.998003
699.735842	0.999154
700.071581	0.997935
700.407270	0.997447
700.742910	0.998620
701.078501	0.998378
701.414042	0.998698
701.749533	0.996649
702.084974	0.998021
702.420366	0.998134
702.755709	0.998068
703.091002	0.997668
703.426246	0.997902
703.761440	0.997984
704.096584	0.997904
704.431679	0.997599
704.766725	0.997641
705.101721	0.999080
705.436668	0.998082
705.771565	0.997511
706.106413	0.996962
706.441212	0.997617
706.775961	0.997549
707.110661	0.997599
707.445311	0.998215
707.779913	0.998524
708.114465	0.998900
708.448967	0.998285
708.783421	0.997810
709.117825	0.997609
709.452180	0.997407
709.786485	0.997244
710.120742	0.997517
710.454949	0.997437
710.789107	0.998274
711.123216	0.996546
711.457275	0.997490
711.791286	0.997076
712.125247	0.999552
712.459159	0.997995
712.793023	0.997478
713.126837	0.997840
713.460602	0.997178
713.794318	0.997149
714.127985	0.996623
714.461602	0.997011
714.795171	0.997063
715.128691	0.997560
715.462162	0.997758
715.795584	0.997001
716.128957	0.997642
716.462281	0.997085
716.795556	0.996943
717.128782	0.997915
717.461960	0.996847
717.795088	0.997029
718.128167	0.998267
718.461198	0.997554
718.794180	0.998926
719.127113	0.997539
719.459997	0.997356
719.792833	0.997622
720.125619	0.997086
720.458357	0.997688
720.791046	0.997815
721.123686	0.998189
721.456278	0.996959
721.788821	0.998131
722.121315	0.998300
722.453761	0.998223
722.786158	0.996840
723.118506	0.998234
723.450805	0.997595
723.783056	0.998561
724.115259	0.998034
724.447412	0.998210
724.779518	0.997896
725.111574	0.996448
725.443582	0.998126
725.775542	0.997981
726.107453	0.998394
726.439315	0.998306
726.771129	0.998815
727.102895	0.997417
727.434612	0.997862
727.766281	0.997970
728.097901	0.997532
728.429473	0.998626
728.760996	0.996123
729.092471	0.996587
729.423897	0.998097
729.755276	0.997422
730.086606	0.996836
730.417887	0.997470
730.749120	0.998187
731.080305	0.996733
731.411442	0.996860
731.742530	0.996833
732.073570	0.996579
732.404562	0.996784
732.735506	0.997300
733.066401	0.997267
733.397249	0.996638
733.728048	0.996341
734.058798	0.997381
734.389501	0.998590
734.720156	0.997845
735.050762	0.998387
735.381320	0.997301
735.711831	0.997070
736.042293	0.996440
736.372707	0.997696
736.703073	0.996890
737.033391	0.997789
737.363661	0.998105
737.693883	0.997589
738.024056	0.996934
738.354182	0.998885
738.684260	0.997172
739.014290	0.997235
739.344272	0.998172
739.674207	0.997904
740.004093	0.997451
740.333931	0.998345
740.663722	0.996847
740.993464	0.997446
741.323159	0.997313
741.652806	0.997603
741.982405	0.997280
742.311956	0.998431
742.641460	0.997722
742.970915	0.996720
743.300323	0.996504
743.629683	0.996063
743.958996	0.998119
744.288260	0.997229
744.617477	0.998524
744.946647	0.997796
745.275768	0.997510
745.604842	0.996941
745.933869	0.997337
746.262847	0.997824
746.591778	0.996199
746.920662	0.998251
747.249498	0.998777
747.578286	0.998383
747.907027	0.997966
748.235720	0.998011
748.564365	0.998026
748.892963	0.997406
749.221514	0.997334
749.550017	0.997657
749.878473	0.997282
750.206881	0.998593
750.535242	0.998052
750.863555	0.997536
751.191821	0.997043
751.520039	0.997504
751.848210	0.995591
752.176334	0.998144
752.504411	0.997542
752.832440	0.997078
753.160421	0.998540
753.488356	0.997589
753.816243	0.997393
754.144082	0.998317
754.471875	0.998301
754.799620	0.998029
755.127318	0.997073
755.454969	0.997728
755.782572	0.998041
756.110129	0.997772
756.437638	0.998893
756.765100	0.998546
757.092515	0.997216
757.419882	0.997244
757.747203	0.997911
758.074477	0.997678
758.401703	0.997847
758.728882	0.997212
759.056014	0.998107
759.383099	0.997743
759.710138	0.996995
760.037129	0.997442
760.364073	0.998019
760.690970	0.997668
761.017820	0.997410
761.344623	0.998232
761.671379	0.998102
761.998088	0.997043
762.324751	0.997320
762.651366	0.997047
762.977935	0.995221
763.304456	0.997219
763.630931	0.995488
763.957359	0.995030
764.283740	0.996196
764.610074	0.996900
764.936362	0.997553
765.262602	0.997256
765.588796	0.997356
765.914943	0.997782
766.241044	0.997081
766.567097	0.997575
766.893104	0.997920
767.219064	0.997034
767.544978	0.997268
767.870845	0.997343
768.196665	0.998194
768.522438	0.998637
768.848165	0.998257
769.173846	0.998793
769.499479	0.998869
769.825066	0.998502
770.150607	0.998477
770.476101	0.998324
770.801548	0.997891
771.126949	0.998712
771.452303	0.997646
771.777611	0.997087
772.102872	0.997894
772.428087	0.996663
772.753256	0.998414
773.078378	0.999334
773.403453	0.998663
773.728482	0.999520
774.053465	0.996959
774.378401	0.997975
774.703291	0.998594
775.028135	0.999139
775.352932	0.997725
775.677683	0.999902
776.002388	0.997853
776.327046	0.997839
776.651658	1.000431
776.976224	0.998372
777.300743	0.998499
777.625216	0.997912
777.949643	0.998303
778.274024	0.997981
778.598359	0.998781
778.922647	0.998922
779.246889	0.998065
779.571086	0.998555
779.895236	0.998781
780.219339	0.999147
780.543397	0.997897
780.867409	0.998838
781.191374	0.998631
781.515294	0.998575
781.839167	0.998766
782.162995	0.998254
782.486776	0.998112
782.810511	0.998704
783.134201	0.998889
783.457844	0.999320
783.781441	0.997840
784.104993	0.997444
784.428498	0.999300
784.751958	0.998642
785.075372	0.999434
785.398739	0.998472
785.722061	0.997454
786.045337	0.998102
786.368568	0.998311
786.691752	0.997998
787.014891	0.997637
787.337983	0.997732
787.661030	0.997554
787.984031	0.998102
788.306987	0.998153
788.629897	0.997075
788.952760	0.998120
789.275579	0.998304
789.598351	0.998374
789.921078	0.999212
790.243759	0.999256
790.566395	0.998634
790.888984	0.999350
791.211529	0.998230
791.534027	0.997732
791.856480	0.998724
792.178888	0.998101
792.501249	0.998341
792.823566	0.999329
793.145836	0.998554
793.468062	0.998838
793.790241	0.999792
794.112375	0.997543
794.434464	0.999090
794.756507	0.997780
795.078505	0.999767
795.400457	0.998945
795.722364	0.998720
796.044226	0.998996
796.366042	0.997397
796.687812	0.996656
797.009538	0.997682
797.331218	1.000477
797.652852	0.998821
797.974442	0.997971
798.295986	0.999884
798.617484	0.998171
798.938938	0.999120
799.260346	0.997634
799.581709	0.998239
799.903026	0.998636
800.224299	0.997557
800.545526	0.997453
800.866708	0.996596
801.187845	0.999285
801.508936	0.999237
801.829983	0.998269
802.150984	0.998876
802.471940	0.999865
802.792851	0.997670
803.113717	0.999957
803.434538	0.999253
803.755314	0.998759
804.076045	0.999620
804.396731	0.998224
804.717372	0.997452
805.037967	1.000495
805.358518	0.998379
805.679024	0.998162
805.999485	0.998032
806.319901	0.998866
806.640272	0.999589
806.960598	0.998027
807.280879	0.998393
807.601115	0.998765
807.921306	0.999734
808.241453	0.997492
808.561554	0.998612
808.881611	0.999120
809.201623	0.998128
809.521590	0.998091
809.841513	0.998023
810.161390	0.997586
810.481223	0.999341
810.801011	0.999227
811.120755	0.999189
811.440453	0.997308
811.760107	0.998622
812.079716	0.998108
812.399281	0.998567
812.718801	0.998729
813.038276	0.998168
813.357707	0.998469
813.677093	0.999273
813.996434	0.998842
814.315731	1.000611
814.634983	0.999400
814.954191	0.999261
815.273354	0.997998
815.592473	0.998817
815.911547	0.997895
816.230577	0.997813
816.549562	0.999327
816.868502	0.997700
817.187399	0.998373
817.506250	0.999237
817.825058	0.996718
818.143821	0.997897
818.462539	0.998711
818.781213	0.998540
819.099843	0.998534
819.418429	0.997782
819.736970	0.998832
820.055466	0.997005
820.373919	0.997114
820.692327	0.996626
821.010691	0.996849
821.329011	0.994855
821.647286	0.994531
821.965517	0.993368
822.283704	0.991783
822.601847	0.991274
822.919945	0.991202
823.237999	0.991602
823.556010	0.992381
823.873976	0.993365
824.191897	0.993709
824.509775	0.994997
824.827609	0.995445
825.145398	0.995316
825.463144	0.994206
825.780845	0.994720
826.098502	0.995175
826.416116	0.994985
826.733685	0.994665
827.051210	0.992643
827.368692	0.993813
827.686129	0.994154
828.003522	0.996226
828.320872	0.995632
828.638177	0.997068
828.955439	0.997379
829.272656	0.998539
829.589830	0.996589
829.906960	0.997976
830.224046	0.998105
830.541088	0.997635
830.858086	0.998978
831.175041	0.998652
831.491952	0.998070
831.808819	0.997573
832.125642	0.997759
832.442421	0.998419
832.759157	0.999458
833.075849	0.997147
833.392497	0.996124
833.709101	0.995716
834.025662	0.996732
834.342179	0.996351
834.658653	0.997114
834.975083	0.997380
835.291469	0.997760
835.607811	0.997664
835.924110	0.997552
836.240366	0.999373
836.556578	0.998057
836.872746	0.998130
837.188871	0.998129
837.504952	0.998898
837.820990	0.998706
838.136984	0.997169
838.452935	0.998576
838.768842	0.998694
839.084706	0.998614
839.400526	0.999608
839.716303	0.995945
840.032037	0.998081
840.347727	0.997180
840.663373	0.998888
840.978977	0.998137
841.294537	0.998869
841.610054	0.998190
841.925527	0.998441
842.240957	0.999169
842.556344	0.998633
842.871687	0.998677
843.186987	0.998736
843.502244	0.999530
843.817458	0.998678
844.132629	0.999408
844.447756	0.998935
844.762840	0.998997
845.077881	0.999987
845.392879	0.997646
845.707833	0.999413
846.022745	0.999948
846.337613	0.998684
846.652438	0.999294
846.967221	0.998579
847.281960	0.999411
847.596656	1.000003
847.911309	1.000887
848.225919	0.998646
848.540485	0.999359
848.855009	1.000119
849.169490	0.998748
849.483928	0.998730
849.798323	0.997628
850.112675	1.001140
850.426984	0.999941
850.741251	0.999792
851.055474	0.999044
851.369654	0.999555
851.683792	0.999498
851.997887	1.000686
852.311938	0.999077
852.625947	0.999225
852.939914	0.999007
853.253837	1.000381
853.567718	0.999488
853.881555	0.998911
854.195350	0.999238
854.509103	0.999062
854.822812	0.999236
855.136479	0.999125
855.450103	0.999144
855.763685	0.998634
856.077224	0.999098
856.390720	0.999030
856.704173	0.999721
857.017584	1.000566
857.330953	1.000009
857.644278	1.000110
857.957561	0.998680
858.270802	0.999506
858.584000	0.998053
858.897155	0.999369
859.210268	0.998306
859.523339	0.999195
859.836367	0.999775
860.149352	0.999291
860.462295	0.998696
860.775195	0.999116
861.088054	0.998597
861.400869	0.997725
861.713642	0.998679
862.026373	0.999536
862.339062	0.999920
862.651708	0.999800
862.964312	0.999815
863.276873	0.999483
863.589392	0.999516
863.901869	0.999459
864.214303	0.999758
864.526696	0.999560
864.839045	0.999621
865.151353	0.999407
865.463619	0.998322
865.775842	0.999139
866.088023	0.999273
866.400162	0.999759
866.712258	1.000200
867.024313	0.999545
867.336325	1.000510
867.648296	0.999391
867.960224	0.999406
868.272110	0.999373
868.583954	1.000349
868.895755	1.000175
869.207515	0.998624
869.519233	1.000412
869.830909	0.997739
870.142542	0.998994
870.454134	0.999609
870.765684	0.999423
871.077191	0.999547
871.388657	0.999848
871.700081	0.999908
872.011463	1.000878
872.322803	0.999211
872.634101	0.998701
872.945357	0.998702
873.256571	0.998604
873.567744	0.999207
873.878874	0.999027
874.189963	0.999242
874.501010	1.000257
874.812015	0.998818
875.122979	0.999644
875.433900	0.998579
875.744780	1.000266
876.055618	0.999155
876.366415	0.998684
876.677169	0.998809
876.987882	0.999641
877.298554	0.999750
877.609183	0.998435
877.919771	0.999369
878.230317	0.999269
878.540822	0.998158
878.851285	0.998502
879.161707	0.997859
879.472087	1.000324
879.782425	0.996961
880.092722	0.997433
880.402977	0.995446
880.713191	0.995263
881.023363	0.994035
881.333494	0.994055
881.643583	0.993918
881.953631	0.993534
882.263637	0.993283
882.573602	0.994147
882.883526	0.994488
883.193408	0.996322
883.503248	0.995339
883.813048	0.995664
884.122806	0.996215
884.432522	0.996210
884.742197	0.997846
885.051831	0.995708
885.361424	0.997761
885.670975	0.999037
885.980485	0.998087
886.289954	0.997941
886.599382	0.997635
886.908768	0.999365
887.218113	0.997871
887.527417	0.998396
887.836680	0.998658
888.145901	0.999074
888.455082	1.000973
888.764221	0.999560
889.073319	0.997944
889.382376	1.000293
889.691392	0.998272
890.000366	0.999191
890.309300	0.999710
890.618193	0.999369
890.927044	0.999584
891.235855	0.999211
891.544625	0.999632
891.853353	0.999690
892.162041	0.998915
892.470687	0.999964
892.779293	0.998364
893.087858	0.998004
893.396381	0.998015
893.704864	0.997479
894.013306	0.997687
894.321707	0.997171
894.630068	0.996446
894.938387	0.996873
895.246665	0.996383
895.554903	0.995322
895.863100	0.996744
896.171256	0.997271
896.479371	0.998704
896.787446	0.999054
897.095480	0.998154
897.403473	0.998102
897.711425	0.998004
898.019336	1.000086
898.327207	0.999271
898.635038	0.998211
898.942827	0.998027
899.250576	0.998010
899.558284	0.998812
899.865952	0.999037
900.173579	0.998621
900.481165	0.999415
900.788711	0.997598
901.096216	0.999916
901.403681	0.998667
901.711105	0.999585
902.018489	0.998831
902.325832	0.999330
902.633135	0.998881
902.940397	0.998958
903.247619	0.998843
903.554800	0.998604
903.861941	0.997465
904.169041	0.996575
904.476101	0.996913
904.783121	0.996236
905.090100	0.997102
905.397039	0.996949
905.703938	0.996099
906.010796	0.998160
906.317614	0.997441
906.624391	0.999242
906.931129	0.999110
907.237826	0.999415
907.544483	0.998846
907.851099	0.999538
908.157675	0.999076
908.464211	0.999414
908.770707	0.998824
909.077163	0.999269
909.383578	0.999305
909.689954	0.998848
909.996289	1.000139
910.302584	0.999270
910.608839	1.000601
910.915054	0.998993
911.221229	0.999840
911.527363	0.998677
911.833458	1.000340
912.139513	0.999478
912.445527	0.999494
912.751502	0.998993
913.057436	0.999327
913.363331	0.999326
913.669186	0.999539
913.975000	0.999457
914.280775	0.999044
914.586510	0.999108
914.892205	0.998118
915.197859	0.997760
915.503475	0.997119
915.809050	0.996321
916.114585	0.996316
916.420081	0.997207
916.725536	0.996902
917.030952	0.996666
917.336328	0.997048
917.641665	0.996256
917.946961	0.996902
918.252218	0.997956
918.557435	0.998387
918.862612	0.998496
919.167750	0.999670
919.472848	0.998921
919.777906	1.000270
920.082925	0.999671
920.387904	0.999434
920.692843	0.999150
920.997743	0.999382
921.302603	0.999394
921.607423	0.998384
921.912204	0.999063
922.216946	1.000091
922.521647	0.999402
922.826310	0.998511
923.130932	1.000060
923.435516	0.999678
923.740059	0.999303
924.044564	0.998523
924.349028	0.997679
924.653454	1.000083
924.957840	0.999573
925.262186	0.999125
925.566493	0.999668
925.870761	0.999288
926.174989	0.999630
926.479178	1.000492
926.783328	1.000210
927.087438	1.000262
927.391509	0.998051
927.695541	0.999872
927.999533	0.998969
928.303486	0.998716
928.607400	0.999458
928.911275	0.999464
929.215110	1.000859
929.518906	0.999896
929.822663	1.001200
930.126381	0.999465
930.430060	0.999023
930.733699	1.000295
931.037299	1.000976
931.340861	1.001327
931.644383	0.998239
931.947866	1.000617
932.251309	1.000166
932.554714	0.999693
932.858080	0.999766
933.161407	0.999104
933.464694	0.999571
933.767943	0.999871
934.071153	0.999902
934.374323	1.000231
934.677455	1.000280
934.980548	0.999580
935.283602	1.000124
935.586617	0.998863
935.889593	1.000868
936.192530	1.000531
936.495428	0.999439
936.798287	0.999539
937.101108	1.000087
937.403890	0.998676
937.706632	1.001375
938.009336	0.999856
938.312002	0.998174
938.614628	0.998857
938.917216	0.998334
939.219765	0.999437
939.522275	1.000244
939.824747	0.999477
940.127179	0.999541
940.429573	1.000006
940.731929	0.999175
941.034246	0.998554
941.336524	0.998326
941.638763	0.998152
941.940964	0.998869
942.243126	0.999601
942.545250	0.999992
942.847335	0.998835
943.149381	1.001177
943.451389	0.998531
943.753359	0.998872
944.055290	1.000861
944.357182	0.999818
944.659036	0.999751
944.960851	1.000865
945.262628	1.000310
945.564367	0.999315
945.866067	1.000266
946.167729	1.000638
946.469352	1.000198
946.770937	0.997818
947.072484	0.999887
947.373992	1.000113
947.675462	0.999051
947.976893	0.999443
948.278286	1.001977
948.579641	1.001476
948.880958	0.999628
949.182236	0.999869
949.483476	1.000511
949.784678	0.999305
950.085841	1.000023
950.386967	0.999207
950.688054	0.999707
950.989103	0.998457
951.290114	0.998321
951.591087	1.000034
951.892021	0.998831
952.192917	0.999529
952.493776	1.000097
952.794596	0.998826
953.095378	0.998985
953.396122	0.999262
953.696828	0.999492
953.997496	0.999316
954.298126	0.999839
954.598718	0.998993
954.899272	1.000087
955.199788	0.999116
955.500266	0.999690
955.800706	0.999816
956.101108	0.999545
956.401472	1.001621
956.701798	0.999364
957.002087	0.999860
957.302337	0.999191
957.602550	0.998749
957.902724	1.000224
958.202861	0.999074
958.502960	0.999262
958.803022	0.999591
959.103045	1.000989
959.403031	1.000393
959.702979	1.001801
960.002889	0.999432
960.302762	0.999832
960.602596	1.000266
960.902393	1.000219
961.202153	1.000228
961.501875	1.000516
961.801559	1.001213
962.101205	0.998565
962.400814	0.999461
962.700385	1.000783
962.999918	0.999846
963.299414	0.998793
963.598873	0.998988
963.898293	1.000234
964.197677	0.999096
964.497022	1.000597
964.796331	0.999394
965.095601	1.001235
965.394835	1.000707
965.694030	1.000141
965.993189	0.998772
966.292309	1.000163
966.591393	0.998349
966.890439	1.000208
967.189447	0.998629
967.488419	1.000304
967.787353	0.999413
968.086249	0.999622
968.385108	0.999813
968.683930	1.001362
968.982714	1.000489
969.281462	0.999250
969.580172	0.999206
969.878844	1.000694
970.177480	0.999713
970.476078	1.001662
970.774639	0.999788
971.073162	0.999432
971.371649	1.000457
971.670098	0.999709
971.968510	0.999142
972.266885	0.998974
972.565223	1.000333
972.863524	0.999940
973.161788	0.999230
973.460014	1.000398
973.758204	0.999198
974.056356	1.000272
974.354471	1.000089
974.652550	1.000264
974.950591	0.999577
975.248595	0.998864
975.546563	1.000354
975.844493	0.999593
976.142386	0.999235
976.440243	1.000326
976.738062	1.000928
977.035845	0.999432
977.333590	1.001097
977.631299	1.000059
977.928971	0.999717
978.226606	0.998333
978.524204	1.000055
978.821765	0.998872
979.119290	1.001349
979.416777	1.000488
979.714228	0.999372
980.011642	1.000083
980.309020	1.000484
980.606360	0.999513
980.903664	1.000672
981.200931	0.998944
981.498162	0.999647
981.795356	1.000447
982.092513	0.999822
982.389633	1.000080
982.686717	0.998277
982.983764	0.999704
983.280775	1.000690
983.577749	1.000327
983.874686	1.000341
984.171587	0.998433
984.468451	0.999730
984.765279	0.999410
985.062070	1.000300
985.358824	1.000189
985.655543	1.000616
985.952224	0.999529
986.248869	0.999489
986.545478	1.000236
986.842050	0.998488
987.138586	0.999684
987.435086	0.999864
987.731549	1.000941
988.027975	1.000880
988.324366	1.000178
988.620719	1.001762
988.917037	1.000668
989.213318	1.000431
989.509563	1.000553
989.805772	1.001095
990.101944	1.000348
990.398080	0.999909
990.694180	1.001287
990.990244	0.998735
991.286271	0.999031
991.582262	0.998486
991.878217	0.999318
992.174136	0.999533
992.470019	1.000036
992.765865	1.001294
993.061676	1.001285
993.357450	1.001090
993.653188	1.002237
993.948890	0.999262
994.244556	1.000067
994.540186	0.999626
994.835780	1.000227
995.131337	1.001230
995.426859	0.999768
995.722345	0.999179
996.017795	0.998892
996.313208	0.999439
996.608586	1.000230
996.903928	0.999739
997.199234	0.999547
997.494504	1.000538
997.789738	0.999264
998.084936	1.000411
998.380099	0.999704
998.675225	1.000538
998.970316	0.999987
999.265371	1.000343
999.560390	1.000975
999.855373	0.999154
1000.150320	0.999454
1000.445232	0.999870
1000.740108	1.000289
1001.034948	0.999507
1001.329752	1.000624
1001.624521	0.999201
1001.919254	1.000204
1002.213951	1.000919
1002.508613	0.999452
1002.803239	0.999649
1003.097829	1.000028
1003.392384	1.000192
1003.686903	1.000401
1003.981386	1.000106
1004.275834	1.000718
1004.570246	0.998110
1004.864623	1.000659
1005.158964	1.000243
1005.453270	0.999857
1005.747540	0.999539
1006.041775	1.000134
1006.335974	1.000920
1006.630138	0.999611
1006.924266	0.999022
1007.218359	0.998776
1007.512416	1.001592
1007.806438	0.999308
1008.100425	1.000866
1008.394376	1.000226
1008.688292	0.999896
1008.982172	0.998398
1009.276017	0.999716
1009.569827	1.001005
1009.863602	0.998837
1010.157341	1.000376
1010.451045	0.999029
1010.744714	1.001397
1011.038347	1.000289
1011.331945	0.999620
1011.625508	0.999494
1011.919036	0.999599
1012.212528	0.999464
1012.505986	0.999200
1012.799408	0.999488
1013.092795	1.000244
1013.386147	0.999994
1013.679464	1.001000
1013.972745	1.000860
1014.265992	0.999500
1014.559204	1.000104
1014.852380	1.000191
1015.145521	1.000848
1015.438628	0.999161
1015.731699	1.000424
1016.024736	1.001950
1016.317737	1.000373
1016.610703	1.000345
1016.903635	1.001347
1017.196531	1.000120
1017.489393	0.999014
1017.782219	0.999574
1018.075011	0.999336
1018.367768	0.999758
1018.660490	1.000016
1018.953177	1.000016
1019.245829	1.000016
