Dividing Wavelength (nm)	Counts (n)	Blue Motor Position (mm): 33.700000	Red Motor Position (mm): 0.000000	
326.493990	0.999944
326.888308	0.999944
327.282561	0.999944
327.676750	1.001289
328.070874	1.001258
328.464933	1.001237
328.858929	1.002060
329.252859	1.000557
329.646726	1.000379
330.040528	1.000060
330.434265	0.999794
330.827938	0.999098
331.221547	1.000881
331.615091	1.000539
332.008571	1.001514
332.401986	1.000100
332.795338	0.999772
333.188625	1.000454
333.581847	1.000235
333.975006	1.001039
334.368100	1.000745
334.761129	0.999419
335.154095	1.000569
335.546996	1.000637
335.939833	0.999012
336.332606	1.000545
336.725315	0.998601
337.117960	1.002071
337.510540	0.999766
337.903056	1.001861
338.295508	0.999770
338.687896	1.000602
339.080220	0.998595
339.472480	0.998997
339.864676	1.000053
340.256807	0.999085
340.648875	1.000681
341.040879	0.999580
341.432818	1.000105
341.824694	0.999337
342.216506	1.000160
342.608253	0.999611
342.999937	0.999504
343.391557	1.000201
343.783113	1.001023
344.174605	1.000162
344.566033	0.998550
344.957397	0.999918
345.348697	1.000489
345.739934	0.999424
346.131106	0.999996
346.522215	0.999395
346.913260	0.999948
347.304241	0.999132
347.695159	0.999277
348.086012	0.999981
348.476802	0.999095
348.867528	0.999686
349.258191	0.999797
349.648789	1.000270
350.039324	0.999862
350.429796	0.999139
350.820203	0.998660
351.210548	0.999631
351.600828	0.998552
351.991045	1.000115
352.381198	0.999409
352.771288	1.000756
353.161314	0.999988
353.551276	0.999658
353.941175	0.998089
354.331010	0.999851
354.720782	0.999738
355.110490	0.998878
355.500135	0.998694
355.889717	0.998735
356.279235	0.997722
356.668689	0.999396
357.058080	0.998046
357.447408	0.997748
357.836672	0.999480
358.225873	0.998182
358.615010	0.997778
359.004084	0.997360
359.393095	0.998889
359.782043	0.999768
360.170927	0.998860
360.559748	0.999615
360.948505	0.998365
361.337199	0.997987
361.725830	0.998833
362.114398	0.997776
362.502903	0.998045
362.891344	0.997820
363.279722	0.997655
363.668037	0.998486
364.056289	0.998898
364.444478	0.999473
364.832603	0.997367
365.220665	0.998602
365.608665	0.997131
365.996601	0.998047
366.384474	0.996537
366.772284	0.998464
367.160031	0.995640
367.547715	0.996015
367.935336	0.995464
368.322893	0.993533
368.710388	0.993318
369.097820	0.992753
369.485189	0.989870
369.872495	0.987714
370.259738	0.985834
370.646918	0.982765
371.034035	0.980018
371.421090	0.976484
371.808081	0.973000
372.195010	0.970284
372.581875	0.965101
372.968678	0.960971
373.355418	0.957772
373.742096	0.949424
374.128710	0.945274
374.515262	0.940103
374.901751	0.936147
375.288177	0.929695
375.674540	0.923146
376.060841	0.917146
376.447079	0.910871
376.833254	0.902905
377.219367	0.899343
377.605417	0.887294
377.991404	0.883954
378.377329	0.877770
378.763191	0.871942
379.148991	0.863424
379.534727	0.854885
379.920402	0.845869
380.306013	0.842757
380.691563	0.830203
381.077049	0.823333
381.462474	0.819356
381.847835	0.808098
382.233134	0.803380
382.618371	0.803619
383.003545	0.786419
383.388657	0.784548
383.773706	0.776742
384.158693	0.772434
384.543618	0.767327
384.928480	0.758937
385.313280	0.748720
385.698017	0.747854
386.082692	0.737151
386.467305	0.735362
386.851856	0.730040
387.236344	0.725078
387.620770	0.718807
388.005133	0.712642
388.389435	0.707519
388.773674	0.705528
389.157851	0.696878
389.541965	0.695025
389.926018	0.700637
390.310008	0.687719
390.693936	0.685667
391.077802	0.676858
391.461606	0.678839
391.845348	0.668005
392.229027	0.667297
392.612645	0.665298
392.996200	0.652231
393.379694	0.646011
393.763125	0.636270
394.146494	0.641416
394.529801	0.630892
394.913047	0.623286
395.296230	0.629513
395.679351	0.619996
396.062410	0.617411
396.445408	0.619623
396.828343	0.615557
397.211217	0.610481
397.594028	0.623025
397.976778	0.612996
398.359466	0.609657
398.742092	0.604714
399.124656	0.616590
399.507158	0.605027
399.889598	0.602663
400.271977	0.594222
400.654294	0.597745
401.036549	0.596727
401.418742	0.600739
401.800874	0.587060
402.182944	0.583589
402.564952	0.575577
402.946898	0.578005
403.328783	0.578393
403.710606	0.590337
404.092367	0.564893
404.474067	0.570081
404.855705	0.568372
405.237282	0.577614
405.618797	0.563929
406.000250	0.559791
406.381642	0.550377
406.762972	0.555434
407.144240	0.554459
407.525447	0.554029
407.906593	0.547401
408.287677	0.543998
408.668700	0.553603
409.049661	0.548093
409.430560	0.543801
409.811399	0.553242
410.192176	0.536338
410.572891	0.545529
410.953545	0.534583
411.334138	0.549884
411.714669	0.544289
412.095139	0.558377
412.475547	0.545243
412.855894	0.549822
413.236180	0.551156
413.616405	0.558685
413.996568	0.552641
414.376670	0.561461
414.756711	0.569071
415.136691	0.569539
415.516609	0.565244
415.896466	0.565765
416.276262	0.566196
416.655997	0.572330
417.035670	0.560243
417.415283	0.557393
417.794834	0.566875
418.174324	0.576923
418.553753	0.589381
418.933121	0.579832
419.312428	0.580666
419.691674	0.591371
420.070859	0.587883
420.449983	0.600985
420.829045	0.598686
421.208047	0.612997
421.586988	0.614446
421.965867	0.620468
422.344686	0.621724
422.723444	0.637178
423.102141	0.656153
423.480777	0.644786
423.859352	0.668302
424.237866	0.661185
424.616319	0.669900
424.994712	0.672713
425.373044	0.687612
425.751314	0.689470
426.129524	0.708954
426.507673	0.707440
426.885762	0.712145
427.263789	0.725254
427.641756	0.738041
428.019662	0.742291
428.397508	0.751088
428.775292	0.762300
429.153016	0.767807
429.530679	0.778858
429.908282	0.785295
430.285824	0.796323
430.663305	0.797264
431.040726	0.814651
431.418086	0.821884
431.795385	0.827596
432.172624	0.834765
432.549802	0.842250
432.926920	0.849706
433.303977	0.856802
433.680974	0.863425
434.057910	0.870581
434.434786	0.876996
434.811601	0.883862
435.188355	0.886529
435.565050	0.895104
435.941683	0.901187
436.318257	0.903400
436.694770	0.910129
437.071222	0.916239
437.447614	0.921449
437.823946	0.928042
438.200218	0.931210
438.576429	0.937307
438.952580	0.940712
439.328670	0.945057
439.704700	0.948268
440.080670	0.953487
440.456580	0.955592
440.832429	0.959578
441.208218	0.963185
441.583947	0.965546
441.959616	0.967617
442.335224	0.971671
442.710773	0.973093
443.086261	0.975679
443.461689	0.977267
443.837057	0.979541
444.212365	0.981356
444.587612	0.983968
444.962800	0.984585
445.337927	0.985363
445.712995	0.987471
446.088002	0.987470
446.462949	0.989178
446.837837	0.991042
447.212664	0.990720
447.587431	0.992220
447.962139	0.991843
448.336786	0.990675
448.711374	0.991373
449.085901	0.992679
449.460369	0.994461
449.834776	0.994183
450.209124	0.994488
450.583412	0.995984
450.957640	0.995397
451.331808	0.996549
451.705917	0.995271
452.079965	0.996441
452.453954	0.996576
452.827883	0.996491
453.201752	0.997133
453.575562	0.995990
453.949311	0.996717
454.323001	0.997148
454.696632	0.997569
455.070202	0.997064
455.443713	0.997418
455.817164	0.996928
456.190556	0.996907
456.563888	0.998017
456.937160	0.997429
457.310373	0.997608
457.683526	0.997784
458.056619	0.998144
458.429653	0.997736
458.802628	0.997333
459.175542	0.998298
459.548398	0.997732
459.921194	0.997511
460.293930	0.998898
460.666607	0.998139
461.039224	0.997970
461.411782	0.997970
461.784280	0.997092
462.156719	0.998123
462.529099	0.997652
462.901419	0.997756
463.273680	0.997815
463.645882	0.997749
464.018024	0.997789
464.390106	0.998168
464.762130	0.997795
465.134094	0.997945
465.505999	0.998296
465.877845	0.997463
466.249631	0.996698
466.621358	0.997005
466.993026	0.996951
467.364634	0.997458
467.736184	0.997144
468.107674	0.997427
468.479105	0.997557
468.850477	0.997380
469.221790	0.998005
469.593043	0.997626
469.964238	0.996780
470.335373	0.996455
470.706449	0.998319
471.077467	0.997467
471.448425	0.997899
471.819324	0.997799
472.190164	0.996996
472.560945	0.997546
472.931667	0.997399
473.302330	0.997510
473.672934	0.997849
474.043479	0.997151
474.413965	0.997552
474.784393	0.997934
475.154761	0.996907
475.525070	0.997054
475.895321	0.997482
476.265513	0.997220
476.635645	0.997532
477.005719	0.997153
477.375734	0.996831
477.745691	0.996803
478.115588	0.996677
478.485427	0.997010
478.855207	0.997017
479.224928	0.997161
479.594591	0.997803
479.964194	0.996380
480.333739	0.997149
480.703226	0.996370
481.072653	0.996701
481.442022	0.996806
481.811333	0.996631
482.180584	0.996889
482.549777	0.996882
482.918912	0.996929
483.287988	0.996995
483.657005	0.996380
484.025964	0.997066
484.394864	0.996413
484.763706	0.996653
485.132489	0.997115
485.501213	0.996779
485.869879	0.996875
486.238487	0.996234
486.607036	0.997540
486.975527	0.996854
487.343959	0.996427
487.712333	0.996961
488.080648	0.996185
488.448905	0.997513
488.817104	0.996764
489.185244	0.996787
489.553326	0.997519
489.921350	0.996969
490.289315	0.997106
490.657222	0.996131
491.025070	0.996443
491.392861	0.997316
491.760593	0.997062
492.128267	0.996774
492.495883	0.996991
492.863440	0.997231
493.230939	0.996924
493.598380	0.997263
493.965763	0.996916
494.333088	0.996679
494.700354	0.996904
495.067563	0.996958
495.434713	0.997544
495.801805	0.996842
496.168839	0.997068
496.535815	0.997289
496.902733	0.996825
497.269593	0.996985
497.636395	0.996728
498.003139	0.996807
498.369825	0.997762
498.736453	0.997608
499.103023	0.997583
499.469535	0.997194
499.835989	0.997623
500.202385	0.997375
500.568723	0.997197
500.935003	0.997525
501.301226	0.997435
501.667390	0.996855
502.033497	0.997169
502.399546	0.996537
502.765537	0.997126
503.131470	0.997617
503.497345	0.997352
503.863163	0.997252
504.228923	0.996997
504.594625	0.997166
504.960269	0.997182
505.325856	0.998299
505.691385	0.997525
506.056856	0.997025
506.422270	0.997121
506.787625	0.997468
507.152924	0.997314
507.518164	0.997098
507.883347	0.996835
508.248472	0.996692
508.613540	0.997434
508.978550	0.998041
509.343503	0.997420
509.708398	0.997386
510.073236	0.997376
510.438016	0.996053
510.802738	0.996215
511.167403	0.996892
511.532010	0.997495
511.896561	0.997256
512.261053	0.996728
512.625488	0.997440
512.989866	0.997187
513.354186	0.996131
513.718449	0.996946
514.082655	0.996830
514.446803	0.996691
514.810894	0.997725
515.174927	0.997537
515.538904	0.997814
515.902822	0.997370
516.266684	0.997021
516.630488	0.997094
516.994235	0.997549
517.357925	0.997639
517.721558	0.996779
518.085133	0.996330
518.448651	0.997097
518.812112	0.997401
519.175516	0.996768
519.538863	0.996857
519.902152	0.997792
520.265385	0.996765
520.628560	0.996970
520.991678	0.997217
521.354739	0.997691
521.717743	0.997524
522.080690	0.996666
522.443580	0.997205
522.806413	0.996852
523.169189	0.996964
523.531908	0.996807
523.894569	0.996842
524.257174	0.996938
524.619722	0.997208
524.982213	0.996788
525.344647	0.996451
525.707025	0.996652
526.069345	0.996473
526.431608	0.997402
526.793815	0.997326
527.155964	0.996932
527.518057	0.996956
527.880093	0.996785
528.242072	0.996780
528.603995	0.997022
528.965860	0.997412
529.327669	0.996846
529.689421	0.996050
530.051117	0.997630
530.412755	0.997259
530.774337	0.997051
531.135862	0.997051
531.497331	0.996885
531.858743	0.997488
532.220098	0.996528
532.581396	0.996942
532.942638	0.997053
533.303824	0.997782
533.664953	0.996865
534.026025	0.997366
534.387040	0.996967
534.747999	0.996930
535.108902	0.997210
535.469748	0.997088
535.830537	0.997257
536.191270	0.997121
536.551947	0.996830
536.912567	0.996942
537.273131	0.997462
537.633638	0.996803
537.994089	0.997414
538.354483	0.997390
538.714821	0.997027
539.075103	0.996765
539.435328	0.997583
539.795497	0.997121
540.155609	0.996442
540.515665	0.997577
540.875665	0.997105
541.235609	0.997410
541.595496	0.996707
541.955328	0.996653
542.315102	0.997452
542.674821	0.997089
543.034483	0.997675
543.394090	0.996601
543.753640	0.997101
544.113134	0.996724
544.472571	0.997451
544.831953	0.997268
545.191278	0.997271
545.550548	0.996335
545.909761	0.996490
546.268918	0.998156
546.628019	0.997087
546.987064	0.997088
547.346053	0.996581
547.704986	0.996791
548.063863	0.996995
548.422684	0.997417
548.781449	0.997220
549.140158	0.997054
549.498811	0.996648
549.857408	0.995635
550.215949	0.996370
550.574434	0.996606
550.932864	0.997253
551.291237	0.996924
551.649555	0.997715
552.007817	0.996978
552.366022	0.997039
552.724173	0.997542
553.082267	0.996956
553.440305	0.996896
553.798288	0.996475
554.156215	0.997234
554.514086	0.996647
554.871902	0.997008
555.229661	0.996409
555.587365	0.997880
555.945014	0.998122
556.302606	0.996866
556.660143	0.997448
557.017625	0.997227
557.375050	0.997010
557.732421	0.997217
558.089735	0.996808
558.446994	0.997334
558.804197	0.997390
559.161345	0.996411
559.518437	0.996659
559.875474	0.996994
560.232455	0.997579
560.589381	0.997495
560.946251	0.997514
561.303065	0.997337
561.659825	0.996601
562.016528	0.997409
562.373177	0.996841
562.729770	0.997178
563.086307	0.997010
563.442789	0.996948
563.799216	0.996635
564.155587	0.996843
564.511904	0.997700
564.868164	0.996627
565.224370	0.996878
565.580520	0.997237
565.936615	0.997327
566.292654	0.997284
566.648638	0.997420
567.004567	0.997003
567.360441	0.997064
567.716260	0.997135
568.072023	0.996569
568.427732	0.996716
568.783385	0.996939
569.138982	0.997083
569.494525	0.996794
569.850013	0.997772
570.205445	0.997148
570.560823	0.996865
570.916145	0.997055
571.271412	0.997136
571.626625	0.996715
571.981782	0.996976
572.336884	0.997552
572.691931	0.997375
573.046923	0.997590
573.401860	0.997355
573.756743	0.997778
574.111570	0.996682
574.466342	0.997466
574.821059	0.997328
575.175722	0.998099
575.530330	0.997099
575.884882	0.997445
576.239380	0.997320
576.593823	0.997464
576.948211	0.997933
577.302544	0.997174
577.656823	0.997618
578.011047	0.997001
578.365216	0.998336
578.719330	0.997436
579.073389	0.996972
579.427394	0.997389
579.781344	0.997895
580.135239	0.996503
580.489080	0.997412
580.842866	0.996858
581.196597	0.997674
581.550273	0.997284
581.903895	0.997697
582.257463	0.996581
582.610975	0.997283
582.964434	0.997387
583.317837	0.997670
583.671186	0.997571
584.024481	0.996531
584.377721	0.997547
584.730906	0.997346
585.084037	0.998391
585.437113	0.997439
585.790135	0.997309
586.143103	0.997499
586.496016	0.997032
586.848874	0.997455
587.201679	0.997437
587.554428	0.997110
587.907124	0.997858
588.259765	0.998178
588.612352	0.997730
588.964884	0.997618
589.317362	0.997415
589.669786	0.997300
590.022155	0.996634
590.374470	0.997239
590.726731	0.997503
591.078937	0.997456
591.431090	0.997624
591.783188	0.997233
592.135232	0.998073
592.487222	0.997661
592.839157	0.997178
593.191038	0.997183
593.542866	0.997742
593.894639	0.996828
594.246358	0.997867
594.598022	0.998073
594.949633	0.998191
595.301190	0.997831
595.652692	0.996763
596.004141	0.998057
596.355535	0.997090
596.706876	0.997798
597.058162	0.997558
597.409395	0.997816
597.760573	0.997186
598.111698	0.997449
598.462768	0.996892
598.813785	0.997068
599.164748	0.997148
599.515657	0.997493
599.866511	0.998115
600.217312	0.998140
600.568060	0.997939
600.918753	0.998070
601.269392	0.997164
601.619978	0.998180
601.970510	0.997674
602.320988	0.998325
602.671412	0.997565
603.021783	0.998169
603.372100	0.998349
603.722363	0.997926
604.072572	0.997170
604.422728	0.997622
604.772830	0.997376
605.122878	0.997161
605.472872	0.997861
605.822813	0.997499
606.172701	0.997508
606.522534	0.997737
606.872314	0.998088
607.222041	0.997289
607.571714	0.997869
607.921333	0.997470
608.270899	0.996851
608.620411	0.997924
608.969870	0.997735
609.319276	0.997970
609.668627	0.998531
610.017926	0.997464
610.367171	0.997855
610.716362	0.997324
611.065500	0.996972
611.414585	0.997772
611.763616	0.997184
612.112594	0.997678
612.461518	0.996742
612.810389	0.997892
613.159207	0.998048
613.507971	0.997089
613.856682	0.997680
614.205340	0.996734
614.553945	0.997683
614.902496	0.997555
615.250994	0.998080
615.599439	0.997792
615.947830	0.997050
616.296169	0.998348
616.644454	0.998016
616.992686	0.997430
617.340864	0.997958
617.688990	0.997375
618.037063	0.997880
618.385082	0.997190
618.733048	0.996654
619.080961	0.997418
619.428821	0.998506
619.776628	0.997828
620.124382	0.998460
620.472083	0.998569
620.819731	0.998806
621.167326	0.997893
621.514868	0.998201
621.862357	0.997949
622.209793	0.997461
622.557176	0.997335
622.904506	0.997423
623.251783	0.998258
623.599007	0.997868
623.946179	0.997901
624.293297	0.998196
624.640363	0.998811
624.987376	0.997134
625.334336	0.997538
625.681243	0.997670
626.028097	0.998060
626.374899	0.997402
626.721647	0.998268
627.068343	0.997889
627.414987	0.997372
627.761577	0.997178
628.108115	0.996745
628.454600	0.998177
628.801032	0.997642
629.147412	0.998091
629.493739	0.998431
629.840014	0.998001
630.186236	0.998104
630.532405	0.998680
630.878521	0.997975
631.224585	0.997973
631.570597	0.998260
631.916556	0.998014
632.262462	0.997066
632.608316	0.997860
632.954117	0.997555
633.299866	0.997325
633.645562	0.997221
633.991206	0.997544
634.336797	0.997362
634.682336	0.998670
635.027823	0.997964
635.373257	0.997925
635.718639	0.998846
636.063968	0.997358
636.409245	0.997641
636.754470	0.998269
637.099642	0.998154
637.444762	0.998179
637.789829	0.997395
638.134845	0.997320
638.479808	0.998095
638.824719	0.998423
639.169577	0.998132
639.514383	0.998016
639.859137	0.998647
640.203839	0.997805
640.548489	0.997736
640.893086	0.997489
641.237632	0.998119
641.582125	0.998184
641.926566	0.999158
642.270955	0.998107
642.615292	0.997216
642.959576	0.997611
643.303809	0.998714
643.647990	0.997296
643.992118	0.997719
644.336195	0.996976
644.680219	0.998277
645.024192	0.996924
645.368112	0.997422
645.711981	0.997491
646.055797	0.998335
646.399562	0.997389
646.743274	0.998415
647.086935	0.997264
647.430544	0.997664
647.774101	0.997693
648.117606	0.997807
648.461059	0.998156
648.804460	0.997744
649.147810	0.997219
649.491108	0.997831
649.834354	0.998035
650.177548	0.998547
650.520690	0.997727
650.863781	0.996719
651.206820	0.998320
651.549807	0.997553
651.892742	0.998355
652.235626	0.997436
652.578458	0.997475
652.921238	0.997791
653.263967	0.998578
653.606644	0.997029
653.949269	0.998304
654.291843	0.996939
654.634365	0.998909
654.976836	0.996762
655.319255	0.998429
655.661622	0.998536
656.003938	0.997854
656.346203	0.997218
656.688416	0.998018
657.030577	0.997939
657.372687	0.997847
657.714746	0.997627
658.056753	0.998227
658.398708	0.997408
658.740612	0.998589
659.082465	0.997931
659.424266	0.999168
659.766016	0.997324
660.107715	0.998448
660.449362	0.997642
660.790958	0.997631
661.132503	0.998473
661.473996	0.997098
661.815438	0.997784
662.156829	0.998257
662.498168	0.998356
662.839456	0.997642
663.180693	0.998537
663.521879	0.997972
663.863013	0.997904
664.204097	0.997318
664.545129	0.997489
664.886110	0.997860
665.227040	0.998541
665.567918	0.997631
665.908746	0.997025
666.249522	0.997507
666.590248	0.997129
666.930922	0.996718
667.271545	0.997496
667.612118	0.998109
667.952639	0.997959
668.293109	0.998245
668.633528	0.996989
668.973896	0.997735
669.314213	0.997029
669.654480	0.997621
669.994695	0.997133
670.334859	0.997809
670.674973	0.997571
671.015035	0.997737
671.355047	0.997586
671.695008	0.996828
672.034918	0.998271
672.374777	0.997139
672.714585	0.997917
673.054342	0.998684
673.394049	0.997176
673.733705	0.997950
674.073310	0.998015
674.412864	0.998408
674.752368	0.997241
675.091820	0.998142
675.431223	0.998255
675.770574	0.997596
676.109875	0.997068
676.449125	0.997575
676.788324	0.997139
677.127473	0.998050
677.466571	0.997261
677.805619	0.997892
678.144616	0.998977
678.483562	0.997785
678.822458	0.997397
679.161303	0.997338
679.500098	0.998612
679.838842	0.998554
680.177535	0.997865
680.516179	0.996219
680.854771	0.997403
681.193314	0.997670
681.531805	0.997024
681.870247	0.997739
682.208638	0.998139
682.546978	0.996952
682.885268	0.997024
683.223508	0.996933
683.561697	0.997345
683.899836	0.997439
684.237925	0.997008
684.575963	0.997176
684.913951	0.997663
685.251889	0.996753
685.589776	0.997160
685.927614	0.997313
686.265401	0.996942
686.603137	0.996925
686.940824	0.997528
687.278460	0.997418
687.616046	0.997243
687.953582	0.996559
688.291068	0.997137
688.628504	0.997521
688.965889	0.997034
689.303224	0.996355
689.640510	0.997397
689.977745	0.996381
690.314930	0.996830
690.652065	0.997737
690.989150	0.996338
691.326185	0.997396
691.663170	0.997504
692.000105	0.997810
692.336990	0.997595
692.673825	0.997429
693.010610	0.997723
693.347345	0.996653
693.684030	0.996997
694.020665	0.996875
694.357251	0.996498
694.693786	0.997739
695.030272	0.996423
695.366707	0.997445
695.703093	0.996914
696.039429	0.995865
696.375716	0.998011
696.711952	0.997048
697.048139	0.997206
697.384276	0.997324
697.720363	0.997237
698.056400	0.996631
698.392388	0.997077
698.728326	0.996336
699.064214	0.997657
699.400053	0.996819
699.735842	0.997346
700.071581	0.997083
700.407270	0.997282
700.742910	0.998104
701.078501	0.998114
701.414042	0.998164
701.749533	0.996554
702.084974	0.997792
702.420366	0.997598
702.755709	0.996972
703.091002	0.998106
703.426246	0.998179
703.761440	0.996701
704.096584	0.996036
704.431679	0.996493
704.766725	0.996843
705.101721	0.998079
705.436668	0.998103
705.771565	0.997876
706.106413	0.996770
706.441212	0.997597
706.775961	0.997326
707.110661	0.997038
707.445311	0.997410
707.779913	0.998874
708.114465	0.997792
708.448967	0.997941
708.783421	0.997084
709.117825	0.997902
709.452180	0.997476
709.786485	0.997074
710.120742	0.996902
710.454949	0.996833
710.789107	0.996607
711.123216	0.995668
711.457275	0.996549
711.791286	0.997203
712.125247	0.998811
712.459159	0.996536
712.793023	0.996597
713.126837	0.997600
713.460602	0.995569
713.794318	0.996544
714.127985	0.995843
714.461602	0.997545
714.795171	0.996538
715.128691	0.997412
715.462162	0.997662
715.795584	0.996773
716.128957	0.997526
716.462281	0.997047
716.795556	0.997125
717.128782	0.997688
717.461960	0.997842
717.795088	0.996800
718.128167	0.998829
718.461198	0.996706
718.794180	0.997521
719.127113	0.996912
719.459997	0.996495
719.792833	0.997558
720.125619	0.996779
720.458357	0.996659
720.791046	0.997603
721.123686	0.997159
721.456278	0.997919
721.788821	0.997383
722.121315	0.998019
722.453761	0.997781
722.786158	0.995885
723.118506	0.997283
723.450805	0.997507
723.783056	0.998661
724.115259	0.996876
724.447412	0.997529
724.779518	0.997713
725.111574	0.996926
725.443582	0.997342
725.775542	0.997824
726.107453	0.997947
726.439315	0.998264
726.771129	0.997447
727.102895	0.997527
727.434612	0.996800
727.766281	0.997446
728.097901	0.996006
728.429473	0.997276
728.760996	0.996583
729.092471	0.997387
729.423897	0.997668
729.755276	0.996223
730.086606	0.996758
730.417887	0.996722
730.749120	0.997326
731.080305	0.996650
731.411442	0.996789
731.742530	0.996134
732.073570	0.996999
732.404562	0.997863
732.735506	0.996991
733.066401	0.996126
733.397249	0.997577
733.728048	0.997802
734.058798	0.998128
734.389501	0.998785
734.720156	0.997877
735.050762	0.998205
735.381320	0.996799
735.711831	0.996809
736.042293	0.996406
736.372707	0.998482
736.703073	0.996794
737.033391	0.996654
737.363661	0.998219
737.693883	0.996919
738.024056	0.997042
738.354182	0.997746
738.684260	0.997431
739.014290	0.996435
739.344272	0.997186
739.674207	0.997815
740.004093	0.997282
740.333931	0.998555
740.663722	0.996718
740.993464	0.996931
741.323159	0.997773
741.652806	0.996538
741.982405	0.997733
742.311956	0.997612
742.641460	0.997147
742.970915	0.996479
743.300323	0.996057
743.629683	0.996920
743.958996	0.997758
744.288260	0.997271
744.617477	0.998154
744.946647	0.997303
745.275768	0.997303
745.604842	0.996957
745.933869	0.997901
746.262847	0.997946
746.591778	0.996516
746.920662	0.997374
747.249498	0.998311
747.578286	0.999338
747.907027	0.997844
748.235720	0.997552
748.564365	0.998171
748.892963	0.997502
749.221514	0.997828
749.550017	0.996788
749.878473	0.998221
750.206881	0.998402
750.535242	0.998590
750.863555	0.996472
751.191821	0.998472
751.520039	0.997436
751.848210	0.996812
752.176334	0.996713
752.504411	0.997276
752.832440	0.997613
753.160421	0.998449
753.488356	0.997868
753.816243	0.996564
754.144082	0.996662
754.471875	0.998211
754.799620	0.997969
755.127318	0.996426
755.454969	0.997050
755.782572	0.999402
756.110129	0.997308
756.437638	0.997916
756.765100	0.998060
757.092515	0.997349
757.419882	0.998427
757.747203	0.998090
758.074477	0.998887
758.401703	0.997535
758.728882	0.997234
759.056014	0.997163
759.383099	0.997745
759.710138	0.997220
760.037129	0.996846
760.364073	0.998483
760.690970	0.997911
761.017820	0.997157
761.344623	0.997599
761.671379	0.998674
761.998088	0.997724
762.324751	0.997604
762.651366	0.997054
762.977935	0.995715
763.304456	0.995880
763.630931	0.994441
763.957359	0.994046
764.283740	0.996380
764.610074	0.996473
764.936362	0.996471
765.262602	0.996342
765.588796	0.997107
765.914943	0.997848
766.241044	0.997200
766.567097	0.997021
766.893104	0.997324
767.219064	0.996385
767.544978	0.996877
767.870845	0.997541
768.196665	0.997790
768.522438	0.998235
768.848165	0.998111
769.173846	0.998216
769.499479	0.998748
769.825066	0.998572
770.150607	0.999623
770.476101	0.998332
770.801548	0.998483
771.126949	0.998307
771.452303	0.997495
771.777611	0.999314
772.102872	0.997817
772.428087	0.998050
772.753256	0.998133
773.078378	0.998803
773.403453	0.997597
773.728482	0.999497
774.053465	0.997895
774.378401	0.998190
774.703291	0.998729
775.028135	0.998997
775.352932	0.997501
775.677683	0.998704
776.002388	0.998459
776.327046	0.997779
776.651658	0.999203
776.976224	0.999296
777.300743	0.997362
777.625216	0.997780
777.949643	0.998185
778.274024	0.997806
778.598359	0.998325
778.922647	0.998544
779.246889	0.998764
779.571086	0.998739
779.895236	0.998619
780.219339	0.999918
780.543397	0.998513
780.867409	0.999214
781.191374	0.998087
781.515294	0.998479
781.839167	0.998361
782.162995	0.998653
782.486776	0.998900
782.810511	0.999170
783.134201	0.998589
783.457844	0.998896
783.781441	0.998501
784.104993	0.998665
784.428498	0.998856
784.751958	0.998899
785.075372	0.999628
785.398739	0.997079
785.722061	0.997180
786.045337	0.998259
786.368568	0.998262
786.691752	0.998008
787.014891	0.998314
787.337983	0.996941
787.661030	0.997647
787.984031	0.998428
788.306987	0.997890
788.629897	0.996828
788.952760	0.998602
789.275579	0.998252
789.598351	0.998403
789.921078	0.999093
790.243759	0.998652
790.566395	0.997886
790.888984	0.998245
791.211529	0.998499
791.534027	0.998036
791.856480	0.998771
792.178888	0.998130
792.501249	0.997915
792.823566	0.999498
793.145836	0.998883
793.468062	0.999306
793.790241	0.998772
794.112375	0.997468
794.434464	0.998651
794.756507	0.999466
795.078505	0.998001
795.400457	0.998148
795.722364	0.998434
796.044226	0.998342
796.366042	0.998293
796.687812	0.998368
797.009538	0.998800
797.331218	0.998984
797.652852	0.998784
797.974442	0.997929
798.295986	0.998607
798.617484	0.998485
798.938938	0.998467
799.260346	0.997646
799.581709	0.998042
799.903026	0.999996
800.224299	0.997815
800.545526	0.998010
800.866708	0.998366
801.187845	0.999409
801.508936	0.999532
801.829983	0.998504
802.150984	0.999017
802.471940	0.999490
802.792851	0.997839
803.113717	0.999672
803.434538	0.998913
803.755314	1.000275
804.076045	0.998078
804.396731	0.999348
804.717372	0.997575
805.037967	0.999739
805.358518	0.998334
805.679024	0.997981
805.999485	0.998867
806.319901	0.997950
806.640272	0.998726
806.960598	0.999263
807.280879	0.998097
807.601115	0.999980
807.921306	0.999147
808.241453	0.998549
808.561554	0.998771
808.881611	0.998351
809.201623	0.997487
809.521590	0.998380
809.841513	0.999120
810.161390	0.997918
810.481223	0.998505
810.801011	0.999292
811.120755	0.999471
811.440453	0.998097
811.760107	0.998108
812.079716	0.997613
812.399281	0.998560
812.718801	0.997760
813.038276	0.998843
813.357707	0.998983
813.677093	0.999560
813.996434	0.998945
814.315731	0.999557
814.634983	0.999484
814.954191	0.999329
815.273354	0.998412
815.592473	0.998326
815.911547	0.998938
816.230577	0.997467
816.549562	0.998491
816.868502	0.998037
817.187399	0.999621
817.506250	0.999077
817.825058	0.997021
818.143821	0.998178
818.462539	0.998496
818.781213	0.998350
819.099843	0.999316
819.418429	0.998853
819.736970	0.998175
820.055466	0.996486
820.373919	0.995858
820.692327	0.994969
821.010691	0.994624
821.329011	0.993388
821.647286	0.991690
821.965517	0.990933
822.283704	0.988821
822.601847	0.988079
822.919945	0.987706
823.237999	0.989978
823.556010	0.990233
823.873976	0.990891
824.191897	0.991837
824.509775	0.993680
824.827609	0.994124
825.145398	0.994875
825.463144	0.993203
825.780845	0.994267
826.098502	0.993529
826.416116	0.992856
826.733685	0.993577
827.051210	0.991634
827.368692	0.992076
827.686129	0.993012
828.003522	0.994331
828.320872	0.995448
828.638177	0.996502
828.955439	0.996429
829.272656	0.996055
829.589830	0.996635
829.906960	0.997498
830.224046	0.997554
830.541088	0.997824
830.858086	0.998197
831.175041	0.999611
831.491952	0.998494
831.808819	0.998344
832.125642	0.997613
832.442421	0.998216
832.759157	0.998779
833.075849	0.996881
833.392497	0.995905
833.709101	0.993900
834.025662	0.994976
834.342179	0.994730
834.658653	0.997331
834.975083	0.996725
835.291469	0.995330
835.607811	0.996179
835.924110	0.998332
836.240366	0.998513
836.556578	0.998382
836.872746	0.997302
837.188871	0.998086
837.504952	0.998376
837.820990	0.999621
838.136984	0.998337
838.452935	0.998542
838.768842	0.999516
839.084706	0.998486
839.400526	0.998647
839.716303	0.996775
840.032037	0.998399
840.347727	0.996670
840.663373	0.997430
840.978977	0.997088
841.294537	0.998224
841.610054	0.999129
841.925527	0.998529
842.240957	0.998570
842.556344	0.998171
842.871687	0.998731
843.186987	0.999307
843.502244	0.999661
843.817458	0.998975
844.132629	0.998993
844.447756	0.999121
844.762840	0.999377
845.077881	1.000034
845.392879	0.998849
845.707833	0.998926
846.022745	1.000053
846.337613	0.999947
846.652438	0.998897
846.967221	0.999660
847.281960	1.000840
847.596656	1.000722
847.911309	0.999612
848.225919	0.999477
848.540485	0.999003
848.855009	1.000102
849.169490	1.000569
849.483928	0.999907
849.798323	0.998366
850.112675	1.001332
850.426984	0.999330
850.741251	1.000134
851.055474	0.999771
851.369654	1.000160
851.683792	0.998868
851.997887	0.999616
852.311938	0.999521
852.625947	0.999557
852.939914	0.998282
853.253837	1.000709
853.567718	1.000869
853.881555	0.999791
854.195350	1.000420
854.509103	0.998879
854.822812	0.998766
855.136479	0.999607
855.450103	1.000355
855.763685	1.000276
856.077224	0.999393
856.390720	1.000411
856.704173	1.001093
857.017584	1.000995
857.330953	1.000127
857.644278	0.999879
857.957561	1.000166
858.270802	0.998741
858.584000	0.999571
858.897155	0.999086
859.210268	0.999977
859.523339	1.000172
859.836367	0.998920
860.149352	0.998301
860.462295	0.999252
860.775195	1.000172
861.088054	0.999018
861.400869	0.999767
861.713642	0.998240
862.026373	1.000566
862.339062	1.000693
862.651708	0.999166
862.964312	0.999609
863.276873	0.998524
863.589392	0.999959
863.901869	0.998623
864.214303	0.999010
864.526696	1.000325
864.839045	0.999575
865.151353	1.000020
865.463619	0.998964
865.775842	0.999843
866.088023	1.000601
866.400162	0.999880
866.712258	1.001429
867.024313	0.999711
867.336325	1.000075
867.648296	1.000302
867.960224	0.999706
868.272110	1.000627
868.583954	0.999009
868.895755	1.000231
869.207515	0.999717
869.519233	1.000297
869.830909	1.000152
870.142542	0.998507
870.454134	0.999175
870.765684	0.998937
871.077191	0.999889
871.388657	0.999642
871.700081	0.999395
872.011463	0.999135
872.322803	0.998763
872.634101	0.998707
872.945357	0.998756
873.256571	0.998473
873.567744	0.999321
873.878874	0.999068
874.189963	0.999108
874.501010	1.000153
874.812015	0.999435
875.122979	0.999954
875.433900	0.999104
875.744780	0.999923
876.055618	0.998311
876.366415	0.998713
876.677169	0.999086
876.987882	0.999074
877.298554	1.000574
877.609183	0.998670
877.919771	0.998459
878.230317	0.998963
878.540822	0.997898
878.851285	0.997662
879.161707	0.997356
879.472087	0.998937
879.782425	0.997146
880.092722	0.996747
880.402977	0.994270
880.713191	0.993340
881.023363	0.991926
881.333494	0.989540
881.643583	0.990921
881.953631	0.990053
882.263637	0.989375
882.573602	0.989810
882.883526	0.990047
883.193408	0.992564
883.503248	0.992549
883.813048	0.993037
884.122806	0.994496
884.432522	0.995219
884.742197	0.996475
885.051831	0.996162
885.361424	0.997006
885.670975	0.998488
885.980485	0.996545
886.289954	0.997340
886.599382	0.996832
886.908768	0.998971
887.218113	0.997871
887.527417	0.999192
887.836680	0.998854
888.145901	0.999131
888.455082	0.998991
888.764221	0.999821
889.073319	0.997716
889.382376	1.000055
889.691392	0.997689
890.000366	0.999603
890.309300	0.998586
890.618193	0.999324
890.927044	0.998118
891.235855	0.997776
891.544625	0.998562
891.853353	0.999237
892.162041	0.999193
892.470687	0.998840
892.779293	0.997751
893.087858	0.997572
893.396381	0.997726
893.704864	0.997406
894.013306	0.995630
894.321707	0.994939
894.630068	0.994853
894.938387	0.994763
895.246665	0.994822
895.554903	0.995056
895.863100	0.996539
896.171256	0.995933
896.479371	0.996831
896.787446	0.996903
897.095480	0.997795
897.403473	0.997829
897.711425	0.997533
898.019336	0.998423
898.327207	0.998701
898.635038	0.998274
898.942827	0.999211
899.250576	0.998873
899.558284	0.999190
899.865952	0.999051
900.173579	0.999884
900.481165	0.998883
900.788711	0.997207
901.096216	0.999431
901.403681	0.999776
901.711105	0.998385
902.018489	0.998405
902.325832	0.999282
902.633135	0.998831
902.940397	0.998558
903.247619	0.998656
903.554800	0.997283
903.861941	0.996968
904.169041	0.994031
904.476101	0.993824
904.783121	0.993043
905.090100	0.994210
905.397039	0.995709
905.703938	0.995347
906.010796	0.996408
906.317614	0.997584
906.624391	0.997389
906.931129	0.998947
907.237826	0.999551
907.544483	0.999379
907.851099	0.999059
908.157675	0.998863
908.464211	0.999543
908.770707	0.998171
909.077163	1.000098
909.383578	1.000409
909.689954	0.999130
909.996289	0.998949
910.302584	1.000302
910.608839	1.001365
910.915054	0.999063
911.221229	1.000339
911.527363	0.999889
911.833458	0.999176
912.139513	1.000027
912.445527	0.999765
912.751502	0.999420
913.057436	0.998673
913.363331	0.998412
913.669186	1.000067
913.975000	0.998799
914.280775	0.998618
914.586510	0.997811
914.892205	0.995991
915.197859	0.995887
915.503475	0.997206
915.809050	0.993571
916.114585	0.993479
916.420081	0.994089
916.725536	0.995257
917.030952	0.994549
917.336328	0.995326
917.641665	0.995088
917.946961	0.995116
918.252218	0.995696
918.557435	0.995887
918.862612	0.997680
919.167750	0.996718
919.472848	0.998741
919.777906	0.999024
920.082925	0.998629
920.387904	0.998285
920.692843	0.997980
920.997743	0.997818
921.302603	0.999858
921.607423	0.997439
921.912204	0.999597
922.216946	1.000577
922.521647	0.999923
922.826310	0.998432
923.130932	1.000208
923.435516	1.000447
923.740059	0.999503
924.044564	0.997774
924.349028	0.999067
924.653454	0.999927
924.957840	0.998638
925.262186	1.000201
925.566493	0.999606
925.870761	0.999214
926.174989	1.000285
926.479178	1.000909
926.783328	0.999761
927.087438	0.999625
927.391509	0.998543
927.695541	0.999922
927.999533	1.001161
928.303486	0.999152
928.607400	0.999719
928.911275	1.000755
929.215110	1.000766
929.518906	0.999108
929.822663	1.001545
930.126381	1.000762
930.430060	0.999954
930.733699	1.000284
931.037299	1.000580
931.340861	0.999954
931.644383	0.998382
931.947866	1.000300
932.251309	0.999658
932.554714	0.999949
932.858080	1.001219
933.161407	0.999815
933.464694	0.999823
933.767943	1.000865
934.071153	0.999751
934.374323	0.999929
934.677455	0.999083
934.980548	0.999221
935.283602	0.999696
935.586617	0.999453
935.889593	1.000910
936.192530	1.000732
936.495428	0.999858
936.798287	1.000424
937.101108	0.999760
937.403890	0.998870
937.706632	1.000928
938.009336	0.999465
938.312002	0.998190
938.614628	0.999637
938.917216	0.998535
939.219765	0.998743
939.522275	1.001055
939.824747	1.000118
940.127179	0.999895
940.429573	0.999623
940.731929	0.999041
941.034246	0.999021
941.336524	0.997717
941.638763	0.999402
941.940964	0.999142
942.243126	1.000034
942.545250	1.000358
942.847335	0.999737
943.149381	1.000258
943.451389	0.999287
943.753359	0.999809
944.055290	1.000688
944.357182	1.000252
944.659036	0.999780
944.960851	1.000359
945.262628	0.999907
945.564367	0.999308
945.866067	1.000388
946.167729	1.000202
946.469352	1.000926
946.770937	0.998183
947.072484	1.000794
947.373992	0.999672
947.675462	0.999286
947.976893	0.999683
948.278286	1.000944
948.579641	1.001348
948.880958	0.999168
949.182236	0.999541
949.483476	0.999782
949.784678	1.000587
950.085841	1.000056
950.386967	0.999251
950.688054	0.999998
950.989103	0.998131
951.290114	0.999199
951.591087	1.001053
951.892021	0.999202
952.192917	0.999668
952.493776	1.000002
952.794596	1.000375
953.095378	0.999488
953.396122	0.999242
953.696828	1.000486
953.997496	1.000051
954.298126	1.000169
954.598718	0.998345
954.899272	0.999331
955.199788	0.999762
955.500266	1.001238
955.800706	1.000095
956.101108	0.999764
956.401472	1.001313
956.701798	0.999600
957.002087	1.000620
957.302337	0.999900
957.602550	1.000973
957.902724	0.999457
958.202861	1.001028
958.502960	1.000411
958.803022	1.000794
959.103045	1.000260
959.403031	1.001393
959.702979	1.000379
960.002889	1.000285
960.302762	1.000215
960.602596	0.999689
960.902393	0.999960
961.202153	1.000208
961.501875	1.000610
961.801559	1.000560
962.101205	1.000703
962.400814	1.001689
962.700385	1.001191
962.999918	1.001719
963.299414	0.999035
963.598873	1.001460
963.898293	1.000543
964.197677	0.999829
964.497022	1.000888
964.796331	0.999743
965.095601	1.000562
965.394835	1.000842
965.694030	1.001969
965.993189	1.001608
966.292309	1.000662
966.591393	0.999832
966.890439	1.000493
967.189447	1.000114
967.488419	1.000216
967.787353	1.001353
968.086249	1.000480
968.385108	1.000322
968.683930	1.002403
968.982714	1.000689
969.281462	1.000844
969.580172	1.000802
969.878844	1.001279
970.177480	1.000255
970.476078	1.001700
970.774639	1.000854
971.073162	0.999652
971.371649	0.999809
971.670098	1.001154
971.968510	1.000024
972.266885	0.999146
972.565223	1.000752
972.863524	0.999863
973.161788	1.000277
973.460014	1.000392
973.758204	1.000309
974.056356	1.000741
974.354471	1.000617
974.652550	1.000946
974.950591	0.999487
975.248595	0.999265
975.546563	1.001430
975.844493	1.000454
976.142386	0.999800
976.440243	1.000646
976.738062	1.001031
977.035845	0.999540
977.333590	1.001118
977.631299	1.000764
977.928971	0.999758
978.226606	1.000319
978.524204	1.000032
978.821765	0.999802
979.119290	1.001570
979.416777	1.000187
979.714228	1.000620
980.011642	0.999941
980.309020	1.000438
980.606360	1.000488
980.903664	1.000348
981.200931	0.999840
981.498162	1.000128
981.795356	1.000600
982.092513	1.000171
982.389633	1.000694
982.686717	0.999517
982.983764	0.998782
983.280775	0.999507
983.577749	1.000042
983.874686	1.000207
984.171587	1.000044
984.468451	1.000516
984.765279	1.000259
985.062070	0.999463
985.358824	0.999241
985.655543	1.000102
985.952224	1.001178
986.248869	0.998954
986.545478	1.001502
986.842050	0.999953
987.138586	0.999509
987.435086	0.999506
987.731549	1.002236
988.027975	1.001437
988.324366	0.999464
988.620719	1.001754
988.917037	1.000693
989.213318	1.000050
989.509563	1.000816
989.805772	0.999762
990.101944	1.001267
990.398080	1.000773
990.694180	1.001741
990.990244	0.999578
991.286271	1.000313
991.582262	1.000942
991.878217	0.999932
992.174136	1.000962
992.470019	1.001044
992.765865	1.001763
993.061676	1.000886
993.357450	1.000704
993.653188	1.001179
993.948890	1.000661
994.244556	0.999657
994.540186	1.000973
994.835780	0.999195
995.131337	1.001608
995.426859	1.000576
995.722345	1.001341
996.017795	1.000201
996.313208	1.001351
996.608586	0.999362
996.903928	1.001058
997.199234	1.000647
997.494504	1.002014
997.789738	0.999033
998.084936	1.000869
998.380099	0.999469
998.675225	1.001663
998.970316	1.000996
999.265371	1.000463
999.560390	1.000525
999.855373	1.000776
1000.150320	1.000904
1000.445232	1.000734
1000.740108	0.999942
1001.034948	1.000061
1001.329752	1.001331
1001.624521	1.000833
1001.919254	1.000901
1002.213951	1.001035
1002.508613	0.999217
1002.803239	1.000021
1003.097829	1.000797
1003.392384	1.000363
1003.686903	1.000282
1003.981386	1.001244
1004.275834	1.001317
1004.570246	0.999472
1004.864623	1.001381
1005.158964	1.000587
1005.453270	0.999887
1005.747540	1.000432
1006.041775	1.000802
1006.335974	0.999770
1006.630138	1.000749
1006.924266	0.999320
1007.218359	0.998936
1007.512416	1.002271
1007.806438	1.000048
1008.100425	1.000001
1008.394376	1.001175
1008.688292	0.999945
1008.982172	0.999444
1009.276017	1.000184
1009.569827	1.000895
1009.863602	1.000311
1010.157341	1.000823
1010.451045	1.000252
1010.744714	1.002025
1011.038347	1.000899
1011.331945	0.999186
1011.625508	1.000562
1011.919036	1.000211
1012.212528	1.001668
1012.505986	1.000831
1012.799408	1.001319
1013.092795	1.000797
1013.386147	1.000497
1013.679464	1.001548
1013.972745	1.000634
1014.265992	1.000689
1014.559204	0.999760
1014.852380	1.001499
1015.145521	1.000565
1015.438628	1.001317
1015.731699	1.000430
1016.024736	1.001096
1016.317737	1.000426
1016.610703	1.000730
1016.903635	1.000129
1017.196531	1.001246
1017.489393	0.998870
1017.782219	0.999951
1018.075011	0.999344
1018.367768	0.999753
1018.660490	0.999966
1018.953177	0.999966
1019.245829	0.999966
