Dividing Wavelength (nm)	Counts (n)	Blue Motor Position (mm): 5.300000	Red Motor Position (mm): 0.000000	
326.493990	1.005343
326.888308	1.005343
327.282561	1.005343
327.676750	1.006268
328.070874	1.006436
328.464933	1.006895
328.858929	1.006034
329.252859	1.004854
329.646726	1.005950
330.040528	1.005502
330.434265	1.005927
330.827938	1.004477
331.221547	1.006158
331.615091	1.005827
332.008571	1.007333
332.401986	1.006251
332.795338	1.004362
333.188625	1.005174
333.581847	1.005288
333.975006	1.005618
334.368100	1.005827
334.761129	1.005203
335.154095	1.005383
335.546996	1.002822
335.939833	0.997861
336.332606	0.998234
336.725315	0.996318
337.117960	0.999320
337.510540	0.997246
337.903056	0.999607
338.295508	0.999868
338.687896	0.998163
339.080220	0.998205
339.472480	0.998109
339.864676	0.998501
340.256807	0.997630
340.648875	0.998897
341.040879	0.998707
341.432818	0.998673
341.824694	0.998320
342.216506	0.999541
342.608253	0.998074
342.999937	0.998577
343.391557	0.998365
343.783113	0.999301
344.174605	0.998784
344.566033	0.998130
344.957397	0.997726
345.348697	0.998703
345.739934	0.998203
346.131106	0.999088
346.522215	0.997993
346.913260	0.998068
347.304241	0.997440
347.695159	0.997345
348.086012	0.998937
348.476802	0.997261
348.867528	0.998480
349.258191	0.997035
349.648789	0.998523
350.039324	0.998448
350.429796	0.997391
350.820203	0.996866
351.210548	0.998123
351.600828	0.997364
351.991045	0.996920
352.381198	0.997982
352.771288	0.997983
353.161314	0.997237
353.551276	0.997213
353.941175	0.996288
354.331010	0.998219
354.720782	0.997770
355.110490	0.997229
355.500135	0.997500
355.889717	0.997480
356.279235	0.996481
356.668689	0.997885
357.058080	0.996357
357.447408	0.995330
357.836672	0.997711
358.225873	0.997288
358.615010	0.996798
359.004084	0.996458
359.393095	0.998348
359.782043	0.997718
360.170927	0.997830
360.559748	0.997787
360.948505	0.996601
361.337199	0.998066
361.725830	0.997255
362.114398	0.996752
362.502903	0.997141
362.891344	0.994970
363.279722	0.996427
363.668037	0.997187
364.056289	0.996546
364.444478	0.997221
364.832603	0.996014
365.220665	0.997234
365.608665	0.997000
365.996601	0.995794
366.384474	0.995143
366.772284	0.996483
367.160031	0.994632
367.547715	0.994711
367.935336	0.994126
368.322893	0.993562
368.710388	0.991860
369.097820	0.990114
369.485189	0.986973
369.872495	0.987237
370.259738	0.983777
370.646918	0.981328
371.034035	0.979333
371.421090	0.975321
371.808081	0.970660
372.195010	0.969378
372.581875	0.962839
372.968678	0.958074
373.355418	0.955496
373.742096	0.948084
374.128710	0.942695
374.515262	0.939551
374.901751	0.932635
375.288177	0.928189
375.674540	0.921686
376.060841	0.914477
376.447079	0.908970
376.833254	0.902713
377.219367	0.896173
377.605417	0.886005
377.991404	0.882338
378.377329	0.876043
378.763191	0.870408
379.148991	0.861464
379.534727	0.852795
379.920402	0.844732
380.306013	0.841559
380.691563	0.829115
381.077049	0.822157
381.462474	0.818456
381.847835	0.807169
382.233134	0.802365
382.618371	0.803232
383.003545	0.784308
383.388657	0.783083
383.773706	0.774477
384.158693	0.770972
384.543618	0.766295
384.928480	0.757075
385.313280	0.746949
385.698017	0.746266
386.082692	0.735259
386.467305	0.734102
386.851856	0.728473
387.236344	0.723074
387.620770	0.717111
388.005133	0.711228
388.389435	0.705845
388.773674	0.703513
389.157851	0.695102
389.541965	0.692581
389.926018	0.698893
390.310008	0.686163
390.693936	0.682929
391.077802	0.675839
391.461606	0.677000
391.845348	0.666141
392.229027	0.665583
392.612645	0.662941
392.996200	0.650629
393.379694	0.643156
393.763125	0.633973
394.146494	0.638291
394.529801	0.629334
394.913047	0.621136
395.296230	0.626985
395.679351	0.618278
396.062410	0.615608
396.445408	0.618046
396.828343	0.613225
397.211217	0.607667
397.594028	0.620498
397.976778	0.610547
398.359466	0.607180
398.742092	0.602511
399.124656	0.615064
399.507158	0.602795
399.889598	0.599714
400.271977	0.590994
400.654294	0.594538
401.036549	0.593723
401.418742	0.598473
401.800874	0.583317
402.182944	0.580557
402.564952	0.572945
402.946898	0.574902
403.328783	0.574905
403.710606	0.586417
404.092367	0.561416
404.474067	0.566711
404.855705	0.565713
405.237282	0.574654
405.618797	0.560570
406.000250	0.556168
406.381642	0.546305
406.762972	0.551187
407.144240	0.550926
407.525447	0.549632
407.906593	0.542956
408.287677	0.537853
408.668700	0.546846
409.049661	0.540501
409.430560	0.535486
409.811399	0.545245
410.192176	0.526093
410.572891	0.533389
410.953545	0.521391
411.334138	0.534795
411.714669	0.527346
412.095139	0.538599
412.475547	0.523701
412.855894	0.525131
413.236180	0.524453
413.616405	0.530258
413.996568	0.520142
414.376670	0.526732
414.756711	0.531335
415.136691	0.527619
415.516609	0.519618
415.896466	0.516448
416.276262	0.511955
416.655997	0.512996
417.035670	0.495414
417.415283	0.486386
417.794834	0.492373
418.174324	0.497171
418.553753	0.505815
418.933121	0.488934
419.312428	0.482337
419.691674	0.487518
420.070859	0.475887
420.449983	0.483897
420.829045	0.473618
421.208047	0.482221
421.586988	0.475243
421.965867	0.474470
422.344686	0.463293
422.723444	0.475855
423.102141	0.492249
423.480777	0.465372
423.859352	0.486405
424.237866	0.462970
424.616319	0.464072
424.994712	0.455153
425.373044	0.465741
425.751314	0.453703
426.129524	0.470319
426.507673	0.454028
426.885762	0.447199
427.263789	0.452770
427.641756	0.461989
428.019662	0.452746
428.397508	0.452123
428.775292	0.456627
429.153016	0.448075
429.530679	0.454869
429.908282	0.447580
430.285824	0.457754
430.663305	0.436310
431.040726	0.457577
431.418086	0.457086
431.795385	0.448886
432.172624	0.447739
432.549802	0.447970
432.926920	0.447084
433.303977	0.446544
433.680974	0.443793
434.057910	0.442585
434.434786	0.441939
434.811601	0.443583
435.188355	0.427067
435.565050	0.436225
435.941683	0.436606
436.318257	0.421685
436.694770	0.422491
437.071222	0.420160
437.447614	0.425199
437.823946	0.431591
438.200218	0.420725
438.576429	0.430158
438.952580	0.423576
439.328670	0.419787
439.704700	0.426095
440.080670	0.428088
440.456580	0.409214
440.832429	0.416944
441.208218	0.427765
441.583947	0.416795
441.959616	0.415934
442.335224	0.422044
442.710773	0.412207
443.086261	0.410798
443.461689	0.424785
443.837057	0.414331
444.212365	0.404471
444.587612	0.412017
444.962800	0.401271
445.337927	0.402730
445.712995	0.429162
446.088002	0.390681
446.462949	0.401765
446.837837	0.406251
447.212664	0.395058
447.587431	0.386263
447.962139	0.357258
448.336786	0.315881
448.711374	0.326025
449.085901	0.370789
449.460369	0.374878
449.834776	0.378639
450.209124	0.358009
450.583412	0.350210
450.957640	0.343314
451.331808	0.354791
451.705917	0.378673
452.079965	0.382984
452.453954	0.371272
452.827883	0.377880
453.201752	0.372553
453.575562	0.384030
453.949311	0.372078
454.323001	0.378358
454.696632	0.374319
455.070202	0.366992
455.443713	0.358637
455.817164	0.353497
456.190556	0.349432
456.563888	0.346801
456.937160	0.343808
457.310373	0.360804
457.683526	0.359739
458.056619	0.364956
458.429653	0.365812
458.802628	0.369192
459.175542	0.364017
459.548398	0.345833
459.921194	0.338623
460.293930	0.339120
460.666607	0.316529
461.039224	0.304757
461.411782	0.300334
461.784280	0.299692
462.156719	0.303697
462.529099	0.308079
462.901419	0.324134
463.273680	0.328814
463.645882	0.327920
464.018024	0.333843
464.390106	0.326955
464.762130	0.311204
465.134094	0.293995
465.505999	0.263348
465.877845	0.233730
466.249631	0.220771
466.621358	0.227947
466.993026	0.241891
467.364634	0.247967
467.736184	0.257037
468.107674	0.265738
468.479105	0.264952
468.850477	0.271650
469.221790	0.278622
469.593043	0.288580
469.964238	0.293294
470.335373	0.292779
470.706449	0.291198
471.077467	0.291502
471.448425	0.253901
471.819324	0.229171
472.190164	0.228630
472.560945	0.257666
472.931667	0.279879
473.302330	0.284181
473.672934	0.296143
474.043479	0.284163
474.413965	0.286052
474.784393	0.289476
475.154761	0.284374
475.525070	0.281627
475.895321	0.287437
476.265513	0.281412
476.635645	0.276753
477.005719	0.276664
477.375734	0.273156
477.745691	0.266247
478.115588	0.262845
478.485427	0.256613
478.855207	0.242987
479.224928	0.225560
479.594591	0.213754
479.964194	0.217145
480.333739	0.218546
480.703226	0.219783
481.072653	0.218249
481.442022	0.214015
481.811333	0.210428
482.180584	0.214166
482.549777	0.219398
482.918912	0.222616
483.287988	0.222338
483.657005	0.221913
484.025964	0.228202
484.394864	0.225834
484.763706	0.226319
485.132489	0.231323
485.501213	0.232383
485.869879	0.230704
486.238487	0.233373
486.607036	0.231810
486.975527	0.236332
487.343959	0.231883
487.712333	0.231297
488.080648	0.232436
488.448905	0.231755
488.817104	0.233100
489.185244	0.227422
489.553326	0.224369
489.921350	0.214321
490.289315	0.196508
490.657222	0.191371
491.025070	0.193017
491.392861	0.195029
491.760593	0.200565
492.128267	0.206346
492.495883	0.211856
492.863440	0.217946
493.230939	0.224603
493.598380	0.226133
493.965763	0.228301
494.333088	0.230339
494.700354	0.231822
495.067563	0.230852
495.434713	0.234292
495.801805	0.232191
496.168839	0.233600
496.535815	0.235093
496.902733	0.234808
497.269593	0.236513
497.636395	0.234157
498.003139	0.234689
498.369825	0.237196
498.736453	0.233979
499.103023	0.235519
499.469535	0.234807
499.835989	0.235111
500.202385	0.236008
500.568723	0.239241
500.935003	0.234511
501.301226	0.238589
501.667390	0.232879
502.033497	0.231171
502.399546	0.234063
502.765537	0.236039
503.131470	0.234535
503.497345	0.230746
503.863163	0.239262
504.228923	0.232430
504.594625	0.230906
504.960269	0.236653
505.325856	0.231858
505.691385	0.236121
506.056856	0.233006
506.422270	0.232526
506.787625	0.234670
507.152924	0.232187
507.518164	0.232429
507.883347	0.234055
508.248472	0.235975
508.613540	0.230904
508.978550	0.233448
509.343503	0.234270
509.708398	0.231640
510.073236	0.229020
510.438016	0.228901
510.802738	0.229878
511.167403	0.229038
511.532010	0.230759
511.896561	0.226702
512.261053	0.225154
512.625488	0.227147
512.989866	0.227544
513.354186	0.228045
513.718449	0.229830
514.082655	0.225915
514.446803	0.228352
514.810894	0.226016
515.174927	0.228777
515.538904	0.228123
515.902822	0.225111
516.266684	0.227417
516.630488	0.228726
516.994235	0.227560
517.357925	0.226185
517.721558	0.224517
518.085133	0.224040
518.448651	0.223765
518.812112	0.226307
519.175516	0.225890
519.538863	0.223717
519.902152	0.225348
520.265385	0.222190
520.628560	0.223700
520.991678	0.224079
521.354739	0.223033
521.717743	0.224208
522.080690	0.224737
522.443580	0.222032
522.806413	0.223114
523.169189	0.222427
523.531908	0.221190
523.894569	0.224617
524.257174	0.224743
524.619722	0.222305
524.982213	0.223373
525.344647	0.222176
525.707025	0.223336
526.069345	0.221358
526.431608	0.223237
526.793815	0.221033
527.155964	0.225164
527.518057	0.224320
527.880093	0.225042
528.242072	0.223672
528.603995	0.225810
528.965860	0.227154
529.327669	0.226732
529.689421	0.227196
530.051117	0.227699
530.412755	0.225974
530.774337	0.228013
531.135862	0.228804
531.497331	0.227786
531.858743	0.230694
532.220098	0.227225
532.581396	0.229821
532.942638	0.230364
533.303824	0.231237
533.664953	0.231039
534.026025	0.233053
534.387040	0.230738
534.747999	0.230581
535.108902	0.229375
535.469748	0.234887
535.830537	0.232563
536.191270	0.232901
536.551947	0.232376
536.912567	0.232204
537.273131	0.234061
537.633638	0.234359
537.994089	0.234589
538.354483	0.235985
538.714821	0.232589
539.075103	0.232496
539.435328	0.233194
539.795497	0.237305
540.155609	0.233447
540.515665	0.231941
540.875665	0.237202
541.235609	0.235990
541.595496	0.235927
541.955328	0.232542
542.315102	0.235218
542.674821	0.236410
543.034483	0.236493
543.394090	0.236339
543.753640	0.237835
544.113134	0.232860
544.472571	0.236257
544.831953	0.232967
545.191278	0.237620
545.550548	0.236680
545.909761	0.233457
546.268918	0.234198
546.628019	0.232649
546.987064	0.235236
547.346053	0.237136
547.704986	0.234821
548.063863	0.235110
548.422684	0.235224
548.781449	0.237094
549.140158	0.235040
549.498811	0.237678
549.857408	0.240468
550.215949	0.235355
550.574434	0.238644
550.932864	0.236444
551.291237	0.235141
551.649555	0.236711
552.007817	0.236354
552.366022	0.237086
552.724173	0.237198
553.082267	0.237661
553.440305	0.234300
553.798288	0.239098
554.156215	0.235539
554.514086	0.236279
554.871902	0.239589
555.229661	0.238511
555.587365	0.239204
555.945014	0.241785
556.302606	0.238755
556.660143	0.241357
557.017625	0.237868
557.375050	0.239807
557.732421	0.237122
558.089735	0.239031
558.446994	0.238937
558.804197	0.238265
559.161345	0.238003
559.518437	0.241694
559.875474	0.239576
560.232455	0.238944
560.589381	0.240142
560.946251	0.240291
561.303065	0.237570
561.659825	0.238913
562.016528	0.240661
562.373177	0.243531
562.729770	0.240340
563.086307	0.242519
563.442789	0.240452
563.799216	0.243397
564.155587	0.242259
564.511904	0.243432
564.868164	0.243230
565.224370	0.243025
565.580520	0.244846
565.936615	0.244781
566.292654	0.247652
566.648638	0.244841
567.004567	0.245803
567.360441	0.246477
567.716260	0.248174
568.072023	0.245988
568.427732	0.246700
568.783385	0.249131
569.138982	0.247268
569.494525	0.246844
569.850013	0.250061
570.205445	0.248282
570.560823	0.250618
570.916145	0.252884
571.271412	0.251281
571.626625	0.252723
571.981782	0.253315
572.336884	0.253886
572.691931	0.253773
573.046923	0.255240
573.401860	0.256249
573.756743	0.257985
574.111570	0.256593
574.466342	0.257265
574.821059	0.256320
575.175722	0.259357
575.530330	0.259005
575.884882	0.259269
576.239380	0.261237
576.593823	0.261961
576.948211	0.261244
577.302544	0.264218
577.656823	0.264516
578.011047	0.264012
578.365216	0.264937
578.719330	0.267277
579.073389	0.266342
579.427394	0.268023
579.781344	0.268797
580.135239	0.269824
580.489080	0.270105
580.842866	0.272689
581.196597	0.272924
581.550273	0.271213
581.903895	0.272344
582.257463	0.270459
582.610975	0.273757
582.964434	0.272954
583.317837	0.275504
583.671186	0.276052
584.024481	0.276188
584.377721	0.278600
584.730906	0.279519
585.084037	0.279035
585.437113	0.280545
585.790135	0.279712
586.143103	0.283133
586.496016	0.283582
586.848874	0.281512
587.201679	0.281949
587.554428	0.285339
587.907124	0.284328
588.259765	0.284964
588.612352	0.285635
588.964884	0.289373
589.317362	0.288861
589.669786	0.288490
590.022155	0.287261
590.374470	0.286852
590.726731	0.288728
591.078937	0.293967
591.431090	0.289852
591.783188	0.293953
592.135232	0.294528
592.487222	0.294449
592.839157	0.292685
593.191038	0.294882
593.542866	0.296729
593.894639	0.299833
594.246358	0.298584
594.598022	0.298210
594.949633	0.301136
595.301190	0.302361
595.652692	0.301530
596.004141	0.297290
596.355535	0.305126
596.706876	0.306189
597.058162	0.308616
597.409395	0.305689
597.760573	0.303404
598.111698	0.306890
598.462768	0.307092
598.813785	0.308234
599.164748	0.310015
599.515657	0.310408
599.866511	0.313561
600.217312	0.308959
600.568060	0.314255
600.918753	0.310370
601.269392	0.311409
601.619978	0.314858
601.970510	0.312270
602.320988	0.312787
602.671412	0.309878
603.021783	0.312828
603.372100	0.313979
603.722363	0.313559
604.072572	0.314682
604.422728	0.314089
604.772830	0.316472
605.122878	0.316307
605.472872	0.316475
605.822813	0.315186
606.172701	0.317903
606.522534	0.315207
606.872314	0.315432
607.222041	0.316216
607.571714	0.314045
607.921333	0.315370
608.270899	0.315019
608.620411	0.312092
608.969870	0.316030
609.319276	0.316346
609.668627	0.315940
610.017926	0.314666
610.367171	0.312727
610.716362	0.313724
611.065500	0.313667
611.414585	0.312844
611.763616	0.313137
612.112594	0.313853
612.461518	0.312876
612.810389	0.310749
613.159207	0.313022
613.507971	0.314632
613.856682	0.310406
614.205340	0.311847
614.553945	0.309068
614.902496	0.312806
615.250994	0.310909
615.599439	0.311458
615.947830	0.310975
616.296169	0.311633
616.644454	0.311866
616.992686	0.311393
617.340864	0.309739
617.688990	0.312868
618.037063	0.309860
618.385082	0.311404
618.733048	0.308074
619.080961	0.310789
619.428821	0.310029
619.776628	0.309786
620.124382	0.312219
620.472083	0.312219
620.819731	0.311737
621.167326	0.315606
621.514868	0.315242
621.862357	0.319649
622.209793	0.319124
622.557176	0.321284
622.904506	0.322477
623.251783	0.325022
623.599007	0.327291
623.946179	0.326338
624.293297	0.328659
624.640363	0.332713
624.987376	0.333001
625.334336	0.335419
625.681243	0.337699
626.028097	0.338211
626.374899	0.339188
626.721647	0.339685
627.068343	0.342781
627.414987	0.344005
627.761577	0.345868
628.108115	0.344214
628.454600	0.349298
628.801032	0.346798
629.147412	0.348566
629.493739	0.349544
629.840014	0.352606
630.186236	0.349930
630.532405	0.355454
630.878521	0.352656
631.224585	0.354896
631.570597	0.358637
631.916556	0.357173
632.262462	0.356913
632.608316	0.359430
632.954117	0.360199
633.299866	0.361325
633.645562	0.361262
633.991206	0.365974
634.336797	0.368431
634.682336	0.371461
635.027823	0.372831
635.373257	0.373619
635.718639	0.376697
636.063968	0.376212
636.409245	0.382037
636.754470	0.382197
637.099642	0.384709
637.444762	0.388080
637.789829	0.387210
638.134845	0.390851
638.479808	0.391410
638.824719	0.391575
639.169577	0.395499
639.514383	0.394670
639.859137	0.398891
640.203839	0.398300
640.548489	0.399146
640.893086	0.400101
641.237632	0.402066
641.582125	0.400648
641.926566	0.402894
642.270955	0.402146
642.615292	0.402150
642.959576	0.401907
643.303809	0.402428
643.647990	0.402374
643.992118	0.402526
644.336195	0.405750
644.680219	0.404157
645.024192	0.405259
645.368112	0.398381
645.711981	0.397552
646.055797	0.392776
646.399562	0.395042
646.743274	0.387719
647.086935	0.384373
647.430544	0.384888
647.774101	0.383624
648.117606	0.383698
648.461059	0.384249
648.804460	0.386010
649.147810	0.391353
649.491108	0.393091
649.834354	0.394488
650.177548	0.400041
650.520690	0.405651
650.863781	0.406378
651.206820	0.405720
651.549807	0.410572
651.892742	0.414999
652.235626	0.414216
652.578458	0.415226
652.921238	0.421794
653.263967	0.418934
653.606644	0.422318
653.949269	0.422637
654.291843	0.426533
654.634365	0.423762
654.976836	0.426202
655.319255	0.427218
655.661622	0.428320
656.003938	0.428595
656.346203	0.431401
656.688416	0.429502
657.030577	0.433021
657.372687	0.434899
657.714746	0.435396
658.056753	0.432501
658.398708	0.436856
658.740612	0.437153
659.082465	0.433329
659.424266	0.433960
659.766016	0.433532
660.107715	0.436558
660.449362	0.435060
660.790958	0.436069
661.132503	0.436543
661.473996	0.433996
661.815438	0.435391
662.156829	0.435240
662.498168	0.436500
662.839456	0.437314
663.180693	0.435569
663.521879	0.434776
663.863013	0.435464
664.204097	0.434008
664.545129	0.431258
664.886110	0.431801
665.227040	0.429333
665.567918	0.431842
665.908746	0.429431
666.249522	0.429168
666.590248	0.430333
666.930922	0.428212
667.271545	0.427451
667.612118	0.427275
667.952639	0.429337
668.293109	0.427903
668.633528	0.430085
668.973896	0.430148
669.314213	0.430849
669.654480	0.431822
669.994695	0.432213
670.334859	0.433348
670.674973	0.434158
671.015035	0.433622
671.355047	0.433854
671.695008	0.434890
672.034918	0.436808
672.374777	0.436199
672.714585	0.436970
673.054342	0.437060
673.394049	0.437088
673.733705	0.435018
674.073310	0.435908
674.412864	0.438369
674.752368	0.439542
675.091820	0.439711
675.431223	0.443924
675.770574	0.443941
676.109875	0.447404
676.449125	0.447082
676.788324	0.449877
677.127473	0.454952
677.466571	0.454374
677.805619	0.456610
678.144616	0.457323
678.483562	0.459562
678.822458	0.461884
679.161303	0.462037
679.500098	0.463050
679.838842	0.464567
680.177535	0.463911
680.516179	0.462866
680.854771	0.461698
681.193314	0.455293
681.531805	0.446959
681.870247	0.435173
682.208638	0.427708
682.546978	0.426620
682.885268	0.427974
683.223508	0.434610
683.561697	0.438578
683.899836	0.440715
684.237925	0.443465
684.575963	0.446971
684.913951	0.450045
685.251889	0.445401
685.589776	0.447437
685.927614	0.450333
686.265401	0.444308
686.603137	0.445398
686.940824	0.439818
687.278460	0.438584
687.616046	0.437356
687.953582	0.432576
688.291068	0.433946
688.628504	0.428828
688.965889	0.431283
689.303224	0.435523
689.640510	0.439210
689.977745	0.444703
690.314930	0.453110
690.652065	0.457772
690.989150	0.465204
691.326185	0.472030
691.663170	0.476738
692.000105	0.483692
692.336990	0.491147
692.673825	0.492745
693.010610	0.499560
693.347345	0.506186
693.684030	0.506813
694.020665	0.511488
694.357251	0.520289
694.693786	0.520153
695.030272	0.523736
695.366707	0.528011
695.703093	0.531730
696.039429	0.528837
696.375716	0.531438
696.711952	0.533981
697.048139	0.535696
697.384276	0.537730
697.720363	0.536972
698.056400	0.534954
698.392388	0.540356
698.728326	0.543580
699.064214	0.546456
699.400053	0.546127
699.735842	0.550825
700.071581	0.553005
700.407270	0.556702
700.742910	0.559170
701.078501	0.565306
701.414042	0.566502
701.749533	0.569393
702.084974	0.578202
702.420366	0.570451
702.755709	0.578177
703.091002	0.585633
703.426246	0.579781
703.761440	0.584551
704.096584	0.589198
704.431679	0.586283
704.766725	0.589568
705.101721	0.591085
705.436668	0.586823
705.771565	0.593344
706.106413	0.590165
706.441212	0.585269
706.775961	0.584528
707.110661	0.586333
707.445311	0.583735
707.779913	0.581337
708.114465	0.579403
708.448967	0.576084
708.783421	0.568185
709.117825	0.562350
709.452180	0.562287
709.786485	0.556742
710.120742	0.546017
710.454949	0.547628
710.789107	0.540241
711.123216	0.530970
711.457275	0.532510
711.791286	0.524201
712.125247	0.523140
712.459159	0.533449
712.793023	0.525377
713.126837	0.529358
713.460602	0.530602
713.794318	0.539001
714.127985	0.538749
714.461602	0.548710
714.795171	0.551974
715.128691	0.560098
715.462162	0.567737
715.795584	0.573335
716.128957	0.576656
716.462281	0.582701
716.795556	0.586137
717.128782	0.591787
717.461960	0.600524
717.795088	0.599511
718.128167	0.606236
718.461198	0.614004
718.794180	0.615140
719.127113	0.617435
719.459997	0.621028
719.792833	0.627306
720.125619	0.628429
720.458357	0.634532
720.791046	0.633842
721.123686	0.638974
721.456278	0.644596
721.788821	0.641569
722.121315	0.646694
722.453761	0.650101
722.786158	0.648168
723.118506	0.644616
723.450805	0.652659
723.783056	0.648937
724.115259	0.645279
724.447412	0.645609
724.779518	0.646374
725.111574	0.645319
725.443582	0.641759
725.775542	0.642947
726.107453	0.635878
726.439315	0.635568
726.771129	0.633753
727.102895	0.626937
727.434612	0.620233
727.766281	0.618874
728.097901	0.617341
728.429473	0.615981
728.760996	0.615615
729.092471	0.615539
729.423897	0.618927
729.755276	0.617750
730.086606	0.617593
730.417887	0.613424
730.749120	0.603787
731.080305	0.593914
731.411442	0.590265
731.742530	0.594486
732.073570	0.593784
732.404562	0.586664
732.735506	0.587676
733.066401	0.592575
733.397249	0.602535
733.728048	0.613526
734.058798	0.625667
734.389501	0.637434
734.720156	0.646859
735.050762	0.654962
735.381320	0.656535
735.711831	0.663753
736.042293	0.669322
736.372707	0.666471
736.703073	0.669303
737.033391	0.672123
737.363661	0.669279
737.693883	0.664532
738.024056	0.663167
738.354182	0.663957
738.684260	0.652772
739.014290	0.649497
739.344272	0.650045
739.674207	0.643054
740.004093	0.642891
740.333931	0.643330
740.663722	0.643627
740.993464	0.643693
741.323159	0.647123
741.652806	0.652775
741.982405	0.657218
742.311956	0.662954
742.641460	0.664381
742.970915	0.668052
743.300323	0.675541
743.629683	0.681356
743.958996	0.683609
744.288260	0.687482
744.617477	0.694292
744.946647	0.696401
745.275768	0.702454
745.604842	0.701620
745.933869	0.711332
746.262847	0.712424
746.591778	0.704365
746.920662	0.712103
747.249498	0.718377
747.578286	0.709765
747.907027	0.705141
748.235720	0.705853
748.564365	0.700704
748.892963	0.699838
749.221514	0.705110
749.550017	0.708628
749.878473	0.709340
750.206881	0.715778
750.535242	0.715761
750.863555	0.714810
751.191821	0.716705
751.520039	0.720010
751.848210	0.723358
752.176334	0.717953
752.504411	0.716228
752.832440	0.724374
753.160421	0.728443
753.488356	0.726828
753.816243	0.724440
754.144082	0.733165
754.471875	0.736545
754.799620	0.731884
755.127318	0.733131
755.454969	0.734069
755.782572	0.733943
756.110129	0.737405
756.437638	0.741305
756.765100	0.737010
757.092515	0.735296
757.419882	0.733433
757.747203	0.739190
758.074477	0.739214
758.401703	0.736239
758.728882	0.730501
759.056014	0.728688
759.383099	0.728857
759.710138	0.729009
760.037129	0.725066
760.364073	0.720636
760.690970	0.722645
761.017820	0.727446
761.344623	0.723276
761.671379	0.715073
761.998088	0.703217
762.324751	0.680297
762.651366	0.636998
762.977935	0.569250
763.304456	0.517728
763.630931	0.507400
763.957359	0.546943
764.283740	0.591465
764.610074	0.618567
764.936362	0.651043
765.262602	0.678105
765.588796	0.699234
765.914943	0.716454
766.241044	0.735211
766.567097	0.741392
766.893104	0.752176
767.219064	0.758336
767.544978	0.765310
767.870845	0.778257
768.196665	0.783145
768.522438	0.780783
768.848165	0.782224
769.173846	0.789811
769.499479	0.795295
769.825066	0.799788
770.150607	0.804189
770.476101	0.799614
770.801548	0.801622
771.126949	0.812851
771.452303	0.816682
771.777611	0.814979
772.102872	0.814075
772.428087	0.819855
772.753256	0.823105
773.078378	0.824705
773.403453	0.833406
773.728482	0.838503
774.053465	0.831613
774.378401	0.834471
774.703291	0.844278
775.028135	0.844151
775.352932	0.844539
775.677683	0.848997
776.002388	0.849271
776.327046	0.848376
776.651658	0.853232
776.976224	0.855317
777.300743	0.855415
777.625216	0.857159
777.949643	0.859774
778.274024	0.858532
778.598359	0.860552
778.922647	0.859197
779.246889	0.859920
779.571086	0.864742
779.895236	0.865910
780.219339	0.862916
780.543397	0.858686
780.867409	0.858843
781.191374	0.861097
781.515294	0.862799
781.839167	0.861819
782.162995	0.863719
782.486776	0.861541
782.810511	0.862084
783.134201	0.867201
783.457844	0.865829
783.781441	0.867592
784.104993	0.872944
784.428498	0.872573
784.751958	0.868778
785.075372	0.871375
785.398739	0.875215
785.722061	0.870252
786.045337	0.867080
786.368568	0.871586
786.691752	0.873172
787.014891	0.859129
787.337983	0.850426
787.661030	0.842633
787.984031	0.824911
788.306987	0.812958
788.629897	0.814451
788.952760	0.818254
789.275579	0.821956
789.598351	0.838675
789.921078	0.852264
790.243759	0.852925
790.566395	0.858617
790.888984	0.866132
791.211529	0.871145
791.534027	0.873931
791.856480	0.876140
792.178888	0.880803
792.501249	0.883580
792.823566	0.885738
793.145836	0.886078
793.468062	0.886247
793.790241	0.887843
794.112375	0.885221
794.434464	0.882536
794.756507	0.881399
795.078505	0.878890
795.400457	0.873952
795.722364	0.862151
796.044226	0.856374
796.366042	0.854089
796.687812	0.856607
797.009538	0.853822
797.331218	0.857726
797.652852	0.861454
797.974442	0.865818
798.295986	0.866616
798.617484	0.868314
798.938938	0.873544
799.260346	0.878167
799.581709	0.879452
799.903026	0.882695
800.224299	0.882525
800.545526	0.886482
800.866708	0.890399
801.187845	0.894461
801.508936	0.894070
801.829983	0.891822
802.150984	0.896062
802.471940	0.900881
802.792851	0.899655
803.113717	0.900578
803.434538	0.898648
803.755314	0.900965
804.076045	0.901990
804.396731	0.901286
804.717372	0.901468
805.037967	0.904622
805.358518	0.901922
805.679024	0.898005
805.999485	0.899224
806.319901	0.898412
806.640272	0.901837
806.960598	0.899854
807.280879	0.896597
807.601115	0.894131
807.921306	0.898298
808.241453	0.899702
808.561554	0.897024
808.881611	0.896445
809.201623	0.898138
809.521590	0.899648
809.841513	0.900023
810.161390	0.897207
810.481223	0.900078
810.801011	0.904291
811.120755	0.904962
811.440453	0.904684
811.760107	0.904250
812.079716	0.903796
812.399281	0.906103
812.718801	0.908819
813.038276	0.910675
813.357707	0.909776
813.677093	0.907709
813.996434	0.909616
814.315731	0.911772
814.634983	0.912077
814.954191	0.911941
815.273354	0.906731
815.592473	0.903791
815.911547	0.903746
816.230577	0.901568
816.549562	0.898799
816.868502	0.898054
817.187399	0.896226
817.506250	0.890188
817.825058	0.891219
818.143821	0.888211
818.462539	0.883283
818.781213	0.875340
819.099843	0.864905
819.418429	0.847387
819.736970	0.831086
820.055466	0.809367
820.373919	0.784237
820.692327	0.750599
821.010691	0.714601
821.329011	0.634419
821.647286	0.517660
821.965517	0.403149
822.283704	0.359473
822.601847	0.360696
822.919945	0.396495
823.237999	0.431213
823.556010	0.479439
823.873976	0.534794
824.191897	0.586898
824.509775	0.630032
824.827609	0.675943
825.145398	0.700695
825.463144	0.700986
825.780845	0.684575
826.098502	0.665865
826.416116	0.620104
826.733685	0.574573
827.051210	0.565624
827.368692	0.581125
827.686129	0.618604
828.003522	0.673325
828.320872	0.721284
828.638177	0.766294
828.955439	0.798836
829.272656	0.821561
829.589830	0.839347
829.906960	0.855437
830.224046	0.867739
830.541088	0.878865
830.858086	0.882662
831.175041	0.890336
831.491952	0.888244
831.808819	0.885063
832.125642	0.877715
832.442421	0.865059
832.759157	0.842306
833.075849	0.792752
833.392497	0.728924
833.709101	0.687325
834.025662	0.697363
834.342179	0.730038
834.658653	0.768948
834.975083	0.805582
835.291469	0.833237
835.607811	0.855650
835.924110	0.872703
836.240366	0.890372
836.556578	0.902929
836.872746	0.911389
837.188871	0.918010
837.504952	0.923348
837.820990	0.925909
838.136984	0.929429
838.452935	0.933157
838.768842	0.933434
839.084706	0.927337
839.400526	0.901246
839.716303	0.859700
840.032037	0.836883
840.347727	0.841290
840.663373	0.858930
840.978977	0.882165
841.294537	0.905021
841.610054	0.920718
841.925527	0.928525
842.240957	0.935600
842.556344	0.942636
842.871687	0.948653
843.186987	0.951723
843.502244	0.954398
843.817458	0.956086
844.132629	0.960241
844.447756	0.963665
844.762840	0.964210
845.077881	0.964799
845.392879	0.963040
845.707833	0.965705
846.022745	0.968476
846.337613	0.968110
846.652438	0.969703
846.967221	0.968880
847.281960	0.969556
847.596656	0.971255
847.911309	0.971560
848.225919	0.970636
848.540485	0.972917
848.855009	0.973906
849.169490	0.973120
849.483928	0.973357
849.798323	0.971951
850.112675	0.974781
850.426984	0.973417
850.741251	0.974442
851.055474	0.973987
851.369654	0.972748
851.683792	0.972251
851.997887	0.973648
852.311938	0.974155
852.625947	0.972894
852.939914	0.972007
853.253837	0.973720
853.567718	0.974854
853.881555	0.974604
854.195350	0.973458
854.509103	0.973912
854.822812	0.974219
855.136479	0.975010
855.450103	0.973082
855.763685	0.972336
856.077224	0.972944
856.390720	0.974964
856.704173	0.974697
857.017584	0.972082
857.330953	0.971676
857.644278	0.971183
857.957561	0.972430
858.270802	0.973380
858.584000	0.971552
858.897155	0.970348
859.210268	0.970675
859.523339	0.972989
859.836367	0.974547
860.149352	0.974647
860.462295	0.973165
860.775195	0.972741
861.088054	0.971698
861.400869	0.974111
861.713642	0.973087
862.026373	0.975600
862.339062	0.975594
862.651708	0.972112
862.964312	0.972618
863.276873	0.972378
863.589392	0.971879
863.901869	0.969834
864.214303	0.968950
864.526696	0.967970
864.839045	0.966876
865.151353	0.966112
865.463619	0.964627
865.775842	0.967294
866.088023	0.967421
866.400162	0.966509
866.712258	0.967326
867.024313	0.966811
867.336325	0.969003
867.648296	0.968671
867.960224	0.965504
868.272110	0.966351
868.583954	0.968487
868.895755	0.967229
869.207515	0.965280
869.519233	0.964228
869.830909	0.963261
870.142542	0.965908
870.454134	0.964875
870.765684	0.963357
871.077191	0.962429
871.388657	0.961921
871.700081	0.962988
872.011463	0.962924
872.322803	0.961227
872.634101	0.959506
872.945357	0.955715
873.256571	0.955275
873.567744	0.956679
873.878874	0.958081
874.189963	0.956568
874.501010	0.956720
874.812015	0.953255
875.122979	0.954105
875.433900	0.956308
875.744780	0.957560
876.055618	0.953073
876.366415	0.952466
876.677169	0.952960
876.987882	0.955135
877.298554	0.954816
877.609183	0.950089
877.919771	0.948297
878.230317	0.945751
878.540822	0.941474
878.851285	0.937833
879.161707	0.929403
879.472087	0.918388
879.782425	0.899470
880.092722	0.864749
880.402977	0.811226
880.713191	0.747091
881.023363	0.686239
881.333494	0.651221
881.643583	0.624482
881.953631	0.624061
882.263637	0.652235
882.573602	0.692903
882.883526	0.718646
883.193408	0.744186
883.503248	0.767396
883.813048	0.795528
884.122806	0.826170
884.432522	0.850878
884.742197	0.869758
885.051831	0.881225
885.361424	0.893110
885.670975	0.905273
885.980485	0.915394
886.289954	0.921874
886.599382	0.925886
886.908768	0.930105
887.218113	0.936450
887.527417	0.942217
887.836680	0.944659
888.145901	0.945995
888.455082	0.951414
888.764221	0.954511
889.073319	0.955671
889.382376	0.956392
889.691392	0.956367
890.000366	0.957097
890.309300	0.957253
890.618193	0.956649
890.927044	0.954768
891.235855	0.955105
891.544625	0.954379
891.853353	0.956105
892.162041	0.952174
892.470687	0.946543
892.779293	0.939986
893.087858	0.935539
893.396381	0.928206
893.704864	0.913772
894.013306	0.888775
894.321707	0.862931
894.630068	0.847348
894.938387	0.841160
895.246665	0.842836
895.554903	0.856560
895.863100	0.870334
896.171256	0.887393
896.479371	0.908110
896.787446	0.920043
897.095480	0.927273
897.403473	0.930049
897.711425	0.935299
898.019336	0.942081
898.327207	0.946055
898.635038	0.946399
898.942827	0.948275
899.250576	0.951094
899.558284	0.955593
899.865952	0.957640
900.173579	0.958285
900.481165	0.959158
900.788711	0.962432
901.096216	0.963925
901.403681	0.965190
901.711105	0.965768
902.018489	0.965480
902.325832	0.967044
902.633135	0.963779
902.940397	0.958953
903.247619	0.944725
903.554800	0.919950
903.861941	0.878470
904.169041	0.841211
904.476101	0.823806
904.783121	0.824359
905.090100	0.840552
905.397039	0.863074
905.703938	0.885850
906.010796	0.907992
906.317614	0.923929
906.624391	0.937216
906.931129	0.946912
907.237826	0.954586
907.544483	0.961812
907.851099	0.967070
908.157675	0.970266
908.464211	0.973464
908.770707	0.974430
909.077163	0.979573
909.383578	0.978493
909.689954	0.979259
909.996289	0.980391
910.302584	0.981520
910.608839	0.983191
910.915054	0.982509
911.221229	0.982021
911.527363	0.980133
911.833458	0.981335
912.139513	0.982014
912.445527	0.980647
912.751502	0.979005
913.057436	0.975163
913.363331	0.973665
913.669186	0.971652
913.975000	0.964206
914.280775	0.958092
914.586510	0.949818
914.892205	0.936922
915.197859	0.912851
915.503475	0.886944
915.809050	0.866036
916.114585	0.859444
916.420081	0.856676
916.725536	0.853695
917.030952	0.862762
917.336328	0.875829
917.641665	0.890973
917.946961	0.906871
918.252218	0.919634
918.557435	0.927515
918.862612	0.937223
919.167750	0.943637
919.472848	0.950789
919.777906	0.957131
920.082925	0.961517
920.387904	0.964518
920.692843	0.965901
920.997743	0.967320
921.302603	0.971801
921.607423	0.971400
921.912204	0.974830
922.216946	0.976659
922.521647	0.977667
922.826310	0.977499
923.130932	0.981712
923.435516	0.983451
923.740059	0.984398
924.044564	0.982711
924.349028	0.983503
924.653454	0.986131
924.957840	0.988035
925.262186	0.987630
925.566493	0.987886
925.870761	0.989010
926.174989	0.990016
926.479178	0.991761
926.783328	0.991575
927.087438	0.991299
927.391509	0.991663
927.695541	0.993019
927.999533	0.993495
928.303486	0.994564
928.607400	0.994342
928.911275	0.995067
929.215110	0.995724
929.518906	0.996252
929.822663	0.995537
930.126381	0.996298
930.430060	0.994731
930.733699	0.995102
931.037299	0.994934
931.340861	0.994234
931.644383	0.993383
931.947866	0.994323
932.251309	0.995522
932.554714	0.993700
932.858080	0.995497
933.161407	0.993375
933.464694	0.994851
933.767943	0.993921
934.071153	0.995687
934.374323	0.996495
934.677455	0.995610
934.980548	0.995982
935.283602	0.996171
935.586617	0.994633
935.889593	0.997239
936.192530	0.995554
936.495428	0.995089
936.798287	0.993918
937.101108	0.994825
937.403890	0.993292
937.706632	0.994291
938.009336	0.991141
938.312002	0.990062
938.614628	0.988498
938.917216	0.986211
939.219765	0.985527
939.522275	0.986664
939.824747	0.986911
940.127179	0.986892
940.429573	0.989357
940.731929	0.987931
941.034246	0.988497
941.336524	0.987740
941.638763	0.989306
941.940964	0.988881
942.243126	0.989432
942.545250	0.992260
942.847335	0.991560
943.149381	0.992605
943.451389	0.991540
943.753359	0.993736
944.055290	0.994232
944.357182	0.993892
944.659036	0.994634
944.960851	0.994841
945.262628	0.995128
945.564367	0.994503
945.866067	0.995622
946.167729	0.994005
946.469352	0.993959
946.770937	0.991882
947.072484	0.995299
947.373992	0.994864
947.675462	0.993860
947.976893	0.994023
948.278286	0.996962
948.579641	0.996475
948.880958	0.994710
949.182236	0.995047
949.483476	0.996805
949.784678	0.995346
950.085841	0.995232
950.386967	0.995224
950.688054	0.995368
950.989103	0.994175
951.290114	0.993410
951.591087	0.994619
951.892021	0.993262
952.192917	0.992073
952.493776	0.992866
952.794596	0.992470
953.095378	0.991821
953.396122	0.991507
953.696828	0.993271
953.997496	0.994181
954.298126	0.993764
954.598718	0.994220
954.899272	0.994926
955.199788	0.995212
955.500266	0.996437
955.800706	0.997517
956.101108	0.997341
956.401472	0.998639
956.701798	0.997195
957.002087	0.997464
957.302337	0.998118
957.602550	0.999273
957.902724	0.999942
958.202861	0.998651
958.502960	0.999883
958.803022	1.000442
959.103045	1.000911
959.403031	1.001437
959.702979	1.000766
960.002889	1.001135
960.302762	1.000177
960.602596	1.001821
960.902393	1.000797
961.202153	1.001525
961.501875	1.001492
961.801559	1.001442
962.101205	1.000562
962.400814	1.002217
962.700385	1.002494
962.999918	1.001527
963.299414	1.000725
963.598873	1.002034
963.898293	1.001851
964.197677	1.001726
964.497022	1.001717
964.796331	1.000890
965.095601	1.002716
965.394835	1.002066
965.694030	1.001501
965.993189	1.000038
966.292309	1.002484
966.591393	1.001667
966.890439	1.001963
967.189447	1.001528
967.488419	1.001589
967.787353	1.002420
968.086249	1.002401
968.385108	1.001501
968.683930	1.002838
968.982714	1.002318
969.281462	1.002077
969.580172	1.001482
969.878844	1.002035
970.177480	1.001211
970.476078	1.002478
970.774639	1.001046
971.073162	1.001709
971.371649	1.001654
971.670098	1.000347
971.968510	1.001769
972.266885	0.999979
972.565223	1.000500
972.863524	0.999936
973.161788	1.001347
973.460014	1.002046
973.758204	1.000379
974.056356	1.000609
974.354471	1.001062
974.652550	1.001845
974.950591	1.000427
975.248595	1.001054
975.546563	1.001613
975.844493	1.001915
976.142386	1.000024
976.440243	1.002918
976.738062	1.002072
977.035845	1.001821
977.333590	1.002315
977.631299	1.001408
977.928971	1.000972
978.226606	1.002132
978.524204	0.999990
978.821765	1.003038
979.119290	1.001855
979.416777	1.002140
979.714228	1.001496
980.011642	1.002402
980.309020	1.000975
980.606360	1.001621
980.903664	1.000876
981.200931	1.000922
981.498162	1.000128
981.795356	1.000000
982.092513	0.998845
982.389633	0.999670
982.686717	0.996009
982.983764	0.995739
983.280775	0.994847
983.577749	0.995417
983.874686	0.996762
984.171587	0.996037
984.468451	0.997331
984.765279	1.000333
985.062070	0.998618
985.358824	0.999922
985.655543	1.000869
985.952224	1.000804
986.248869	1.000321
986.545478	1.002690
986.842050	1.002153
987.138586	1.001029
987.435086	1.002205
987.731549	1.003827
988.027975	1.003321
988.324366	1.002198
988.620719	1.003879
988.917037	1.003225
989.213318	1.003121
989.509563	1.002274
989.805772	1.003031
990.101944	1.004124
990.398080	1.003200
990.694180	1.003598
990.990244	1.002460
991.286271	1.003741
991.582262	1.004652
991.878217	1.002269
992.174136	1.004038
992.470019	1.002851
992.765865	1.004246
993.061676	1.003211
993.357450	1.004753
993.653188	1.003630
993.948890	1.002587
994.244556	1.002244
994.540186	1.002878
994.835780	1.002347
995.131337	1.003787
995.426859	1.001995
995.722345	1.001955
996.017795	1.000785
996.313208	1.000913
996.608586	1.000290
996.903928	1.001085
997.199234	1.000922
997.494504	1.002056
997.789738	1.000370
998.084936	1.001698
998.380099	1.001736
998.675225	1.002365
998.970316	1.002473
999.265371	1.002782
999.560390	1.002200
999.855373	1.002195
1000.150320	1.002541
1000.445232	1.002919
1000.740108	1.003053
1001.034948	1.002694
1001.329752	1.004068
1001.624521	1.003568
1001.919254	1.003096
1002.213951	1.003229
1002.508613	1.002557
1002.803239	1.002227
1003.097829	1.004395
1003.392384	1.002728
1003.686903	1.004319
1003.981386	1.003075
1004.275834	1.003945
1004.570246	1.002657
1004.864623	1.003885
1005.158964	1.003894
1005.453270	1.003520
1005.747540	1.002672
1006.041775	1.004564
1006.335974	1.003995
1006.630138	1.004745
1006.924266	1.002863
1007.218359	1.003370
1007.512416	1.004825
1007.806438	1.003937
1008.100425	1.003379
1008.394376	1.003797
1008.688292	1.004046
1008.982172	1.002584
1009.276017	1.005185
1009.569827	1.004255
1009.863602	1.003522
1010.157341	1.005257
1010.451045	1.003632
1010.744714	1.005433
1011.038347	1.004451
1011.331945	1.002317
1011.625508	1.004386
1011.919036	1.002484
1012.212528	1.003891
1012.505986	1.004219
1012.799408	1.004082
1013.092795	1.004907
1013.386147	1.004028
1013.679464	1.005128
1013.972745	1.004405
1014.265992	1.003845
1014.559204	1.003789
1014.852380	1.004181
1015.145521	1.003616
1015.438628	1.004386
1015.731699	1.003393
1016.024736	1.003783
1016.317737	1.004347
1016.610703	1.004193
1016.903635	1.003648
1017.196531	1.004475
1017.489393	1.003738
1017.782219	1.003179
1018.075011	1.003381
1018.367768	1.003823
1018.660490	1.003250
1018.953177	1.003250
1019.245829	1.003250
