Dividing Wavelength (nm)	Counts (n)	Blue Motor Position (mm): 27.700000	Red Motor Position (mm): 0.000000	
326.493990	1.000332
326.888308	1.000332
327.282561	1.000332
327.676750	1.000743
328.070874	1.001584
328.464933	1.001325
328.858929	1.001826
329.252859	1.000315
329.646726	1.000759
330.040528	1.001369
330.434265	1.000817
330.827938	0.999711
331.221547	1.001063
331.615091	1.002316
332.008571	1.002528
332.401986	1.000970
332.795338	1.001374
333.188625	1.001709
333.581847	1.000269
333.975006	1.001261
334.368100	1.001370
334.761129	1.000125
335.154095	1.000390
335.546996	1.000767
335.939833	0.999216
336.332606	0.999858
336.725315	0.999795
337.117960	1.001960
337.510540	0.999574
337.903056	0.999110
338.295508	1.002550
338.687896	1.000044
339.080220	0.999731
339.472480	0.999615
339.864676	1.000607
340.256807	0.998976
340.648875	0.999857
341.040879	0.998783
341.432818	1.001041
341.824694	0.998905
342.216506	0.999462
342.608253	0.999657
342.999937	0.999584
343.391557	0.999254
343.783113	1.001093
344.174605	1.000326
344.566033	0.998887
344.957397	1.000744
345.348697	1.000604
345.739934	0.999976
346.131106	1.000439
346.522215	0.999512
346.913260	0.999463
347.304241	0.998750
347.695159	0.998472
348.086012	1.000362
348.476802	0.998664
348.867528	0.999548
349.258191	0.998329
349.648789	0.999103
350.039324	0.999154
350.429796	0.999225
350.820203	0.999297
351.210548	0.999930
351.600828	0.999553
351.991045	1.000064
352.381198	0.999702
352.771288	0.999700
353.161314	0.999634
353.551276	0.998730
353.941175	0.997821
354.331010	1.000981
354.720782	0.999935
355.110490	0.998866
355.500135	0.999707
355.889717	0.998021
356.279235	0.998255
356.668689	0.999878
357.058080	0.998838
357.447408	0.997714
357.836672	0.998775
358.225873	0.998983
358.615010	0.998803
359.004084	0.997081
359.393095	0.999462
359.782043	0.997503
360.170927	0.998110
360.559748	0.998314
360.948505	0.998168
361.337199	0.997491
361.725830	0.998958
362.114398	0.997623
362.502903	0.997435
362.891344	0.997871
363.279722	0.997795
363.668037	0.998116
364.056289	0.997021
364.444478	0.998719
364.832603	0.997533
365.220665	0.998229
365.608665	0.998467
365.996601	0.997562
366.384474	0.996315
366.772284	0.997423
367.160031	0.995135
367.547715	0.996720
367.935336	0.995858
368.322893	0.994738
368.710388	0.993533
369.097820	0.991495
369.485189	0.989719
369.872495	0.986711
370.259738	0.986424
370.646918	0.981777
371.034035	0.979903
371.421090	0.978313
371.808081	0.971931
372.195010	0.971050
372.581875	0.964924
372.968678	0.960361
373.355418	0.957170
373.742096	0.948516
374.128710	0.945086
374.515262	0.940662
374.901751	0.934967
375.288177	0.929444
375.674540	0.922949
376.060841	0.916237
376.447079	0.910428
376.833254	0.902844
377.219367	0.898385
377.605417	0.887946
377.991404	0.884452
378.377329	0.877669
378.763191	0.871271
379.148991	0.861945
379.534727	0.854075
379.920402	0.847209
380.306013	0.841774
380.691563	0.829573
381.077049	0.824578
381.462474	0.819886
381.847835	0.807615
382.233134	0.804299
382.618371	0.803868
383.003545	0.786053
383.388657	0.783158
383.773706	0.776390
384.158693	0.771856
384.543618	0.767322
384.928480	0.758488
385.313280	0.747942
385.698017	0.748254
386.082692	0.736160
386.467305	0.735035
386.851856	0.729981
387.236344	0.724610
387.620770	0.718753
388.005133	0.712483
388.389435	0.707360
388.773674	0.704687
389.157851	0.696580
389.541965	0.693535
389.926018	0.700436
390.310008	0.687321
390.693936	0.684091
391.077802	0.676726
391.461606	0.678019
391.845348	0.667307
392.229027	0.666446
392.612645	0.665112
392.996200	0.650987
393.379694	0.645094
393.763125	0.634865
394.146494	0.640075
394.529801	0.629960
394.913047	0.622706
395.296230	0.628755
395.679351	0.619713
396.062410	0.616662
396.445408	0.618305
396.828343	0.614625
397.211217	0.609338
397.594028	0.621746
397.976778	0.612027
398.359466	0.608655
398.742092	0.604147
399.124656	0.615812
399.507158	0.603651
399.889598	0.601708
400.271977	0.592271
400.654294	0.596715
401.036549	0.595853
401.418742	0.599401
401.800874	0.586064
402.182944	0.582347
402.564952	0.574399
402.946898	0.575914
403.328783	0.576760
403.710606	0.588092
404.092367	0.563058
404.474067	0.567966
404.855705	0.567052
405.237282	0.575201
405.618797	0.562573
406.000250	0.557582
406.381642	0.547783
406.762972	0.552154
407.144240	0.551516
407.525447	0.550531
407.906593	0.544068
408.287677	0.539519
408.668700	0.548422
409.049661	0.542534
409.430560	0.536904
409.811399	0.546152
410.192176	0.527219
410.572891	0.534758
410.953545	0.522665
411.334138	0.536341
411.714669	0.527976
412.095139	0.540720
412.475547	0.525272
412.855894	0.526910
413.236180	0.525854
413.616405	0.531111
413.996568	0.521569
414.376670	0.527943
414.756711	0.533255
415.136691	0.529495
415.516609	0.521051
415.896466	0.517396
416.276262	0.513543
416.655997	0.514653
417.035670	0.496918
417.415283	0.488382
417.794834	0.493465
418.174324	0.498389
418.553753	0.507958
418.933121	0.489580
419.312428	0.483759
419.691674	0.489195
420.070859	0.478119
420.449983	0.485931
420.829045	0.475090
421.208047	0.484187
421.586988	0.477058
421.965867	0.476425
422.344686	0.465173
422.723444	0.477987
423.102141	0.494559
423.480777	0.467259
423.859352	0.488328
424.237866	0.465557
424.616319	0.466820
424.994712	0.457308
425.373044	0.467562
425.751314	0.456033
426.129524	0.472092
426.507673	0.455461
426.885762	0.449002
427.263789	0.455142
427.641756	0.464452
428.019662	0.454568
428.397508	0.453451
428.775292	0.458659
429.153016	0.450710
429.530679	0.456602
429.908282	0.449910
430.285824	0.460297
430.663305	0.438428
431.040726	0.459655
431.418086	0.459194
431.795385	0.451856
432.172624	0.450921
432.549802	0.451178
432.926920	0.450682
433.303977	0.450008
433.680974	0.447490
434.057910	0.445978
434.434786	0.445363
434.811601	0.448440
435.188355	0.431212
435.565050	0.440825
435.941683	0.442790
436.318257	0.427310
436.694770	0.428902
437.071222	0.427796
437.447614	0.432953
437.823946	0.439898
438.200218	0.429563
438.576429	0.440119
438.952580	0.434174
439.328670	0.431961
439.704700	0.440168
440.080670	0.442301
440.456580	0.425262
440.832429	0.435091
441.208218	0.447026
441.583947	0.437758
441.959616	0.439058
442.335224	0.446315
442.710773	0.439073
443.086261	0.439582
443.461689	0.454252
443.837057	0.447130
444.212365	0.440039
444.587612	0.448786
444.962800	0.441986
445.337927	0.446250
445.712995	0.473765
446.088002	0.440370
446.462949	0.453802
446.837837	0.462161
447.212664	0.453417
447.587431	0.450628
447.962139	0.428530
448.336786	0.395070
448.711374	0.408680
449.085901	0.452695
449.460369	0.460347
449.834776	0.467613
450.209124	0.455005
450.583412	0.455384
450.957640	0.452244
451.331808	0.467679
451.705917	0.493033
452.079965	0.502497
452.453954	0.498249
452.827883	0.509346
453.201752	0.511232
453.575562	0.525952
453.949311	0.523948
454.323001	0.534507
454.696632	0.537229
455.070202	0.539310
455.443713	0.539665
455.817164	0.542912
456.190556	0.548084
456.563888	0.553379
456.937160	0.557452
457.310373	0.576850
457.683526	0.583837
458.056619	0.596244
458.429653	0.603418
458.802628	0.612875
459.175542	0.616580
459.548398	0.613814
459.921194	0.617838
460.293930	0.625753
460.666607	0.621478
461.039224	0.622025
461.411782	0.627597
461.784280	0.635361
462.156719	0.646665
462.529099	0.657845
462.901419	0.675378
463.273680	0.685974
463.645882	0.692960
464.018024	0.706398
464.390106	0.709848
464.762130	0.710308
465.134094	0.710849
465.505999	0.703196
465.877845	0.696916
466.249631	0.699939
466.621358	0.713455
466.993026	0.730025
467.364634	0.741511
467.736184	0.753295
468.107674	0.765029
468.479105	0.773453
468.850477	0.782836
469.221790	0.793112
469.593043	0.804320
469.964238	0.814139
470.335373	0.819864
470.706449	0.827288
471.077467	0.833063
471.448425	0.830309
471.819324	0.829455
472.190164	0.835273
472.560945	0.850670
472.931667	0.862149
473.302330	0.868179
473.672934	0.876077
474.043479	0.879938
474.413965	0.885712
474.784393	0.891020
475.154761	0.895453
475.525070	0.900425
475.895321	0.905812
476.265513	0.909460
476.635645	0.913234
477.005719	0.917566
477.375734	0.921235
477.745691	0.924350
478.115588	0.927759
478.485427	0.930942
478.855207	0.932985
479.224928	0.933348
479.594591	0.934993
479.964194	0.939471
480.333739	0.944242
480.703226	0.948119
481.072653	0.950222
481.442022	0.952973
481.811333	0.954734
482.180584	0.958009
482.549777	0.961084
482.918912	0.962564
483.287988	0.965395
483.657005	0.966910
484.025964	0.970027
484.394864	0.971501
484.763706	0.972773
485.132489	0.975622
485.501213	0.976618
485.869879	0.977595
486.238487	0.978536
486.607036	0.981378
486.975527	0.981486
487.343959	0.982216
487.712333	0.983829
488.080648	0.984146
488.448905	0.985218
488.817104	0.986042
489.185244	0.986873
489.553326	0.987389
489.921350	0.988408
490.289315	0.986919
490.657222	0.988103
491.025070	0.988340
491.392861	0.988682
491.760593	0.989368
492.128267	0.990099
492.495883	0.990431
492.863440	0.991067
493.230939	0.991119
493.598380	0.992307
493.965763	0.991663
494.333088	0.991441
494.700354	0.992132
495.067563	0.992333
495.434713	0.992567
495.801805	0.992840
496.168839	0.993144
496.535815	0.993230
496.902733	0.993275
497.269593	0.993145
497.636395	0.993120
498.003139	0.993141
498.369825	0.994594
498.736453	0.993533
499.103023	0.994552
499.469535	0.994069
499.835989	0.994138
500.202385	0.994390
500.568723	0.994518
500.935003	0.994941
501.301226	0.994983
501.667390	0.994809
502.033497	0.995091
502.399546	0.994270
502.765537	0.994504
503.131470	0.994793
503.497345	0.995472
503.863163	0.995036
504.228923	0.995040
504.594625	0.994963
504.960269	0.995199
505.325856	0.996025
505.691385	0.995644
506.056856	0.995176
506.422270	0.995414
506.787625	0.995915
507.152924	0.995606
507.518164	0.995573
507.883347	0.995448
508.248472	0.995586
508.613540	0.995298
508.978550	0.995914
509.343503	0.995324
509.708398	0.996402
510.073236	0.995447
510.438016	0.995547
510.802738	0.995503
511.167403	0.995738
511.532010	0.996587
511.896561	0.996313
512.261053	0.995679
512.625488	0.995723
512.989866	0.995476
513.354186	0.994868
513.718449	0.995783
514.082655	0.994942
514.446803	0.995742
514.810894	0.995731
515.174927	0.996836
515.538904	0.996679
515.902822	0.995665
516.266684	0.995925
516.630488	0.996184
516.994235	0.996152
517.357925	0.996502
517.721558	0.996489
518.085133	0.995991
518.448651	0.995635
518.812112	0.996547
519.175516	0.996035
519.538863	0.995765
519.902152	0.996272
520.265385	0.995900
520.628560	0.995671
520.991678	0.996224
521.354739	0.996068
521.717743	0.996259
522.080690	0.995660
522.443580	0.996062
522.806413	0.996014
523.169189	0.996540
523.531908	0.995311
523.894569	0.995890
524.257174	0.996159
524.619722	0.996220
524.982213	0.996169
525.344647	0.995608
525.707025	0.995550
526.069345	0.995951
526.431608	0.996915
526.793815	0.996772
527.155964	0.996350
527.518057	0.995587
527.880093	0.996324
528.242072	0.996488
528.603995	0.995628
528.965860	0.996449
529.327669	0.996435
529.689421	0.995751
530.051117	0.996420
530.412755	0.996245
530.774337	0.996052
531.135862	0.996708
531.497331	0.996267
531.858743	0.996509
532.220098	0.996336
532.581396	0.996171
532.942638	0.997042
533.303824	0.997043
533.664953	0.995549
534.026025	0.996575
534.387040	0.996391
534.747999	0.995371
535.108902	0.995910
535.469748	0.996897
535.830537	0.996825
536.191270	0.996112
536.551947	0.995924
536.912567	0.995865
537.273131	0.996395
537.633638	0.996251
537.994089	0.996406
538.354483	0.996098
538.714821	0.995896
539.075103	0.996731
539.435328	0.996321
539.795497	0.996432
540.155609	0.996824
540.515665	0.996603
540.875665	0.995558
541.235609	0.996239
541.595496	0.995796
541.955328	0.996542
542.315102	0.996245
542.674821	0.996498
543.034483	0.996669
543.394090	0.995797
543.753640	0.996090
544.113134	0.996052
544.472571	0.996752
544.831953	0.996465
545.191278	0.997035
545.550548	0.996331
545.909761	0.995778
546.268918	0.996863
546.628019	0.996423
546.987064	0.996395
547.346053	0.995649
547.704986	0.996282
548.063863	0.996281
548.422684	0.996400
548.781449	0.995998
549.140158	0.996543
549.498811	0.995956
549.857408	0.996106
550.215949	0.995718
550.574434	0.995948
550.932864	0.996410
551.291237	0.996424
551.649555	0.996620
552.007817	0.995458
552.366022	0.997241
552.724173	0.996658
553.082267	0.996160
553.440305	0.995943
553.798288	0.995211
554.156215	0.995387
554.514086	0.996433
554.871902	0.996690
555.229661	0.995583
555.587365	0.996210
555.945014	0.996589
556.302606	0.995946
556.660143	0.996425
557.017625	0.996693
557.375050	0.995998
557.732421	0.996034
558.089735	0.995375
558.446994	0.995509
558.804197	0.996554
559.161345	0.995884
559.518437	0.995672
559.875474	0.996594
560.232455	0.996094
560.589381	0.996765
560.946251	0.996298
561.303065	0.996342
561.659825	0.995741
562.016528	0.996809
562.373177	0.996097
562.729770	0.995508
563.086307	0.995797
563.442789	0.995999
563.799216	0.995022
564.155587	0.995968
564.511904	0.996537
564.868164	0.994860
565.224370	0.996031
565.580520	0.995751
565.936615	0.995619
566.292654	0.995712
566.648638	0.996281
567.004567	0.996252
567.360441	0.996150
567.716260	0.995685
568.072023	0.995415
568.427732	0.996623
568.783385	0.996134
569.138982	0.996153
569.494525	0.996095
569.850013	0.996227
570.205445	0.996107
570.560823	0.996444
570.916145	0.996107
571.271412	0.996233
571.626625	0.995920
571.981782	0.996157
572.336884	0.996261
572.691931	0.995438
573.046923	0.996614
573.401860	0.995541
573.756743	0.996001
574.111570	0.995545
574.466342	0.996151
574.821059	0.996167
575.175722	0.996851
575.530330	0.995589
575.884882	0.995794
576.239380	0.996257
576.593823	0.996504
576.948211	0.996130
577.302544	0.996180
577.656823	0.996482
578.011047	0.995475
578.365216	0.996353
578.719330	0.996017
579.073389	0.994784
579.427394	0.996187
579.781344	0.996109
580.135239	0.995133
580.489080	0.995802
580.842866	0.995858
581.196597	0.995600
581.550273	0.995234
581.903895	0.995490
582.257463	0.995790
582.610975	0.995532
582.964434	0.995939
583.317837	0.996301
583.671186	0.996082
584.024481	0.994927
584.377721	0.995209
584.730906	0.995973
585.084037	0.996515
585.437113	0.995934
585.790135	0.995696
586.143103	0.996009
586.496016	0.996121
586.848874	0.996244
587.201679	0.996355
587.554428	0.996205
587.907124	0.996442
588.259765	0.995807
588.612352	0.996380
588.964884	0.997033
589.317362	0.995919
589.669786	0.996253
590.022155	0.995588
590.374470	0.996124
590.726731	0.994810
591.078937	0.996127
591.431090	0.996276
591.783188	0.995555
592.135232	0.996203
592.487222	0.996191
592.839157	0.995712
593.191038	0.995429
593.542866	0.996606
593.894639	0.994481
594.246358	0.996012
594.598022	0.996354
594.949633	0.995774
595.301190	0.995442
595.652692	0.995630
596.004141	0.995318
596.355535	0.996429
596.706876	0.996035
597.058162	0.995690
597.409395	0.996239
597.760573	0.995612
598.111698	0.996031
598.462768	0.995266
598.813785	0.995509
599.164748	0.995579
599.515657	0.995822
599.866511	0.996190
600.217312	0.996636
600.568060	0.995536
600.918753	0.996577
601.269392	0.995969
601.619978	0.996853
601.970510	0.995214
602.320988	0.995423
602.671412	0.995660
603.021783	0.996192
603.372100	0.996204
603.722363	0.996240
604.072572	0.995755
604.422728	0.995590
604.772830	0.996034
605.122878	0.996040
605.472872	0.996044
605.822813	0.995665
606.172701	0.996293
606.522534	0.995801
606.872314	0.996276
607.222041	0.995876
607.571714	0.995807
607.921333	0.995410
608.270899	0.995100
608.620411	0.995774
608.969870	0.997287
609.319276	0.996482
609.668627	0.996392
610.017926	0.995398
610.367171	0.995767
610.716362	0.996139
611.065500	0.995935
611.414585	0.995707
611.763616	0.995317
612.112594	0.995776
612.461518	0.995884
612.810389	0.995842
613.159207	0.995836
613.507971	0.995099
613.856682	0.997052
614.205340	0.994721
614.553945	0.995990
614.902496	0.995539
615.250994	0.996473
615.599439	0.995757
615.947830	0.995821
616.296169	0.995639
616.644454	0.996106
616.992686	0.995154
617.340864	0.995749
617.688990	0.995454
618.037063	0.996345
618.385082	0.995585
618.733048	0.994891
619.080961	0.995188
619.428821	0.996509
619.776628	0.995758
620.124382	0.996454
620.472083	0.996297
620.819731	0.996815
621.167326	0.996200
621.514868	0.996050
621.862357	0.995696
622.209793	0.996000
622.557176	0.995973
622.904506	0.995044
623.251783	0.995645
623.599007	0.996441
623.946179	0.995793
624.293297	0.996141
624.640363	0.996149
624.987376	0.995311
625.334336	0.995363
625.681243	0.996186
626.028097	0.995668
626.374899	0.996239
626.721647	0.997605
627.068343	0.996156
627.414987	0.995668
627.761577	0.995605
628.108115	0.996701
628.454600	0.995702
628.801032	0.996444
629.147412	0.995854
629.493739	0.997119
629.840014	0.995768
630.186236	0.995395
630.532405	0.996314
630.878521	0.995489
631.224585	0.995652
631.570597	0.996423
631.916556	0.995871
632.262462	0.994807
632.608316	0.995984
632.954117	0.995373
633.299866	0.995423
633.645562	0.996140
633.991206	0.996138
634.336797	0.995980
634.682336	0.997157
635.027823	0.995953
635.373257	0.995814
635.718639	0.996774
636.063968	0.995959
636.409245	0.995745
636.754470	0.996129
637.099642	0.996012
637.444762	0.996414
637.789829	0.995444
638.134845	0.995891
638.479808	0.996280
638.824719	0.995748
639.169577	0.995589
639.514383	0.996677
639.859137	0.996937
640.203839	0.996358
640.548489	0.996534
640.893086	0.995764
641.237632	0.995803
641.582125	0.996554
641.926566	0.997300
642.270955	0.997261
642.615292	0.995523
642.959576	0.996354
643.303809	0.996732
643.647990	0.996620
643.992118	0.995797
644.336195	0.995946
644.680219	0.996771
645.024192	0.995828
645.368112	0.995680
645.711981	0.996374
646.055797	0.995617
646.399562	0.995633
646.743274	0.996430
647.086935	0.996467
647.430544	0.995798
647.774101	0.995635
648.117606	0.995792
648.461059	0.996316
648.804460	0.995999
649.147810	0.996369
649.491108	0.996373
649.834354	0.996129
650.177548	0.996468
650.520690	0.995539
650.863781	0.996113
651.206820	0.996189
651.549807	0.995723
651.892742	0.996366
652.235626	0.996553
652.578458	0.996225
652.921238	0.997601
653.263967	0.996411
653.606644	0.995766
653.949269	0.996900
654.291843	0.996033
654.634365	0.997110
654.976836	0.996018
655.319255	0.996728
655.661622	0.996051
656.003938	0.995831
656.346203	0.996267
656.688416	0.996447
657.030577	0.996405
657.372687	0.997135
657.714746	0.995682
658.056753	0.995922
658.398708	0.996240
658.740612	0.997164
659.082465	0.996551
659.424266	0.996954
659.766016	0.995028
660.107715	0.996324
660.449362	0.996032
660.790958	0.996352
661.132503	0.996386
661.473996	0.996428
661.815438	0.996627
662.156829	0.996936
662.498168	0.997409
662.839456	0.995822
663.180693	0.996784
663.521879	0.996672
663.863013	0.996494
664.204097	0.996126
664.545129	0.996546
664.886110	0.997266
665.227040	0.996362
665.567918	0.996955
665.908746	0.995474
666.249522	0.995653
666.590248	0.996244
666.930922	0.995666
667.271545	0.995484
667.612118	0.996135
667.952639	0.996803
668.293109	0.996370
668.633528	0.995182
668.973896	0.996286
669.314213	0.995921
669.654480	0.996053
669.994695	0.995789
670.334859	0.996480
670.674973	0.996184
671.015035	0.996532
671.355047	0.995909
671.695008	0.995887
672.034918	0.996614
672.374777	0.996737
672.714585	0.996161
673.054342	0.997467
673.394049	0.996062
673.733705	0.996063
674.073310	0.996603
674.412864	0.995907
674.752368	0.996159
675.091820	0.997560
675.431223	0.996404
675.770574	0.995805
676.109875	0.996538
676.449125	0.995732
676.788324	0.996428
677.127473	0.996734
677.466571	0.996380
677.805619	0.995922
678.144616	0.998027
678.483562	0.996772
678.822458	0.996914
679.161303	0.996457
679.500098	0.996629
679.838842	0.997097
680.177535	0.996111
680.516179	0.996066
680.854771	0.995341
681.193314	0.995694
681.531805	0.996874
681.870247	0.996708
682.208638	0.996233
682.546978	0.995971
682.885268	0.995773
683.223508	0.996168
683.561697	0.995729
683.899836	0.995921
684.237925	0.995584
684.575963	0.996041
684.913951	0.995657
685.251889	0.996630
685.589776	0.996129
685.927614	0.995632
686.265401	0.995792
686.603137	0.995971
686.940824	0.995800
687.278460	0.996695
687.616046	0.995671
687.953582	0.996110
688.291068	0.996121
688.628504	0.995992
688.965889	0.995346
689.303224	0.995354
689.640510	0.996021
689.977745	0.995636
690.314930	0.995855
690.652065	0.996058
690.989150	0.996199
691.326185	0.996785
691.663170	0.996743
692.000105	0.996557
692.336990	0.996155
692.673825	0.997096
693.010610	0.996478
693.347345	0.997008
693.684030	0.997453
694.020665	0.996173
694.357251	0.996403
694.693786	0.997150
695.030272	0.995651
695.366707	0.996621
695.703093	0.996330
696.039429	0.996130
696.375716	0.996840
696.711952	0.996422
697.048139	0.997909
697.384276	0.997358
697.720363	0.996342
698.056400	0.995059
698.392388	0.995969
698.728326	0.996736
699.064214	0.997363
699.400053	0.996665
699.735842	0.997207
700.071581	0.996365
700.407270	0.996600
700.742910	0.997183
701.078501	0.996833
701.414042	0.997514
701.749533	0.995683
702.084974	0.996441
702.420366	0.997088
702.755709	0.996382
703.091002	0.997243
703.426246	0.997245
703.761440	0.996494
704.096584	0.995806
704.431679	0.995260
704.766725	0.996681
705.101721	0.997115
705.436668	0.997444
705.771565	0.996704
706.106413	0.995257
706.441212	0.997467
706.775961	0.996964
707.110661	0.996512
707.445311	0.997316
707.779913	0.998195
708.114465	0.997641
708.448967	0.997540
708.783421	0.997649
709.117825	0.997173
709.452180	0.996898
709.786485	0.996430
710.120742	0.995568
710.454949	0.995228
710.789107	0.996490
711.123216	0.995220
711.457275	0.996252
711.791286	0.996947
712.125247	0.998209
712.459159	0.995544
712.793023	0.995671
713.126837	0.996776
713.460602	0.996152
713.794318	0.995448
714.127985	0.995651
714.461602	0.996449
714.795171	0.995965
715.128691	0.996232
715.462162	0.997215
715.795584	0.996655
716.128957	0.997552
716.462281	0.997462
716.795556	0.996602
717.128782	0.997400
717.461960	0.996650
717.795088	0.996921
718.128167	0.997165
718.461198	0.997498
718.794180	0.997295
719.127113	0.997905
719.459997	0.995177
719.792833	0.996583
720.125619	0.997046
720.458357	0.997336
720.791046	0.996918
721.123686	0.997064
721.456278	0.997263
721.788821	0.997160
722.121315	0.998002
722.453761	0.997786
722.786158	0.996827
723.118506	0.997492
723.450805	0.995882
723.783056	0.997143
724.115259	0.996749
724.447412	0.998053
724.779518	0.997089
725.111574	0.996372
725.443582	0.997310
725.775542	0.997130
726.107453	0.997425
726.439315	0.998120
726.771129	0.996892
727.102895	0.996401
727.434612	0.996336
727.766281	0.996368
728.097901	0.996466
728.429473	0.998139
728.760996	0.995499
729.092471	0.997188
729.423897	0.996226
729.755276	0.996864
730.086606	0.995685
730.417887	0.996938
730.749120	0.996521
731.080305	0.996907
731.411442	0.995715
731.742530	0.995482
732.073570	0.996199
732.404562	0.996447
732.735506	0.995705
733.066401	0.995746
733.397249	0.997010
733.728048	0.996343
734.058798	0.997507
734.389501	0.997856
734.720156	0.996829
735.050762	0.997980
735.381320	0.996608
735.711831	0.996325
736.042293	0.995961
736.372707	0.997804
736.703073	0.996199
737.033391	0.996574
737.363661	0.997619
737.693883	0.997188
738.024056	0.995964
738.354182	0.997345
738.684260	0.996792
739.014290	0.997173
739.344272	0.996313
739.674207	0.997372
740.004093	0.996376
740.333931	0.996733
740.663722	0.996171
740.993464	0.996849
741.323159	0.996397
741.652806	0.997230
741.982405	0.997021
742.311956	0.997366
742.641460	0.996636
742.970915	0.996229
743.300323	0.996072
743.629683	0.996389
743.958996	0.998138
744.288260	0.996676
744.617477	0.997508
744.946647	0.997171
745.275768	0.997970
745.604842	0.996577
745.933869	0.997608
746.262847	0.998557
746.591778	0.995948
746.920662	0.997595
747.249498	0.998092
747.578286	0.998870
747.907027	0.997272
748.235720	0.997709
748.564365	0.997830
748.892963	0.996705
749.221514	0.996090
749.550017	0.996570
749.878473	0.997038
750.206881	0.997868
750.535242	0.996810
750.863555	0.996465
751.191821	0.996933
751.520039	0.997015
751.848210	0.995665
752.176334	0.997060
752.504411	0.996433
752.832440	0.996511
753.160421	0.996993
753.488356	0.998920
753.816243	0.997431
754.144082	0.996999
754.471875	0.997131
754.799620	0.998436
755.127318	0.997360
755.454969	0.996518
755.782572	0.998334
756.110129	0.997944
756.437638	0.998550
756.765100	0.997632
757.092515	0.997036
757.419882	0.997078
757.747203	0.997254
758.074477	0.997649
758.401703	0.996902
758.728882	0.997878
759.056014	0.996960
759.383099	0.997170
759.710138	0.996722
760.037129	0.997102
760.364073	0.997179
760.690970	0.997604
761.017820	0.995991
761.344623	0.997398
761.671379	0.997757
761.998088	0.997104
762.324751	0.997083
762.651366	0.996911
762.977935	0.995564
763.304456	0.994947
763.630931	0.993464
763.957359	0.993532
764.283740	0.994319
764.610074	0.995022
764.936362	0.995878
765.262602	0.996794
765.588796	0.996313
765.914943	0.996706
766.241044	0.996673
766.567097	0.996923
766.893104	0.997728
767.219064	0.995756
767.544978	0.996912
767.870845	0.997555
768.196665	0.997186
768.522438	0.997665
768.848165	0.998353
769.173846	0.997897
769.499479	0.998266
769.825066	0.998386
770.150607	0.998536
770.476101	0.998165
770.801548	0.997556
771.126949	0.999492
771.452303	0.998066
771.777611	0.998832
772.102872	0.998027
772.428087	0.998360
772.753256	0.997966
773.078378	0.998353
773.403453	0.997051
773.728482	0.999141
774.053465	0.997987
774.378401	0.998497
774.703291	0.998959
775.028135	0.999423
775.352932	0.997044
775.677683	0.999185
776.002388	0.998022
776.327046	0.997977
776.651658	0.998616
776.976224	0.999141
777.300743	0.997719
777.625216	0.997123
777.949643	0.998781
778.274024	0.997148
778.598359	0.999163
778.922647	0.998987
779.246889	0.999027
779.571086	0.998508
779.895236	0.998312
780.219339	0.998559
780.543397	0.998070
780.867409	0.999946
781.191374	0.998642
781.515294	0.999021
781.839167	0.998255
782.162995	0.998569
782.486776	0.998709
782.810511	0.999044
783.134201	0.998363
783.457844	0.999274
783.781441	0.998449
784.104993	0.998137
784.428498	0.998408
784.751958	1.000275
785.075372	0.999423
785.398739	0.999102
785.722061	0.998755
786.045337	0.998926
786.368568	0.997726
786.691752	0.997960
787.014891	0.998749
787.337983	0.996891
787.661030	0.997242
787.984031	0.998863
788.306987	0.998276
788.629897	0.996625
788.952760	0.998076
789.275579	0.997849
789.598351	0.997819
789.921078	0.998832
790.243759	0.997708
790.566395	0.998346
790.888984	0.998755
791.211529	0.998585
791.534027	0.998552
791.856480	0.999269
792.178888	0.998175
792.501249	0.997788
792.823566	0.999949
793.145836	0.998730
793.468062	0.999270
793.790241	0.999477
794.112375	0.998351
794.434464	0.998504
794.756507	0.999031
795.078505	0.998462
795.400457	0.998681
795.722364	0.999041
796.044226	0.998013
796.366042	0.997697
796.687812	0.996106
797.009538	0.997240
797.331218	0.999314
797.652852	0.999281
797.974442	0.997116
798.295986	0.998173
798.617484	0.997041
798.938938	0.999101
799.260346	0.997962
799.581709	0.998534
799.903026	0.999139
800.224299	0.998016
800.545526	0.997418
800.866708	0.997592
801.187845	0.998580
801.508936	0.998709
801.829983	0.998781
802.150984	0.997952
802.471940	0.997805
802.792851	0.997610
803.113717	0.999495
803.434538	0.999827
803.755314	0.999673
804.076045	0.999175
804.396731	0.997731
804.717372	0.998025
805.037967	0.999157
805.358518	0.998543
805.679024	0.998382
805.999485	0.998264
806.319901	0.998709
806.640272	0.998668
806.960598	0.999003
807.280879	0.998789
807.601115	0.999612
807.921306	0.999286
808.241453	0.998594
808.561554	0.999515
808.881611	0.999586
809.201623	0.997723
809.521590	0.999615
809.841513	0.998844
810.161390	0.997487
810.481223	0.997611
810.801011	0.999652
811.120755	1.000169
811.440453	0.998070
811.760107	0.998653
812.079716	0.997969
812.399281	0.998983
812.718801	0.998987
813.038276	0.998143
813.357707	0.998411
813.677093	0.998147
813.996434	0.998566
814.315731	1.000156
814.634983	0.999325
814.954191	0.999391
815.273354	0.998831
815.592473	0.998486
815.911547	0.999034
816.230577	0.997718
816.549562	0.998952
816.868502	0.997320
817.187399	0.999037
817.506250	1.000367
817.825058	0.997397
818.143821	0.998476
818.462539	0.998142
818.781213	0.997883
819.099843	0.998447
819.418429	0.998246
819.736970	0.997901
820.055466	0.996219
820.373919	0.996859
820.692327	0.995524
821.010691	0.994435
821.329011	0.992361
821.647286	0.990201
821.965517	0.989003
822.283704	0.985964
822.601847	0.984622
822.919945	0.984796
823.237999	0.986971
823.556010	0.987937
823.873976	0.989035
824.191897	0.990875
824.509775	0.992681
824.827609	0.993428
825.145398	0.992799
825.463144	0.993480
825.780845	0.993958
826.098502	0.993474
826.416116	0.993247
826.733685	0.991231
827.051210	0.989846
827.368692	0.989764
827.686129	0.990461
828.003522	0.992581
828.320872	0.993367
828.638177	0.994188
828.955439	0.996765
829.272656	0.996229
829.589830	0.996152
829.906960	0.997278
830.224046	0.997414
830.541088	0.996785
830.858086	0.996977
831.175041	0.999603
831.491952	0.997970
831.808819	0.997256
832.125642	0.997600
832.442421	0.997987
832.759157	0.998087
833.075849	0.995703
833.392497	0.994882
833.709101	0.992533
834.025662	0.993811
834.342179	0.993765
834.658653	0.995937
834.975083	0.996425
835.291469	0.996491
835.607811	0.996171
835.924110	0.997264
836.240366	0.998554
836.556578	0.998174
836.872746	0.998438
837.188871	0.998508
837.504952	0.998512
837.820990	0.999343
838.136984	0.997350
838.452935	0.997991
838.768842	0.998856
839.084706	0.998599
839.400526	0.998255
839.716303	0.996236
840.032037	0.996596
840.347727	0.996550
840.663373	0.998256
840.978977	0.997695
841.294537	0.997777
841.610054	0.998989
841.925527	0.999480
842.240957	0.999653
842.556344	0.998435
842.871687	0.999358
843.186987	0.998988
843.502244	0.999810
843.817458	0.999287
844.132629	0.998703
844.447756	0.999349
844.762840	0.999576
845.077881	1.000041
845.392879	0.998623
845.707833	0.998931
846.022745	1.000096
846.337613	0.999540
846.652438	0.998823
846.967221	1.000365
847.281960	1.000632
847.596656	0.999253
847.911309	1.000952
848.225919	0.998702
848.540485	0.999703
848.855009	1.000905
849.169490	0.999603
849.483928	1.000396
849.798323	0.998257
850.112675	1.001782
850.426984	1.000716
850.741251	0.999524
851.055474	0.998887
851.369654	1.000313
851.683792	0.998838
851.997887	0.999853
852.311938	0.999896
852.625947	0.999757
852.939914	0.999431
853.253837	0.999564
853.567718	1.000187
853.881555	1.000974
854.195350	0.999882
854.509103	1.000418
854.822812	1.000604
855.136479	1.000288
855.450103	0.999781
855.763685	0.999679
856.077224	0.999547
856.390720	0.999949
856.704173	0.999755
857.017584	1.001107
857.330953	1.000437
857.644278	0.998729
857.957561	1.000164
858.270802	0.999179
858.584000	0.999994
858.897155	1.000092
859.210268	0.999345
859.523339	1.001245
859.836367	1.000165
860.149352	0.999576
860.462295	0.999639
860.775195	1.000557
861.088054	0.999514
861.400869	0.999258
861.713642	0.998233
862.026373	1.000880
862.339062	1.000928
862.651708	0.998943
862.964312	1.000466
863.276873	1.000008
863.589392	0.999362
863.901869	0.999377
864.214303	1.000419
864.526696	0.999237
864.839045	0.999216
865.151353	1.000042
865.463619	0.999635
865.775842	0.999653
866.088023	1.000219
866.400162	0.999634
866.712258	1.000966
867.024313	0.999329
867.336325	1.000598
867.648296	0.999415
867.960224	1.000543
868.272110	1.000479
868.583954	0.999704
868.895755	1.000855
869.207515	0.999770
869.519233	1.000501
869.830909	0.998999
870.142542	0.999573
870.454134	0.999472
870.765684	0.999493
871.077191	0.999392
871.388657	1.000641
871.700081	0.999820
872.011463	1.000268
872.322803	0.999240
872.634101	0.998486
872.945357	0.998745
873.256571	0.999373
873.567744	1.000339
873.878874	0.999899
874.189963	0.998181
874.501010	1.000581
874.812015	0.999465
875.122979	0.999648
875.433900	0.999025
875.744780	0.999384
876.055618	0.998795
876.366415	0.998032
876.677169	0.998322
876.987882	0.999395
877.298554	0.999946
877.609183	0.998365
877.919771	0.999848
878.230317	0.999290
878.540822	0.998277
878.851285	0.997249
879.161707	0.998077
879.472087	0.998749
879.782425	0.996648
880.092722	0.996551
880.402977	0.993639
880.713191	0.990789
881.023363	0.989099
881.333494	0.986628
881.643583	0.987707
881.953631	0.987463
882.263637	0.986511
882.573602	0.987069
882.883526	0.987857
883.193408	0.990714
883.503248	0.991884
883.813048	0.991223
884.122806	0.992764
884.432522	0.994567
884.742197	0.995447
885.051831	0.995262
885.361424	0.996941
885.670975	0.997679
885.980485	0.997898
886.289954	0.996937
886.599382	0.997496
886.908768	0.998713
887.218113	0.997391
887.527417	0.998848
887.836680	0.999274
888.145901	0.998499
888.455082	1.000469
888.764221	0.999764
889.073319	0.998111
889.382376	0.998815
889.691392	0.998587
890.000366	0.998733
890.309300	0.999766
890.618193	0.997725
890.927044	0.999043
891.235855	0.999146
891.544625	0.998621
891.853353	0.998960
892.162041	0.997974
892.470687	0.999378
892.779293	0.998323
893.087858	0.996563
893.396381	0.996572
893.704864	0.996318
894.013306	0.995880
894.321707	0.994921
894.630068	0.993350
894.938387	0.992501
895.246665	0.992752
895.554903	0.994242
895.863100	0.995000
896.171256	0.994349
896.479371	0.996506
896.787446	0.996046
897.095480	0.997438
897.403473	0.997488
897.711425	0.997881
898.019336	0.997654
898.327207	0.998589
898.635038	0.997576
898.942827	0.997689
899.250576	0.998091
899.558284	0.998841
899.865952	0.997987
900.173579	0.999089
900.481165	0.999109
900.788711	0.998071
901.096216	0.998444
901.403681	0.999504
901.711105	0.998860
902.018489	0.998903
902.325832	0.998778
902.633135	0.999027
902.940397	0.999676
903.247619	0.998162
903.554800	0.997654
903.861941	0.995149
904.169041	0.992574
904.476101	0.992688
904.783121	0.991519
905.090100	0.993262
905.397039	0.993213
905.703938	0.995386
906.010796	0.995554
906.317614	0.996793
906.624391	0.996636
906.931129	0.997823
907.237826	0.998850
907.544483	0.999098
907.851099	0.998283
908.157675	0.998266
908.464211	1.000042
908.770707	0.998973
909.077163	0.999263
909.383578	0.999456
909.689954	0.999717
909.996289	0.999217
910.302584	0.999954
910.608839	1.001036
910.915054	1.000590
911.221229	1.001147
911.527363	0.999868
911.833458	0.999894
912.139513	0.999773
912.445527	1.000630
912.751502	0.999272
913.057436	0.999271
913.363331	0.999980
913.669186	1.000629
913.975000	0.998741
914.280775	0.998580
914.586510	0.997402
914.892205	0.996522
915.197859	0.996402
915.503475	0.995217
915.809050	0.993756
916.114585	0.991578
916.420081	0.992794
916.725536	0.993667
917.030952	0.993550
917.336328	0.993834
917.641665	0.993845
917.946961	0.994723
918.252218	0.995101
918.557435	0.995453
918.862612	0.996560
919.167750	0.997271
919.472848	0.998686
919.777906	0.998700
920.082925	0.999024
920.387904	0.997947
920.692843	0.998496
920.997743	0.997853
921.302603	0.999250
921.607423	0.998192
921.912204	0.999033
922.216946	0.999717
922.521647	0.999395
922.826310	0.999433
923.130932	0.999827
923.435516	1.000656
923.740059	0.999282
924.044564	0.999352
924.349028	0.999134
924.653454	1.001371
924.957840	0.999525
925.262186	0.999412
925.566493	0.999075
925.870761	0.999680
926.174989	0.997931
926.479178	1.001392
926.783328	1.000575
927.087438	0.999000
927.391509	1.000053
927.695541	1.000119
927.999533	1.000699
928.303486	1.000100
928.607400	0.999850
928.911275	1.000325
929.215110	1.001817
929.518906	1.000824
929.822663	1.001729
930.126381	1.001222
930.430060	1.000398
930.733699	1.001114
931.037299	1.001989
931.340861	1.000277
931.644383	0.999382
931.947866	1.000010
932.251309	0.999513
932.554714	1.000182
932.858080	1.001038
933.161407	0.999478
933.464694	1.000861
933.767943	1.000233
934.071153	1.000866
934.374323	1.000049
934.677455	1.000229
934.980548	0.999776
935.283602	1.001097
935.586617	1.000469
935.889593	1.002255
936.192530	1.001139
936.495428	1.000543
936.798287	0.999914
937.101108	1.000758
937.403890	0.999511
937.706632	1.000560
938.009336	1.000591
938.312002	1.000444
938.614628	0.999199
938.917216	0.999717
939.219765	0.999929
939.522275	1.000298
939.824747	0.999816
940.127179	1.000376
940.429573	1.000176
940.731929	0.998898
941.034246	0.999066
941.336524	0.998527
941.638763	0.999275
941.940964	0.999628
942.243126	0.999704
942.545250	1.000357
942.847335	1.000167
943.149381	1.000905
943.451389	0.999269
943.753359	0.999957
944.055290	1.001553
944.357182	0.999872
944.659036	1.000576
944.960851	1.000570
945.262628	1.000809
945.564367	1.000095
945.866067	0.999269
946.167729	0.999781
946.469352	0.999958
946.770937	0.998104
947.072484	1.000270
947.373992	0.999168
947.675462	1.000750
947.976893	0.999400
948.278286	1.002131
948.579641	1.000932
948.880958	1.000579
949.182236	1.000083
949.483476	1.000852
949.784678	1.001208
950.085841	0.999230
950.386967	0.999655
950.688054	1.000039
950.989103	0.999215
951.290114	0.998879
951.591087	1.000318
951.892021	0.999576
952.192917	1.000049
952.493776	1.000165
952.794596	0.999904
953.095378	1.000135
953.396122	0.999258
953.696828	1.000754
953.997496	1.001317
954.298126	1.000677
954.598718	0.999504
954.899272	1.000273
955.199788	0.999772
955.500266	1.000668
955.800706	0.999558
956.101108	1.001839
956.401472	1.001042
956.701798	0.999742
957.002087	1.000659
957.302337	1.000077
957.602550	1.001285
957.902724	1.000048
958.202861	1.000205
958.502960	0.999714
958.803022	1.002492
959.103045	1.000301
959.403031	1.001519
959.702979	1.001336
960.002889	0.999618
960.302762	0.999526
960.602596	1.000999
960.902393	1.001464
961.202153	1.001526
961.501875	1.000761
961.801559	1.001234
962.101205	1.000281
962.400814	1.002230
962.700385	1.000954
962.999918	1.000758
963.299414	0.999527
963.598873	1.000868
963.898293	1.001330
964.197677	1.001383
964.497022	1.000802
964.796331	1.000619
965.095601	1.001197
965.394835	1.000046
965.694030	1.001112
965.993189	0.999763
966.292309	1.002293
966.591393	0.999601
966.890439	1.000779
967.189447	1.000688
967.488419	1.000811
967.787353	1.001070
968.086249	1.000791
968.385108	1.000959
968.683930	1.001965
968.982714	1.001127
969.281462	1.001563
969.580172	0.999817
969.878844	1.001643
970.177480	1.000775
970.476078	1.001873
970.774639	1.000630
971.073162	1.000567
971.371649	1.001189
971.670098	0.999641
971.968510	1.000136
972.266885	1.000504
972.565223	1.001115
972.863524	0.999604
973.161788	1.001338
973.460014	1.001462
973.758204	1.000591
974.056356	1.000959
974.354471	1.001095
974.652550	1.000909
974.950591	1.000502
975.248595	1.000455
975.546563	1.001473
975.844493	1.001239
976.142386	1.000345
976.440243	1.001897
976.738062	1.001368
977.035845	0.999666
977.333590	1.001439
977.631299	1.000186
977.928971	1.000749
978.226606	1.000073
978.524204	0.999992
978.821765	0.999955
979.119290	1.002449
979.416777	1.000588
979.714228	1.000154
980.011642	1.000626
980.309020	1.000930
980.606360	1.000441
980.903664	1.000662
981.200931	1.000636
981.498162	1.002198
981.795356	1.001308
982.092513	1.000809
982.389633	1.001097
982.686717	0.999288
982.983764	1.000645
983.280775	1.000521
983.577749	1.002356
983.874686	1.000229
984.171587	0.999265
984.468451	1.000087
984.765279	1.001005
985.062070	1.000447
985.358824	1.000654
985.655543	1.000982
985.952224	1.001315
986.248869	0.999801
986.545478	1.001646
986.842050	0.999989
987.138586	0.999826
987.435086	0.999471
987.731549	1.002176
988.027975	1.002233
988.324366	1.000732
988.620719	1.002755
988.917037	1.000751
989.213318	1.001775
989.509563	0.999996
989.805772	1.001655
990.101944	1.002606
990.398080	1.001448
990.694180	1.001980
990.990244	0.999998
991.286271	1.000008
991.582262	1.002050
991.878217	1.000636
992.174136	1.001108
992.470019	1.001516
992.765865	1.001695
993.061676	0.999816
993.357450	1.001380
993.653188	1.002895
993.948890	1.001840
994.244556	1.000240
994.540186	1.001554
994.835780	1.000626
995.131337	1.000633
995.426859	0.999929
995.722345	1.000856
996.017795	1.000783
996.313208	1.001168
996.608586	1.001087
996.903928	1.000859
997.199234	1.000267
997.494504	1.001836
997.789738	1.000090
998.084936	1.000723
998.380099	1.000828
998.675225	1.001119
998.970316	1.001293
999.265371	1.000519
999.560390	1.001600
999.855373	1.000400
1000.150320	1.000844
1000.445232	1.000423
1000.740108	1.000983
1001.034948	1.001241
1001.329752	1.002939
1001.624521	1.000520
1001.919254	0.999962
1002.213951	1.002160
1002.508613	0.999584
1002.803239	1.001435
1003.097829	1.001883
1003.392384	1.000921
1003.686903	1.001367
1003.981386	1.001136
1004.275834	1.001264
1004.570246	0.999256
1004.864623	1.001746
1005.158964	1.001098
1005.453270	1.000168
1005.747540	1.000538
1006.041775	1.001667
1006.335974	1.000625
1006.630138	1.000779
1006.924266	0.999609
1007.218359	0.999926
1007.512416	1.001682
1007.806438	1.001403
1008.100425	1.000993
1008.394376	1.000993
1008.688292	1.000226
1008.982172	1.000116
1009.276017	1.001470
1009.569827	1.002486
1009.863602	1.000399
1010.157341	1.001888
1010.451045	1.001221
1010.744714	1.001926
1011.038347	1.000663
1011.331945	1.000341
1011.625508	0.999725
1011.919036	1.000350
1012.212528	1.002012
1012.505986	1.000963
1012.799408	1.001282
1013.092795	1.000601
1013.386147	1.001371
1013.679464	1.001354
1013.972745	1.001849
1014.265992	0.999685
1014.559204	1.001291
1014.852380	1.002408
1015.145521	1.000982
1015.438628	1.000937
1015.731699	1.001510
1016.024736	1.001737
1016.317737	1.000691
1016.610703	1.001332
1016.903635	1.002080
1017.196531	1.000305
1017.489393	1.001008
1017.782219	1.000685
1018.075011	1.000218
1018.367768	1.000157
1018.660490	1.001259
1018.953177	1.001259
1019.245829	1.001259
