Dividing Wavelength (nm)	Counts (n)	Blue Motor Position (mm): 7.900000	Red Motor Position (mm): 0.000000	
326.493990	1.004795
326.888308	1.004795
327.282561	1.004795
327.676750	1.004263
328.070874	1.004796
328.464933	1.007289
328.858929	1.005444
329.252859	1.003962
329.646726	1.004626
330.040528	1.004542
330.434265	1.004849
330.827938	1.003889
331.221547	1.005475
331.615091	1.004946
332.008571	1.006481
332.401986	1.004816
332.795338	1.004970
333.188625	1.004639
333.581847	1.004446
333.975006	1.006214
334.368100	1.005531
334.761129	1.003439
335.154095	1.005390
335.546996	1.002151
335.939833	0.998977
336.332606	0.999430
336.725315	0.998726
337.117960	0.999822
337.510540	0.998091
337.903056	0.999357
338.295508	0.999020
338.687896	1.000519
339.080220	0.998680
339.472480	0.998427
339.864676	0.998532
340.256807	0.996960
340.648875	0.999314
341.040879	0.998332
341.432818	0.998401
341.824694	0.997567
342.216506	0.998791
342.608253	0.998673
342.999937	0.998469
343.391557	0.998687
343.783113	0.999704
344.174605	0.998945
344.566033	0.998114
344.957397	0.999340
345.348697	0.999467
345.739934	0.998755
346.131106	0.996886
346.522215	0.997924
346.913260	0.999101
347.304241	0.997252
347.695159	0.998821
348.086012	0.997966
348.476802	0.998480
348.867528	0.997579
349.258191	0.998916
349.648789	0.998557
350.039324	0.998705
350.429796	0.997565
350.820203	0.996535
351.210548	0.998338
351.600828	0.997465
351.991045	0.999039
352.381198	0.998588
352.771288	0.998260
353.161314	0.997702
353.551276	0.997294
353.941175	0.996511
354.331010	0.998809
354.720782	0.998463
355.110490	0.997604
355.500135	0.998557
355.889717	0.997416
356.279235	0.997414
356.668689	0.998435
357.058080	0.997373
357.447408	0.997516
357.836672	0.997121
358.225873	0.997390
358.615010	0.996945
359.004084	0.996541
359.393095	0.997630
359.782043	0.996984
360.170927	0.997553
360.559748	0.996852
360.948505	0.996804
361.337199	0.996117
361.725830	0.996624
362.114398	0.996269
362.502903	0.996491
362.891344	0.994919
363.279722	0.995926
363.668037	0.997410
364.056289	0.997179
364.444478	0.997967
364.832603	0.996239
365.220665	0.997058
365.608665	0.995644
365.996601	0.997629
366.384474	0.994527
366.772284	0.995804
367.160031	0.995557
367.547715	0.994366
367.935336	0.994577
368.322893	0.993211
368.710388	0.992401
369.097820	0.989114
369.485189	0.987962
369.872495	0.986707
370.259738	0.983826
370.646918	0.980836
371.034035	0.979416
371.421090	0.976098
371.808081	0.970902
372.195010	0.968468
372.581875	0.962901
372.968678	0.958178
373.355418	0.956420
373.742096	0.947917
374.128710	0.943164
374.515262	0.939287
374.901751	0.933254
375.288177	0.927959
375.674540	0.922211
376.060841	0.914913
376.447079	0.907764
376.833254	0.902076
377.219367	0.897191
377.605417	0.886316
377.991404	0.882103
378.377329	0.877182
378.763191	0.868594
379.148991	0.860534
379.534727	0.853253
379.920402	0.845588
380.306013	0.842558
380.691563	0.829092
381.077049	0.822438
381.462474	0.818069
381.847835	0.806210
382.233134	0.802404
382.618371	0.801296
383.003545	0.784795
383.388657	0.782890
383.773706	0.775577
384.158693	0.771121
384.543618	0.766084
384.928480	0.756997
385.313280	0.746508
385.698017	0.747683
386.082692	0.734930
386.467305	0.733540
386.851856	0.727996
387.236344	0.722986
387.620770	0.717696
388.005133	0.711741
388.389435	0.706235
388.773674	0.703844
389.157851	0.695303
389.541965	0.692825
389.926018	0.699972
390.310008	0.687089
390.693936	0.682339
391.077802	0.675648
391.461606	0.676955
391.845348	0.666396
392.229027	0.665715
392.612645	0.663924
392.996200	0.650917
393.379694	0.643369
393.763125	0.633839
394.146494	0.638124
394.529801	0.628492
394.913047	0.621265
395.296230	0.626807
395.679351	0.618107
396.062410	0.615872
396.445408	0.618441
396.828343	0.613403
397.211217	0.608798
397.594028	0.620949
397.976778	0.610697
398.359466	0.607154
398.742092	0.602921
399.124656	0.614927
399.507158	0.603224
399.889598	0.599584
400.271977	0.590834
400.654294	0.595018
401.036549	0.594210
401.418742	0.598787
401.800874	0.584557
402.182944	0.581395
402.564952	0.572881
402.946898	0.574468
403.328783	0.575063
403.710606	0.586329
404.092367	0.561574
404.474067	0.567100
404.855705	0.565464
405.237282	0.573719
405.618797	0.560637
406.000250	0.555948
406.381642	0.546578
406.762972	0.551702
407.144240	0.549661
407.525447	0.550558
407.906593	0.543097
408.287677	0.538185
408.668700	0.547004
409.049661	0.540198
409.430560	0.535382
409.811399	0.544017
410.192176	0.526199
410.572891	0.533255
410.953545	0.521195
411.334138	0.535064
411.714669	0.527047
412.095139	0.539871
412.475547	0.523344
412.855894	0.525680
413.236180	0.524141
413.616405	0.530486
413.996568	0.519964
414.376670	0.526756
414.756711	0.530954
415.136691	0.528169
415.516609	0.519012
415.896466	0.516565
416.276262	0.511580
416.655997	0.513788
417.035670	0.495237
417.415283	0.486797
417.794834	0.491545
418.174324	0.497100
418.553753	0.506187
418.933121	0.488436
419.312428	0.482524
419.691674	0.488235
420.070859	0.476471
420.449983	0.483840
420.829045	0.473323
421.208047	0.482814
421.586988	0.475187
421.965867	0.474372
422.344686	0.462505
422.723444	0.475445
423.102141	0.492615
423.480777	0.465497
423.859352	0.486450
424.237866	0.463607
424.616319	0.464332
424.994712	0.455171
425.373044	0.465438
425.751314	0.453787
426.129524	0.470269
426.507673	0.453837
426.885762	0.447071
427.263789	0.452739
427.641756	0.462463
428.019662	0.452060
428.397508	0.451846
428.775292	0.455966
429.153016	0.448056
429.530679	0.454208
429.908282	0.447818
430.285824	0.457485
430.663305	0.435946
431.040726	0.457033
431.418086	0.456978
431.795385	0.448483
432.172624	0.447905
432.549802	0.448113
432.926920	0.446812
433.303977	0.446814
433.680974	0.443959
434.057910	0.442323
434.434786	0.441433
434.811601	0.444534
435.188355	0.426644
435.565050	0.436321
435.941683	0.437106
436.318257	0.420932
436.694770	0.422430
437.071222	0.420698
437.447614	0.424922
437.823946	0.431562
438.200218	0.420702
438.576429	0.430090
438.952580	0.423515
439.328670	0.419812
439.704700	0.426439
440.080670	0.427791
440.456580	0.409047
440.832429	0.417087
441.208218	0.427443
441.583947	0.417025
441.959616	0.416152
442.335224	0.421967
442.710773	0.412848
443.086261	0.410541
443.461689	0.424217
443.837057	0.414068
444.212365	0.404301
444.587612	0.411296
444.962800	0.401336
445.337927	0.402897
445.712995	0.428578
446.088002	0.390939
446.462949	0.401369
446.837837	0.406486
447.212664	0.395128
447.587431	0.386802
447.962139	0.356846
448.336786	0.315705
448.711374	0.326328
449.085901	0.370680
449.460369	0.374713
449.834776	0.377955
450.209124	0.357802
450.583412	0.350223
450.957640	0.343207
451.331808	0.354789
451.705917	0.378219
452.079965	0.383302
452.453954	0.370884
452.827883	0.377722
453.201752	0.372438
453.575562	0.383992
453.949311	0.372578
454.323001	0.378312
454.696632	0.374475
455.070202	0.366670
455.443713	0.359105
455.817164	0.353608
456.190556	0.349192
456.563888	0.346479
456.937160	0.343958
457.310373	0.360944
457.683526	0.360103
458.056619	0.365593
458.429653	0.366107
458.802628	0.369190
459.175542	0.363970
459.548398	0.346280
459.921194	0.338932
460.293930	0.338695
460.666607	0.316490
461.039224	0.304749
461.411782	0.300469
461.784280	0.299494
462.156719	0.303641
462.529099	0.308101
462.901419	0.324626
463.273680	0.328410
463.645882	0.328056
464.018024	0.333912
464.390106	0.326584
464.762130	0.311243
465.134094	0.294338
465.505999	0.263371
465.877845	0.233586
466.249631	0.220537
466.621358	0.227847
466.993026	0.241940
467.364634	0.248240
467.736184	0.257170
468.107674	0.266079
468.479105	0.264676
468.850477	0.272031
469.221790	0.278428
469.593043	0.288636
469.964238	0.293473
470.335373	0.292919
470.706449	0.291133
471.077467	0.291301
471.448425	0.253801
471.819324	0.229139
472.190164	0.228672
472.560945	0.257417
472.931667	0.280217
473.302330	0.284528
473.672934	0.295791
474.043479	0.284158
474.413965	0.285948
474.784393	0.289583
475.154761	0.284214
475.525070	0.281406
475.895321	0.287453
476.265513	0.281305
476.635645	0.276870
477.005719	0.276629
477.375734	0.273282
477.745691	0.266419
478.115588	0.262717
478.485427	0.255868
478.855207	0.243435
479.224928	0.225506
479.594591	0.213598
479.964194	0.217328
480.333739	0.218543
480.703226	0.219773
481.072653	0.217916
481.442022	0.213735
481.811333	0.210587
482.180584	0.213762
482.549777	0.219518
482.918912	0.222624
483.287988	0.222598
483.657005	0.221975
484.025964	0.228276
484.394864	0.225802
484.763706	0.226486
485.132489	0.231467
485.501213	0.232307
485.869879	0.230679
486.238487	0.233449
486.607036	0.231761
486.975527	0.236216
487.343959	0.232095
487.712333	0.231210
488.080648	0.232445
488.448905	0.231765
488.817104	0.232842
489.185244	0.227508
489.553326	0.224392
489.921350	0.214282
490.289315	0.196681
490.657222	0.191508
491.025070	0.192982
491.392861	0.194964
491.760593	0.200812
492.128267	0.206600
492.495883	0.211818
492.863440	0.218006
493.230939	0.224292
493.598380	0.226074
493.965763	0.227948
494.333088	0.230389
494.700354	0.232090
495.067563	0.230804
495.434713	0.234215
495.801805	0.231830
496.168839	0.233432
496.535815	0.234884
496.902733	0.234975
497.269593	0.236529
497.636395	0.234324
498.003139	0.234470
498.369825	0.237669
498.736453	0.233990
499.103023	0.235543
499.469535	0.234757
499.835989	0.235166
500.202385	0.235960
500.568723	0.239103
500.935003	0.234471
501.301226	0.238654
501.667390	0.232966
502.033497	0.231085
502.399546	0.233957
502.765537	0.235806
503.131470	0.234782
503.497345	0.230726
503.863163	0.239288
504.228923	0.232309
504.594625	0.230986
504.960269	0.236410
505.325856	0.232130
505.691385	0.236078
506.056856	0.232710
506.422270	0.232143
506.787625	0.234616
507.152924	0.232170
507.518164	0.232554
507.883347	0.234206
508.248472	0.236230
508.613540	0.230924
508.978550	0.233748
509.343503	0.234148
509.708398	0.231727
510.073236	0.229178
510.438016	0.228954
510.802738	0.230097
511.167403	0.229167
511.532010	0.231147
511.896561	0.226239
512.261053	0.225029
512.625488	0.227238
512.989866	0.227697
513.354186	0.228008
513.718449	0.229772
514.082655	0.226299
514.446803	0.228447
514.810894	0.226189
515.174927	0.228865
515.538904	0.228217
515.902822	0.225049
516.266684	0.227351
516.630488	0.228495
516.994235	0.227786
517.357925	0.226154
517.721558	0.224713
518.085133	0.223984
518.448651	0.224053
518.812112	0.226258
519.175516	0.226085
519.538863	0.223484
519.902152	0.225763
520.265385	0.221978
520.628560	0.223840
520.991678	0.224164
521.354739	0.223227
521.717743	0.224146
522.080690	0.224699
522.443580	0.222244
522.806413	0.223015
523.169189	0.222250
523.531908	0.221269
523.894569	0.225023
524.257174	0.224771
524.619722	0.222211
524.982213	0.223394
525.344647	0.222485
525.707025	0.223336
526.069345	0.221180
526.431608	0.222929
526.793815	0.220867
527.155964	0.225214
527.518057	0.224113
527.880093	0.224913
528.242072	0.223776
528.603995	0.225780
528.965860	0.227169
529.327669	0.226236
529.689421	0.227289
530.051117	0.227932
530.412755	0.225669
530.774337	0.227833
531.135862	0.228705
531.497331	0.227492
531.858743	0.230575
532.220098	0.227389
532.581396	0.229821
532.942638	0.230362
533.303824	0.231513
533.664953	0.231129
534.026025	0.233067
534.387040	0.230988
534.747999	0.230661
535.108902	0.229598
535.469748	0.234768
535.830537	0.232582
536.191270	0.232891
536.551947	0.232424
536.912567	0.232614
537.273131	0.234140
537.633638	0.234549
537.994089	0.234557
538.354483	0.235846
538.714821	0.233103
539.075103	0.232645
539.435328	0.233355
539.795497	0.237140
540.155609	0.233709
540.515665	0.231999
540.875665	0.237699
541.235609	0.236156
541.595496	0.236062
541.955328	0.232816
542.315102	0.235614
542.674821	0.236680
543.034483	0.236369
543.394090	0.236146
543.753640	0.238012
544.113134	0.233247
544.472571	0.236512
544.831953	0.233389
545.191278	0.237829
545.550548	0.236724
545.909761	0.234010
546.268918	0.234835
546.628019	0.232879
546.987064	0.235723
547.346053	0.237309
547.704986	0.234791
548.063863	0.235341
548.422684	0.235714
548.781449	0.237652
549.140158	0.235314
549.498811	0.237824
549.857408	0.240908
550.215949	0.235608
550.574434	0.239158
550.932864	0.236998
551.291237	0.235589
551.649555	0.237182
552.007817	0.236544
552.366022	0.237723
552.724173	0.237888
553.082267	0.238036
553.440305	0.234767
553.798288	0.239244
554.156215	0.236177
554.514086	0.236735
554.871902	0.239981
555.229661	0.239111
555.587365	0.239574
555.945014	0.242212
556.302606	0.239002
556.660143	0.241787
557.017625	0.238074
557.375050	0.240251
557.732421	0.237361
558.089735	0.239447
558.446994	0.239226
558.804197	0.238372
559.161345	0.238274
559.518437	0.241951
559.875474	0.239785
560.232455	0.239244
560.589381	0.240596
560.946251	0.240759
561.303065	0.238115
561.659825	0.239448
562.016528	0.240941
562.373177	0.243826
562.729770	0.241113
563.086307	0.242932
563.442789	0.241172
563.799216	0.243827
564.155587	0.242699
564.511904	0.243825
564.868164	0.243827
565.224370	0.243700
565.580520	0.245217
565.936615	0.245190
566.292654	0.248105
566.648638	0.245359
567.004567	0.246060
567.360441	0.246884
567.716260	0.248656
568.072023	0.246398
568.427732	0.247289
568.783385	0.249628
569.138982	0.247738
569.494525	0.247466
569.850013	0.250252
570.205445	0.248883
570.560823	0.251288
570.916145	0.253337
571.271412	0.251605
571.626625	0.253203
571.981782	0.253486
572.336884	0.254543
572.691931	0.254200
573.046923	0.255459
573.401860	0.256510
573.756743	0.258424
574.111570	0.256914
574.466342	0.257690
574.821059	0.256764
575.175722	0.259705
575.530330	0.259292
575.884882	0.259460
576.239380	0.261621
576.593823	0.262082
576.948211	0.261798
577.302544	0.264713
577.656823	0.264293
578.011047	0.264091
578.365216	0.265454
578.719330	0.267361
579.073389	0.266737
579.427394	0.268347
579.781344	0.269230
580.135239	0.270522
580.489080	0.269961
580.842866	0.273102
581.196597	0.273381
581.550273	0.271537
581.903895	0.272739
582.257463	0.270778
582.610975	0.274016
582.964434	0.273719
583.317837	0.275710
583.671186	0.276326
584.024481	0.276369
584.377721	0.279022
584.730906	0.279708
585.084037	0.279097
585.437113	0.280857
585.790135	0.280098
586.143103	0.283341
586.496016	0.283981
586.848874	0.281713
587.201679	0.282770
587.554428	0.285833
587.907124	0.284668
588.259765	0.284947
588.612352	0.285667
588.964884	0.289363
589.317362	0.289036
589.669786	0.288868
590.022155	0.287720
590.374470	0.286735
590.726731	0.288551
591.078937	0.293855
591.431090	0.290027
591.783188	0.294355
592.135232	0.294527
592.487222	0.294602
592.839157	0.292713
593.191038	0.295215
593.542866	0.296967
593.894639	0.300454
594.246358	0.298906
594.598022	0.298112
594.949633	0.301865
595.301190	0.302326
595.652692	0.301582
596.004141	0.297548
596.355535	0.305925
596.706876	0.306201
597.058162	0.308736
597.409395	0.306124
597.760573	0.303640
598.111698	0.306862
598.462768	0.307037
598.813785	0.308431
599.164748	0.309853
599.515657	0.310016
599.866511	0.313804
600.217312	0.309069
600.568060	0.314337
600.918753	0.310533
601.269392	0.311410
601.619978	0.315013
601.970510	0.312537
602.320988	0.312497
602.671412	0.310619
603.021783	0.312731
603.372100	0.314177
603.722363	0.314131
604.072572	0.314964
604.422728	0.314673
604.772830	0.316670
605.122878	0.316587
605.472872	0.316765
605.822813	0.315312
606.172701	0.317972
606.522534	0.315145
606.872314	0.315379
607.222041	0.316286
607.571714	0.314680
607.921333	0.315723
608.270899	0.315526
608.620411	0.312273
608.969870	0.316343
609.319276	0.316317
609.668627	0.316429
610.017926	0.314870
610.367171	0.313021
610.716362	0.313921
611.065500	0.314046
611.414585	0.313026
611.763616	0.313099
612.112594	0.313581
612.461518	0.312841
612.810389	0.311080
613.159207	0.313272
613.507971	0.315016
613.856682	0.310721
614.205340	0.312376
614.553945	0.309234
614.902496	0.313057
615.250994	0.311074
615.599439	0.311882
615.947830	0.311172
616.296169	0.312240
616.644454	0.311879
616.992686	0.311463
617.340864	0.310033
617.688990	0.313313
618.037063	0.310131
618.385082	0.311610
618.733048	0.308719
619.080961	0.310882
619.428821	0.310116
619.776628	0.310159
620.124382	0.312106
620.472083	0.312349
620.819731	0.311833
621.167326	0.315452
621.514868	0.315483
621.862357	0.319721
622.209793	0.319018
622.557176	0.321672
622.904506	0.322481
623.251783	0.325166
623.599007	0.327717
623.946179	0.326837
624.293297	0.329020
624.640363	0.332966
624.987376	0.333717
625.334336	0.335846
625.681243	0.338247
626.028097	0.338441
626.374899	0.339839
626.721647	0.339953
627.068343	0.343112
627.414987	0.344175
627.761577	0.346300
628.108115	0.344408
628.454600	0.349752
628.801032	0.347353
629.147412	0.349248
629.493739	0.350156
629.840014	0.353499
630.186236	0.349995
630.532405	0.355830
630.878521	0.353092
631.224585	0.355535
631.570597	0.358926
631.916556	0.357548
632.262462	0.357541
632.608316	0.360028
632.954117	0.360291
633.299866	0.361244
633.645562	0.361650
633.991206	0.366240
634.336797	0.369179
634.682336	0.371750
635.027823	0.373091
635.373257	0.373526
635.718639	0.377298
636.063968	0.376482
636.409245	0.382456
636.754470	0.382320
637.099642	0.385430
637.444762	0.389070
637.789829	0.387997
638.134845	0.390875
638.479808	0.392299
638.824719	0.392271
639.169577	0.396605
639.514383	0.395121
639.859137	0.399461
640.203839	0.398741
640.548489	0.399752
640.893086	0.400731
641.237632	0.402620
641.582125	0.401409
641.926566	0.402964
642.270955	0.403102
642.615292	0.402632
642.959576	0.402595
643.303809	0.403532
643.647990	0.402388
643.992118	0.403232
644.336195	0.406482
644.680219	0.404755
645.024192	0.405227
645.368112	0.399298
645.711981	0.398575
646.055797	0.393795
646.399562	0.395921
646.743274	0.388732
647.086935	0.385166
647.430544	0.385517
647.774101	0.384203
648.117606	0.384421
648.461059	0.385196
648.804460	0.387306
649.147810	0.392405
649.491108	0.393901
649.834354	0.395985
650.177548	0.401103
650.520690	0.406750
650.863781	0.407726
651.206820	0.406546
651.549807	0.411621
651.892742	0.416119
652.235626	0.415443
652.578458	0.416405
652.921238	0.422622
653.263967	0.420237
653.606644	0.423626
653.949269	0.424140
654.291843	0.427395
654.634365	0.424969
654.976836	0.427191
655.319255	0.428432
655.661622	0.429612
656.003938	0.429755
656.346203	0.432381
656.688416	0.430988
657.030577	0.433813
657.372687	0.436554
657.714746	0.436702
658.056753	0.433686
658.398708	0.437390
658.740612	0.438975
659.082465	0.434888
659.424266	0.435770
659.766016	0.434766
660.107715	0.438869
660.449362	0.436957
660.790958	0.437833
661.132503	0.439001
661.473996	0.436074
661.815438	0.437524
662.156829	0.437593
662.498168	0.437721
662.839456	0.439572
663.180693	0.437363
663.521879	0.437286
663.863013	0.437796
664.204097	0.436326
664.545129	0.433315
664.886110	0.434331
665.227040	0.431498
665.567918	0.434154
665.908746	0.431762
666.249522	0.431867
666.590248	0.432925
666.930922	0.431114
667.271545	0.429987
667.612118	0.430445
667.952639	0.432156
668.293109	0.430294
668.633528	0.433403
668.973896	0.433204
669.314213	0.434487
669.654480	0.436267
669.994695	0.435949
670.334859	0.436683
670.674973	0.437407
671.015035	0.437788
671.355047	0.437980
671.695008	0.438738
672.034918	0.441043
672.374777	0.440312
672.714585	0.441218
673.054342	0.441632
673.394049	0.442225
673.733705	0.439764
674.073310	0.441273
674.412864	0.443601
674.752368	0.444270
675.091820	0.445220
675.431223	0.449458
675.770574	0.449936
676.109875	0.452687
676.449125	0.452151
676.788324	0.455010
677.127473	0.460273
677.466571	0.460315
677.805619	0.461749
678.144616	0.463739
678.483562	0.465441
678.822458	0.467779
679.161303	0.468421
679.500098	0.469340
679.838842	0.471355
680.177535	0.469871
680.516179	0.469424
680.854771	0.468576
681.193314	0.462353
681.531805	0.453881
681.870247	0.443273
682.208638	0.436050
682.546978	0.435051
682.885268	0.436605
683.223508	0.443364
683.561697	0.447536
683.899836	0.450265
684.237925	0.452868
684.575963	0.456603
684.913951	0.459416
685.251889	0.455194
685.589776	0.458110
685.927614	0.460087
686.265401	0.456079
686.603137	0.456647
686.940824	0.451848
687.278460	0.450724
687.616046	0.449518
687.953582	0.445700
688.291068	0.447059
688.628504	0.443250
688.965889	0.445376
689.303224	0.449117
689.640510	0.453740
689.977745	0.459216
690.314930	0.466705
690.652065	0.471400
690.989150	0.478654
691.326185	0.485843
691.663170	0.490353
692.000105	0.497652
692.336990	0.504443
692.673825	0.506905
693.010610	0.513643
693.347345	0.519361
693.684030	0.521687
694.020665	0.525711
694.357251	0.534561
694.693786	0.534932
695.030272	0.537451
695.366707	0.542503
695.703093	0.545303
696.039429	0.543734
696.375716	0.547029
696.711952	0.549096
697.048139	0.550749
697.384276	0.552978
697.720363	0.552001
698.056400	0.551142
698.392388	0.556896
698.728326	0.558973
699.064214	0.561945
699.400053	0.562671
699.735842	0.567477
700.071581	0.570208
700.407270	0.573586
700.742910	0.575278
701.078501	0.581451
701.414042	0.582980
701.749533	0.585663
702.084974	0.594573
702.420366	0.587478
702.755709	0.595112
703.091002	0.602679
703.426246	0.597641
703.761440	0.602001
704.096584	0.606818
704.431679	0.604423
704.766725	0.607635
705.101721	0.608936
705.436668	0.605360
705.771565	0.611419
706.106413	0.607858
706.441212	0.606095
706.775961	0.605110
707.110661	0.606450
707.445311	0.603404
707.779913	0.602172
708.114465	0.600801
708.448967	0.597832
708.783421	0.591100
709.117825	0.585917
709.452180	0.586095
709.786485	0.580510
710.120742	0.571047
710.454949	0.573245
710.789107	0.565479
711.123216	0.557620
711.457275	0.559097
711.791286	0.552581
712.125247	0.552781
712.459159	0.561562
712.793023	0.553479
713.126837	0.560136
713.460602	0.560681
713.794318	0.567422
714.127985	0.567575
714.461602	0.577687
714.795171	0.579068
715.128691	0.587852
715.462162	0.595393
715.795584	0.601814
716.128957	0.604881
716.462281	0.609629
716.795556	0.613395
717.128782	0.620650
717.461960	0.628354
717.795088	0.627360
718.128167	0.633576
718.461198	0.640088
718.794180	0.641517
719.127113	0.645048
719.459997	0.648739
719.792833	0.654414
720.125619	0.654572
720.458357	0.660204
720.791046	0.661598
721.123686	0.665202
721.456278	0.671555
721.788821	0.669250
722.121315	0.674466
722.453761	0.677414
722.786158	0.676759
723.118506	0.673689
723.450805	0.679621
723.783056	0.677247
724.115259	0.675548
724.447412	0.675725
724.779518	0.675771
725.111574	0.674750
725.443582	0.672352
725.775542	0.674920
726.107453	0.667376
726.439315	0.668341
726.771129	0.665910
727.102895	0.660318
727.434612	0.655152
727.766281	0.654368
728.097901	0.652021
728.429473	0.652169
728.760996	0.651766
729.092471	0.651998
729.423897	0.654913
729.755276	0.655328
730.086606	0.654563
730.417887	0.649025
730.749120	0.641567
731.080305	0.635142
731.411442	0.631251
731.742530	0.633818
732.073570	0.634472
732.404562	0.629357
732.735506	0.630954
733.066401	0.635366
733.397249	0.642579
733.728048	0.653181
734.058798	0.665995
734.389501	0.677064
734.720156	0.684353
735.050762	0.691741
735.381320	0.694082
735.711831	0.700552
736.042293	0.705379
736.372707	0.703810
736.703073	0.707034
737.033391	0.708551
737.363661	0.706775
737.693883	0.702999
738.024056	0.701557
738.354182	0.701335
738.684260	0.693110
739.014290	0.690184
739.344272	0.690050
739.674207	0.685120
740.004093	0.684301
740.333931	0.685292
740.663722	0.686447
740.993464	0.687358
741.323159	0.690776
741.652806	0.696031
741.982405	0.699829
742.311956	0.705085
742.641460	0.707160
742.970915	0.710260
743.300323	0.715668
743.629683	0.721255
743.958996	0.724851
744.288260	0.728406
744.617477	0.734081
744.946647	0.735334
745.275768	0.740660
745.604842	0.741958
745.933869	0.748644
746.262847	0.750288
746.591778	0.746011
746.920662	0.751537
747.249498	0.756376
747.578286	0.750586
747.907027	0.746749
748.235720	0.744957
748.564365	0.742999
748.892963	0.744350
749.221514	0.746907
749.550017	0.748751
749.878473	0.750403
750.206881	0.756617
750.535242	0.757030
750.863555	0.756559
751.191821	0.758174
751.520039	0.761270
751.848210	0.762210
752.176334	0.759768
752.504411	0.759359
752.832440	0.764870
753.160421	0.767591
753.488356	0.767834
753.816243	0.766743
754.144082	0.773008
754.471875	0.775249
754.799620	0.773559
755.127318	0.774233
755.454969	0.776100
755.782572	0.775686
756.110129	0.778663
756.437638	0.780933
756.765100	0.778915
757.092515	0.777574
757.419882	0.778167
757.747203	0.781748
758.074477	0.781128
758.401703	0.778586
758.728882	0.775215
759.056014	0.774974
759.383099	0.773615
759.710138	0.772620
760.037129	0.769761
760.364073	0.767002
760.690970	0.768657
761.017820	0.771146
761.344623	0.768910
761.671379	0.761727
761.998088	0.754199
762.324751	0.734732
762.651366	0.696005
762.977935	0.637246
763.304456	0.597219
763.630931	0.591849
763.957359	0.623690
764.283740	0.661561
764.610074	0.687862
764.936362	0.715017
765.262602	0.737195
765.588796	0.755181
765.914943	0.768489
766.241044	0.783539
766.567097	0.790225
766.893104	0.798509
767.219064	0.803865
767.544978	0.810251
767.870845	0.818850
768.196665	0.823297
768.522438	0.823198
768.848165	0.825077
769.173846	0.832218
769.499479	0.835118
769.825066	0.838534
770.150607	0.842492
770.476101	0.839862
770.801548	0.842145
771.126949	0.848965
771.452303	0.852972
771.777611	0.853077
772.102872	0.853053
772.428087	0.857288
772.753256	0.860481
773.078378	0.862061
773.403453	0.867519
773.728482	0.872401
774.053465	0.867991
774.378401	0.870540
774.703291	0.876353
775.028135	0.877605
775.352932	0.876762
775.677683	0.881386
776.002388	0.881518
776.327046	0.881263
776.651658	0.885175
776.976224	0.885736
777.300743	0.886238
777.625216	0.889171
777.949643	0.890938
778.274024	0.888467
778.598359	0.891718
778.922647	0.890056
779.246889	0.892090
779.571086	0.894180
779.895236	0.896189
780.219339	0.894996
780.543397	0.891205
780.867409	0.892291
781.191374	0.893031
781.515294	0.894269
781.839167	0.893736
782.162995	0.894487
782.486776	0.893551
782.810511	0.894849
783.134201	0.898570
783.457844	0.897508
783.781441	0.898819
784.104993	0.902088
784.428498	0.903236
784.751958	0.901547
785.075372	0.901822
785.398739	0.903487
785.722061	0.900642
786.045337	0.900023
786.368568	0.900942
786.691752	0.904364
787.014891	0.894456
787.337983	0.887533
787.661030	0.878590
787.984031	0.864332
788.306987	0.857219
788.629897	0.856422
788.952760	0.861709
789.275579	0.867077
789.598351	0.877974
789.921078	0.888534
790.243759	0.891143
790.566395	0.894002
790.888984	0.901156
791.211529	0.904114
791.534027	0.905824
791.856480	0.909952
792.178888	0.912211
792.501249	0.913535
792.823566	0.915650
793.145836	0.915845
793.468062	0.917231
793.790241	0.917363
794.112375	0.916122
794.434464	0.913425
794.756507	0.912259
795.078505	0.910124
795.400457	0.905771
795.722364	0.897879
796.044226	0.892996
796.366042	0.890646
796.687812	0.893021
797.009538	0.891607
797.331218	0.895482
797.652852	0.898988
797.974442	0.901502
798.295986	0.903110
798.617484	0.904556
798.938938	0.908433
799.260346	0.910373
799.581709	0.912420
799.903026	0.915680
800.224299	0.915268
800.545526	0.918070
800.866708	0.919685
801.187845	0.922835
801.508936	0.923799
801.829983	0.922407
802.150984	0.926312
802.471940	0.928628
802.792851	0.927230
803.113717	0.928746
803.434538	0.928797
803.755314	0.930631
804.076045	0.930532
804.396731	0.930249
804.717372	0.929196
805.037967	0.931694
805.358518	0.930755
805.679024	0.926668
805.999485	0.928625
806.319901	0.928777
806.640272	0.930135
806.960598	0.928115
807.280879	0.925474
807.601115	0.925036
807.921306	0.929082
808.241453	0.927768
808.561554	0.926627
808.881611	0.927286
809.201623	0.927742
809.521590	0.929119
809.841513	0.930921
810.161390	0.928249
810.481223	0.929701
810.801011	0.932005
811.120755	0.934083
811.440453	0.933230
811.760107	0.933598
812.079716	0.933858
812.399281	0.935093
812.718801	0.935999
813.038276	0.937380
813.357707	0.937971
813.677093	0.937733
813.996434	0.938023
814.315731	0.940308
814.634983	0.940842
814.954191	0.940153
815.273354	0.937725
815.592473	0.935750
815.911547	0.935679
816.230577	0.933808
816.549562	0.930621
816.868502	0.930575
817.187399	0.929899
817.506250	0.927640
817.825058	0.927113
818.143821	0.924895
818.462539	0.922493
818.781213	0.916867
819.099843	0.909534
819.418429	0.895824
819.736970	0.883466
820.055466	0.869273
820.373919	0.853972
820.692327	0.831137
821.010691	0.804550
821.329011	0.739432
821.647286	0.639648
821.965517	0.545268
822.283704	0.509333
822.601847	0.513007
822.919945	0.551611
823.237999	0.591885
823.556010	0.633533
823.873976	0.679123
824.191897	0.719820
824.509775	0.753301
824.827609	0.783071
825.145398	0.800441
825.463144	0.800520
825.780845	0.789756
826.098502	0.773345
826.416116	0.738638
826.733685	0.701480
827.051210	0.694663
827.368692	0.709827
827.686129	0.744538
828.003522	0.783479
828.320872	0.818144
828.638177	0.848301
828.955439	0.870595
829.272656	0.884962
829.589830	0.896821
829.906960	0.908949
830.224046	0.916346
830.541088	0.923780
830.858086	0.927200
831.175041	0.930520
831.491952	0.930075
831.808819	0.928245
832.125642	0.923420
832.442421	0.916374
832.759157	0.897994
833.075849	0.862767
833.392497	0.816841
833.709101	0.790855
834.025662	0.799351
834.342179	0.823063
834.658653	0.851487
834.975083	0.877448
835.291469	0.896463
835.607811	0.911341
835.924110	0.922035
836.240366	0.932580
836.556578	0.941185
836.872746	0.946726
837.188871	0.949547
837.504952	0.953010
837.820990	0.957034
838.136984	0.957709
838.452935	0.959407
838.768842	0.959580
839.084706	0.956404
839.400526	0.939334
839.716303	0.909452
840.032037	0.893575
840.347727	0.897625
840.663373	0.911753
840.978977	0.928263
841.294537	0.943712
841.610054	0.952680
841.925527	0.958807
842.240957	0.962247
842.556344	0.966783
842.871687	0.970227
843.186987	0.972701
843.502244	0.973324
843.817458	0.974549
844.132629	0.977097
844.447756	0.978929
844.762840	0.978498
845.077881	0.980080
845.392879	0.978702
845.707833	0.980853
846.022745	0.982467
846.337613	0.982307
846.652438	0.981715
846.967221	0.982295
847.281960	0.983258
847.596656	0.983879
847.911309	0.984345
848.225919	0.983686
848.540485	0.985160
848.855009	0.986025
849.169490	0.984169
849.483928	0.984422
849.798323	0.983519
850.112675	0.985953
850.426984	0.985271
850.741251	0.985718
851.055474	0.985629
851.369654	0.984957
851.683792	0.984001
851.997887	0.985506
852.311938	0.987230
852.625947	0.984419
852.939914	0.983674
853.253837	0.986713
853.567718	0.986108
853.881555	0.985096
854.195350	0.985904
854.509103	0.985814
854.822812	0.986533
855.136479	0.985451
855.450103	0.985050
855.763685	0.984972
856.077224	0.985694
856.390720	0.986517
856.704173	0.985844
857.017584	0.986071
857.330953	0.984836
857.644278	0.984392
857.957561	0.984648
858.270802	0.985995
858.584000	0.984791
858.897155	0.984496
859.210268	0.984630
859.523339	0.986323
859.836367	0.986098
860.149352	0.986325
860.462295	0.985263
860.775195	0.986507
861.088054	0.984872
861.400869	0.986251
861.713642	0.985294
862.026373	0.987724
862.339062	0.986481
862.651708	0.985787
862.964312	0.985223
863.276873	0.985868
863.589392	0.985206
863.901869	0.983872
864.214303	0.983306
864.526696	0.982447
864.839045	0.982826
865.151353	0.981701
865.463619	0.981155
865.775842	0.982999
866.088023	0.982913
866.400162	0.982941
866.712258	0.983776
867.024313	0.983314
867.336325	0.984162
867.648296	0.983404
867.960224	0.982273
868.272110	0.983042
868.583954	0.983653
868.895755	0.984155
869.207515	0.982033
869.519233	0.981953
869.830909	0.981671
870.142542	0.982021
870.454134	0.982473
870.765684	0.980815
871.077191	0.981207
871.388657	0.980901
871.700081	0.981348
872.011463	0.981302
872.322803	0.979652
872.634101	0.977905
872.945357	0.977496
873.256571	0.976149
873.567744	0.977457
873.878874	0.977627
874.189963	0.976962
874.501010	0.977765
874.812015	0.975924
875.122979	0.976628
875.433900	0.977805
875.744780	0.977491
876.055618	0.976628
876.366415	0.977212
876.677169	0.975868
876.987882	0.977002
877.298554	0.977789
877.609183	0.975242
877.919771	0.974703
878.230317	0.973891
878.540822	0.973008
878.851285	0.970725
879.161707	0.966285
879.472087	0.962204
879.782425	0.950259
880.092722	0.930916
880.402977	0.896277
880.713191	0.848216
881.023363	0.798215
881.333494	0.767067
881.643583	0.753585
881.953631	0.760462
882.263637	0.783401
882.573602	0.813874
882.883526	0.834350
883.193408	0.853318
883.503248	0.870431
883.813048	0.888305
884.122806	0.906516
884.432522	0.919854
884.742197	0.933382
885.051831	0.939028
885.361424	0.945743
885.670975	0.953297
885.980485	0.956915
886.289954	0.960902
886.599382	0.962231
886.908768	0.965809
887.218113	0.968108
887.527417	0.971989
887.836680	0.973844
888.145901	0.975254
888.455082	0.976414
888.764221	0.978425
889.073319	0.977899
889.382376	0.979320
889.691392	0.979038
890.000366	0.979827
890.309300	0.979096
890.618193	0.980492
890.927044	0.978336
891.235855	0.977978
891.544625	0.978444
891.853353	0.977582
892.162041	0.976540
892.470687	0.974781
892.779293	0.969784
893.087858	0.967181
893.396381	0.963939
893.704864	0.954928
894.013306	0.941682
894.321707	0.926972
894.630068	0.916001
894.938387	0.913873
895.246665	0.917190
895.554903	0.925859
895.863100	0.935116
896.171256	0.944003
896.479371	0.953263
896.787446	0.960547
897.095480	0.964808
897.403473	0.966805
897.711425	0.969239
898.019336	0.972520
898.327207	0.975751
898.635038	0.974652
898.942827	0.976252
899.250576	0.976660
899.558284	0.979077
899.865952	0.978465
900.173579	0.981252
900.481165	0.981772
900.788711	0.981909
901.096216	0.983597
901.403681	0.984906
901.711105	0.983743
902.018489	0.984453
902.325832	0.984205
902.633135	0.983186
902.940397	0.980518
903.247619	0.974110
903.554800	0.960036
903.861941	0.935641
904.169041	0.912947
904.476101	0.902192
904.783121	0.904199
905.090100	0.916245
905.397039	0.930034
905.703938	0.943395
906.010796	0.954432
906.317614	0.963679
906.624391	0.970003
906.931129	0.975270
907.237826	0.978092
907.544483	0.982118
907.851099	0.984507
908.157675	0.985642
908.464211	0.988778
908.770707	0.988935
909.077163	0.989573
909.383578	0.990432
909.689954	0.990573
909.996289	0.991954
910.302584	0.992683
910.608839	0.992714
910.915054	0.992768
911.221229	0.993353
911.527363	0.991555
911.833458	0.992219
912.139513	0.991576
912.445527	0.992230
912.751502	0.990318
913.057436	0.988551
913.363331	0.988787
913.669186	0.987363
913.975000	0.983959
914.280775	0.981312
914.586510	0.975453
914.892205	0.968377
915.197859	0.956258
915.503475	0.941005
915.809050	0.929112
916.114585	0.922885
916.420081	0.922879
916.725536	0.922889
917.030952	0.930161
917.336328	0.937427
917.641665	0.945621
917.946961	0.953617
918.252218	0.958748
918.557435	0.964679
918.862612	0.969105
919.167750	0.973018
919.472848	0.976455
919.777906	0.980146
920.082925	0.982155
920.387904	0.983018
920.692843	0.984067
920.997743	0.983845
921.302603	0.986417
921.607423	0.986900
921.912204	0.988110
922.216946	0.990415
922.521647	0.990249
922.826310	0.990811
923.130932	0.992157
923.435516	0.991900
923.740059	0.992044
924.044564	0.993527
924.349028	0.992889
924.653454	0.994013
924.957840	0.994775
925.262186	0.994675
925.566493	0.995120
925.870761	0.996689
926.174989	0.995387
926.479178	0.997294
926.783328	0.997106
927.087438	0.997296
927.391509	0.996081
927.695541	0.998449
927.999533	0.998322
928.303486	0.996600
928.607400	0.998509
928.911275	0.998930
929.215110	0.998775
929.518906	0.997326
929.822663	0.999220
930.126381	0.998883
930.430060	0.997707
930.733699	0.998355
931.037299	0.998277
931.340861	0.997130
931.644383	0.997492
931.947866	0.998192
932.251309	0.998200
932.554714	0.998365
932.858080	0.998553
933.161407	0.997892
933.464694	0.998649
933.767943	0.998807
934.071153	0.998459
934.374323	0.999706
934.677455	0.997442
934.980548	0.998167
935.283602	0.999724
935.586617	0.997789
935.889593	0.999432
936.192530	0.999771
936.495428	0.999229
936.798287	0.997794
937.101108	0.996903
937.403890	0.997669
937.706632	0.997527
938.009336	0.996551
938.312002	0.995773
938.614628	0.996361
938.917216	0.995489
939.219765	0.994063
939.522275	0.993967
939.824747	0.993995
940.127179	0.994913
940.429573	0.995884
940.731929	0.995165
941.034246	0.995050
941.336524	0.994869
941.638763	0.995922
941.940964	0.995620
942.243126	0.996590
942.545250	0.997089
942.847335	0.995910
943.149381	0.997695
943.451389	0.996333
943.753359	0.997380
944.055290	0.999008
944.357182	0.998829
944.659036	0.998278
944.960851	0.998501
945.262628	0.999152
945.564367	0.997805
945.866067	0.997841
946.167729	0.998020
946.469352	0.998297
946.770937	0.997190
947.072484	0.998257
947.373992	0.997632
947.675462	0.997307
947.976893	0.998334
948.278286	0.999708
948.579641	0.999327
948.880958	0.998244
949.182236	0.998028
949.483476	0.999040
949.784678	0.999006
950.085841	0.998626
950.386967	0.998032
950.688054	0.999628
950.989103	0.997194
951.290114	0.997486
951.591087	0.998184
951.892021	0.997010
952.192917	0.998076
952.493776	0.998307
952.794596	0.997045
953.095378	0.995930
953.396122	0.997558
953.696828	0.998204
953.997496	0.998724
954.298126	0.998390
954.598718	0.997476
954.899272	0.998133
955.199788	0.999348
955.500266	0.998238
955.800706	0.998651
956.101108	0.999346
956.401472	1.001126
956.701798	0.999899
957.002087	0.999969
957.302337	0.999558
957.602550	1.000184
957.902724	1.000855
958.202861	1.000471
958.502960	1.000763
958.803022	1.001531
959.103045	1.001408
959.403031	1.001819
959.702979	1.002640
960.002889	1.001426
960.302762	1.000981
960.602596	1.001137
960.902393	1.001508
961.202153	1.001816
961.501875	1.001965
961.801559	1.003113
962.101205	1.000842
962.400814	1.002393
962.700385	1.002876
962.999918	1.002442
963.299414	1.002275
963.598873	1.002915
963.898293	1.003115
964.197677	1.001038
964.497022	1.001385
964.796331	1.001926
965.095601	1.002865
965.394835	1.001495
965.694030	1.002176
965.993189	1.000428
966.292309	1.001434
966.591393	1.000589
966.890439	1.002165
967.189447	1.001077
967.488419	1.002426
967.787353	1.000978
968.086249	1.002262
968.385108	1.001627
968.683930	1.002783
968.982714	1.001809
969.281462	1.001726
969.580172	1.001715
969.878844	1.003563
970.177480	1.002072
970.476078	1.002751
970.774639	1.002326
971.073162	1.001714
971.371649	1.001881
971.670098	1.001756
971.968510	1.002549
972.266885	1.000403
972.565223	1.002128
972.863524	1.001520
973.161788	1.001109
973.460014	1.003206
973.758204	1.000776
974.056356	1.001527
974.354471	1.002167
974.652550	1.002401
974.950591	1.003026
975.248595	1.001116
975.546563	1.002974
975.844493	1.002981
976.142386	1.000937
976.440243	1.002456
976.738062	1.003200
977.035845	1.001821
977.333590	1.003452
977.631299	1.001687
977.928971	1.002120
978.226606	1.000566
978.524204	1.002030
978.821765	1.002635
979.119290	1.002896
979.416777	1.001690
979.714228	1.001067
980.011642	1.002627
980.309020	1.001421
980.606360	1.001044
980.903664	1.003563
981.200931	1.001390
981.498162	1.001758
981.795356	1.001749
982.092513	1.000881
982.389633	1.001352
982.686717	0.999610
982.983764	1.000101
983.280775	0.999572
983.577749	1.000125
983.874686	0.998773
984.171587	0.999074
984.468451	1.000315
984.765279	1.001447
985.062070	1.001355
985.358824	1.001557
985.655543	1.002305
985.952224	1.003060
986.248869	1.001689
986.545478	1.002869
986.842050	1.002237
987.138586	1.000968
987.435086	1.002705
987.731549	1.003413
988.027975	1.003342
988.324366	1.001951
988.620719	1.003768
988.917037	1.003547
989.213318	1.004387
989.509563	1.003297
989.805772	1.002104
990.101944	1.003161
990.398080	1.004247
990.694180	1.004558
990.990244	1.001462
991.286271	1.001858
991.582262	1.003121
991.878217	1.001996
992.174136	1.003976
992.470019	1.002679
992.765865	1.004152
993.061676	1.002829
993.357450	1.003099
993.653188	1.004781
993.948890	1.003171
994.244556	1.002952
994.540186	1.002009
994.835780	1.003441
995.131337	1.003193
995.426859	1.002785
995.722345	1.003062
996.017795	1.001226
996.313208	1.002246
996.608586	1.002303
996.903928	1.001455
997.199234	1.002288
997.494504	1.002644
997.789738	1.001446
998.084936	1.002259
998.380099	1.003112
998.675225	1.003590
998.970316	1.003334
999.265371	1.002924
999.560390	1.002341
999.855373	1.002994
1000.150320	1.002554
1000.445232	1.002629
1000.740108	1.002446
1001.034948	1.001814
1001.329752	1.003482
1001.624521	1.002656
1001.919254	1.001991
1002.213951	1.002564
1002.508613	1.002787
1002.803239	1.002434
1003.097829	1.004014
1003.392384	1.002202
1003.686903	1.002723
1003.981386	1.002558
1004.275834	1.005004
1004.570246	1.002554
1004.864623	1.002651
1005.158964	1.003181
1005.453270	1.003476
1005.747540	1.002373
1006.041775	1.003107
1006.335974	1.002463
1006.630138	1.004132
1006.924266	1.003194
1007.218359	1.001671
1007.512416	1.003712
1007.806438	1.003996
1008.100425	1.004272
1008.394376	1.003821
1008.688292	1.003355
1008.982172	1.003456
1009.276017	1.004523
1009.569827	1.003904
1009.863602	1.003386
1010.157341	1.004539
1010.451045	1.002751
1010.744714	1.004103
1011.038347	1.003999
1011.331945	1.002175
1011.625508	1.002792
1011.919036	1.003432
1012.212528	1.004003
1012.505986	1.002393
1012.799408	1.004637
1013.092795	1.002695
1013.386147	1.002285
1013.679464	1.003576
1013.972745	1.003373
1014.265992	1.003845
1014.559204	1.002233
1014.852380	1.004420
1015.145521	1.002859
1015.438628	1.002920
1015.731699	1.003130
1016.024736	1.003824
1016.317737	1.003306
1016.610703	1.003983
1016.903635	1.002119
1017.196531	1.003180
1017.489393	1.004054
1017.782219	1.003020
1018.075011	1.002058
1018.367768	1.003614
1018.660490	1.003786
1018.953177	1.003786
1019.245829	1.003786
