Dividing Wavelength (nm)	Counts (n)	Blue Motor Position (mm): 9.900000	Red Motor Position (mm): 0.000000	
326.493990	1.001627
326.888308	1.001627
327.282561	1.001627
327.676750	1.003316
328.070874	1.005477
328.464933	1.003315
328.858929	1.005615
329.252859	1.004754
329.646726	1.003677
330.040528	1.003682
330.434265	1.004918
330.827938	1.003709
331.221547	1.004134
331.615091	1.004901
332.008571	1.005376
332.401986	1.004689
332.795338	1.003462
333.188625	1.004953
333.581847	1.004128
333.975006	1.004318
334.368100	1.004905
334.761129	1.002188
335.154095	1.005274
335.546996	1.002401
335.939833	0.998392
336.332606	1.000273
336.725315	0.997583
337.117960	0.999980
337.510540	0.997463
337.903056	0.999803
338.295508	0.999272
338.687896	0.999461
339.080220	0.997763
339.472480	0.998166
339.864676	0.998040
340.256807	0.997408
340.648875	0.999399
341.040879	0.998675
341.432818	1.000083
341.824694	0.998200
342.216506	0.999859
342.608253	0.998764
342.999937	0.998104
343.391557	0.997428
343.783113	1.000681
344.174605	0.999986
344.566033	0.999377
344.957397	0.998733
345.348697	0.998979
345.739934	0.998452
346.131106	0.998492
346.522215	0.998628
346.913260	0.998347
347.304241	0.997999
347.695159	0.998405
348.086012	0.998284
348.476802	0.997780
348.867528	0.997844
349.258191	0.999234
349.648789	0.999658
350.039324	0.998268
350.429796	0.997332
350.820203	0.997636
351.210548	0.998309
351.600828	0.998279
351.991045	0.998404
352.381198	0.999456
352.771288	0.997775
353.161314	0.997976
353.551276	0.997538
353.941175	0.996823
354.331010	0.997443
354.720782	0.998652
355.110490	0.998969
355.500135	0.997551
355.889717	0.997375
356.279235	0.997762
356.668689	0.998983
357.058080	0.998274
357.447408	0.997085
357.836672	0.996823
358.225873	0.998286
358.615010	0.997343
359.004084	0.997596
359.393095	0.997803
359.782043	0.997550
360.170927	0.998257
360.559748	0.998688
360.948505	0.998096
361.337199	0.997007
361.725830	0.997061
362.114398	0.996944
362.502903	0.997019
362.891344	0.995941
363.279722	0.996999
363.668037	0.997217
364.056289	0.996708
364.444478	0.998085
364.832603	0.996667
365.220665	0.996857
365.608665	0.995998
365.996601	0.996231
366.384474	0.994805
366.772284	0.995397
367.160031	0.995308
367.547715	0.995830
367.935336	0.993826
368.322893	0.993389
368.710388	0.991799
369.097820	0.989603
369.485189	0.987980
369.872495	0.986738
370.259738	0.984784
370.646918	0.981732
371.034035	0.978885
371.421090	0.976325
371.808081	0.970606
372.195010	0.968892
372.581875	0.962366
372.968678	0.958694
373.355418	0.955968
373.742096	0.948280
374.128710	0.943666
374.515262	0.939082
374.901751	0.933459
375.288177	0.927929
375.674540	0.920750
376.060841	0.915187
376.447079	0.908689
376.833254	0.902427
377.219367	0.897087
377.605417	0.886444
377.991404	0.882668
378.377329	0.877117
378.763191	0.869735
379.148991	0.860373
379.534727	0.853647
379.920402	0.845522
380.306013	0.841511
380.691563	0.828898
381.077049	0.822851
381.462474	0.818604
381.847835	0.806995
382.233134	0.802484
382.618371	0.802549
383.003545	0.784610
383.388657	0.782515
383.773706	0.775355
384.158693	0.772384
384.543618	0.765761
384.928480	0.757211
385.313280	0.747212
385.698017	0.747290
386.082692	0.735594
386.467305	0.734347
386.851856	0.728079
387.236344	0.722969
387.620770	0.717653
388.005133	0.711867
388.389435	0.706174
388.773674	0.703721
389.157851	0.695368
389.541965	0.693086
389.926018	0.699699
390.310008	0.685655
390.693936	0.683608
391.077802	0.675070
391.461606	0.676918
391.845348	0.665986
392.229027	0.665640
392.612645	0.663841
392.996200	0.651373
393.379694	0.643674
393.763125	0.634356
394.146494	0.638902
394.529801	0.629018
394.913047	0.620817
395.296230	0.627010
395.679351	0.618074
396.062410	0.615388
396.445408	0.618290
396.828343	0.613203
397.211217	0.608051
397.594028	0.620417
397.976778	0.611335
398.359466	0.607799
398.742092	0.602739
399.124656	0.615060
399.507158	0.602819
399.889598	0.599773
400.271977	0.591440
400.654294	0.595499
401.036549	0.594511
401.418742	0.599003
401.800874	0.584621
402.182944	0.581312
402.564952	0.572928
402.946898	0.574812
403.328783	0.575546
403.710606	0.586178
404.092367	0.561557
404.474067	0.566048
404.855705	0.566132
405.237282	0.573803
405.618797	0.560803
406.000250	0.556740
406.381642	0.546517
406.762972	0.551993
407.144240	0.550456
407.525447	0.550017
407.906593	0.542978
408.287677	0.538240
408.668700	0.546515
409.049661	0.541549
409.430560	0.535210
409.811399	0.545065
410.192176	0.525839
410.572891	0.533225
410.953545	0.521103
411.334138	0.534174
411.714669	0.527639
412.095139	0.539300
412.475547	0.523641
412.855894	0.525322
413.236180	0.524926
413.616405	0.530084
413.996568	0.520203
414.376670	0.526530
414.756711	0.531202
415.136691	0.528048
415.516609	0.519272
415.896466	0.516006
416.276262	0.511977
416.655997	0.513923
417.035670	0.495142
417.415283	0.486853
417.794834	0.491613
418.174324	0.497184
418.553753	0.506581
418.933121	0.488785
419.312428	0.482737
419.691674	0.488136
420.070859	0.476417
420.449983	0.484226
420.829045	0.473739
421.208047	0.482635
421.586988	0.475089
421.965867	0.473966
422.344686	0.463273
422.723444	0.475633
423.102141	0.492780
423.480777	0.465456
423.859352	0.485931
424.237866	0.463582
424.616319	0.464426
424.994712	0.455001
425.373044	0.466052
425.751314	0.453976
426.129524	0.470504
426.507673	0.453819
426.885762	0.447673
427.263789	0.452797
427.641756	0.462427
428.019662	0.452222
428.397508	0.452050
428.775292	0.455890
429.153016	0.448239
429.530679	0.454217
429.908282	0.447836
430.285824	0.457739
430.663305	0.436250
431.040726	0.456881
431.418086	0.457517
431.795385	0.448703
432.172624	0.448087
432.549802	0.448222
432.926920	0.447510
433.303977	0.447285
433.680974	0.443949
434.057910	0.442434
434.434786	0.441315
434.811601	0.444100
435.188355	0.426769
435.565050	0.436053
435.941683	0.437086
436.318257	0.421508
436.694770	0.422157
437.071222	0.420263
437.447614	0.424835
437.823946	0.431489
438.200218	0.420838
438.576429	0.430362
438.952580	0.423457
439.328670	0.419659
439.704700	0.426176
440.080670	0.427556
440.456580	0.409167
440.832429	0.416723
441.208218	0.427506
441.583947	0.416867
441.959616	0.416155
442.335224	0.421927
442.710773	0.412535
443.086261	0.410799
443.461689	0.424755
443.837057	0.414094
444.212365	0.404275
444.587612	0.411986
444.962800	0.401474
445.337927	0.402721
445.712995	0.429154
446.088002	0.390948
446.462949	0.401430
446.837837	0.406521
447.212664	0.395147
447.587431	0.387043
447.962139	0.356732
448.336786	0.315848
448.711374	0.326250
449.085901	0.370591
449.460369	0.374565
449.834776	0.378763
450.209124	0.357708
450.583412	0.350024
450.957640	0.343795
451.331808	0.354970
451.705917	0.378083
452.079965	0.382918
452.453954	0.371174
452.827883	0.378081
453.201752	0.372757
453.575562	0.383899
453.949311	0.372597
454.323001	0.378280
454.696632	0.374065
455.070202	0.367276
455.443713	0.358940
455.817164	0.353397
456.190556	0.349094
456.563888	0.346294
456.937160	0.344078
457.310373	0.361326
457.683526	0.359815
458.056619	0.365530
458.429653	0.365965
458.802628	0.369619
459.175542	0.364141
459.548398	0.346458
459.921194	0.338568
460.293930	0.339391
460.666607	0.316968
461.039224	0.304838
461.411782	0.300343
461.784280	0.299387
462.156719	0.303777
462.529099	0.308046
462.901419	0.324431
463.273680	0.328161
463.645882	0.328127
464.018024	0.334165
464.390106	0.326715
464.762130	0.311553
465.134094	0.294415
465.505999	0.263152
465.877845	0.233660
466.249631	0.220466
466.621358	0.228203
466.993026	0.241954
467.364634	0.248070
467.736184	0.256729
468.107674	0.265841
468.479105	0.264978
468.850477	0.271428
469.221790	0.278476
469.593043	0.289029
469.964238	0.293433
470.335373	0.292976
470.706449	0.291250
471.077467	0.291549
471.448425	0.253951
471.819324	0.229344
472.190164	0.228753
472.560945	0.257566
472.931667	0.280072
473.302330	0.284314
473.672934	0.296356
474.043479	0.284422
474.413965	0.285919
474.784393	0.289466
475.154761	0.284669
475.525070	0.281788
475.895321	0.287442
476.265513	0.281352
476.635645	0.276732
477.005719	0.276705
477.375734	0.273359
477.745691	0.266445
478.115588	0.262666
478.485427	0.256361
478.855207	0.243201
479.224928	0.225852
479.594591	0.213816
479.964194	0.217242
480.333739	0.218579
480.703226	0.220128
481.072653	0.218321
481.442022	0.214015
481.811333	0.210653
482.180584	0.213984
482.549777	0.219401
482.918912	0.222993
483.287988	0.222639
483.657005	0.221983
484.025964	0.228350
484.394864	0.226041
484.763706	0.226297
485.132489	0.231423
485.501213	0.232303
485.869879	0.230420
486.238487	0.233674
486.607036	0.231649
486.975527	0.236355
487.343959	0.232185
487.712333	0.231309
488.080648	0.232552
488.448905	0.231866
488.817104	0.233024
489.185244	0.227578
489.553326	0.224480
489.921350	0.214201
490.289315	0.196761
490.657222	0.191709
491.025070	0.192881
491.392861	0.194976
491.760593	0.200794
492.128267	0.206437
492.495883	0.211864
492.863440	0.218128
493.230939	0.224644
493.598380	0.226184
493.965763	0.228412
494.333088	0.230397
494.700354	0.231939
495.067563	0.231076
495.434713	0.234364
495.801805	0.232136
496.168839	0.233874
496.535815	0.235252
496.902733	0.234948
497.269593	0.236518
497.636395	0.234088
498.003139	0.234420
498.369825	0.237698
498.736453	0.234271
499.103023	0.235871
499.469535	0.235067
499.835989	0.235196
500.202385	0.236009
500.568723	0.239173
500.935003	0.234617
501.301226	0.238765
501.667390	0.233057
502.033497	0.231095
502.399546	0.234116
502.765537	0.236055
503.131470	0.234459
503.497345	0.230947
503.863163	0.239357
504.228923	0.232601
504.594625	0.230913
504.960269	0.236428
505.325856	0.231969
505.691385	0.236129
506.056856	0.233038
506.422270	0.232501
506.787625	0.234847
507.152924	0.232362
507.518164	0.232632
507.883347	0.234127
508.248472	0.236438
508.613540	0.230874
508.978550	0.233626
509.343503	0.234242
509.708398	0.231775
510.073236	0.229457
510.438016	0.229067
510.802738	0.230187
511.167403	0.228948
511.532010	0.231441
511.896561	0.226533
512.261053	0.224856
512.625488	0.227490
512.989866	0.228007
513.354186	0.227706
513.718449	0.229936
514.082655	0.226106
514.446803	0.228468
514.810894	0.226035
515.174927	0.228947
515.538904	0.228384
515.902822	0.225516
516.266684	0.227663
516.630488	0.228735
516.994235	0.227589
517.357925	0.226335
517.721558	0.224433
518.085133	0.224322
518.448651	0.224009
518.812112	0.226402
519.175516	0.226244
519.538863	0.223673
519.902152	0.225334
520.265385	0.222035
520.628560	0.224221
520.991678	0.224408
521.354739	0.223107
521.717743	0.224371
522.080690	0.224872
522.443580	0.222253
522.806413	0.223108
523.169189	0.222754
523.531908	0.221314
523.894569	0.224951
524.257174	0.224688
524.619722	0.222573
524.982213	0.223835
525.344647	0.222515
525.707025	0.223450
526.069345	0.221618
526.431608	0.223686
526.793815	0.221265
527.155964	0.225571
527.518057	0.224467
527.880093	0.225561
528.242072	0.224015
528.603995	0.226101
528.965860	0.227767
529.327669	0.226919
529.689421	0.227470
530.051117	0.228356
530.412755	0.225987
530.774337	0.228295
531.135862	0.228855
531.497331	0.228131
531.858743	0.231191
532.220098	0.227736
532.581396	0.230181
532.942638	0.231008
533.303824	0.232178
533.664953	0.231708
534.026025	0.233407
534.387040	0.231424
534.747999	0.231214
535.108902	0.230243
535.469748	0.235263
535.830537	0.233098
536.191270	0.233542
536.551947	0.232928
536.912567	0.233111
537.273131	0.234869
537.633638	0.235263
537.994089	0.235665
538.354483	0.236612
538.714821	0.233470
539.075103	0.233229
539.435328	0.234231
539.795497	0.237784
540.155609	0.234536
540.515665	0.232730
540.875665	0.238327
541.235609	0.236752
541.595496	0.236831
541.955328	0.233700
542.315102	0.236285
542.674821	0.237133
543.034483	0.237109
543.394090	0.236843
543.753640	0.238934
544.113134	0.234004
544.472571	0.237474
544.831953	0.234201
545.191278	0.238426
545.550548	0.237582
545.909761	0.234497
546.268918	0.235344
546.628019	0.233736
546.987064	0.236147
547.346053	0.237909
547.704986	0.235921
548.063863	0.236100
548.422684	0.236449
548.781449	0.238443
549.140158	0.236196
549.498811	0.238609
549.857408	0.241686
550.215949	0.236642
550.574434	0.239830
550.932864	0.237973
551.291237	0.236349
551.649555	0.238206
552.007817	0.237674
552.366022	0.238429
552.724173	0.238807
553.082267	0.238886
553.440305	0.235920
553.798288	0.240265
554.156215	0.236791
554.514086	0.237645
554.871902	0.240649
555.229661	0.239999
555.587365	0.240313
555.945014	0.243183
556.302606	0.239767
556.660143	0.242603
557.017625	0.238859
557.375050	0.241060
557.732421	0.238195
558.089735	0.240222
558.446994	0.240091
558.804197	0.239630
559.161345	0.239319
559.518437	0.242752
559.875474	0.240744
560.232455	0.240225
560.589381	0.241417
560.946251	0.241272
561.303065	0.238719
561.659825	0.239992
562.016528	0.241942
562.373177	0.244372
562.729770	0.241896
563.086307	0.243638
563.442789	0.241888
563.799216	0.244385
564.155587	0.243535
564.511904	0.244470
564.868164	0.244497
565.224370	0.244387
565.580520	0.245834
565.936615	0.246011
566.292654	0.249347
566.648638	0.245974
567.004567	0.246639
567.360441	0.247425
567.716260	0.249299
568.072023	0.246958
568.427732	0.247786
568.783385	0.250269
569.138982	0.248626
569.494525	0.248133
569.850013	0.251046
570.205445	0.249543
570.560823	0.251905
570.916145	0.253943
571.271412	0.252402
571.626625	0.253869
571.981782	0.254080
572.336884	0.254866
572.691931	0.254735
573.046923	0.256014
573.401860	0.257250
573.756743	0.258952
574.111570	0.257738
574.466342	0.258427
574.821059	0.257433
575.175722	0.260352
575.530330	0.260181
575.884882	0.260278
576.239380	0.262462
576.593823	0.262781
576.948211	0.262256
577.302544	0.265258
577.656823	0.265079
578.011047	0.264994
578.365216	0.266108
578.719330	0.268215
579.073389	0.267377
579.427394	0.268776
579.781344	0.269833
580.135239	0.270618
580.489080	0.270767
580.842866	0.273721
581.196597	0.273829
581.550273	0.272393
581.903895	0.273659
582.257463	0.271543
582.610975	0.274845
582.964434	0.274308
583.317837	0.276554
583.671186	0.277269
584.024481	0.277405
584.377721	0.279632
584.730906	0.280537
585.084037	0.279586
585.437113	0.281577
585.790135	0.280805
586.143103	0.283678
586.496016	0.284785
586.848874	0.282219
587.201679	0.283041
587.554428	0.286281
587.907124	0.285409
588.259765	0.285961
588.612352	0.286328
588.964884	0.290463
589.317362	0.289759
589.669786	0.289531
590.022155	0.288091
590.374470	0.287504
590.726731	0.289570
591.078937	0.294861
591.431090	0.290772
591.783188	0.294878
592.135232	0.295609
592.487222	0.295397
592.839157	0.293707
593.191038	0.295860
593.542866	0.297819
593.894639	0.301000
594.246358	0.299455
594.598022	0.298808
594.949633	0.302721
595.301190	0.303125
595.652692	0.302188
596.004141	0.298286
596.355535	0.306594
596.706876	0.307270
597.058162	0.309384
597.409395	0.306596
597.760573	0.304420
598.111698	0.307530
598.462768	0.307834
598.813785	0.309329
599.164748	0.310985
599.515657	0.311272
599.866511	0.314832
600.217312	0.310069
600.568060	0.315383
600.918753	0.311837
601.269392	0.312516
601.619978	0.316320
601.970510	0.313490
602.320988	0.313753
602.671412	0.311524
603.021783	0.313993
603.372100	0.315058
603.722363	0.315088
604.072572	0.315864
604.422728	0.315456
604.772830	0.317944
605.122878	0.317861
605.472872	0.318245
605.822813	0.316390
606.172701	0.319101
606.522534	0.316509
606.872314	0.316547
607.222041	0.317705
607.571714	0.315746
607.921333	0.317410
608.270899	0.316849
608.620411	0.313539
608.969870	0.317681
609.319276	0.317615
609.668627	0.317550
610.017926	0.316167
610.367171	0.314753
610.716362	0.315296
611.065500	0.315622
611.414585	0.314736
611.763616	0.314812
612.112594	0.315582
612.461518	0.314631
612.810389	0.312595
613.159207	0.315237
613.507971	0.316629
613.856682	0.312701
614.205340	0.313681
614.553945	0.311395
614.902496	0.315174
615.250994	0.313200
615.599439	0.313830
615.947830	0.313230
616.296169	0.314311
616.644454	0.314004
616.992686	0.314154
617.340864	0.312169
617.688990	0.315505
618.037063	0.312370
618.385082	0.314609
618.733048	0.311070
619.080961	0.313483
619.428821	0.313275
619.776628	0.313016
620.124382	0.315166
620.472083	0.316018
620.819731	0.315013
621.167326	0.319058
621.514868	0.318833
621.862357	0.323249
622.209793	0.322657
622.557176	0.325071
622.904506	0.325984
623.251783	0.328638
623.599007	0.330843
623.946179	0.330301
624.293297	0.332444
624.640363	0.336680
624.987376	0.337140
625.334336	0.339831
625.681243	0.342131
626.028097	0.342751
626.374899	0.343833
626.721647	0.344451
627.068343	0.347609
627.414987	0.348989
627.761577	0.350738
628.108115	0.349530
628.454600	0.354788
628.801032	0.352552
629.147412	0.354582
629.493739	0.355630
629.840014	0.358513
630.186236	0.356018
630.532405	0.361604
630.878521	0.359708
631.224585	0.361784
631.570597	0.365714
631.916556	0.364540
632.262462	0.364505
632.608316	0.367464
632.954117	0.368362
633.299866	0.369164
633.645562	0.369730
633.991206	0.374429
634.336797	0.377378
634.682336	0.379929
635.027823	0.381646
635.373257	0.382296
635.718639	0.386300
636.063968	0.385680
636.409245	0.391565
636.754470	0.392207
637.099642	0.394773
637.444762	0.398240
637.789829	0.397637
638.134845	0.401532
638.479808	0.402691
638.824719	0.402747
639.169577	0.407251
639.514383	0.406159
639.859137	0.411049
640.203839	0.410684
640.548489	0.411513
640.893086	0.412942
641.237632	0.415510
641.582125	0.414237
641.926566	0.416576
642.270955	0.416553
642.615292	0.417086
642.959576	0.416298
643.303809	0.417792
643.647990	0.417432
643.992118	0.418396
644.336195	0.421348
644.680219	0.421099
645.024192	0.421747
645.368112	0.416266
645.711981	0.415939
646.055797	0.411964
646.399562	0.414872
646.743274	0.408739
647.086935	0.405524
647.430544	0.406576
647.774101	0.406240
648.117606	0.406279
648.461059	0.407440
648.804460	0.410014
649.147810	0.415264
649.491108	0.417620
649.834354	0.419379
650.177548	0.424521
650.520690	0.430761
650.863781	0.432553
651.206820	0.432123
651.549807	0.436984
651.892742	0.441657
652.235626	0.441603
652.578458	0.443241
652.921238	0.450140
653.263967	0.447715
653.606644	0.451601
653.949269	0.453184
654.291843	0.456738
654.634365	0.454835
654.976836	0.458232
655.319255	0.458930
655.661622	0.461313
656.003938	0.462447
656.346203	0.464516
656.688416	0.464060
657.030577	0.466997
657.372687	0.470067
657.714746	0.471453
658.056753	0.468761
658.398708	0.473827
658.740612	0.475088
659.082465	0.472319
659.424266	0.473608
659.766016	0.473689
660.107715	0.477841
660.449362	0.476720
660.790958	0.478384
661.132503	0.480539
661.473996	0.478362
661.815438	0.480068
662.156829	0.480499
662.498168	0.482055
662.839456	0.483445
663.180693	0.482719
663.521879	0.482972
663.863013	0.484458
664.204097	0.484785
664.545129	0.482410
664.886110	0.483741
665.227040	0.482191
665.567918	0.484702
665.908746	0.484503
666.249522	0.484504
666.590248	0.486433
666.930922	0.485138
667.271545	0.485544
667.612118	0.486283
667.952639	0.488500
668.293109	0.488681
668.633528	0.491743
668.973896	0.491874
669.314213	0.493058
669.654480	0.496745
669.994695	0.496376
670.334859	0.497564
670.674973	0.500315
671.015035	0.499992
671.355047	0.501491
671.695008	0.503350
672.034918	0.505226
672.374777	0.505846
672.714585	0.508139
673.054342	0.509021
673.394049	0.509526
673.733705	0.509231
674.073310	0.511759
674.412864	0.513309
674.752368	0.516554
675.091820	0.517118
675.431223	0.521285
675.770574	0.522165
676.109875	0.525246
676.449125	0.526347
676.788324	0.529160
677.127473	0.535304
677.466571	0.535999
677.805619	0.538556
678.144616	0.540698
678.483562	0.542917
678.822458	0.545044
679.161303	0.547003
679.500098	0.548443
679.838842	0.550414
680.177535	0.551212
680.516179	0.550190
680.854771	0.550290
681.193314	0.546582
681.531805	0.540086
681.870247	0.533980
682.208638	0.528767
682.546978	0.527991
682.885268	0.530920
683.223508	0.537250
683.561697	0.541178
683.899836	0.544452
684.237925	0.548412
684.575963	0.551741
684.913951	0.554395
685.251889	0.553871
685.589776	0.554812
685.927614	0.557031
686.265401	0.555267
686.603137	0.556578
686.940824	0.554669
687.278460	0.553500
687.616046	0.555561
687.953582	0.551536
688.291068	0.554396
688.628504	0.553010
688.965889	0.554507
689.303224	0.557512
689.640510	0.562946
689.977745	0.568074
690.314930	0.575054
690.652065	0.579708
690.989150	0.584565
691.326185	0.592118
691.663170	0.598097
692.000105	0.602893
692.336990	0.608601
692.673825	0.613279
693.010610	0.618490
693.347345	0.621008
693.684030	0.626878
694.020665	0.630605
694.357251	0.636589
694.693786	0.638580
695.030272	0.640801
695.366707	0.645746
695.703093	0.648697
696.039429	0.647923
696.375716	0.652011
696.711952	0.653525
697.048139	0.654796
697.384276	0.657701
697.720363	0.658777
698.056400	0.659272
698.392388	0.663931
698.728326	0.665532
699.064214	0.667798
699.400053	0.670012
699.735842	0.675262
700.071581	0.677649
700.407270	0.679473
700.742910	0.683117
701.078501	0.687171
701.414042	0.690444
701.749533	0.693419
702.084974	0.697962
702.420366	0.695489
702.755709	0.701240
703.091002	0.706651
703.426246	0.706049
703.761440	0.707210
704.096584	0.710314
704.431679	0.711799
704.766725	0.714098
705.101721	0.717221
705.436668	0.715995
705.771565	0.718868
706.106413	0.716620
706.441212	0.718200
706.775961	0.719187
707.110661	0.717630
707.445311	0.716009
707.779913	0.717889
708.114465	0.715743
708.448967	0.713252
708.783421	0.710413
709.117825	0.707337
709.452180	0.706456
709.786485	0.702498
710.120742	0.696800
710.454949	0.698489
710.789107	0.693841
711.123216	0.689252
711.457275	0.689608
711.791286	0.686204
712.125247	0.688357
712.459159	0.690350
712.793023	0.685782
713.126837	0.695807
713.460602	0.695671
713.794318	0.698752
714.127985	0.700756
714.461602	0.710552
714.795171	0.710468
715.128691	0.717778
715.462162	0.724707
715.795584	0.728923
716.128957	0.731637
716.462281	0.734877
716.795556	0.739457
717.128782	0.744677
717.461960	0.751594
717.795088	0.751945
718.128167	0.756536
718.461198	0.760176
718.794180	0.762539
719.127113	0.766663
719.459997	0.768522
719.792833	0.773770
720.125619	0.773296
720.458357	0.778450
720.791046	0.780229
721.123686	0.782844
721.456278	0.786727
721.788821	0.786251
722.121315	0.790324
722.453761	0.791127
722.786158	0.792595
723.118506	0.791730
723.450805	0.793324
723.783056	0.793070
724.115259	0.794659
724.447412	0.794779
724.779518	0.793867
725.111574	0.793565
725.443582	0.792677
725.775542	0.794691
726.107453	0.790346
726.439315	0.791798
726.771129	0.789921
727.102895	0.785234
727.434612	0.783731
727.766281	0.782904
728.097901	0.781134
728.429473	0.781814
728.760996	0.782276
729.092471	0.782390
729.423897	0.785957
729.755276	0.787272
730.086606	0.786480
730.417887	0.784249
730.749120	0.779718
731.080305	0.777819
731.411442	0.774528
731.742530	0.776525
732.073570	0.776131
732.404562	0.775536
732.735506	0.776434
733.066401	0.778286
733.397249	0.783835
733.728048	0.791848
734.058798	0.802130
734.389501	0.809530
734.720156	0.813827
735.050762	0.819365
735.381320	0.821932
735.711831	0.824587
736.042293	0.828194
736.372707	0.829438
736.703073	0.830795
737.033391	0.830568
737.363661	0.830946
737.693883	0.830042
738.024056	0.828337
738.354182	0.827063
738.684260	0.822526
739.014290	0.821177
739.344272	0.820595
739.674207	0.818369
740.004093	0.818035
740.333931	0.818274
740.663722	0.819182
740.993464	0.819845
741.323159	0.821611
741.652806	0.826253
741.982405	0.829413
742.311956	0.833219
742.641460	0.835601
742.970915	0.838747
743.300323	0.841215
743.629683	0.845513
743.958996	0.849134
744.288260	0.851565
744.617477	0.855324
744.946647	0.857898
745.275768	0.861052
745.604842	0.861608
745.933869	0.864001
746.262847	0.866467
746.591778	0.865424
746.920662	0.868796
747.249498	0.870159
747.578286	0.869619
747.907027	0.867170
748.235720	0.863902
748.564365	0.864483
748.892963	0.866415
749.221514	0.867590
749.550017	0.867835
749.878473	0.869629
750.206881	0.873500
750.535242	0.874668
750.863555	0.875194
751.191821	0.876157
751.520039	0.876336
751.848210	0.877983
752.176334	0.877733
752.504411	0.877723
752.832440	0.879369
753.160421	0.881880
753.488356	0.883363
753.816243	0.881998
754.144082	0.884614
754.471875	0.886047
754.799620	0.887199
755.127318	0.887403
755.454969	0.887694
755.782572	0.888540
756.110129	0.888714
756.437638	0.891247
756.765100	0.890121
757.092515	0.889659
757.419882	0.890176
757.747203	0.891626
758.074477	0.891700
758.401703	0.890503
758.728882	0.888758
759.056014	0.889527
759.383099	0.888895
759.710138	0.887683
760.037129	0.885830
760.364073	0.887094
760.690970	0.887407
761.017820	0.887475
761.344623	0.888427
761.671379	0.885745
761.998088	0.882690
762.324751	0.873386
762.651366	0.851915
762.977935	0.819531
763.304456	0.799671
763.630931	0.798916
763.957359	0.816579
764.283740	0.836662
764.610074	0.851772
764.936362	0.866138
765.262602	0.876222
765.588796	0.885624
765.914943	0.892685
766.241044	0.900115
766.567097	0.904066
766.893104	0.908020
767.219064	0.910288
767.544978	0.913301
767.870845	0.918190
768.196665	0.919972
768.522438	0.922058
768.848165	0.922804
769.173846	0.925521
769.499479	0.926939
769.825066	0.929057
770.150607	0.931747
770.476101	0.930597
770.801548	0.931158
771.126949	0.935370
771.452303	0.936525
771.777611	0.937306
772.102872	0.937486
772.428087	0.938877
772.753256	0.941738
773.078378	0.941478
773.403453	0.944461
773.728482	0.946848
774.053465	0.945188
774.378401	0.946464
774.703291	0.949252
775.028135	0.949182
775.352932	0.948751
775.677683	0.951983
776.002388	0.951719
776.327046	0.952293
776.651658	0.954649
776.976224	0.954494
777.300743	0.954468
777.625216	0.955249
777.949643	0.955745
778.274024	0.955028
778.598359	0.956866
778.922647	0.956459
779.246889	0.957535
779.571086	0.957937
779.895236	0.957988
780.219339	0.958199
780.543397	0.957709
780.867409	0.956930
781.191374	0.956788
781.515294	0.958662
781.839167	0.959441
782.162995	0.959484
782.486776	0.958408
782.810511	0.959746
783.134201	0.962098
783.457844	0.960919
783.781441	0.961413
784.104993	0.962142
784.428498	0.964031
784.751958	0.963984
785.075372	0.963761
785.398739	0.965053
785.722061	0.963622
786.045337	0.963986
786.368568	0.963728
786.691752	0.964228
787.014891	0.961311
787.337983	0.957606
787.661030	0.952948
787.984031	0.948386
788.306987	0.945985
788.629897	0.943913
788.952760	0.948647
789.275579	0.951604
789.598351	0.955149
789.921078	0.960562
790.243759	0.961851
790.566395	0.963529
790.888984	0.966468
791.211529	0.967871
791.534027	0.968421
791.856480	0.970060
792.178888	0.969605
792.501249	0.970485
792.823566	0.972481
793.145836	0.971850
793.468062	0.972852
793.790241	0.973820
794.112375	0.971634
794.434464	0.971644
794.756507	0.971494
795.078505	0.970463
795.400457	0.967457
795.722364	0.964606
796.044226	0.962426
796.366042	0.960677
796.687812	0.961464
797.009538	0.962704
797.331218	0.964123
797.652852	0.966741
797.974442	0.966317
798.295986	0.968397
798.617484	0.968898
798.938938	0.971140
799.260346	0.970993
799.581709	0.971684
799.903026	0.972409
800.224299	0.972292
800.545526	0.973504
800.866708	0.973453
801.187845	0.975606
801.508936	0.975964
801.829983	0.975723
802.150984	0.976379
802.471940	0.977568
802.792851	0.977080
803.113717	0.978625
803.434538	0.978385
803.755314	0.978529
804.076045	0.978136
804.396731	0.977430
804.717372	0.977659
805.037967	0.979536
805.358518	0.978810
805.679024	0.976962
805.999485	0.977237
806.319901	0.976754
806.640272	0.978539
806.960598	0.977973
807.280879	0.976865
807.601115	0.976894
807.921306	0.978212
808.241453	0.977241
808.561554	0.977341
808.881611	0.976705
809.201623	0.977483
809.521590	0.978309
809.841513	0.979499
810.161390	0.977535
810.481223	0.979252
810.801011	0.979738
811.120755	0.981197
811.440453	0.980750
811.760107	0.979880
812.079716	0.981067
812.399281	0.981582
812.718801	0.981115
813.038276	0.982773
813.357707	0.982759
813.677093	0.982561
813.996434	0.982723
814.315731	0.984553
814.634983	0.983179
814.954191	0.983891
815.273354	0.982007
815.592473	0.981842
815.911547	0.982296
816.230577	0.980869
816.549562	0.981726
816.868502	0.979532
817.187399	0.982690
817.506250	0.979801
817.825058	0.978779
818.143821	0.979467
818.462539	0.978365
818.781213	0.977602
819.099843	0.973929
819.418429	0.970139
819.736970	0.968008
820.055466	0.961769
820.373919	0.959067
820.692327	0.954678
821.010691	0.945351
821.329011	0.921705
821.647286	0.880036
821.965517	0.836110
822.283704	0.818421
822.601847	0.822544
822.919945	0.843148
823.237999	0.865265
823.556010	0.883200
823.873976	0.898910
824.191897	0.914188
824.509775	0.926867
824.827609	0.935468
825.145398	0.941337
825.463144	0.941167
825.780845	0.938539
826.098502	0.935034
826.416116	0.922701
826.733685	0.909929
827.051210	0.906216
827.368692	0.912646
827.686129	0.925095
828.003522	0.936653
828.320872	0.946966
828.638177	0.955720
828.955439	0.963812
829.272656	0.968169
829.589830	0.970851
829.906960	0.974604
830.224046	0.976415
830.541088	0.979308
830.858086	0.979923
831.175041	0.982535
831.491952	0.981355
831.808819	0.981453
832.125642	0.980925
832.442421	0.978480
832.759157	0.973879
833.075849	0.963343
833.392497	0.951604
833.709101	0.941198
834.025662	0.943253
834.342179	0.949591
834.658653	0.960323
834.975083	0.965979
835.291469	0.972106
835.607811	0.975314
835.924110	0.978597
836.240366	0.982386
836.556578	0.985267
836.872746	0.985570
837.188871	0.986518
837.504952	0.987546
837.820990	0.988833
838.136984	0.988670
838.452935	0.990208
838.768842	0.989894
839.084706	0.989393
839.400526	0.984297
839.716303	0.975158
840.032037	0.971289
840.347727	0.971892
840.663373	0.977130
840.978977	0.980900
841.294537	0.985006
841.610054	0.988204
841.925527	0.989866
842.240957	0.990804
842.556344	0.991265
842.871687	0.992700
843.186987	0.993356
843.502244	0.993767
843.817458	0.993207
844.132629	0.994381
844.447756	0.995716
844.762840	0.994328
845.077881	0.996021
845.392879	0.994267
845.707833	0.994887
846.022745	0.996103
846.337613	0.995746
846.652438	0.995614
846.967221	0.996771
847.281960	0.996544
847.596656	0.997558
847.911309	0.996896
848.225919	0.996862
848.540485	0.997090
848.855009	0.997312
849.169490	0.996012
849.483928	0.995994
849.798323	0.996031
850.112675	0.997563
850.426984	0.996895
850.741251	0.996428
851.055474	0.997080
851.369654	0.996796
851.683792	0.996635
851.997887	0.996359
852.311938	0.997557
852.625947	0.995984
852.939914	0.994442
853.253837	0.997727
853.567718	0.998196
853.881555	0.996993
854.195350	0.997862
854.509103	0.997767
854.822812	0.996799
855.136479	0.997108
855.450103	0.997227
855.763685	0.996376
856.077224	0.996851
856.390720	0.996439
856.704173	0.997189
857.017584	0.997372
857.330953	0.996528
857.644278	0.995911
857.957561	0.996118
858.270802	0.995951
858.584000	0.997070
858.897155	0.995880
859.210268	0.996457
859.523339	0.997083
859.836367	0.997528
860.149352	0.995867
860.462295	0.996545
860.775195	0.997082
861.088054	0.995477
861.400869	0.995965
861.713642	0.996027
862.026373	0.997518
862.339062	0.998231
862.651708	0.996604
862.964312	0.997178
863.276873	0.996892
863.589392	0.996571
863.901869	0.996089
864.214303	0.995752
864.526696	0.996304
864.839045	0.996084
865.151353	0.996279
865.463619	0.994926
865.775842	0.996423
866.088023	0.997024
866.400162	0.996799
866.712258	0.997154
867.024313	0.997042
867.336325	0.996079
867.648296	0.996245
867.960224	0.995344
868.272110	0.996914
868.583954	0.996496
868.895755	0.997270
869.207515	0.995718
869.519233	0.997046
869.830909	0.995126
870.142542	0.994867
870.454134	0.995478
870.765684	0.994951
871.077191	0.994744
871.388657	0.995835
871.700081	0.995702
872.011463	0.996221
872.322803	0.994819
872.634101	0.994833
872.945357	0.994774
873.256571	0.994205
873.567744	0.994285
873.878874	0.994014
874.189963	0.994245
874.501010	0.995768
874.812015	0.995012
875.122979	0.995023
875.433900	0.993450
875.744780	0.994783
876.055618	0.993430
876.366415	0.993001
876.677169	0.993129
876.987882	0.993867
877.298554	0.994910
877.609183	0.993425
877.919771	0.992253
878.230317	0.992986
878.540822	0.992125
878.851285	0.992356
879.161707	0.989541
879.472087	0.989709
879.782425	0.985142
880.092722	0.980836
880.402977	0.971141
880.713191	0.956615
881.023363	0.937988
881.333494	0.927430
881.643583	0.926105
881.953631	0.928711
882.263637	0.933777
882.573602	0.942410
882.883526	0.949469
883.193408	0.957302
883.503248	0.961080
883.813048	0.965313
884.122806	0.970970
884.432522	0.975067
884.742197	0.978148
885.051831	0.981221
885.361424	0.983297
885.670975	0.986282
885.980485	0.987739
886.289954	0.987460
886.599382	0.989006
886.908768	0.990583
887.218113	0.990026
887.527417	0.991361
887.836680	0.991656
888.145901	0.993885
888.455082	0.994231
888.764221	0.993074
889.073319	0.993652
889.382376	0.994473
889.691392	0.992600
890.000366	0.994783
890.309300	0.993469
890.618193	0.994622
890.927044	0.993953
891.235855	0.994066
891.544625	0.993854
891.853353	0.993293
892.162041	0.993510
892.470687	0.992444
892.779293	0.990973
893.087858	0.989708
893.396381	0.988310
893.704864	0.987228
894.013306	0.983755
894.321707	0.978609
894.630068	0.974864
894.938387	0.973615
895.246665	0.975542
895.554903	0.976564
895.863100	0.980352
896.171256	0.981114
896.479371	0.984003
896.787446	0.985979
897.095480	0.989024
897.403473	0.990309
897.711425	0.989713
898.019336	0.991793
898.327207	0.991705
898.635038	0.991107
898.942827	0.992859
899.250576	0.992457
899.558284	0.993867
899.865952	0.993264
900.173579	0.995001
900.481165	0.994481
900.788711	0.993916
901.096216	0.995206
901.403681	0.994863
901.711105	0.994580
902.018489	0.994623
902.325832	0.994588
902.633135	0.993842
902.940397	0.993724
903.247619	0.991530
903.554800	0.987271
903.861941	0.980429
904.169041	0.973430
904.476101	0.969599
904.783121	0.968484
905.090100	0.971832
905.397039	0.976343
905.703938	0.980309
906.010796	0.983567
906.317614	0.987059
906.624391	0.989953
906.931129	0.992758
907.237826	0.992730
907.544483	0.993811
907.851099	0.994407
908.157675	0.994271
908.464211	0.996759
908.770707	0.994826
909.077163	0.995741
909.383578	0.995610
909.689954	0.995393
909.996289	0.997211
910.302584	0.998467
910.608839	0.998421
910.915054	0.997209
911.221229	0.998886
911.527363	0.995849
911.833458	0.997476
912.139513	0.996061
912.445527	0.997708
912.751502	0.997501
913.057436	0.995983
913.363331	0.997288
913.669186	0.995763
913.975000	0.995977
914.280775	0.993760
914.586510	0.990669
914.892205	0.989140
915.197859	0.985863
915.503475	0.981511
915.809050	0.976784
916.114585	0.973412
916.420081	0.973702
916.725536	0.973571
917.030952	0.975825
917.336328	0.978434
917.641665	0.980857
917.946961	0.982554
918.252218	0.985070
918.557435	0.987168
918.862612	0.988932
919.167750	0.990511
919.472848	0.992100
919.777906	0.993401
920.082925	0.994104
920.387904	0.993293
920.692843	0.993827
920.997743	0.994380
921.302603	0.995960
921.607423	0.995492
921.912204	0.996400
922.216946	0.997405
922.521647	0.996727
922.826310	0.996660
923.130932	0.996513
923.435516	0.997622
923.740059	0.996367
924.044564	0.996379
924.349028	0.997095
924.653454	0.998482
924.957840	0.997648
925.262186	0.998059
925.566493	0.997818
925.870761	0.998461
926.174989	0.998014
926.479178	0.999631
926.783328	0.998749
927.087438	0.998409
927.391509	0.998705
927.695541	0.999648
927.999533	0.999387
928.303486	0.999557
928.607400	1.000343
928.911275	0.999965
929.215110	0.999926
929.518906	0.999728
929.822663	1.001884
930.126381	0.999858
930.430060	1.000134
930.733699	0.999917
931.037299	1.001198
931.340861	0.998400
931.644383	0.998334
931.947866	1.001325
932.251309	1.000179
932.554714	0.999675
932.858080	1.000011
933.161407	0.998643
933.464694	0.999837
933.767943	1.000257
934.071153	1.000462
934.374323	1.000998
934.677455	0.999546
934.980548	0.999888
935.283602	1.000822
935.586617	0.999721
935.889593	1.001639
936.192530	1.000077
936.495428	0.999214
936.798287	0.998817
937.101108	0.999566
937.403890	0.998339
937.706632	0.999668
938.009336	0.999628
938.312002	0.997462
938.614628	0.998464
938.917216	0.998350
939.219765	0.998172
939.522275	0.997853
939.824747	0.997738
940.127179	0.998792
940.429573	0.999862
940.731929	0.999007
941.034246	0.997798
941.336524	0.997735
941.638763	0.999603
941.940964	0.998856
942.243126	0.999524
942.545250	0.999569
942.847335	0.998483
943.149381	0.999826
943.451389	0.998672
943.753359	0.998826
944.055290	1.000224
944.357182	0.999890
944.659036	0.999561
944.960851	0.999362
945.262628	0.999278
945.564367	1.000524
945.866067	1.000254
946.167729	0.999884
946.469352	0.999809
946.770937	0.998049
947.072484	1.000109
947.373992	0.999472
947.675462	0.998602
947.976893	0.999693
948.278286	1.001549
948.579641	1.000756
948.880958	0.999581
949.182236	1.000581
949.483476	0.999919
949.784678	0.999489
950.085841	0.999311
950.386967	0.999456
950.688054	0.999461
950.989103	0.999190
951.290114	0.998976
951.591087	0.999422
951.892021	0.999163
952.192917	1.000021
952.493776	0.999394
952.794596	0.999888
953.095378	0.998806
953.396122	0.998612
953.696828	1.000035
953.997496	1.000254
954.298126	1.000810
954.598718	0.999510
954.899272	1.000697
955.199788	0.999896
955.500266	1.001182
955.800706	0.999481
956.101108	1.000443
956.401472	1.001887
956.701798	1.000229
957.002087	1.000929
957.302337	0.999242
957.602550	1.001094
957.902724	1.000607
958.202861	1.000042
958.502960	1.000858
958.803022	1.002419
959.103045	1.002362
959.403031	1.001302
959.702979	1.002519
960.002889	1.000720
960.302762	1.000060
960.602596	1.001771
960.902393	1.001171
961.202153	1.000055
961.501875	1.001974
961.801559	1.001940
962.101205	1.000231
962.400814	1.002002
962.700385	1.001643
962.999918	1.002551
963.299414	1.000200
963.598873	1.002828
963.898293	1.001290
964.197677	1.001371
964.497022	1.001189
964.796331	1.001128
965.095601	1.003182
965.394835	1.000241
965.694030	1.001121
965.993189	1.000496
966.292309	1.001983
966.591393	0.999727
966.890439	1.002283
967.189447	1.001401
967.488419	1.002427
967.787353	1.000806
968.086249	1.002467
968.385108	1.001833
968.683930	1.002605
968.982714	1.002300
969.281462	1.001633
969.580172	1.001138
969.878844	1.002250
970.177480	1.002139
970.476078	1.002291
970.774639	1.002981
971.073162	1.001394
971.371649	1.001295
971.670098	1.002385
971.968510	1.000978
972.266885	1.000605
972.565223	1.000842
972.863524	1.000697
973.161788	1.001328
973.460014	1.003318
973.758204	1.000290
974.056356	1.000915
974.354471	1.001611
974.652550	1.001873
974.950591	1.000701
975.248595	1.001126
975.546563	1.002487
975.844493	1.002799
976.142386	1.001046
976.440243	1.001944
976.738062	1.001990
977.035845	1.001354
977.333590	1.001575
977.631299	1.001253
977.928971	1.002183
978.226606	1.001902
978.524204	1.001462
978.821765	1.001742
979.119290	1.003009
979.416777	1.003044
979.714228	1.000834
980.011642	1.001531
980.309020	1.000524
980.606360	1.001529
980.903664	1.000935
981.200931	1.001979
981.498162	1.002215
981.795356	1.000691
982.092513	1.001540
982.389633	1.002414
982.686717	1.000001
982.983764	1.000226
983.280775	0.999292
983.577749	1.001544
983.874686	0.999933
984.171587	0.999654
984.468451	1.001458
984.765279	1.001810
985.062070	1.002314
985.358824	1.001138
985.655543	1.001896
985.952224	1.002372
986.248869	1.001257
986.545478	1.002562
986.842050	1.002144
987.138586	1.001061
987.435086	1.001398
987.731549	1.002436
988.027975	1.002398
988.324366	1.002372
988.620719	1.003563
988.917037	1.002365
989.213318	1.002844
989.509563	1.002714
989.805772	1.003369
990.101944	1.002100
990.398080	1.002216
990.694180	1.003702
990.990244	1.001972
991.286271	1.002535
991.582262	1.003059
991.878217	1.001769
992.174136	1.003508
992.470019	1.001846
992.765865	1.004375
993.061676	1.002276
993.357450	1.002709
993.653188	1.003672
993.948890	1.002151
994.244556	1.001887
994.540186	1.002830
994.835780	1.002685
995.131337	1.003152
995.426859	1.001403
995.722345	1.001690
996.017795	1.001242
996.313208	1.002751
996.608586	1.001738
996.903928	1.002013
997.199234	1.002643
997.494504	1.003029
997.789738	1.001085
998.084936	1.003297
998.380099	1.001992
998.675225	1.003000
998.970316	1.002211
999.265371	1.001844
999.560390	1.002363
999.855373	1.002581
1000.150320	1.002254
1000.445232	1.002908
1000.740108	1.003466
1001.034948	1.001610
1001.329752	1.003856
1001.624521	1.002182
1001.919254	1.001849
1002.213951	1.002916
1002.508613	1.002067
1002.803239	1.002471
1003.097829	1.002507
1003.392384	1.003335
1003.686903	1.002283
1003.981386	1.002693
1004.275834	1.004188
1004.570246	1.002434
1004.864623	1.003273
1005.158964	1.004121
1005.453270	1.002381
1005.747540	1.003164
1006.041775	1.003024
1006.335974	1.003162
1006.630138	1.003847
1006.924266	1.001744
1007.218359	1.001549
1007.512416	1.003450
1007.806438	1.002818
1008.100425	1.003624
1008.394376	1.002994
1008.688292	1.001421
1008.982172	1.002195
1009.276017	1.002911
1009.569827	1.003465
1009.863602	1.002713
1010.157341	1.004199
1010.451045	1.001645
1010.744714	1.005026
1011.038347	1.003928
1011.331945	1.001560
1011.625508	1.002749
1011.919036	1.001848
1012.212528	1.003139
1012.505986	1.002574
1012.799408	1.003572
1013.092795	1.002924
1013.386147	1.002888
1013.679464	1.003773
1013.972745	1.003160
1014.265992	1.001774
1014.559204	1.002238
1014.852380	1.003568
1015.145521	1.003119
1015.438628	1.002864
1015.731699	1.002531
1016.024736	1.002915
1016.317737	1.003188
1016.610703	1.004261
1016.903635	1.003971
1017.196531	1.002295
1017.489393	1.002563
1017.782219	1.002487
1018.075011	1.002323
1018.367768	1.002428
1018.660490	1.002697
1018.953177	1.002697
1019.245829	1.002697
