Dividing Wavelength (nm)	Counts (n)	Blue Motor Position (mm): 44.600000	Red Motor Position (mm): 0.000000	
326.493990	0.998165
326.888308	0.998165
327.282561	0.998165
327.676750	1.000345
328.070874	1.000925
328.464933	1.000272
328.858929	1.000264
329.252859	1.000147
329.646726	0.998867
330.040528	1.000843
330.434265	1.000351
330.827938	0.999701
331.221547	1.000613
331.615091	1.000210
332.008571	1.000190
332.401986	0.998767
332.795338	0.998650
333.188625	0.999837
333.581847	0.999583
333.975006	0.999909
334.368100	1.000738
334.761129	0.999563
335.154095	1.001216
335.546996	1.000167
335.939833	0.999012
336.332606	1.001270
336.725315	0.999075
337.117960	1.000476
337.510540	0.998969
337.903056	1.000632
338.295508	1.001186
338.687896	1.000525
339.080220	0.999265
339.472480	0.999454
339.864676	0.999803
340.256807	0.999666
340.648875	0.998581
341.040879	0.999617
341.432818	1.000151
341.824694	0.999918
342.216506	1.000464
342.608253	0.999240
342.999937	0.999452
343.391557	0.999484
343.783113	1.001486
344.174605	1.000338
344.566033	0.999395
344.957397	1.000835
345.348697	1.000560
345.739934	0.998912
346.131106	0.999012
346.522215	0.998673
346.913260	1.000013
347.304241	0.998903
347.695159	0.999140
348.086012	0.999773
348.476802	0.999153
348.867528	0.998332
349.258191	0.999424
349.648789	0.999554
350.039324	0.999949
350.429796	0.998799
350.820203	0.997918
351.210548	0.999609
351.600828	0.999929
351.991045	0.999299
352.381198	1.000727
352.771288	0.998652
353.161314	0.999373
353.551276	0.999616
353.941175	0.997960
354.331010	0.999700
354.720782	1.000012
355.110490	0.998978
355.500135	1.000086
355.889717	0.998753
356.279235	0.999502
356.668689	0.999091
357.058080	0.999272
357.447408	0.998857
357.836672	0.999544
358.225873	0.998239
358.615010	0.999080
359.004084	0.997585
359.393095	0.999659
359.782043	0.998960
360.170927	0.999194
360.559748	0.999438
360.948505	0.998747
361.337199	0.998312
361.725830	0.999551
362.114398	0.999183
362.502903	0.998449
362.891344	0.998607
363.279722	0.998242
363.668037	0.998929
364.056289	0.998185
364.444478	0.999651
364.832603	0.999100
365.220665	1.000112
365.608665	0.998729
365.996601	0.999104
366.384474	0.998733
366.772284	0.998266
367.160031	0.997746
367.547715	0.997986
367.935336	0.997380
368.322893	0.996056
368.710388	0.994257
369.097820	0.993100
369.485189	0.990196
369.872495	0.989749
370.259738	0.986514
370.646918	0.984981
371.034035	0.982528
371.421090	0.979745
371.808081	0.975449
372.195010	0.972723
372.581875	0.967037
372.968678	0.962801
373.355418	0.960189
373.742096	0.951117
374.128710	0.948388
374.515262	0.943670
374.901751	0.937399
375.288177	0.933873
375.674540	0.927377
376.060841	0.922746
376.447079	0.915684
376.833254	0.911144
377.219367	0.908685
377.605417	0.899507
377.991404	0.898347
378.377329	0.895548
378.763191	0.892360
379.148991	0.886505
379.534727	0.883263
379.920402	0.879179
380.306013	0.878082
380.691563	0.872020
381.077049	0.870118
381.462474	0.869548
381.847835	0.865437
382.233134	0.866240
382.618371	0.870789
383.003545	0.863380
383.388657	0.866881
383.773706	0.866661
384.158693	0.868258
384.543618	0.872572
384.928480	0.872037
385.313280	0.872323
385.698017	0.876031
386.082692	0.877417
386.467305	0.881867
386.851856	0.886295
387.236344	0.889693
387.620770	0.893284
388.005133	0.897150
388.389435	0.901022
388.773674	0.906890
389.157851	0.910313
389.541965	0.914375
389.926018	0.921467
390.310008	0.924913
390.693936	0.929591
391.077802	0.933589
391.461606	0.938497
391.845348	0.942615
392.229027	0.945170
392.612645	0.950230
392.996200	0.953524
393.379694	0.955796
393.763125	0.959704
394.146494	0.963321
394.529801	0.965946
394.913047	0.968696
395.296230	0.972831
395.679351	0.974926
396.062410	0.978591
396.445408	0.981504
396.828343	0.983304
397.211217	0.984604
397.594028	0.987711
397.976778	0.989261
398.359466	0.990592
398.742092	0.991379
399.124656	0.992751
399.507158	0.992279
399.889598	0.994979
400.271977	0.994694
400.654294	0.995466
401.036549	0.996922
401.418742	0.996898
401.800874	0.996573
402.182944	0.995929
402.564952	0.997607
402.946898	0.997222
403.328783	0.997964
403.710606	0.997779
404.092367	0.998545
404.474067	0.999761
404.855705	0.999674
405.237282	0.998229
405.618797	0.998721
406.000250	0.998686
406.381642	0.997369
406.762972	0.999228
407.144240	0.999346
407.525447	0.997266
407.906593	0.997930
408.287677	0.999394
408.668700	0.998806
409.049661	0.998710
409.430560	0.998381
409.811399	0.998768
410.192176	0.999333
410.572891	0.999546
410.953545	0.998728
411.334138	0.999176
411.714669	0.999363
412.095139	0.999521
412.475547	0.999549
412.855894	0.999487
413.236180	0.999521
413.616405	0.999087
413.996568	0.998876
414.376670	0.998907
414.756711	0.997641
415.136691	0.998527
415.516609	0.998698
415.896466	0.999771
416.276262	0.999182
416.655997	0.999742
417.035670	1.000107
417.415283	0.999133
417.794834	1.000056
418.174324	0.999694
418.553753	0.999081
418.933121	0.999571
419.312428	1.000012
419.691674	1.000067
420.070859	0.998922
420.449983	0.999200
420.829045	0.998451
421.208047	0.999447
421.586988	0.998883
421.965867	0.998437
422.344686	0.998900
422.723444	0.998128
423.102141	0.999232
423.480777	0.998502
423.859352	0.999279
424.237866	0.999316
424.616319	0.999628
424.994712	0.999798
425.373044	0.999675
425.751314	0.999354
426.129524	0.999189
426.507673	0.998303
426.885762	0.999065
427.263789	0.999183
427.641756	0.999112
428.019662	0.999592
428.397508	0.999960
428.775292	0.999501
429.153016	0.998871
429.530679	0.999789
429.908282	0.999702
430.285824	0.998977
430.663305	0.999656
431.040726	0.999022
431.418086	0.999542
431.795385	0.999173
432.172624	1.000465
432.549802	0.999484
432.926920	0.999327
433.303977	0.999675
433.680974	0.999419
434.057910	0.999594
434.434786	0.998761
434.811601	0.999519
435.188355	0.999317
435.565050	0.999552
435.941683	0.999232
436.318257	0.998109
436.694770	0.999499
437.071222	1.001007
437.447614	0.999205
437.823946	0.999392
438.200218	0.999698
438.576429	0.998627
438.952580	0.999645
439.328670	0.997853
439.704700	0.997991
440.080670	0.999815
440.456580	0.999690
440.832429	0.999514
441.208218	0.999399
441.583947	0.999888
441.959616	0.999334
442.335224	0.999902
442.710773	0.999370
443.086261	0.999096
443.461689	0.999494
443.837057	0.999159
444.212365	1.000000
444.587612	1.000724
444.962800	0.999152
445.337927	0.999050
445.712995	1.000081
446.088002	0.999065
446.462949	0.999734
446.837837	1.000827
447.212664	0.999496
447.587431	1.000072
447.962139	0.998831
448.336786	0.999111
448.711374	0.998992
449.085901	0.999793
449.460369	0.999995
449.834776	0.998792
450.209124	0.999324
450.583412	0.999622
450.957640	0.999717
451.331808	0.999550
451.705917	0.998577
452.079965	0.999046
452.453954	1.000230
452.827883	0.999236
453.201752	0.999756
453.575562	0.998760
453.949311	0.999722
454.323001	0.999535
454.696632	0.999899
455.070202	0.999083
455.443713	0.999743
455.817164	0.999430
456.190556	0.999359
456.563888	1.000357
456.937160	0.999201
457.310373	0.999173
457.683526	0.999850
458.056619	1.000116
458.429653	0.999211
458.802628	0.999497
459.175542	0.999625
459.548398	0.998840
459.921194	0.999233
460.293930	1.000495
460.666607	0.999593
461.039224	1.000031
461.411782	0.999383
461.784280	0.999814
462.156719	1.000264
462.529099	0.999010
462.901419	0.999364
463.273680	0.999236
463.645882	0.999309
464.018024	0.999761
464.390106	0.999272
464.762130	1.000171
465.134094	0.999322
465.505999	0.999939
465.877845	0.999337
466.249631	0.999424
466.621358	0.998531
466.993026	0.999013
467.364634	0.999733
467.736184	0.999325
468.107674	0.999605
468.479105	0.999415
468.850477	0.998997
469.221790	0.999071
469.593043	0.999405
469.964238	0.999204
470.335373	0.999685
470.706449	0.999530
471.077467	0.998998
471.448425	0.999449
471.819324	0.999643
472.190164	0.999605
472.560945	1.000015
472.931667	0.999485
473.302330	0.999485
473.672934	0.999984
474.043479	0.998355
474.413965	0.999460
474.784393	0.999741
475.154761	0.998523
475.525070	0.999736
475.895321	0.999671
476.265513	1.000093
476.635645	0.999183
477.005719	0.999458
477.375734	0.999048
477.745691	0.999732
478.115588	0.999155
478.485427	0.999609
478.855207	0.999508
479.224928	0.999758
479.594591	0.999057
479.964194	0.999281
480.333739	0.999218
480.703226	0.999143
481.072653	0.999457
481.442022	0.999614
481.811333	0.999690
482.180584	0.999486
482.549777	0.999607
482.918912	0.999345
483.287988	0.999831
483.657005	0.999306
484.025964	0.999280
484.394864	0.998934
484.763706	0.999098
485.132489	0.999616
485.501213	0.999868
485.869879	0.998732
486.238487	0.998356
486.607036	0.999986
486.975527	0.999201
487.343959	0.998745
487.712333	0.999749
488.080648	0.999387
488.448905	0.999744
488.817104	0.998814
489.185244	0.999179
489.553326	0.999412
489.921350	0.999412
490.289315	0.999489
490.657222	0.998522
491.025070	0.999734
491.392861	0.999347
491.760593	0.999522
492.128267	0.999392
492.495883	0.999035
492.863440	0.999589
493.230939	0.999752
493.598380	1.000057
493.965763	0.999281
494.333088	0.998660
494.700354	0.998599
495.067563	0.998787
495.434713	0.999387
495.801805	0.998878
496.168839	0.999332
496.535815	0.999450
496.902733	0.999583
497.269593	0.998860
497.636395	0.999138
498.003139	0.999056
498.369825	1.000071
498.736453	0.999402
499.103023	0.999287
499.469535	0.999342
499.835989	0.999283
500.202385	0.999891
500.568723	0.999641
500.935003	0.999913
501.301226	0.999890
501.667390	0.998925
502.033497	0.999291
502.399546	0.998632
502.765537	0.999659
503.131470	0.998693
503.497345	1.000033
503.863163	0.999405
504.228923	0.998882
504.594625	0.998204
504.960269	0.999777
505.325856	0.999494
505.691385	0.999775
506.056856	0.999807
506.422270	0.999450
506.787625	0.999534
507.152924	0.999708
507.518164	0.999036
507.883347	0.999382
508.248472	0.999622
508.613540	0.998994
508.978550	0.999923
509.343503	0.999214
509.708398	0.999825
510.073236	0.999821
510.438016	0.999488
510.802738	0.998602
511.167403	0.999265
511.532010	0.999475
511.896561	0.999839
512.261053	0.999231
512.625488	0.998809
512.989866	0.999644
513.354186	0.998568
513.718449	0.999178
514.082655	0.999086
514.446803	0.999829
514.810894	1.000126
515.174927	0.999574
515.538904	0.999666
515.902822	0.999248
516.266684	0.999581
516.630488	0.999410
516.994235	0.999440
517.357925	0.999633
517.721558	0.999666
518.085133	0.998794
518.448651	0.999304
518.812112	0.999815
519.175516	0.999296
519.538863	0.999448
519.902152	0.999986
520.265385	0.998626
520.628560	0.999093
520.991678	0.999906
521.354739	1.000107
521.717743	0.998850
522.080690	0.998587
522.443580	0.999327
522.806413	0.998821
523.169189	0.999850
523.531908	0.998724
523.894569	0.999557
524.257174	0.999462
524.619722	0.999513
524.982213	0.999286
525.344647	0.999101
525.707025	0.999241
526.069345	0.999127
526.431608	0.999315
526.793815	0.999917
527.155964	0.999384
527.518057	0.999756
527.880093	0.999145
528.242072	0.999370
528.603995	0.999042
528.965860	0.999706
529.327669	0.999801
529.689421	0.998984
530.051117	0.999683
530.412755	0.999880
530.774337	0.998819
531.135862	0.999147
531.497331	0.999209
531.858743	1.000150
532.220098	0.999340
532.581396	0.999289
532.942638	0.999820
533.303824	0.999656
533.664953	0.999466
534.026025	1.000100
534.387040	0.998971
534.747999	0.998949
535.108902	0.999325
535.469748	0.999945
535.830537	0.999172
536.191270	0.999448
536.551947	0.999404
536.912567	0.999409
537.273131	0.999607
537.633638	0.999041
537.994089	0.999814
538.354483	0.999496
538.714821	0.999846
539.075103	0.999850
539.435328	0.999982
539.795497	1.000034
540.155609	0.999220
540.515665	0.999880
540.875665	0.998979
541.235609	0.999588
541.595496	0.999222
541.955328	0.999540
542.315102	0.999134
542.674821	1.000135
543.034483	0.999679
543.394090	0.999412
543.753640	0.999503
544.113134	0.999326
544.472571	0.999543
544.831953	0.999511
545.191278	0.999242
545.550548	0.999003
545.909761	0.998753
546.268918	1.000192
546.628019	1.000149
546.987064	0.999638
547.346053	0.999041
547.704986	0.998989
548.063863	0.999906
548.422684	0.999965
548.781449	0.999729
549.140158	0.999350
549.498811	0.998821
549.857408	0.998654
550.215949	0.999205
550.574434	0.999376
550.932864	0.999819
551.291237	0.998681
551.649555	1.000076
552.007817	0.999647
552.366022	1.000270
552.724173	1.000187
553.082267	0.999561
553.440305	0.999236
553.798288	0.999316
554.156215	0.999213
554.514086	0.999817
554.871902	0.999286
555.229661	0.998719
555.587365	0.999912
555.945014	0.999739
556.302606	0.999224
556.660143	0.999637
557.017625	1.000261
557.375050	0.998904
557.732421	0.999673
558.089735	0.999085
558.446994	0.999349
558.804197	0.999437
559.161345	0.998839
559.518437	0.998773
559.875474	0.999676
560.232455	0.999612
560.589381	0.999459
560.946251	0.999338
561.303065	0.999390
561.659825	0.998409
562.016528	1.000057
562.373177	0.998976
562.729770	0.999941
563.086307	0.998635
563.442789	0.999790
563.799216	0.999295
564.155587	0.999078
564.511904	1.000409
564.868164	0.998505
565.224370	0.999329
565.580520	0.999730
565.936615	0.999336
566.292654	0.999398
566.648638	0.999488
567.004567	0.999664
567.360441	0.999455
567.716260	0.999211
568.072023	0.998720
568.427732	0.999647
568.783385	1.000035
569.138982	0.999542
569.494525	0.998685
569.850013	0.999548
570.205445	0.999253
570.560823	0.999372
570.916145	0.999435
571.271412	0.999203
571.626625	0.999485
571.981782	0.998997
572.336884	0.999689
572.691931	0.999890
573.046923	0.999323
573.401860	0.999390
573.756743	0.999272
574.111570	0.998943
574.466342	0.999876
574.821059	0.999458
575.175722	0.999436
575.530330	0.999295
575.884882	0.999716
576.239380	0.999541
576.593823	0.999270
576.948211	0.999541
577.302544	0.999407
577.656823	0.999538
578.011047	0.998624
578.365216	0.999939
578.719330	0.999807
579.073389	0.998846
579.427394	0.999125
579.781344	1.000115
580.135239	0.998535
580.489080	0.999560
580.842866	0.999497
581.196597	0.999701
581.550273	0.998641
581.903895	0.999852
582.257463	0.999044
582.610975	0.999165
582.964434	0.999348
583.317837	0.999324
583.671186	0.999491
584.024481	0.999402
584.377721	0.999206
584.730906	1.000218
585.084037	1.000420
585.437113	0.999896
585.790135	0.999565
586.143103	0.999321
586.496016	0.998729
586.848874	0.999405
587.201679	1.000098
587.554428	0.999290
587.907124	0.999684
588.259765	1.000031
588.612352	1.000185
588.964884	0.999451
589.317362	0.998886
589.669786	0.999040
590.022155	0.998947
590.374470	0.999063
590.726731	0.998810
591.078937	0.999331
591.431090	0.999709
591.783188	0.999158
592.135232	0.999471
592.487222	0.999425
592.839157	0.999436
593.191038	0.999522
593.542866	0.999225
593.894639	0.999011
594.246358	0.999481
594.598022	0.999205
594.949633	1.000125
595.301190	0.999525
595.652692	0.999453
596.004141	0.999656
596.355535	0.999459
596.706876	0.999334
597.058162	0.999057
597.409395	0.999208
597.760573	0.999807
598.111698	0.999662
598.462768	0.998885
598.813785	0.998729
599.164748	0.999027
599.515657	0.999232
599.866511	1.000251
600.217312	0.999772
600.568060	0.998704
600.918753	1.000102
601.269392	0.999698
601.619978	0.999667
601.970510	0.999013
602.320988	0.999123
602.671412	0.998942
603.021783	0.999592
603.372100	1.000137
603.722363	0.999486
604.072572	0.999387
604.422728	0.998976
604.772830	0.998692
605.122878	0.999732
605.472872	1.000621
605.822813	0.999477
606.172701	0.999763
606.522534	0.999541
606.872314	0.999382
607.222041	0.999603
607.571714	0.999537
607.921333	0.999175
608.270899	0.999185
608.620411	0.999052
608.969870	1.000220
609.319276	0.999046
609.668627	0.999768
610.017926	0.998989
610.367171	0.999406
610.716362	0.999467
611.065500	0.998748
611.414585	0.999190
611.763616	0.999041
612.112594	0.999633
612.461518	0.998425
612.810389	0.999251
613.159207	0.999007
613.507971	0.999331
613.856682	0.999910
614.205340	0.998887
614.553945	0.998905
614.902496	0.999297
615.250994	0.999443
615.599439	0.999732
615.947830	0.998832
616.296169	0.999129
616.644454	0.999567
616.992686	0.999400
617.340864	0.999656
617.688990	0.998973
618.037063	0.999585
618.385082	0.999391
618.733048	0.998914
619.080961	0.999082
619.428821	0.999599
619.776628	0.999075
620.124382	0.999652
620.472083	0.999014
620.819731	1.000198
621.167326	1.000045
621.514868	1.000125
621.862357	0.999633
622.209793	0.999312
622.557176	0.999204
622.904506	0.999230
623.251783	0.999771
623.599007	0.999514
623.946179	0.999227
624.293297	0.999954
624.640363	1.000667
624.987376	0.998526
625.334336	0.999334
625.681243	0.999796
626.028097	0.999408
626.374899	0.999410
626.721647	1.000007
627.068343	0.998678
627.414987	0.999463
627.761577	0.998339
628.108115	0.999137
628.454600	0.999920
628.801032	0.999154
629.147412	1.000221
629.493739	1.000015
629.840014	0.998972
630.186236	0.999190
630.532405	0.999960
630.878521	0.998019
631.224585	0.999683
631.570597	0.999190
631.916556	0.998965
632.262462	0.998835
632.608316	0.999828
632.954117	0.998691
633.299866	0.998700
633.645562	0.999072
633.991206	0.999686
634.336797	0.999233
634.682336	0.999694
635.027823	0.999764
635.373257	0.998978
635.718639	0.999798
636.063968	0.999211
636.409245	0.998973
636.754470	0.999469
637.099642	1.000174
637.444762	1.000346
637.789829	0.999175
638.134845	0.999610
638.479808	0.999727
638.824719	0.999324
639.169577	0.998152
639.514383	0.999370
639.859137	0.999647
640.203839	0.998569
640.548489	0.998809
640.893086	0.998596
641.237632	0.999140
641.582125	0.999180
641.926566	1.000462
642.270955	0.999355
642.615292	0.999575
642.959576	0.998977
643.303809	1.000063
643.647990	0.998517
643.992118	1.000111
644.336195	0.998408
644.680219	0.999587
645.024192	0.999815
645.368112	0.998085
645.711981	0.998999
646.055797	0.998975
646.399562	0.998438
646.743274	0.999980
647.086935	0.998193
647.430544	0.998781
647.774101	0.998858
648.117606	0.999513
648.461059	0.999955
648.804460	0.999251
649.147810	0.998545
649.491108	0.999052
649.834354	1.000043
650.177548	0.999024
650.520690	0.998698
650.863781	0.998172
651.206820	0.999591
651.549807	0.999080
651.892742	0.999346
652.235626	0.999481
652.578458	0.999285
652.921238	0.999501
653.263967	0.999177
653.606644	0.998912
653.949269	0.999804
654.291843	0.998381
654.634365	0.999514
654.976836	0.998734
655.319255	0.999859
655.661622	0.999500
656.003938	0.999270
656.346203	0.998935
656.688416	0.999642
657.030577	0.998533
657.372687	0.999116
657.714746	0.999320
658.056753	0.998331
658.398708	0.998518
658.740612	1.000440
659.082465	0.999305
659.424266	0.998852
659.766016	0.998603
660.107715	0.999953
660.449362	0.999134
660.790958	0.998372
661.132503	0.999387
661.473996	0.998164
661.815438	1.000142
662.156829	0.999289
662.498168	0.999793
662.839456	0.998389
663.180693	0.999546
663.521879	0.999320
663.863013	0.999342
664.204097	0.998614
664.545129	0.999378
664.886110	0.999204
665.227040	0.999042
665.567918	0.998909
665.908746	0.998390
666.249522	0.998196
666.590248	0.999522
666.930922	0.998287
667.271545	0.999112
667.612118	0.999135
667.952639	0.999216
668.293109	0.998705
668.633528	0.998481
668.973896	0.999373
669.314213	0.998203
669.654480	0.999045
669.994695	0.998138
670.334859	0.998750
670.674973	0.999211
671.015035	0.998852
671.355047	0.999030
671.695008	0.999008
672.034918	0.998224
672.374777	0.999024
672.714585	0.998454
673.054342	0.999144
673.394049	0.998581
673.733705	0.998168
674.073310	0.998871
674.412864	0.999507
674.752368	0.998787
675.091820	0.999486
675.431223	0.999088
675.770574	0.998151
676.109875	0.998654
676.449125	0.999102
676.788324	0.998201
677.127473	0.999287
677.466571	0.999538
677.805619	0.999347
678.144616	0.999473
678.483562	0.998631
678.822458	0.998649
679.161303	0.998427
679.500098	0.998807
679.838842	0.998998
680.177535	0.998876
680.516179	0.997653
680.854771	0.998317
681.193314	0.998660
681.531805	0.999094
681.870247	0.998881
682.208638	0.998996
682.546978	0.998160
682.885268	0.998316
683.223508	0.997907
683.561697	0.998194
683.899836	0.998835
684.237925	0.998091
684.575963	0.998203
684.913951	0.999040
685.251889	0.998522
685.589776	0.998158
685.927614	0.998712
686.265401	0.997997
686.603137	0.997867
686.940824	0.998902
687.278460	0.999281
687.616046	0.997865
687.953582	0.998409
688.291068	0.998733
688.628504	0.998793
688.965889	0.998733
689.303224	0.997121
689.640510	0.998417
689.977745	0.998269
690.314930	0.998384
690.652065	0.998419
690.989150	0.997538
691.326185	0.998129
691.663170	0.998067
692.000105	0.997990
692.336990	0.998875
692.673825	0.998514
693.010610	0.998705
693.347345	0.999142
693.684030	0.998244
694.020665	0.997577
694.357251	0.998250
694.693786	0.998819
695.030272	0.997096
695.366707	0.997897
695.703093	0.998110
696.039429	0.997880
696.375716	0.998694
696.711952	0.997722
697.048139	0.998723
697.384276	0.998692
697.720363	0.998269
698.056400	0.997463
698.392388	0.998792
698.728326	0.997687
699.064214	0.999509
699.400053	0.997921
699.735842	0.998763
700.071581	0.998195
700.407270	0.997899
700.742910	0.999528
701.078501	0.997869
701.414042	0.999460
701.749533	0.997444
702.084974	0.999442
702.420366	0.997713
702.755709	0.997071
703.091002	0.998831
703.426246	0.998646
703.761440	0.997410
704.096584	0.997954
704.431679	0.997456
704.766725	0.997421
705.101721	0.999345
705.436668	0.997514
705.771565	0.998068
706.106413	0.997158
706.441212	0.998841
706.775961	0.997664
707.110661	0.997917
707.445311	0.997951
707.779913	0.999105
708.114465	0.998272
708.448967	0.999296
708.783421	0.998695
709.117825	0.998229
709.452180	0.998861
709.786485	0.998376
710.120742	0.998463
710.454949	0.997725
710.789107	0.998207
711.123216	0.997824
711.457275	0.997580
711.791286	0.998168
712.125247	0.999856
712.459159	0.997454
712.793023	0.997807
713.126837	0.998004
713.460602	0.997508
713.794318	0.996897
714.127985	0.998063
714.461602	0.998130
714.795171	0.998304
715.128691	0.997397
715.462162	0.998344
715.795584	0.997379
716.128957	0.997825
716.462281	0.998460
716.795556	0.997444
717.128782	0.998802
717.461960	0.997470
717.795088	0.998024
718.128167	0.999269
718.461198	0.998290
718.794180	0.998484
719.127113	0.998003
719.459997	0.997960
719.792833	0.998128
720.125619	0.998083
720.458357	0.998922
720.791046	0.998734
721.123686	0.998145
721.456278	0.997982
721.788821	0.998366
722.121315	0.998837
722.453761	0.998779
722.786158	0.997439
723.118506	0.998309
723.450805	0.997978
723.783056	0.998277
724.115259	0.997741
724.447412	0.998884
724.779518	0.999442
725.111574	0.998111
725.443582	0.998249
725.775542	0.997857
726.107453	0.998403
726.439315	0.998970
726.771129	0.998518
727.102895	0.998253
727.434612	0.998722
727.766281	0.998390
728.097901	0.998035
728.429473	0.999034
728.760996	0.997084
729.092471	0.997921
729.423897	0.997832
729.755276	0.997983
730.086606	0.997840
730.417887	0.999088
730.749120	0.998267
731.080305	0.998345
731.411442	0.997076
731.742530	0.997556
732.073570	0.997327
732.404562	0.998068
732.735506	0.998450
733.066401	0.997587
733.397249	0.997605
733.728048	0.997548
734.058798	0.997953
734.389501	0.998793
734.720156	0.998167
735.050762	0.998758
735.381320	0.997927
735.711831	0.998095
736.042293	0.998044
736.372707	0.999282
736.703073	0.996980
737.033391	0.998012
737.363661	0.998378
737.693883	0.997703
738.024056	0.997763
738.354182	0.998418
738.684260	0.998211
739.014290	0.998588
739.344272	0.997590
739.674207	0.998880
740.004093	0.998137
740.333931	0.998718
740.663722	0.997149
740.993464	0.998824
741.323159	0.998493
741.652806	0.998056
741.982405	0.998688
742.311956	0.998113
742.641460	0.998267
742.970915	0.998663
743.300323	0.996497
743.629683	0.998030
743.958996	0.999387
744.288260	0.997829
744.617477	0.997809
744.946647	0.997612
745.275768	0.999488
745.604842	0.997977
745.933869	0.998623
746.262847	0.998258
746.591778	0.997269
746.920662	0.997776
747.249498	0.999583
747.578286	0.999177
747.907027	0.998002
748.235720	0.997827
748.564365	0.999002
748.892963	0.997915
749.221514	0.998514
749.550017	0.997518
749.878473	0.998250
750.206881	0.998998
750.535242	0.999416
750.863555	0.997785
751.191821	0.998323
751.520039	0.998322
751.848210	0.996704
752.176334	0.998732
752.504411	0.997778
752.832440	0.997397
753.160421	0.999069
753.488356	0.998090
753.816243	0.997933
754.144082	0.998330
754.471875	0.998835
754.799620	0.998734
755.127318	0.997417
755.454969	0.998141
755.782572	0.999169
756.110129	0.998050
756.437638	0.999144
756.765100	0.998302
757.092515	0.997698
757.419882	0.998977
757.747203	0.998002
758.074477	0.999085
758.401703	0.997693
758.728882	0.997393
759.056014	0.998468
759.383099	0.998396
759.710138	0.997919
760.037129	0.998370
760.364073	0.998713
760.690970	0.999132
761.017820	0.997516
761.344623	0.998837
761.671379	0.998515
761.998088	0.998914
762.324751	0.998283
762.651366	0.997512
762.977935	0.997541
763.304456	0.998647
763.630931	0.996982
763.957359	0.995822
764.283740	0.997078
764.610074	0.997427
764.936362	0.997644
765.262602	0.998669
765.588796	0.998105
765.914943	0.997122
766.241044	0.997405
766.567097	0.997886
766.893104	0.999107
767.219064	0.997049
767.544978	0.998200
767.870845	0.998499
768.196665	0.998922
768.522438	0.999214
768.848165	0.998088
769.173846	0.999213
769.499479	0.999279
769.825066	0.999209
770.150607	1.000267
770.476101	0.997998
770.801548	0.998396
771.126949	0.999270
771.452303	0.998760
771.777611	0.997996
772.102872	0.998965
772.428087	0.998249
772.753256	0.998554
773.078378	0.998745
773.403453	0.999326
773.728482	1.000231
774.053465	0.997841
774.378401	0.998492
774.703291	0.999694
775.028135	0.999620
775.352932	0.997029
775.677683	0.999455
776.002388	0.998508
776.327046	0.998943
776.651658	0.999685
776.976224	0.999104
777.300743	0.998429
777.625216	0.998102
777.949643	0.999330
778.274024	0.998983
778.598359	0.998435
778.922647	0.998648
779.246889	0.998967
779.571086	0.998884
779.895236	0.998164
780.219339	0.999248
780.543397	0.998273
780.867409	0.998500
781.191374	0.998168
781.515294	1.000029
781.839167	0.999022
782.162995	0.998810
782.486776	0.998341
782.810511	0.998690
783.134201	0.999575
783.457844	0.999152
783.781441	0.998676
784.104993	0.998184
784.428498	0.998843
784.751958	0.999368
785.075372	0.999173
785.398739	0.998286
785.722061	0.997091
786.045337	0.998720
786.368568	0.997426
786.691752	0.998310
787.014891	0.998887
787.337983	0.998879
787.661030	0.997919
787.984031	0.999232
788.306987	0.998674
788.629897	0.997211
788.952760	0.998982
789.275579	0.998351
789.598351	0.998346
789.921078	0.999732
790.243759	0.998533
790.566395	0.997720
790.888984	0.999207
791.211529	0.999755
791.534027	0.998070
791.856480	0.998325
792.178888	0.998465
792.501249	0.997939
792.823566	0.999141
793.145836	0.999033
793.468062	0.998666
793.790241	0.999906
794.112375	0.998293
794.434464	0.999536
794.756507	0.998853
795.078505	0.999478
795.400457	1.000016
795.722364	0.998374
796.044226	0.998510
796.366042	0.998786
796.687812	0.997683
797.009538	0.998406
797.331218	0.999601
797.652852	0.999266
797.974442	0.999249
798.295986	0.998837
798.617484	0.998747
798.938938	0.999781
799.260346	0.998294
799.581709	0.998024
799.903026	0.999230
800.224299	0.998007
800.545526	0.998166
800.866708	0.998717
801.187845	0.998713
801.508936	0.999221
801.829983	0.998886
802.150984	0.999134
802.471940	0.998975
802.792851	0.999297
803.113717	1.000348
803.434538	0.998839
803.755314	1.000187
804.076045	0.999158
804.396731	0.999210
804.717372	0.997457
805.037967	0.999384
805.358518	0.999011
805.679024	0.999461
805.999485	0.999165
806.319901	0.999090
806.640272	1.000640
806.960598	0.999396
807.280879	0.999070
807.601115	0.999580
807.921306	0.999547
808.241453	0.998976
808.561554	0.999392
808.881611	0.999521
809.201623	0.998015
809.521590	0.998809
809.841513	0.999550
810.161390	0.998076
810.481223	0.997673
810.801011	0.999130
811.120755	1.000347
811.440453	0.998706
811.760107	0.998219
812.079716	0.999229
812.399281	0.998879
812.718801	0.998750
813.038276	0.998811
813.357707	0.998921
813.677093	0.999754
813.996434	0.998356
814.315731	1.000303
814.634983	0.999790
814.954191	0.999345
815.273354	0.999106
815.592473	0.998719
815.911547	0.999881
816.230577	0.998327
816.549562	0.999015
816.868502	0.997039
817.187399	0.999175
817.506250	0.999192
817.825058	0.997800
818.143821	0.999800
818.462539	0.999714
818.781213	0.998828
819.099843	0.999591
819.418429	0.998371
819.736970	0.999083
820.055466	0.998031
820.373919	0.997560
820.692327	0.997424
821.010691	0.998235
821.329011	0.996626
821.647286	0.995130
821.965517	0.994828
822.283704	0.994694
822.601847	0.993911
822.919945	0.993998
823.237999	0.994097
823.556010	0.995221
823.873976	0.995501
824.191897	0.996271
824.509775	0.996463
824.827609	0.997034
825.145398	0.996849
825.463144	0.995938
825.780845	0.995133
826.098502	0.996699
826.416116	0.997502
826.733685	0.996839
827.051210	0.995969
827.368692	0.995295
827.686129	0.995838
828.003522	0.998614
828.320872	0.997494
828.638177	0.996329
828.955439	0.998457
829.272656	0.998044
829.589830	0.997438
829.906960	0.998838
830.224046	0.999006
830.541088	0.998755
830.858086	0.999056
831.175041	0.999514
831.491952	0.998869
831.808819	0.998264
832.125642	0.998681
832.442421	0.999236
832.759157	0.999079
833.075849	0.997545
833.392497	0.997463
833.709101	0.997278
834.025662	0.997825
834.342179	0.997576
834.658653	0.998120
834.975083	0.998319
835.291469	0.998580
835.607811	0.997933
835.924110	0.998288
836.240366	0.999872
836.556578	0.999102
836.872746	1.000227
837.188871	0.998959
837.504952	0.998647
837.820990	0.998621
838.136984	0.997953
838.452935	0.999456
838.768842	0.999287
839.084706	0.999513
839.400526	0.999306
839.716303	0.997652
840.032037	0.998112
840.347727	0.998147
840.663373	0.999325
840.978977	0.997990
841.294537	0.999881
841.610054	0.998920
841.925527	0.999270
842.240957	0.998994
842.556344	0.998650
842.871687	0.999473
843.186987	1.000029
843.502244	0.999611
843.817458	0.998876
844.132629	0.998055
844.447756	0.999294
844.762840	0.999167
845.077881	1.000549
845.392879	0.997492
845.707833	0.999054
846.022745	0.999437
846.337613	0.998876
846.652438	0.999704
846.967221	1.000092
847.281960	0.998941
847.596656	0.999369
847.911309	1.000187
848.225919	0.998872
848.540485	0.999625
848.855009	1.000502
849.169490	0.998667
849.483928	0.998960
849.798323	0.998611
850.112675	0.999266
850.426984	0.999878
850.741251	0.998836
851.055474	0.999722
851.369654	0.999825
851.683792	0.998220
851.997887	0.998946
852.311938	0.999864
852.625947	0.999207
852.939914	0.998843
853.253837	1.001059
853.567718	1.000225
853.881555	0.999653
854.195350	0.999107
854.509103	0.999779
854.822812	1.000532
855.136479	0.999577
855.450103	1.000020
855.763685	0.999108
856.077224	0.999273
856.390720	0.999719
856.704173	1.000064
857.017584	1.000551
857.330953	1.000444
857.644278	0.999413
857.957561	0.999330
858.270802	0.999086
858.584000	0.998977
858.897155	0.998911
859.210268	0.999447
859.523339	1.000835
859.836367	1.000036
860.149352	0.998590
860.462295	0.998022
860.775195	0.999687
861.088054	0.998738
861.400869	0.999057
861.713642	0.998948
862.026373	1.000502
862.339062	0.999577
862.651708	0.999905
862.964312	0.998669
863.276873	0.999308
863.589392	0.999417
863.901869	0.999135
864.214303	0.998492
864.526696	0.998430
864.839045	0.999763
865.151353	0.999564
865.463619	0.998260
865.775842	0.999418
866.088023	1.000797
866.400162	0.999929
866.712258	1.001105
867.024313	0.999578
867.336325	0.999497
867.648296	0.999765
867.960224	0.999336
868.272110	0.999920
868.583954	0.999452
868.895755	0.999111
869.207515	0.999107
869.519233	0.999981
869.830909	0.999359
870.142542	0.998204
870.454134	0.999192
870.765684	0.998803
871.077191	0.999206
871.388657	1.000063
871.700081	0.999633
872.011463	1.000374
872.322803	0.998266
872.634101	0.998546
872.945357	0.998704
873.256571	0.999190
873.567744	0.999408
873.878874	0.999508
874.189963	0.998924
874.501010	1.001227
874.812015	0.999686
875.122979	0.998808
875.433900	0.998518
875.744780	1.000086
876.055618	0.998033
876.366415	0.998178
876.677169	0.999991
876.987882	0.998696
877.298554	1.000405
877.609183	0.999215
877.919771	0.999022
878.230317	0.999292
878.540822	0.998578
878.851285	0.998770
879.161707	0.999514
879.472087	1.000031
879.782425	0.998665
880.092722	0.998646
880.402977	0.996933
880.713191	0.997061
881.023363	0.995239
881.333494	0.994727
881.643583	0.996148
881.953631	0.996344
882.263637	0.995698
882.573602	0.996502
882.883526	0.996203
883.193408	0.997578
883.503248	0.997189
883.813048	0.997114
884.122806	0.997789
884.432522	0.997925
884.742197	0.998872
885.051831	0.998428
885.361424	0.998155
885.670975	1.000282
885.980485	0.998569
886.289954	0.998100
886.599382	0.998623
886.908768	0.999843
887.218113	0.998350
887.527417	0.999574
887.836680	0.998555
888.145901	0.999831
888.455082	0.999517
888.764221	1.000837
889.073319	0.998798
889.382376	0.999687
889.691392	0.998775
890.000366	0.999547
890.309300	0.998860
890.618193	0.999867
890.927044	0.998682
891.235855	0.998651
891.544625	0.999616
891.853353	0.998842
892.162041	0.998907
892.470687	1.000307
892.779293	0.997319
893.087858	0.999292
893.396381	0.999295
893.704864	0.998617
894.013306	0.998379
894.321707	0.998712
894.630068	0.997593
894.938387	0.997996
895.246665	0.998160
895.554903	0.997016
895.863100	0.999023
896.171256	0.998278
896.479371	0.998696
896.787446	0.999415
897.095480	0.998412
897.403473	0.998539
897.711425	0.998817
898.019336	0.999764
898.327207	0.999981
898.635038	0.998782
898.942827	0.998208
899.250576	0.999129
899.558284	0.999321
899.865952	0.998686
900.173579	0.999903
900.481165	0.999481
900.788711	0.997929
901.096216	0.998455
901.403681	0.999614
901.711105	0.998955
902.018489	0.998774
902.325832	0.999820
902.633135	0.999472
902.940397	1.000370
903.247619	0.999453
903.554800	0.998973
903.861941	0.998706
904.169041	0.997356
904.476101	0.997407
904.783121	0.998114
905.090100	0.997887
905.397039	0.999385
905.703938	0.998919
906.010796	0.998971
906.317614	0.999345
906.624391	0.998683
906.931129	0.999820
907.237826	0.999323
907.544483	0.999296
907.851099	1.000120
908.157675	0.999920
908.464211	1.000295
908.770707	0.998324
909.077163	0.999547
909.383578	0.999374
909.689954	0.999074
909.996289	0.998455
910.302584	0.999908
910.608839	1.001514
910.915054	0.998834
911.221229	1.000669
911.527363	0.998692
911.833458	1.000730
912.139513	0.999861
912.445527	1.000163
912.751502	0.999577
913.057436	0.999078
913.363331	0.999709
913.669186	1.000766
913.975000	0.999603
914.280775	1.000572
914.586510	0.999172
914.892205	0.998542
915.197859	0.998456
915.503475	0.997955
915.809050	0.997560
916.114585	0.997467
916.420081	0.998077
916.725536	0.997696
917.030952	0.997854
917.336328	0.998474
917.641665	0.998100
917.946961	0.998726
918.252218	0.998359
918.557435	0.997447
918.862612	0.999523
919.167750	0.998908
919.472848	1.000011
919.777906	0.999440
920.082925	0.999847
920.387904	0.999528
920.692843	0.998711
920.997743	0.998377
921.302603	0.999699
921.607423	0.998561
921.912204	0.998667
922.216946	0.999700
922.521647	0.999766
922.826310	0.999136
923.130932	1.000308
923.435516	1.000570
923.740059	0.999342
924.044564	0.999338
924.349028	0.997889
924.653454	0.999213
924.957840	0.998897
925.262186	0.999641
925.566493	0.998434
925.870761	0.998701
926.174989	0.998536
926.479178	1.000280
926.783328	1.000675
927.087438	1.000578
927.391509	0.998313
927.695541	0.999537
927.999533	1.000027
928.303486	0.997808
928.607400	1.000487
928.911275	0.999589
929.215110	1.000494
929.518906	1.000592
929.822663	1.000706
930.126381	1.001235
930.430060	0.999184
930.733699	1.000079
931.037299	1.000026
931.340861	1.001004
931.644383	0.997526
931.947866	0.999662
932.251309	1.000900
932.554714	0.999425
932.858080	0.999728
933.161407	0.998743
933.464694	0.999872
933.767943	1.000707
934.071153	0.999709
934.374323	0.999345
934.677455	0.999987
934.980548	0.999104
935.283602	1.000207
935.586617	0.999428
935.889593	1.000558
936.192530	0.999146
936.495428	0.999951
936.798287	0.999998
937.101108	0.999442
937.403890	0.999962
937.706632	1.001293
938.009336	0.999566
938.312002	0.999011
938.614628	0.999284
938.917216	0.998552
939.219765	0.999844
939.522275	1.000891
939.824747	0.998730
940.127179	0.999246
940.429573	1.000212
940.731929	0.999614
941.034246	0.999455
941.336524	0.998197
941.638763	0.998816
941.940964	0.999514
942.243126	0.999313
942.545250	1.000772
942.847335	0.997980
943.149381	0.999358
943.451389	0.998639
943.753359	0.999110
944.055290	1.000468
944.357182	0.999808
944.659036	1.000037
944.960851	0.999318
945.262628	1.000562
945.564367	1.000180
945.866067	0.999425
946.167729	0.999495
946.469352	1.000902
946.770937	0.997667
947.072484	1.000585
947.373992	0.998827
947.675462	0.999328
947.976893	0.999670
948.278286	1.000839
948.579641	1.000365
948.880958	0.998127
949.182236	0.999970
949.483476	0.999916
949.784678	1.000499
950.085841	0.999718
950.386967	0.999809
950.688054	0.999523
950.989103	0.998648
951.290114	0.998682
951.591087	0.999565
951.892021	0.999956
952.192917	0.999688
952.493776	0.999117
952.794596	0.999675
953.095378	0.998450
953.396122	0.999469
953.696828	0.998924
953.997496	0.999967
954.298126	1.000398
954.598718	0.999314
954.899272	1.000406
955.199788	0.998438
955.500266	1.000228
955.800706	0.999062
956.101108	0.999124
956.401472	1.001169
956.701798	0.999625
957.002087	0.999293
957.302337	0.998883
957.602550	0.999925
957.902724	0.999209
958.202861	0.999707
958.502960	0.998939
958.803022	0.999838
959.103045	0.999744
959.403031	0.999697
959.702979	0.999973
960.002889	0.998291
960.302762	0.998769
960.602596	0.999703
960.902393	0.998790
961.202153	0.999675
961.501875	1.000419
961.801559	0.999769
962.101205	0.999090
962.400814	1.000231
962.700385	1.000522
962.999918	1.000099
963.299414	0.998881
963.598873	0.999601
963.898293	0.999498
964.197677	0.998388
964.497022	1.000235
964.796331	0.999501
965.095601	1.000894
965.394835	0.998974
965.694030	1.000302
965.993189	0.999029
966.292309	1.000917
966.591393	0.997996
966.890439	1.000243
967.189447	0.999130
967.488419	0.999344
967.787353	0.999414
968.086249	1.000452
968.385108	0.999871
968.683930	0.999584
968.982714	1.000376
969.281462	0.999897
969.580172	0.999290
969.878844	1.000053
970.177480	0.999995
970.476078	1.000486
970.774639	1.000243
971.073162	0.998954
971.371649	0.999448
971.670098	1.000005
971.968510	0.999280
972.266885	0.999276
972.565223	0.998907
972.863524	0.998751
973.161788	0.999733
973.460014	1.000147
973.758204	0.999889
974.056356	0.999425
974.354471	0.999913
974.652550	1.000102
974.950591	0.999512
975.248595	0.999103
975.546563	1.000351
975.844493	1.000372
976.142386	0.998103
976.440243	1.000156
976.738062	0.999466
977.035845	0.998157
977.333590	1.000119
977.631299	0.998337
977.928971	0.999018
978.226606	0.999118
978.524204	0.998956
978.821765	1.000552
979.119290	0.999873
979.416777	0.998828
979.714228	0.999433
980.011642	1.000429
980.309020	0.999465
980.606360	0.999827
980.903664	0.999535
981.200931	1.000148
981.498162	1.000628
981.795356	0.999534
982.092513	0.999451
982.389633	0.999925
982.686717	0.997919
982.983764	0.999449
983.280775	1.000329
983.577749	1.000592
983.874686	0.998668
984.171587	0.998882
984.468451	0.999850
984.765279	1.000186
985.062070	1.000168
985.358824	0.999628
985.655543	1.000687
985.952224	0.999648
986.248869	0.999505
986.545478	1.000962
986.842050	0.998502
987.138586	0.999006
987.435086	0.999519
987.731549	1.000509
988.027975	1.000815
988.324366	0.999998
988.620719	1.001016
988.917037	0.999750
989.213318	0.999384
989.509563	1.000145
989.805772	1.000103
990.101944	1.000599
990.398080	0.999621
990.694180	1.000406
990.990244	0.999333
991.286271	0.999798
991.582262	1.000472
991.878217	0.999492
992.174136	0.999803
992.470019	0.998880
992.765865	1.001013
993.061676	1.000355
993.357450	1.000800
993.653188	0.999955
993.948890	0.999365
994.244556	0.999362
994.540186	0.999837
994.835780	0.998653
995.131337	1.000588
995.426859	1.000318
995.722345	0.999981
996.017795	0.999304
996.313208	0.999221
996.608586	0.999667
996.903928	0.999560
997.199234	0.999155
997.494504	1.001341
997.789738	0.998511
998.084936	0.999992
998.380099	0.998307
998.675225	1.000664
998.970316	1.001157
999.265371	1.000374
999.560390	0.999917
999.855373	0.999130
1000.150320	1.000002
1000.445232	0.999022
1000.740108	1.000098
1001.034948	1.000081
1001.329752	1.000298
1001.624521	0.999927
1001.919254	0.998674
1002.213951	1.000211
1002.508613	0.999739
1002.803239	0.999785
1003.097829	1.000176
1003.392384	0.999753
1003.686903	1.000854
1003.981386	0.999106
1004.275834	1.000581
1004.570246	0.998842
1004.864623	1.000168
1005.158964	1.000132
1005.453270	0.999704
1005.747540	0.998610
1006.041775	1.000191
1006.335974	1.000078
1006.630138	0.999615
1006.924266	0.997893
1007.218359	0.999476
1007.512416	1.001436
1007.806438	0.999319
1008.100425	1.000451
1008.394376	1.000129
1008.688292	0.999826
1008.982172	0.998621
1009.276017	1.000707
1009.569827	1.000391
1009.863602	0.998560
1010.157341	0.999734
1010.451045	1.000500
1010.744714	1.000570
1011.038347	1.001303
1011.331945	0.998868
1011.625508	0.999896
1011.919036	1.000163
1012.212528	1.000180
1012.505986	1.000852
1012.799408	0.999585
1013.092795	1.001062
1013.386147	0.999741
1013.679464	1.000824
1013.972745	0.999842
1014.265992	1.000353
1014.559204	0.999134
1014.852380	1.001288
1015.145521	0.999419
1015.438628	0.999839
1015.731699	0.999310
1016.024736	1.000888
1016.317737	0.999991
1016.610703	0.999768
1016.903635	1.000393
1017.196531	0.999215
1017.489393	0.998891
1017.782219	0.999614
1018.075011	0.999718
1018.367768	0.999164
1018.660490	0.999964
1018.953177	0.999964
1019.245829	0.999964
