Dividing Wavelength (nm)	Counts (n)	Blue Motor Position (mm): 25.100000	Red Motor Position (mm): 0.000000	
326.493990	1.000918
326.888308	1.000918
327.282561	1.000918
327.676750	1.001445
328.070874	1.001630
328.464933	1.001132
328.858929	1.000820
329.252859	1.001175
329.646726	1.000198
330.040528	1.000386
330.434265	1.001355
330.827938	1.001214
331.221547	1.000702
331.615091	1.000605
332.008571	1.001393
332.401986	1.001004
332.795338	1.001836
333.188625	1.001209
333.581847	0.999943
333.975006	1.000155
334.368100	1.001052
334.761129	0.999997
335.154095	1.000656
335.546996	1.001379
335.939833	0.998096
336.332606	0.999155
336.725315	0.998282
337.117960	0.999050
337.510540	0.998558
337.903056	0.999699
338.295508	1.000127
338.687896	1.000475
339.080220	0.999820
339.472480	0.999182
339.864676	0.999196
340.256807	0.998656
340.648875	0.999902
341.040879	0.999468
341.432818	0.999987
341.824694	0.999869
342.216506	0.999429
342.608253	0.999498
342.999937	0.999541
343.391557	0.998801
343.783113	0.999619
344.174605	0.999548
344.566033	0.998648
344.957397	1.000035
345.348697	0.998315
345.739934	1.000222
346.131106	0.999560
346.522215	0.998853
346.913260	0.999697
347.304241	0.998548
347.695159	0.998416
348.086012	0.999006
348.476802	0.998459
348.867528	0.998076
349.258191	0.999857
349.648789	0.998935
350.039324	0.999964
350.429796	0.997356
350.820203	0.996892
351.210548	0.998671
351.600828	0.999680
351.991045	0.998486
352.381198	0.999310
352.771288	0.998973
353.161314	0.998546
353.551276	0.997888
353.941175	0.997488
354.331010	0.998478
354.720782	0.998843
355.110490	0.998435
355.500135	0.999263
355.889717	0.998708
356.279235	0.997816
356.668689	0.999483
357.058080	0.997352
357.447408	0.997626
357.836672	0.997292
358.225873	0.998672
358.615010	0.997606
359.004084	0.996597
359.393095	0.997966
359.782043	0.998371
360.170927	0.997866
360.559748	0.997194
360.948505	0.997865
361.337199	0.997124
361.725830	0.998410
362.114398	0.997239
362.502903	0.996910
362.891344	0.996410
363.279722	0.998106
363.668037	0.997776
364.056289	0.997551
364.444478	0.999360
364.832603	0.996668
365.220665	0.998439
365.608665	0.996233
365.996601	0.996943
366.384474	0.995865
366.772284	0.995714
367.160031	0.994456
367.547715	0.996085
367.935336	0.994989
368.322893	0.993040
368.710388	0.992850
369.097820	0.991811
369.485189	0.989169
369.872495	0.987408
370.259738	0.985607
370.646918	0.982514
371.034035	0.979320
371.421090	0.976925
371.808081	0.972199
372.195010	0.969575
372.581875	0.964014
372.968678	0.959772
373.355418	0.957183
373.742096	0.949150
374.128710	0.944560
374.515262	0.939528
374.901751	0.934365
375.288177	0.929569
375.674540	0.922248
376.060841	0.916459
376.447079	0.909495
376.833254	0.902466
377.219367	0.897245
377.605417	0.886714
377.991404	0.882862
378.377329	0.876414
378.763191	0.871175
379.148991	0.861427
379.534727	0.853525
379.920402	0.845411
380.306013	0.841913
380.691563	0.829107
381.077049	0.823078
381.462474	0.818306
381.847835	0.807767
382.233134	0.802508
382.618371	0.802734
383.003545	0.786021
383.388657	0.783707
383.773706	0.775829
384.158693	0.771982
384.543618	0.767255
384.928480	0.757811
385.313280	0.748043
385.698017	0.747179
386.082692	0.736144
386.467305	0.734216
386.851856	0.728896
387.236344	0.723434
387.620770	0.717765
388.005133	0.712384
388.389435	0.706236
388.773674	0.704215
389.157851	0.696090
389.541965	0.694127
389.926018	0.700343
390.310008	0.686861
390.693936	0.683591
391.077802	0.676560
391.461606	0.677494
391.845348	0.666315
392.229027	0.666558
392.612645	0.664410
392.996200	0.652027
393.379694	0.644140
393.763125	0.634764
394.146494	0.638859
394.529801	0.629286
394.913047	0.621925
395.296230	0.627674
395.679351	0.618934
396.062410	0.616052
396.445408	0.617928
396.828343	0.613928
397.211217	0.609334
397.594028	0.621035
397.976778	0.611439
398.359466	0.607971
398.742092	0.603756
399.124656	0.615501
399.507158	0.603811
399.889598	0.600536
400.271977	0.592157
400.654294	0.596486
401.036549	0.594787
401.418742	0.599598
401.800874	0.584778
402.182944	0.582422
402.564952	0.573218
402.946898	0.575828
403.328783	0.576331
403.710606	0.586717
404.092367	0.562558
404.474067	0.567546
404.855705	0.567046
405.237282	0.575910
405.618797	0.561089
406.000250	0.556811
406.381642	0.546538
406.762972	0.551938
407.144240	0.550730
407.525447	0.550772
407.906593	0.543609
408.287677	0.539215
408.668700	0.547693
409.049661	0.541819
409.430560	0.536404
409.811399	0.545325
410.192176	0.526772
410.572891	0.533735
410.953545	0.522341
411.334138	0.535574
411.714669	0.528255
412.095139	0.539925
412.475547	0.523803
412.855894	0.526071
413.236180	0.524963
413.616405	0.530563
413.996568	0.520918
414.376670	0.526759
414.756711	0.531979
415.136691	0.529097
415.516609	0.520107
415.896466	0.517015
416.276262	0.512659
416.655997	0.514909
417.035670	0.495669
417.415283	0.488082
417.794834	0.492983
418.174324	0.497871
418.553753	0.506892
418.933121	0.489195
419.312428	0.483580
419.691674	0.488686
420.070859	0.477406
420.449983	0.485365
420.829045	0.474703
421.208047	0.483307
421.586988	0.476118
421.965867	0.475732
422.344686	0.463947
422.723444	0.476673
423.102141	0.493850
423.480777	0.466766
423.859352	0.487176
424.237866	0.464732
424.616319	0.465365
424.994712	0.455986
425.373044	0.466957
425.751314	0.454953
426.129524	0.471770
426.507673	0.454631
426.885762	0.448165
427.263789	0.453883
427.641756	0.463443
428.019662	0.453270
428.397508	0.452789
428.775292	0.457273
429.153016	0.449181
429.530679	0.455529
429.908282	0.448772
430.285824	0.458402
430.663305	0.437354
431.040726	0.458377
431.418086	0.457948
431.795385	0.450466
432.172624	0.448887
432.549802	0.449516
432.926920	0.448421
433.303977	0.448038
433.680974	0.444796
434.057910	0.443728
434.434786	0.442759
434.811601	0.445441
435.188355	0.428161
435.565050	0.437337
435.941683	0.438778
436.318257	0.422579
436.694770	0.423685
437.071222	0.421740
437.447614	0.426047
437.823946	0.432551
438.200218	0.422135
438.576429	0.431967
438.952580	0.424316
439.328670	0.421032
439.704700	0.427788
440.080670	0.429423
440.456580	0.410591
440.832429	0.418311
441.208218	0.429500
441.583947	0.419209
441.959616	0.418016
442.335224	0.423635
442.710773	0.414395
443.086261	0.412419
443.461689	0.426518
443.837057	0.416325
444.212365	0.406225
444.587612	0.413392
444.962800	0.403606
445.337927	0.405093
445.712995	0.431283
446.088002	0.392994
446.462949	0.403139
446.837837	0.408564
447.212664	0.397545
447.587431	0.388889
447.962139	0.359648
448.336786	0.318696
448.711374	0.329668
449.085901	0.373811
449.460369	0.378914
449.834776	0.382478
450.209124	0.361754
450.583412	0.354720
450.957640	0.348431
451.331808	0.360156
451.705917	0.384003
452.079965	0.389318
452.453954	0.378027
452.827883	0.385513
453.201752	0.381541
453.575562	0.392810
453.949311	0.382690
454.323001	0.389471
454.696632	0.386253
455.070202	0.379868
455.443713	0.373007
455.817164	0.368611
456.190556	0.365818
456.563888	0.363939
456.937160	0.362784
457.310373	0.380887
457.683526	0.380892
458.056619	0.388219
458.429653	0.390405
458.802628	0.395041
459.175542	0.391249
459.548398	0.375659
459.921194	0.371075
460.293930	0.373493
460.666607	0.355533
461.039224	0.346940
461.411782	0.344321
461.784280	0.346073
462.156719	0.351999
462.529099	0.358521
462.901419	0.376046
463.273680	0.382186
463.645882	0.383872
464.018024	0.393622
464.390106	0.389743
464.762130	0.379302
465.134094	0.369157
465.505999	0.347897
465.877845	0.326714
466.249631	0.317553
466.621358	0.326699
466.993026	0.342610
467.364634	0.351036
467.736184	0.363056
468.107674	0.375862
468.479105	0.381033
468.850477	0.390309
469.221790	0.401227
469.593043	0.415000
469.964238	0.424978
470.335373	0.429794
470.706449	0.433695
471.077467	0.439921
471.448425	0.417089
471.819324	0.404224
472.190164	0.408270
472.560945	0.436897
472.931667	0.461839
473.302330	0.470426
473.672934	0.486733
474.043479	0.483528
474.413965	0.492017
474.784393	0.502334
475.154761	0.505038
475.525070	0.510008
475.895321	0.521092
476.265513	0.523980
476.635645	0.527513
477.005719	0.536273
477.375734	0.540510
477.745691	0.543250
478.115588	0.548656
478.485427	0.553001
478.855207	0.552483
479.224928	0.550527
479.594591	0.550424
479.964194	0.560721
480.333739	0.568543
480.703226	0.579434
481.072653	0.585538
481.442022	0.593114
481.811333	0.597562
482.180584	0.608045
482.549777	0.620768
482.918912	0.629326
483.287988	0.637508
483.657005	0.644811
484.025964	0.656682
484.394864	0.663143
484.763706	0.671884
485.132489	0.681966
485.501213	0.690837
485.869879	0.696564
486.238487	0.707337
486.607036	0.713029
486.975527	0.723972
487.343959	0.729218
487.712333	0.736611
488.080648	0.743704
488.448905	0.751772
488.817104	0.758798
489.185244	0.763868
489.553326	0.770692
489.921350	0.772956
490.289315	0.771810
490.657222	0.775393
491.025070	0.784135
491.392861	0.791097
491.760593	0.801274
492.128267	0.810416
492.495883	0.819075
492.863440	0.826724
493.230939	0.835138
493.598380	0.841223
493.965763	0.847948
494.333088	0.852278
494.700354	0.858704
495.067563	0.862893
495.434713	0.870266
495.801805	0.873628
496.168839	0.879207
496.535815	0.884716
496.902733	0.888646
497.269593	0.893651
497.636395	0.896148
498.003139	0.901458
498.369825	0.906474
498.736453	0.909325
499.103023	0.913170
499.469535	0.916758
499.835989	0.920810
500.202385	0.924235
500.568723	0.928064
500.935003	0.930455
501.301226	0.934717
501.667390	0.935789
502.033497	0.939130
502.399546	0.941883
502.765537	0.944856
503.131470	0.947341
503.497345	0.950412
503.863163	0.952771
504.228923	0.954739
504.594625	0.956257
504.960269	0.959671
505.325856	0.961328
505.691385	0.963781
506.056856	0.964212
506.422270	0.966820
506.787625	0.968559
507.152924	0.969859
507.518164	0.970563
507.883347	0.972515
508.248472	0.974398
508.613540	0.974816
508.978550	0.976671
509.343503	0.977116
509.708398	0.978923
510.073236	0.979251
510.438016	0.980602
510.802738	0.980719
511.167403	0.981793
511.532010	0.983448
511.896561	0.983748
512.261053	0.983456
512.625488	0.984323
512.989866	0.985187
513.354186	0.985281
513.718449	0.986346
514.082655	0.985811
514.446803	0.987443
514.810894	0.988263
515.174927	0.988793
515.538904	0.988581
515.902822	0.988989
516.266684	0.989525
516.630488	0.989723
516.994235	0.990016
517.357925	0.990142
517.721558	0.989663
518.085133	0.990279
518.448651	0.990861
518.812112	0.990881
519.175516	0.991700
519.538863	0.991182
519.902152	0.991264
520.265385	0.991780
520.628560	0.991368
520.991678	0.991707
521.354739	0.991773
521.717743	0.992121
522.080690	0.991787
522.443580	0.992558
522.806413	0.992568
523.169189	0.992817
523.531908	0.991983
523.894569	0.992993
524.257174	0.993275
524.619722	0.992323
524.982213	0.993101
525.344647	0.992442
525.707025	0.992770
526.069345	0.993175
526.431608	0.993976
526.793815	0.993765
527.155964	0.993466
527.518057	0.993878
527.880093	0.993321
528.242072	0.993845
528.603995	0.993728
528.965860	0.993562
529.327669	0.994762
529.689421	0.993490
530.051117	0.994210
530.412755	0.993695
530.774337	0.993571
531.135862	0.994886
531.497331	0.993897
531.858743	0.994593
532.220098	0.993905
532.581396	0.994593
532.942638	0.995084
533.303824	0.994683
533.664953	0.994112
534.026025	0.995043
534.387040	0.994287
534.747999	0.994129
535.108902	0.994466
535.469748	0.995293
535.830537	0.994617
536.191270	0.994835
536.551947	0.993848
536.912567	0.994211
537.273131	0.995054
537.633638	0.993772
537.994089	0.994595
538.354483	0.994680
538.714821	0.994588
539.075103	0.994608
539.435328	0.994888
539.795497	0.994726
540.155609	0.994399
540.515665	0.995097
540.875665	0.994763
541.235609	0.994767
541.595496	0.993791
541.955328	0.994165
542.315102	0.994755
542.674821	0.994461
543.034483	0.995065
543.394090	0.994465
543.753640	0.994649
544.113134	0.994760
544.472571	0.995048
544.831953	0.994902
545.191278	0.994620
545.550548	0.994193
545.909761	0.993712
546.268918	0.995467
546.628019	0.994835
546.987064	0.993970
547.346053	0.994318
547.704986	0.994270
548.063863	0.994256
548.422684	0.994975
548.781449	0.994510
549.140158	0.995698
549.498811	0.994333
549.857408	0.993985
550.215949	0.994206
550.574434	0.994345
550.932864	0.994665
551.291237	0.994365
551.649555	0.995002
552.007817	0.995248
552.366022	0.995214
552.724173	0.995239
553.082267	0.994764
553.440305	0.994259
553.798288	0.994201
554.156215	0.994411
554.514086	0.994818
554.871902	0.994569
555.229661	0.994087
555.587365	0.994964
555.945014	0.995626
556.302606	0.994766
556.660143	0.995241
557.017625	0.994635
557.375050	0.994113
557.732421	0.994735
558.089735	0.993836
558.446994	0.994116
558.804197	0.994881
559.161345	0.994630
559.518437	0.994305
559.875474	0.994749
560.232455	0.994980
560.589381	0.995823
560.946251	0.994542
561.303065	0.994781
561.659825	0.994238
562.016528	0.994938
562.373177	0.994630
562.729770	0.994825
563.086307	0.993913
563.442789	0.995034
563.799216	0.994316
564.155587	0.994581
564.511904	0.995321
564.868164	0.993806
565.224370	0.995010
565.580520	0.994212
565.936615	0.994513
566.292654	0.994636
566.648638	0.994856
567.004567	0.994356
567.360441	0.995797
567.716260	0.994166
568.072023	0.994234
568.427732	0.994397
568.783385	0.994276
569.138982	0.994815
569.494525	0.994970
569.850013	0.994989
570.205445	0.994968
570.560823	0.994492
570.916145	0.993943
571.271412	0.994700
571.626625	0.995405
571.981782	0.994855
572.336884	0.995748
572.691931	0.994541
573.046923	0.995402
573.401860	0.994250
573.756743	0.994639
574.111570	0.994677
574.466342	0.995554
574.821059	0.994732
575.175722	0.994394
575.530330	0.994661
575.884882	0.994573
576.239380	0.995346
576.593823	0.994270
576.948211	0.995134
577.302544	0.994560
577.656823	0.995392
578.011047	0.993971
578.365216	0.995437
578.719330	0.994730
579.073389	0.993724
579.427394	0.994297
579.781344	0.994957
580.135239	0.994042
580.489080	0.994791
580.842866	0.995247
581.196597	0.994418
581.550273	0.994315
581.903895	0.994680
582.257463	0.994910
582.610975	0.994512
582.964434	0.995451
583.317837	0.994662
583.671186	0.994482
584.024481	0.994660
584.377721	0.993887
584.730906	0.994859
585.084037	0.995250
585.437113	0.995432
585.790135	0.994427
586.143103	0.994353
586.496016	0.994412
586.848874	0.994828
587.201679	0.994615
587.554428	0.994968
587.907124	0.995898
588.259765	0.995069
588.612352	0.995085
588.964884	0.994410
589.317362	0.995054
589.669786	0.994844
590.022155	0.994129
590.374470	0.994501
590.726731	0.994505
591.078937	0.995174
591.431090	0.995177
591.783188	0.994270
592.135232	0.995050
592.487222	0.995030
592.839157	0.994735
593.191038	0.995109
593.542866	0.995102
593.894639	0.994159
594.246358	0.995144
594.598022	0.995567
594.949633	0.994589
595.301190	0.994657
595.652692	0.994847
596.004141	0.994411
596.355535	0.994649
596.706876	0.995000
597.058162	0.994898
597.409395	0.995299
597.760573	0.994833
598.111698	0.995215
598.462768	0.994508
598.813785	0.994189
599.164748	0.993835
599.515657	0.994355
599.866511	0.995193
600.217312	0.995157
600.568060	0.994857
600.918753	0.995402
601.269392	0.995101
601.619978	0.994691
601.970510	0.995066
602.320988	0.994506
602.671412	0.994165
603.021783	0.995661
603.372100	0.995411
603.722363	0.995245
604.072572	0.994608
604.422728	0.994168
604.772830	0.995007
605.122878	0.995474
605.472872	0.995089
605.822813	0.994539
606.172701	0.995466
606.522534	0.994903
606.872314	0.995436
607.222041	0.995203
607.571714	0.995337
607.921333	0.994494
608.270899	0.994669
608.620411	0.994794
608.969870	0.995689
609.319276	0.994497
609.668627	0.995480
610.017926	0.995205
610.367171	0.994589
610.716362	0.995237
611.065500	0.994245
611.414585	0.994770
611.763616	0.994059
612.112594	0.994611
612.461518	0.993826
612.810389	0.994387
613.159207	0.995415
613.507971	0.993815
613.856682	0.995547
614.205340	0.993758
614.553945	0.994665
614.902496	0.994416
615.250994	0.995210
615.599439	0.994581
615.947830	0.994361
616.296169	0.994719
616.644454	0.994635
616.992686	0.995138
617.340864	0.994564
617.688990	0.994722
618.037063	0.994839
618.385082	0.994339
618.733048	0.994149
619.080961	0.994252
619.428821	0.995580
619.776628	0.994479
620.124382	0.995260
620.472083	0.995079
620.819731	0.995397
621.167326	0.995043
621.514868	0.995102
621.862357	0.993486
622.209793	0.994155
622.557176	0.994628
622.904506	0.994603
623.251783	0.995320
623.599007	0.994947
623.946179	0.994632
624.293297	0.995582
624.640363	0.995371
624.987376	0.994278
625.334336	0.994176
625.681243	0.994717
626.028097	0.995120
626.374899	0.995011
626.721647	0.995225
627.068343	0.994696
627.414987	0.995070
627.761577	0.994694
628.108115	0.994889
628.454600	0.995762
628.801032	0.995183
629.147412	0.995052
629.493739	0.996262
629.840014	0.995154
630.186236	0.994474
630.532405	0.994889
630.878521	0.994354
631.224585	0.995065
631.570597	0.993899
631.916556	0.994899
632.262462	0.994160
632.608316	0.994780
632.954117	0.994496
633.299866	0.995139
633.645562	0.994737
633.991206	0.994870
634.336797	0.994974
634.682336	0.995119
635.027823	0.994627
635.373257	0.995409
635.718639	0.995499
636.063968	0.993807
636.409245	0.994637
636.754470	0.994565
637.099642	0.995370
637.444762	0.995549
637.789829	0.994861
638.134845	0.994728
638.479808	0.995035
638.824719	0.995601
639.169577	0.994680
639.514383	0.994864
639.859137	0.995265
640.203839	0.994543
640.548489	0.995015
640.893086	0.994920
641.237632	0.996422
641.582125	0.995326
641.926566	0.995892
642.270955	0.995110
642.615292	0.994663
642.959576	0.995363
643.303809	0.995686
643.647990	0.995542
643.992118	0.995053
644.336195	0.994316
644.680219	0.994810
645.024192	0.994526
645.368112	0.994703
645.711981	0.994961
646.055797	0.995030
646.399562	0.994592
646.743274	0.995730
647.086935	0.994280
647.430544	0.994543
647.774101	0.994296
648.117606	0.995577
648.461059	0.995102
648.804460	0.994663
649.147810	0.995012
649.491108	0.994610
649.834354	0.995460
650.177548	0.995220
650.520690	0.994372
650.863781	0.994330
651.206820	0.994563
651.549807	0.994339
651.892742	0.995740
652.235626	0.995448
652.578458	0.995191
652.921238	0.995423
653.263967	0.994331
653.606644	0.993967
653.949269	0.995414
654.291843	0.993393
654.634365	0.995621
654.976836	0.994320
655.319255	0.994876
655.661622	0.995179
656.003938	0.994625
656.346203	0.994257
656.688416	0.995810
657.030577	0.994747
657.372687	0.995735
657.714746	0.994770
658.056753	0.994964
658.398708	0.994756
658.740612	0.995566
659.082465	0.994963
659.424266	0.995214
659.766016	0.994559
660.107715	0.995432
660.449362	0.994264
660.790958	0.994164
661.132503	0.994587
661.473996	0.994587
661.815438	0.995191
662.156829	0.995503
662.498168	0.995669
662.839456	0.994561
663.180693	0.995440
663.521879	0.994919
663.863013	0.994825
664.204097	0.994871
664.545129	0.995038
664.886110	0.994599
665.227040	0.994583
665.567918	0.994519
665.908746	0.994555
666.249522	0.994619
666.590248	0.995371
666.930922	0.994168
667.271545	0.994862
667.612118	0.994779
667.952639	0.993684
668.293109	0.993610
668.633528	0.994204
668.973896	0.994039
669.314213	0.994020
669.654480	0.994638
669.994695	0.994045
670.334859	0.994408
670.674973	0.995065
671.015035	0.995239
671.355047	0.994337
671.695008	0.993922
672.034918	0.993722
672.374777	0.994572
672.714585	0.994406
673.054342	0.995639
673.394049	0.993740
673.733705	0.994462
674.073310	0.994512
674.412864	0.993986
674.752368	0.993771
675.091820	0.995858
675.431223	0.994732
675.770574	0.993945
676.109875	0.993775
676.449125	0.993885
676.788324	0.994077
677.127473	0.994681
677.466571	0.994344
677.805619	0.994944
678.144616	0.995378
678.483562	0.995421
678.822458	0.995388
679.161303	0.994327
679.500098	0.994448
679.838842	0.994639
680.177535	0.994625
680.516179	0.993440
680.854771	0.994319
681.193314	0.994677
681.531805	0.994365
681.870247	0.994098
682.208638	0.995079
682.546978	0.993707
682.885268	0.993627
683.223508	0.993443
683.561697	0.994078
683.899836	0.994622
684.237925	0.994063
684.575963	0.994346
684.913951	0.993774
685.251889	0.993698
685.589776	0.994107
685.927614	0.993951
686.265401	0.994218
686.603137	0.994166
686.940824	0.993728
687.278460	0.993936
687.616046	0.994151
687.953582	0.993915
688.291068	0.993764
688.628504	0.994252
688.965889	0.994107
689.303224	0.993519
689.640510	0.993736
689.977745	0.993355
690.314930	0.993400
690.652065	0.994130
690.989150	0.993051
691.326185	0.994709
691.663170	0.993595
692.000105	0.993610
692.336990	0.993813
692.673825	0.993996
693.010610	0.993633
693.347345	0.994009
693.684030	0.993764
694.020665	0.994547
694.357251	0.994478
694.693786	0.994193
695.030272	0.993855
695.366707	0.993722
695.703093	0.994002
696.039429	0.993738
696.375716	0.994874
696.711952	0.994035
697.048139	0.995103
697.384276	0.995208
697.720363	0.994741
698.056400	0.993071
698.392388	0.993960
698.728326	0.994214
699.064214	0.994426
699.400053	0.994586
699.735842	0.995215
700.071581	0.994440
700.407270	0.993871
700.742910	0.994784
701.078501	0.993946
701.414042	0.995934
701.749533	0.993681
702.084974	0.994716
702.420366	0.994923
702.755709	0.993952
703.091002	0.995392
703.426246	0.995061
703.761440	0.995063
704.096584	0.994665
704.431679	0.993304
704.766725	0.994019
705.101721	0.994800
705.436668	0.994777
705.771565	0.994662
706.106413	0.993347
706.441212	0.994831
706.775961	0.996240
707.110661	0.995000
707.445311	0.994627
707.779913	0.995617
708.114465	0.995444
708.448967	0.995767
708.783421	0.994911
709.117825	0.995030
709.452180	0.995169
709.786485	0.994738
710.120742	0.993870
710.454949	0.994206
710.789107	0.994666
711.123216	0.993471
711.457275	0.992370
711.791286	0.994386
712.125247	0.994787
712.459159	0.993655
712.793023	0.992937
713.126837	0.993659
713.460602	0.992882
713.794318	0.993267
714.127985	0.993175
714.461602	0.994353
714.795171	0.993085
715.128691	0.993726
715.462162	0.995163
715.795584	0.994390
716.128957	0.994938
716.462281	0.994449
716.795556	0.993490
717.128782	0.995332
717.461960	0.994639
717.795088	0.993496
718.128167	0.995745
718.461198	0.994737
718.794180	0.994841
719.127113	0.994811
719.459997	0.994433
719.792833	0.995206
720.125619	0.994034
720.458357	0.994924
720.791046	0.995086
721.123686	0.994333
721.456278	0.995043
721.788821	0.994296
722.121315	0.995615
722.453761	0.995296
722.786158	0.994578
723.118506	0.995448
723.450805	0.994545
723.783056	0.994666
724.115259	0.994897
724.447412	0.995327
724.779518	0.994790
725.111574	0.994906
725.443582	0.995637
725.775542	0.994639
726.107453	0.995080
726.439315	0.995672
726.771129	0.994847
727.102895	0.994608
727.434612	0.994589
727.766281	0.993997
728.097901	0.994211
728.429473	0.995291
728.760996	0.994073
729.092471	0.994403
729.423897	0.994430
729.755276	0.994984
730.086606	0.993725
730.417887	0.994794
730.749120	0.994514
731.080305	0.994538
731.411442	0.993841
731.742530	0.992809
732.073570	0.993574
732.404562	0.994249
732.735506	0.993515
733.066401	0.994110
733.397249	0.993967
733.728048	0.993673
734.058798	0.993975
734.389501	0.995307
734.720156	0.994246
735.050762	0.995202
735.381320	0.994439
735.711831	0.994685
736.042293	0.994430
736.372707	0.995327
736.703073	0.992801
737.033391	0.994028
737.363661	0.994501
737.693883	0.993873
738.024056	0.994656
738.354182	0.995389
738.684260	0.994273
739.014290	0.995027
739.344272	0.994263
739.674207	0.994643
740.004093	0.995477
740.333931	0.994508
740.663722	0.994019
740.993464	0.994481
741.323159	0.993994
741.652806	0.994932
741.982405	0.994733
742.311956	0.995482
742.641460	0.995391
742.970915	0.993804
743.300323	0.993789
743.629683	0.994720
743.958996	0.995259
744.288260	0.994715
744.617477	0.994630
744.946647	0.994025
745.275768	0.995318
745.604842	0.995064
745.933869	0.994214
746.262847	0.994881
746.591778	0.993872
746.920662	0.995297
747.249498	0.996519
747.578286	0.996238
747.907027	0.994376
748.235720	0.996013
748.564365	0.995400
748.892963	0.995553
749.221514	0.996132
749.550017	0.993609
749.878473	0.995096
750.206881	0.995791
750.535242	0.995442
750.863555	0.995091
751.191821	0.995405
751.520039	0.994402
751.848210	0.994302
752.176334	0.994807
752.504411	0.994524
752.832440	0.994659
753.160421	0.994726
753.488356	0.995274
753.816243	0.995093
754.144082	0.994523
754.471875	0.995030
754.799620	0.996558
755.127318	0.995346
755.454969	0.994220
755.782572	0.996673
756.110129	0.995022
756.437638	0.996535
756.765100	0.995609
757.092515	0.995282
757.419882	0.995764
757.747203	0.995152
758.074477	0.995425
758.401703	0.996183
758.728882	0.995134
759.056014	0.995519
759.383099	0.995363
759.710138	0.994649
760.037129	0.994642
760.364073	0.995737
760.690970	0.995325
761.017820	0.994321
761.344623	0.995747
761.671379	0.995908
761.998088	0.995651
762.324751	0.994765
762.651366	0.994146
762.977935	0.992291
763.304456	0.993250
763.630931	0.990345
763.957359	0.990153
764.283740	0.990575
764.610074	0.992663
764.936362	0.993459
765.262602	0.993878
765.588796	0.993664
765.914943	0.995354
766.241044	0.994636
766.567097	0.994870
766.893104	0.996043
767.219064	0.994216
767.544978	0.994795
767.870845	0.995485
768.196665	0.994566
768.522438	0.996093
768.848165	0.995911
769.173846	0.995727
769.499479	0.996629
769.825066	0.997345
770.150607	0.996148
770.476101	0.995881
770.801548	0.996213
771.126949	0.996378
771.452303	0.996581
771.777611	0.996423
772.102872	0.996150
772.428087	0.995872
772.753256	0.997066
773.078378	0.997073
773.403453	0.996526
773.728482	0.998186
774.053465	0.996392
774.378401	0.996491
774.703291	0.997599
775.028135	0.998092
775.352932	0.995688
775.677683	0.997090
776.002388	0.996406
776.327046	0.996670
776.651658	0.997972
776.976224	0.996785
777.300743	0.996819
777.625216	0.996547
777.949643	0.996823
778.274024	0.996692
778.598359	0.997151
778.922647	0.996821
779.246889	0.997278
779.571086	0.996585
779.895236	0.998021
780.219339	0.998776
780.543397	0.996666
780.867409	0.998016
781.191374	0.997437
781.515294	0.997326
781.839167	0.997222
782.162995	0.998226
782.486776	0.996288
782.810511	0.997303
783.134201	0.997924
783.457844	0.997678
783.781441	0.997258
784.104993	0.997520
784.428498	0.998348
784.751958	0.998310
785.075372	0.998181
785.398739	0.996493
785.722061	0.996785
786.045337	0.997194
786.368568	0.997149
786.691752	0.997553
787.014891	0.997751
787.337983	0.996088
787.661030	0.995337
787.984031	0.997313
788.306987	0.995462
788.629897	0.994322
788.952760	0.997076
789.275579	0.996868
789.598351	0.995624
789.921078	0.996990
790.243759	0.996517
790.566395	0.996590
790.888984	0.997176
791.211529	0.997273
791.534027	0.997409
791.856480	0.996872
792.178888	0.997478
792.501249	0.996968
792.823566	0.998095
793.145836	0.996569
793.468062	0.996770
793.790241	0.998992
794.112375	0.996312
794.434464	0.997527
794.756507	0.997439
795.078505	0.997026
795.400457	0.997607
795.722364	0.997140
796.044226	0.997235
796.366042	0.995718
796.687812	0.996110
797.009538	0.996244
797.331218	0.997654
797.652852	0.998560
797.974442	0.995774
798.295986	0.996078
798.617484	0.996369
798.938938	0.997332
799.260346	0.996446
799.581709	0.996056
799.903026	0.997280
800.224299	0.996721
800.545526	0.995816
800.866708	0.996918
801.187845	0.997520
801.508936	0.996940
801.829983	0.996937
802.150984	0.997247
802.471940	0.998014
802.792851	0.997788
803.113717	0.997612
803.434538	0.997991
803.755314	0.999264
804.076045	0.997438
804.396731	0.998292
804.717372	0.995986
805.037967	0.998140
805.358518	0.997885
805.679024	0.997137
805.999485	0.997691
806.319901	0.997732
806.640272	0.998522
806.960598	0.997467
807.280879	0.997086
807.601115	0.998238
807.921306	0.998472
808.241453	0.997355
808.561554	0.997278
808.881611	0.997716
809.201623	0.997210
809.521590	0.997034
809.841513	0.997137
810.161390	0.996841
810.481223	0.996650
810.801011	0.997012
811.120755	0.998131
811.440453	0.996463
811.760107	0.997926
812.079716	0.997507
812.399281	0.997556
812.718801	0.996931
813.038276	0.997406
813.357707	0.997197
813.677093	0.997385
813.996434	0.998847
814.315731	0.998612
814.634983	0.998578
814.954191	0.998729
815.273354	0.996773
815.592473	0.996167
815.911547	0.996911
816.230577	0.997678
816.549562	0.997791
816.868502	0.995707
817.187399	0.998673
817.506250	0.997213
817.825058	0.995655
818.143821	0.996170
818.462539	0.996371
818.781213	0.996294
819.099843	0.996332
819.418429	0.995548
819.736970	0.995217
820.055466	0.994032
820.373919	0.994278
820.692327	0.993409
821.010691	0.992719
821.329011	0.988659
821.647286	0.985692
821.965517	0.983437
822.283704	0.980523
822.601847	0.978792
822.919945	0.979399
823.237999	0.980950
823.556010	0.982309
823.873976	0.983999
824.191897	0.986304
824.509775	0.988663
824.827609	0.989024
825.145398	0.990452
825.463144	0.989343
825.780845	0.989927
826.098502	0.990375
826.416116	0.989590
826.733685	0.987193
827.051210	0.984416
827.368692	0.985955
827.686129	0.986653
828.003522	0.989880
828.320872	0.990225
828.638177	0.991890
828.955439	0.993542
829.272656	0.993933
829.589830	0.993509
829.906960	0.995608
830.224046	0.996328
830.541088	0.995581
830.858086	0.997350
831.175041	0.997341
831.491952	0.996258
831.808819	0.996210
832.125642	0.995897
832.442421	0.996576
832.759157	0.996068
833.075849	0.993536
833.392497	0.992115
833.709101	0.990613
834.025662	0.990295
834.342179	0.991804
834.658653	0.993228
834.975083	0.993676
835.291469	0.994880
835.607811	0.995059
835.924110	0.995781
836.240366	0.996608
836.556578	0.996875
836.872746	0.998368
837.188871	0.996239
837.504952	0.997702
837.820990	0.998226
838.136984	0.997083
838.452935	0.996803
838.768842	0.998574
839.084706	0.997740
839.400526	0.997517
839.716303	0.994193
840.032037	0.995821
840.347727	0.994410
840.663373	0.994885
840.978977	0.996350
841.294537	0.996569
841.610054	0.997647
841.925527	0.998581
842.240957	0.998000
842.556344	0.997018
842.871687	0.998002
843.186987	0.997943
843.502244	1.000081
843.817458	0.997915
844.132629	0.997527
844.447756	0.998604
844.762840	0.998996
845.077881	1.000680
845.392879	0.997826
845.707833	0.998826
846.022745	0.998975
846.337613	0.999717
846.652438	0.999054
846.967221	0.998598
847.281960	1.000148
847.596656	0.999844
847.911309	0.999134
848.225919	0.998382
848.540485	0.998058
848.855009	0.999135
849.169490	0.999381
849.483928	0.999451
849.798323	0.998500
850.112675	0.999741
850.426984	0.999314
850.741251	0.999605
851.055474	0.999433
851.369654	1.000591
851.683792	0.998616
851.997887	1.000273
852.311938	0.999877
852.625947	0.999527
852.939914	0.999278
853.253837	1.001307
853.567718	1.000134
853.881555	0.998715
854.195350	0.999228
854.509103	0.999410
854.822812	0.999575
855.136479	0.998891
855.450103	0.999161
855.763685	0.999913
856.077224	0.999116
856.390720	0.998703
856.704173	1.000485
857.017584	0.999911
857.330953	0.999081
857.644278	0.999320
857.957561	0.999425
858.270802	0.999818
858.584000	0.998595
858.897155	0.998409
859.210268	0.999759
859.523339	0.998865
859.836367	0.998271
860.149352	0.999035
860.462295	0.999279
860.775195	0.998752
861.088054	0.998290
861.400869	0.998825
861.713642	0.998750
862.026373	1.000209
862.339062	0.999689
862.651708	0.998518
862.964312	0.999931
863.276873	0.999684
863.589392	0.998665
863.901869	0.998593
864.214303	0.998953
864.526696	0.998919
864.839045	0.998745
865.151353	0.999615
865.463619	0.997476
865.775842	0.998929
866.088023	1.000109
866.400162	0.999548
866.712258	1.000153
867.024313	0.999787
867.336325	0.999441
867.648296	0.999139
867.960224	0.999113
868.272110	0.999905
868.583954	0.999806
868.895755	0.999671
869.207515	0.998654
869.519233	0.999939
869.830909	0.998730
870.142542	0.997409
870.454134	0.998683
870.765684	0.998478
871.077191	0.998165
871.388657	0.999258
871.700081	0.998729
872.011463	1.000106
872.322803	0.998262
872.634101	0.997050
872.945357	0.998190
873.256571	0.998221
873.567744	0.998799
873.878874	0.998060
874.189963	0.998703
874.501010	0.999192
874.812015	0.998721
875.122979	0.998770
875.433900	0.998517
875.744780	0.999483
876.055618	0.997942
876.366415	0.997688
876.677169	0.997821
876.987882	0.998459
877.298554	0.998480
877.609183	0.997765
877.919771	0.998665
878.230317	0.998891
878.540822	0.997101
878.851285	0.997223
879.161707	0.996790
879.472087	0.997570
879.782425	0.994366
880.092722	0.993312
880.402977	0.990574
880.713191	0.988040
881.023363	0.983695
881.333494	0.981520
881.643583	0.982961
881.953631	0.982609
882.263637	0.981401
882.573602	0.983184
882.883526	0.984704
883.193408	0.987035
883.503248	0.988308
883.813048	0.988266
884.122806	0.991098
884.432522	0.991845
884.742197	0.993962
885.051831	0.993616
885.361424	0.994500
885.670975	0.995699
885.980485	0.995118
886.289954	0.995402
886.599382	0.995769
886.908768	0.997093
887.218113	0.996852
887.527417	0.997679
887.836680	0.997665
888.145901	0.997743
888.455082	0.998230
888.764221	0.998352
889.073319	0.997144
889.382376	0.998829
889.691392	0.996696
890.000366	0.998538
890.309300	0.997538
890.618193	0.998021
890.927044	0.997885
891.235855	0.997031
891.544625	0.998366
891.853353	0.997805
892.162041	0.997654
892.470687	0.998000
892.779293	0.996895
893.087858	0.995641
893.396381	0.995823
893.704864	0.994571
894.013306	0.994168
894.321707	0.992618
894.630068	0.991564
894.938387	0.989629
895.246665	0.990277
895.554903	0.990448
895.863100	0.992753
896.171256	0.992702
896.479371	0.994386
896.787446	0.994433
897.095480	0.995504
897.403473	0.997140
897.711425	0.997344
898.019336	0.997231
898.327207	0.997526
898.635038	0.996283
898.942827	0.997259
899.250576	0.996867
899.558284	0.997766
899.865952	0.997291
900.173579	0.997599
900.481165	0.997769
900.788711	0.996649
901.096216	0.997757
901.403681	0.997806
901.711105	0.998728
902.018489	0.998306
902.325832	0.997764
902.633135	0.998748
902.940397	0.997750
903.247619	0.996968
903.554800	0.995052
903.861941	0.993674
904.169041	0.989680
904.476101	0.989637
904.783121	0.988370
905.090100	0.989875
905.397039	0.990515
905.703938	0.992872
906.010796	0.993128
906.317614	0.995384
906.624391	0.996434
906.931129	0.997066
907.237826	0.998240
907.544483	0.998390
907.851099	0.997390
908.157675	0.997589
908.464211	0.998677
908.770707	0.998828
909.077163	0.998996
909.383578	0.998632
909.689954	0.997431
909.996289	0.999548
910.302584	0.999762
910.608839	0.999552
910.915054	0.999600
911.221229	0.999824
911.527363	0.998970
911.833458	0.998253
912.139513	1.000087
912.445527	0.999149
912.751502	0.998722
913.057436	0.998102
913.363331	0.998786
913.669186	0.997852
913.975000	0.997878
914.280775	0.997371
914.586510	0.995970
914.892205	0.995678
915.197859	0.993688
915.503475	0.992405
915.809050	0.991544
916.114585	0.988040
916.420081	0.988644
916.725536	0.989462
917.030952	0.990775
917.336328	0.990919
917.641665	0.991261
917.946961	0.993411
918.252218	0.993126
918.557435	0.994368
918.862612	0.995673
919.167750	0.995501
919.472848	0.996691
919.777906	0.997920
920.082925	0.998592
920.387904	0.997693
920.692843	0.997673
920.997743	0.997045
921.302603	0.998529
921.607423	0.997164
921.912204	0.998434
922.216946	0.999535
922.521647	0.999387
922.826310	0.998442
923.130932	0.998936
923.435516	0.999081
923.740059	0.998989
924.044564	0.998076
924.349028	0.998344
924.653454	0.999744
924.957840	0.998678
925.262186	0.998433
925.566493	1.000106
925.870761	0.999870
926.174989	0.998802
926.479178	1.000267
926.783328	0.999173
927.087438	0.999469
927.391509	0.999478
927.695541	0.999873
927.999533	1.000475
928.303486	0.998903
928.607400	0.999904
928.911275	1.000910
929.215110	1.000844
929.518906	1.001491
929.822663	1.000099
930.126381	1.001013
930.430060	0.999778
930.733699	1.000815
931.037299	1.000766
931.340861	1.000319
931.644383	0.999235
931.947866	0.999970
932.251309	1.000417
932.554714	0.999260
932.858080	0.999526
933.161407	0.999383
933.464694	1.000119
933.767943	1.001345
934.071153	1.000044
934.374323	1.000452
934.677455	1.000154
934.980548	0.999406
935.283602	0.999842
935.586617	0.999837
935.889593	1.000836
936.192530	1.000164
936.495428	0.999221
936.798287	0.999484
937.101108	0.998927
937.403890	1.000366
937.706632	1.001313
938.009336	0.999288
938.312002	0.997765
938.614628	0.999380
938.917216	0.999231
939.219765	0.997765
939.522275	1.000562
939.824747	0.998080
940.127179	0.998951
940.429573	1.000230
940.731929	0.998289
941.034246	0.998519
941.336524	0.998560
941.638763	0.998531
941.940964	0.998418
942.243126	0.999808
942.545250	1.000071
942.847335	0.999323
943.149381	1.001252
943.451389	0.999301
943.753359	0.998970
944.055290	1.001035
944.357182	1.000231
944.659036	1.000487
944.960851	0.998737
945.262628	0.999655
945.564367	0.999292
945.866067	1.000072
946.167729	1.000177
946.469352	1.000050
946.770937	0.998337
947.072484	1.000336
947.373992	0.999909
947.675462	0.999429
947.976893	0.999372
948.278286	1.001638
948.579641	1.000536
948.880958	1.000229
949.182236	0.999833
949.483476	1.000296
949.784678	1.000404
950.085841	0.999879
950.386967	0.999199
950.688054	1.000027
950.989103	0.998964
951.290114	0.998376
951.591087	0.999393
951.892021	0.998542
952.192917	0.999240
952.493776	0.999397
952.794596	0.999231
953.095378	0.999655
953.396122	0.999484
953.696828	0.999979
953.997496	0.998537
954.298126	1.001179
954.598718	0.999218
954.899272	1.000158
955.199788	0.999625
955.500266	1.001464
955.800706	0.999380
956.101108	0.999550
956.401472	1.002834
956.701798	0.999887
957.002087	1.000351
957.302337	0.999222
957.602550	0.999301
957.902724	0.999604
958.202861	1.000643
958.502960	0.999924
958.803022	1.000448
959.103045	1.000627
959.403031	1.001062
959.702979	1.002009
960.002889	1.000191
960.302762	0.999214
960.602596	1.001176
960.902393	1.000780
961.202153	1.000460
961.501875	1.000972
961.801559	1.000944
962.101205	1.000408
962.400814	1.001495
962.700385	1.000343
962.999918	1.001402
963.299414	0.999745
963.598873	1.000639
963.898293	1.000402
964.197677	0.999954
964.497022	1.000691
964.796331	1.001034
965.095601	1.001001
965.394835	1.000272
965.694030	1.000144
965.993189	1.000591
966.292309	1.000993
966.591393	0.999725
966.890439	1.000158
967.189447	0.999566
967.488419	1.000738
967.787353	0.999962
968.086249	0.998874
968.385108	1.000688
968.683930	1.001669
968.982714	1.001415
969.281462	1.000819
969.580172	1.001129
969.878844	1.002253
970.177480	1.000658
970.476078	1.002284
970.774639	1.000911
971.073162	1.000940
971.371649	1.000586
971.670098	1.000349
971.968510	1.000970
972.266885	1.000131
972.565223	1.000516
972.863524	0.999691
973.161788	0.999762
973.460014	1.001920
973.758204	0.999825
974.056356	1.000435
974.354471	1.000037
974.652550	1.000803
974.950591	0.999978
975.248595	0.999609
975.546563	1.001677
975.844493	1.001281
976.142386	0.999237
976.440243	1.001918
976.738062	1.000878
977.035845	1.000189
977.333590	1.001852
977.631299	0.999639
977.928971	1.000553
978.226606	0.998806
978.524204	0.999749
978.821765	1.001426
979.119290	1.003437
979.416777	1.000442
979.714228	0.999849
980.011642	1.001191
980.309020	1.000178
980.606360	1.001679
980.903664	1.000484
981.200931	1.000637
981.498162	1.001559
981.795356	1.000195
982.092513	0.999640
982.389633	1.001055
982.686717	0.999311
982.983764	1.001030
983.280775	1.000021
983.577749	1.001078
983.874686	0.999042
984.171587	0.999507
984.468451	0.999961
984.765279	1.001595
985.062070	0.999944
985.358824	0.999959
985.655543	1.000847
985.952224	1.001230
986.248869	0.999186
986.545478	1.001289
986.842050	1.000792
987.138586	1.000440
987.435086	1.000047
987.731549	1.001784
988.027975	1.001296
988.324366	1.000284
988.620719	1.001630
988.917037	1.001338
989.213318	1.000607
989.509563	1.001146
989.805772	1.001015
990.101944	1.001581
990.398080	1.000888
990.694180	1.002456
990.990244	1.000722
991.286271	1.000348
991.582262	1.001100
991.878217	1.000794
992.174136	1.001073
992.470019	1.000301
992.765865	1.002159
993.061676	1.001728
993.357450	1.001075
993.653188	1.001309
993.948890	1.000975
994.244556	1.000916
994.540186	1.000557
994.835780	0.999858
995.131337	1.000328
995.426859	0.999470
995.722345	0.999881
996.017795	1.000311
996.313208	1.001328
996.608586	1.000276
996.903928	1.000546
997.199234	1.000836
997.494504	1.001048
997.789738	0.999422
998.084936	1.001429
998.380099	0.998786
998.675225	1.001176
998.970316	1.000658
999.265371	1.000206
999.560390	1.000844
999.855373	1.001337
1000.150320	0.999935
1000.445232	1.000762
1000.740108	1.001108
1001.034948	0.999903
1001.329752	1.001737
1001.624521	1.000630
1001.919254	0.999521
1002.213951	1.001691
1002.508613	1.000491
1002.803239	0.999922
1003.097829	1.001487
1003.392384	1.001002
1003.686903	1.000860
1003.981386	1.000806
1004.275834	1.001920
1004.570246	0.998696
1004.864623	1.000998
1005.158964	1.001492
1005.453270	0.999998
1005.747540	1.000391
1006.041775	1.001576
1006.335974	1.000495
1006.630138	1.001889
1006.924266	0.998790
1007.218359	0.999830
1007.512416	1.001578
1007.806438	1.000166
1008.100425	1.000898
1008.394376	1.002234
1008.688292	1.000253
1008.982172	1.000735
1009.276017	1.000569
1009.569827	1.002120
1009.863602	0.999819
1010.157341	1.001404
1010.451045	1.000552
1010.744714	1.002802
1011.038347	1.000454
1011.331945	1.000864
1011.625508	0.999767
1011.919036	1.001282
1012.212528	1.000971
1012.505986	1.001500
1012.799408	1.001252
1013.092795	1.001133
1013.386147	1.000811
1013.679464	1.002441
1013.972745	1.000868
1014.265992	1.000993
1014.559204	0.999848
1014.852380	1.001192
1015.145521	1.001344
1015.438628	1.000486
1015.731699	1.000392
1016.024736	1.001612
1016.317737	1.000568
1016.610703	1.000584
1016.903635	1.001608
1017.196531	1.000823
1017.489393	0.999881
1017.782219	1.000848
1018.075011	1.000521
1018.367768	1.000583
1018.660490	0.999652
1018.953177	0.999652
1019.245829	0.999652
