Dividing Wavelength (nm)	Counts (n)	Blue Motor Position (mm): 20.500000	Red Motor Position (mm): 0.000000	
326.493990	1.001025
326.888308	1.001025
327.282561	1.001025
327.676750	1.001830
328.070874	1.002553
328.464933	1.003617
328.858929	1.002435
329.252859	1.001255
329.646726	1.001128
330.040528	1.001432
330.434265	1.001524
330.827938	1.001231
331.221547	1.001868
331.615091	1.002195
332.008571	1.002977
332.401986	1.000872
332.795338	1.002535
333.188625	1.002370
333.581847	1.001471
333.975006	1.001992
334.368100	1.002972
334.761129	1.000087
335.154095	1.001361
335.546996	1.000960
335.939833	0.998353
336.332606	0.999778
336.725315	0.998095
337.117960	0.999298
337.510540	0.998460
337.903056	0.999815
338.295508	1.000159
338.687896	0.999602
339.080220	0.999484
339.472480	0.997940
339.864676	0.999453
340.256807	0.998877
340.648875	0.999787
341.040879	0.999125
341.432818	1.000076
341.824694	0.999019
342.216506	1.000407
342.608253	0.999105
342.999937	0.998112
343.391557	0.999778
343.783113	0.999813
344.174605	0.999489
344.566033	0.999107
344.957397	1.000447
345.348697	0.999909
345.739934	0.999783
346.131106	0.999061
346.522215	0.999187
346.913260	0.999042
347.304241	0.998161
347.695159	0.998558
348.086012	0.999226
348.476802	0.999650
348.867528	0.997701
349.258191	0.999419
349.648789	0.998484
350.039324	0.998659
350.429796	0.998046
350.820203	0.997881
351.210548	0.998904
351.600828	0.998220
351.991045	0.999100
352.381198	0.999259
352.771288	0.998612
353.161314	0.998451
353.551276	0.997395
353.941175	0.997261
354.331010	0.999569
354.720782	0.998069
355.110490	0.999134
355.500135	0.998620
355.889717	0.997177
356.279235	0.998950
356.668689	0.998135
357.058080	0.998911
357.447408	0.997371
357.836672	0.998038
358.225873	0.997802
358.615010	0.998687
359.004084	0.996672
359.393095	0.998406
359.782043	0.998065
360.170927	0.998621
360.559748	0.997941
360.948505	0.997953
361.337199	0.997144
361.725830	0.998652
362.114398	0.998207
362.502903	0.997175
362.891344	0.996507
363.279722	0.996385
363.668037	0.997453
364.056289	0.997416
364.444478	0.998456
364.832603	0.997813
365.220665	0.996219
365.608665	0.996874
365.996601	0.996687
366.384474	0.995560
366.772284	0.996800
367.160031	0.996134
367.547715	0.995156
367.935336	0.995166
368.322893	0.993025
368.710388	0.992531
369.097820	0.991820
369.485189	0.988577
369.872495	0.987501
370.259738	0.985220
370.646918	0.981384
371.034035	0.979881
371.421090	0.977192
371.808081	0.972012
372.195010	0.969223
372.581875	0.964278
372.968678	0.959300
373.355418	0.956192
373.742096	0.946634
374.128710	0.944635
374.515262	0.939285
374.901751	0.934610
375.288177	0.929042
375.674540	0.921918
376.060841	0.916087
376.447079	0.909739
376.833254	0.902278
377.219367	0.898572
377.605417	0.886084
377.991404	0.883336
378.377329	0.877284
378.763191	0.870851
379.148991	0.860592
379.534727	0.853542
379.920402	0.845080
380.306013	0.842559
380.691563	0.828420
381.077049	0.822085
381.462474	0.818811
381.847835	0.807434
382.233134	0.802349
382.618371	0.803067
383.003545	0.785227
383.388657	0.783222
383.773706	0.776029
384.158693	0.771594
384.543618	0.766229
384.928480	0.756925
385.313280	0.747595
385.698017	0.747928
386.082692	0.736204
386.467305	0.734688
386.851856	0.728500
387.236344	0.723046
387.620770	0.717988
388.005133	0.712439
388.389435	0.706163
388.773674	0.703684
389.157851	0.695888
389.541965	0.693513
389.926018	0.699163
390.310008	0.686310
390.693936	0.683841
391.077802	0.675560
391.461606	0.677432
391.845348	0.666621
392.229027	0.665701
392.612645	0.664357
392.996200	0.651553
393.379694	0.644149
393.763125	0.635023
394.146494	0.639362
394.529801	0.629522
394.913047	0.620828
395.296230	0.627334
395.679351	0.618521
396.062410	0.615819
396.445408	0.618565
396.828343	0.613823
397.211217	0.608737
397.594028	0.621114
397.976778	0.611283
398.359466	0.607688
398.742092	0.603023
399.124656	0.615271
399.507158	0.603403
399.889598	0.600347
400.271977	0.592158
400.654294	0.595092
401.036549	0.595039
401.418742	0.599277
401.800874	0.585568
402.182944	0.581845
402.564952	0.573788
402.946898	0.575266
403.328783	0.576327
403.710606	0.587192
404.092367	0.561980
404.474067	0.566825
404.855705	0.565866
405.237282	0.574998
405.618797	0.560421
406.000250	0.556596
406.381642	0.546850
406.762972	0.552158
407.144240	0.550667
407.525447	0.550364
407.906593	0.543160
408.287677	0.538910
408.668700	0.547268
409.049661	0.541800
409.430560	0.536364
409.811399	0.544838
410.192176	0.526280
410.572891	0.533475
410.953545	0.521508
411.334138	0.535415
411.714669	0.527258
412.095139	0.539896
412.475547	0.523625
412.855894	0.525899
413.236180	0.524847
413.616405	0.530143
413.996568	0.520521
414.376670	0.526233
414.756711	0.531184
415.136691	0.528486
415.516609	0.519643
415.896466	0.515892
416.276262	0.512425
416.655997	0.514293
417.035670	0.495629
417.415283	0.487643
417.794834	0.492314
418.174324	0.497592
418.553753	0.506584
418.933121	0.488717
419.312428	0.483235
419.691674	0.489025
420.070859	0.477347
420.449983	0.485002
420.829045	0.473495
421.208047	0.483222
421.586988	0.476145
421.965867	0.474767
422.344686	0.463629
422.723444	0.476473
423.102141	0.493571
423.480777	0.466240
423.859352	0.486887
424.237866	0.463815
424.616319	0.465182
424.994712	0.455733
425.373044	0.465682
425.751314	0.454056
426.129524	0.470332
426.507673	0.453684
426.885762	0.447466
427.263789	0.452893
427.641756	0.462731
428.019662	0.452927
428.397508	0.452753
428.775292	0.457017
429.153016	0.448915
429.530679	0.455283
429.908282	0.448652
430.285824	0.458482
430.663305	0.436393
431.040726	0.457605
431.418086	0.457573
431.795385	0.449934
432.172624	0.448219
432.549802	0.449067
432.926920	0.447637
433.303977	0.447332
433.680974	0.444026
434.057910	0.442453
434.434786	0.442250
434.811601	0.444976
435.188355	0.427372
435.565050	0.437029
435.941683	0.437963
436.318257	0.421460
436.694770	0.422980
437.071222	0.421023
437.447614	0.425174
437.823946	0.432421
438.200218	0.420991
438.576429	0.430461
438.952580	0.423779
439.328670	0.420544
439.704700	0.426923
440.080670	0.428603
440.456580	0.409875
440.832429	0.417083
441.208218	0.428433
441.583947	0.417551
441.959616	0.416303
442.335224	0.422825
442.710773	0.412950
443.086261	0.410903
443.461689	0.425059
443.837057	0.414574
444.212365	0.405047
444.587612	0.412147
444.962800	0.401622
445.337927	0.403777
445.712995	0.429210
446.088002	0.391384
446.462949	0.402160
446.837837	0.407058
447.212664	0.395741
447.587431	0.387052
447.962139	0.357278
448.336786	0.316309
448.711374	0.327017
449.085901	0.371493
449.460369	0.375588
449.834776	0.378900
450.209124	0.357860
450.583412	0.351050
450.957640	0.343903
451.331808	0.355336
451.705917	0.379079
452.079965	0.383694
452.453954	0.371607
452.827883	0.378642
453.201752	0.373138
453.575562	0.384331
453.949311	0.373270
454.323001	0.379273
454.696632	0.375156
455.070202	0.367672
455.443713	0.359432
455.817164	0.354124
456.190556	0.349973
456.563888	0.346880
456.937160	0.344064
457.310373	0.361667
457.683526	0.360976
458.056619	0.366072
458.429653	0.366745
458.802628	0.370392
459.175542	0.364652
459.548398	0.347063
459.921194	0.339761
460.293930	0.339568
460.666607	0.317294
461.039224	0.305655
461.411782	0.301191
461.784280	0.300628
462.156719	0.304510
462.529099	0.309036
462.901419	0.325199
463.273680	0.329136
463.645882	0.329131
464.018024	0.334656
464.390106	0.327661
464.762130	0.312382
465.134094	0.295263
465.505999	0.264061
465.877845	0.234585
466.249631	0.221288
466.621358	0.228851
466.993026	0.242746
467.364634	0.249248
467.736184	0.257949
468.107674	0.267065
468.479105	0.265672
468.850477	0.272644
469.221790	0.279431
469.593043	0.289763
469.964238	0.294892
470.335373	0.293786
470.706449	0.292197
471.077467	0.293140
471.448425	0.254838
471.819324	0.230114
472.190164	0.229966
472.560945	0.258626
472.931667	0.281000
473.302330	0.285565
473.672934	0.297018
474.043479	0.285082
474.413965	0.287501
474.784393	0.290618
475.154761	0.285660
475.525070	0.282885
475.895321	0.288585
476.265513	0.282815
476.635645	0.277927
477.005719	0.278085
477.375734	0.274837
477.745691	0.267815
478.115588	0.264405
478.485427	0.258032
478.855207	0.245070
479.224928	0.227470
479.594591	0.215693
479.964194	0.219126
480.333739	0.220367
480.703226	0.222112
481.072653	0.220512
481.442022	0.216213
481.811333	0.213054
482.180584	0.216798
482.549777	0.222345
482.918912	0.225747
483.287988	0.225886
483.657005	0.225671
484.025964	0.232299
484.394864	0.229891
484.763706	0.230767
485.132489	0.236083
485.501213	0.237149
485.869879	0.236081
486.238487	0.239644
486.607036	0.237878
486.975527	0.242944
487.343959	0.239143
487.712333	0.238898
488.080648	0.240712
488.448905	0.240645
488.817104	0.242502
489.185244	0.237243
489.553326	0.235086
489.921350	0.226243
490.289315	0.209671
490.657222	0.205000
491.025070	0.207368
491.392861	0.210134
491.760593	0.216548
492.128267	0.223029
492.495883	0.229227
492.863440	0.236405
493.230939	0.243832
493.598380	0.246499
493.965763	0.249804
494.333088	0.252698
494.700354	0.255861
495.067563	0.255689
495.434713	0.260928
495.801805	0.259763
496.168839	0.262984
496.535815	0.266210
496.902733	0.267184
497.269593	0.270624
497.636395	0.269678
498.003139	0.272400
498.369825	0.276568
498.736453	0.275675
499.103023	0.278868
499.469535	0.280360
499.835989	0.282367
500.202385	0.285724
500.568723	0.290962
500.935003	0.288012
501.301226	0.295893
501.667390	0.291980
502.033497	0.293143
502.399546	0.297890
502.765537	0.302575
503.131470	0.303775
503.497345	0.303277
503.863163	0.313676
504.228923	0.309973
504.594625	0.311719
504.960269	0.319906
505.325856	0.319003
505.691385	0.326594
506.056856	0.326796
506.422270	0.330009
506.787625	0.335095
507.152924	0.336713
507.518164	0.339765
507.883347	0.345625
508.248472	0.351168
508.613540	0.350326
508.978550	0.357247
509.343503	0.361262
509.708398	0.363428
510.073236	0.365456
510.438016	0.368992
510.802738	0.374798
511.167403	0.378660
511.532010	0.385496
511.896561	0.385068
512.261053	0.389427
512.625488	0.396053
512.989866	0.401145
513.354186	0.405866
513.718449	0.413001
514.082655	0.413877
514.446803	0.421441
514.810894	0.424665
515.174927	0.432670
515.538904	0.436425
515.902822	0.439697
516.266684	0.446325
516.630488	0.453385
516.994235	0.456483
517.357925	0.462312
517.721558	0.465762
518.085133	0.471258
518.448651	0.476374
518.812112	0.483552
519.175516	0.489404
519.538863	0.492945
519.902152	0.499601
520.265385	0.504320
520.628560	0.509598
520.991678	0.517655
521.354739	0.521619
521.717743	0.528306
522.080690	0.533913
522.443580	0.539369
522.806413	0.545112
523.169189	0.550680
523.531908	0.555383
523.894569	0.563547
524.257174	0.569371
524.619722	0.574256
524.982213	0.579359
525.344647	0.585531
525.707025	0.590733
526.069345	0.596036
526.431608	0.604404
526.793815	0.608768
527.155964	0.616769
527.518057	0.621056
527.880093	0.628014
528.242072	0.632311
528.603995	0.640271
528.965860	0.647135
529.327669	0.651513
529.689421	0.657312
530.051117	0.664117
530.412755	0.669882
530.774337	0.674747
531.135862	0.682303
531.497331	0.686113
531.858743	0.694107
532.220098	0.697030
532.581396	0.704262
532.942638	0.709552
533.303824	0.715563
533.664953	0.720596
534.026025	0.727526
534.387040	0.731538
534.747999	0.736000
535.108902	0.741617
535.469748	0.748653
535.830537	0.752148
536.191270	0.757901
536.551947	0.762310
536.912567	0.766811
537.273131	0.772661
537.633638	0.776571
537.994089	0.782178
538.354483	0.786904
538.714821	0.790288
539.075103	0.795174
539.435328	0.800122
539.795497	0.804393
540.155609	0.809295
540.515665	0.812397
540.875665	0.817989
541.235609	0.822420
541.595496	0.826138
541.955328	0.830219
542.315102	0.834834
542.674821	0.838811
543.034483	0.842635
543.394090	0.846181
543.753640	0.850775
544.113134	0.853072
544.472571	0.857849
544.831953	0.861094
545.191278	0.865633
545.550548	0.868299
545.909761	0.870698
546.268918	0.875377
546.628019	0.877727
546.987064	0.881613
547.346053	0.883613
547.704986	0.887658
548.063863	0.890539
548.422684	0.893838
548.781449	0.896881
549.140158	0.899411
549.498811	0.902096
549.857408	0.904235
550.215949	0.906876
550.574434	0.909909
550.932864	0.913066
551.291237	0.914884
551.649555	0.918087
552.007817	0.919729
552.366022	0.922886
552.724173	0.925268
553.082267	0.926923
553.440305	0.928602
553.798288	0.929827
554.156215	0.932443
554.514086	0.935198
554.871902	0.937621
555.229661	0.938418
555.587365	0.940647
555.945014	0.943450
556.302606	0.943920
556.660143	0.946404
557.017625	0.948239
557.375050	0.948969
557.732421	0.950483
558.089735	0.951835
558.446994	0.953625
558.804197	0.955561
559.161345	0.956493
559.518437	0.957067
559.875474	0.959714
560.232455	0.960433
560.589381	0.962149
560.946251	0.963448
561.303065	0.964467
561.659825	0.964891
562.016528	0.966476
562.373177	0.967647
562.729770	0.968566
563.086307	0.968624
563.442789	0.971029
563.799216	0.971025
564.155587	0.972542
564.511904	0.973484
564.868164	0.973009
565.224370	0.974461
565.580520	0.975625
565.936615	0.976516
566.292654	0.976776
566.648638	0.978301
567.004567	0.977501
567.360441	0.978818
567.716260	0.979119
568.072023	0.979489
568.427732	0.980884
568.783385	0.981275
569.138982	0.981706
569.494525	0.981732
569.850013	0.983230
570.205445	0.982831
570.560823	0.983551
570.916145	0.983588
571.271412	0.984136
571.626625	0.984715
571.981782	0.985026
572.336884	0.985718
572.691931	0.985547
573.046923	0.986767
573.401860	0.986374
573.756743	0.987061
574.111570	0.986640
574.466342	0.987878
574.821059	0.986874
575.175722	0.988195
575.530330	0.987793
575.884882	0.988343
576.239380	0.988494
576.593823	0.988611
576.948211	0.988318
577.302544	0.988184
577.656823	0.989920
578.011047	0.988262
578.365216	0.989842
578.719330	0.989758
579.073389	0.988965
579.427394	0.989713
579.781344	0.990428
580.135239	0.989151
580.489080	0.989596
580.842866	0.990167
581.196597	0.990373
581.550273	0.990158
581.903895	0.990735
582.257463	0.990764
582.610975	0.990000
582.964434	0.990874
583.317837	0.990688
583.671186	0.990947
584.024481	0.990720
584.377721	0.991098
584.730906	0.991120
585.084037	0.991506
585.437113	0.992120
585.790135	0.991468
586.143103	0.991100
586.496016	0.991374
586.848874	0.991630
587.201679	0.991008
587.554428	0.991685
587.907124	0.992052
588.259765	0.991829
588.612352	0.992168
588.964884	0.991933
589.317362	0.992242
589.669786	0.991966
590.022155	0.991463
590.374470	0.991807
590.726731	0.991230
591.078937	0.992616
591.431090	0.992172
591.783188	0.991881
592.135232	0.991955
592.487222	0.992469
592.839157	0.991818
593.191038	0.991483
593.542866	0.991734
593.894639	0.991549
594.246358	0.993106
594.598022	0.992107
594.949633	0.992460
595.301190	0.992511
595.652692	0.992285
596.004141	0.991719
596.355535	0.992177
596.706876	0.992760
597.058162	0.992423
597.409395	0.992681
597.760573	0.992306
598.111698	0.992081
598.462768	0.991835
598.813785	0.991825
599.164748	0.992415
599.515657	0.992456
599.866511	0.992934
600.217312	0.993731
600.568060	0.992563
600.918753	0.993113
601.269392	0.992364
601.619978	0.992882
601.970510	0.992898
602.320988	0.992367
602.671412	0.992777
603.021783	0.992976
603.372100	0.992949
603.722363	0.993622
604.072572	0.992741
604.422728	0.992725
604.772830	0.992272
605.122878	0.993473
605.472872	0.993304
605.822813	0.992616
606.172701	0.993731
606.522534	0.992927
606.872314	0.993391
607.222041	0.992421
607.571714	0.992732
607.921333	0.992695
608.270899	0.992587
608.620411	0.993223
608.969870	0.993639
609.319276	0.993413
609.668627	0.993458
610.017926	0.992201
610.367171	0.992527
610.716362	0.993002
611.065500	0.992496
611.414585	0.992957
611.763616	0.991955
612.112594	0.992625
612.461518	0.992148
612.810389	0.992923
613.159207	0.992730
613.507971	0.992060
613.856682	0.993956
614.205340	0.991927
614.553945	0.992880
614.902496	0.992719
615.250994	0.993018
615.599439	0.993006
615.947830	0.992377
616.296169	0.993298
616.644454	0.993218
616.992686	0.993319
617.340864	0.993122
617.688990	0.992449
618.037063	0.993174
618.385082	0.992438
618.733048	0.992201
619.080961	0.992400
619.428821	0.993322
619.776628	0.992059
620.124382	0.993680
620.472083	0.993461
620.819731	0.993551
621.167326	0.992684
621.514868	0.993521
621.862357	0.993668
622.209793	0.993053
622.557176	0.993059
622.904506	0.992915
623.251783	0.992985
623.599007	0.993149
623.946179	0.992566
624.293297	0.993191
624.640363	0.993088
624.987376	0.992081
625.334336	0.992491
625.681243	0.992874
626.028097	0.993613
626.374899	0.993662
626.721647	0.994081
627.068343	0.992700
627.414987	0.993364
627.761577	0.992949
628.108115	0.992632
628.454600	0.993073
628.801032	0.993046
629.147412	0.993085
629.493739	0.994031
629.840014	0.992977
630.186236	0.992739
630.532405	0.992713
630.878521	0.992573
631.224585	0.992900
631.570597	0.992654
631.916556	0.993233
632.262462	0.992149
632.608316	0.993317
632.954117	0.992444
633.299866	0.993313
633.645562	0.992804
633.991206	0.993338
634.336797	0.993456
634.682336	0.993573
635.027823	0.993192
635.373257	0.993352
635.718639	0.994163
636.063968	0.993472
636.409245	0.992909
636.754470	0.993606
637.099642	0.993108
637.444762	0.993404
637.789829	0.993036
638.134845	0.992323
638.479808	0.993141
638.824719	0.993534
639.169577	0.993229
639.514383	0.993592
639.859137	0.994134
640.203839	0.994038
640.548489	0.993391
640.893086	0.992873
641.237632	0.993208
641.582125	0.992978
641.926566	0.993455
642.270955	0.993365
642.615292	0.993320
642.959576	0.993471
643.303809	0.994134
643.647990	0.993696
643.992118	0.993597
644.336195	0.993086
644.680219	0.993511
645.024192	0.992711
645.368112	0.993204
645.711981	0.993827
646.055797	0.993123
646.399562	0.992726
646.743274	0.993845
647.086935	0.992943
647.430544	0.993611
647.774101	0.992815
648.117606	0.993198
648.461059	0.993988
648.804460	0.992606
649.147810	0.992557
649.491108	0.992665
649.834354	0.992935
650.177548	0.992552
650.520690	0.992582
650.863781	0.992748
651.206820	0.993296
651.549807	0.993236
651.892742	0.992707
652.235626	0.992322
652.578458	0.993082
652.921238	0.993416
653.263967	0.994040
653.606644	0.992984
653.949269	0.993770
654.291843	0.992225
654.634365	0.993457
654.976836	0.992753
655.319255	0.993359
655.661622	0.994068
656.003938	0.993833
656.346203	0.993120
656.688416	0.994100
657.030577	0.993191
657.372687	0.993567
657.714746	0.993198
658.056753	0.992634
658.398708	0.992925
658.740612	0.994295
659.082465	0.993211
659.424266	0.993708
659.766016	0.992269
660.107715	0.993761
660.449362	0.992532
660.790958	0.993204
661.132503	0.993895
661.473996	0.993628
661.815438	0.992659
662.156829	0.994262
662.498168	0.994992
662.839456	0.992047
663.180693	0.993903
663.521879	0.993762
663.863013	0.993627
664.204097	0.992801
664.545129	0.993597
664.886110	0.992563
665.227040	0.993160
665.567918	0.992707
665.908746	0.992199
666.249522	0.992054
666.590248	0.993216
666.930922	0.993051
667.271545	0.993245
667.612118	0.993096
667.952639	0.992856
668.293109	0.993571
668.633528	0.992430
668.973896	0.993633
669.314213	0.993563
669.654480	0.993424
669.994695	0.991838
670.334859	0.993046
670.674973	0.992319
671.015035	0.993740
671.355047	0.992768
671.695008	0.992504
672.034918	0.993240
672.374777	0.993152
672.714585	0.992861
673.054342	0.993088
673.394049	0.992390
673.733705	0.991666
674.073310	0.993114
674.412864	0.992699
674.752368	0.993062
675.091820	0.993527
675.431223	0.993064
675.770574	0.992462
676.109875	0.993405
676.449125	0.992138
676.788324	0.992465
677.127473	0.994260
677.466571	0.992744
677.805619	0.992458
678.144616	0.994125
678.483562	0.993908
678.822458	0.993549
679.161303	0.992504
679.500098	0.994047
679.838842	0.992947
680.177535	0.993122
680.516179	0.992264
680.854771	0.993727
681.193314	0.993321
681.531805	0.992658
681.870247	0.993894
682.208638	0.992622
682.546978	0.992233
682.885268	0.992508
683.223508	0.992425
683.561697	0.992529
683.899836	0.993223
684.237925	0.992464
684.575963	0.992754
684.913951	0.992976
685.251889	0.993511
685.589776	0.992920
685.927614	0.992295
686.265401	0.992384
686.603137	0.992369
686.940824	0.992687
687.278460	0.993014
687.616046	0.992855
687.953582	0.992489
688.291068	0.992576
688.628504	0.992726
688.965889	0.991587
689.303224	0.991057
689.640510	0.992241
689.977745	0.991637
690.314930	0.992145
690.652065	0.992899
690.989150	0.992035
691.326185	0.993456
691.663170	0.992023
692.000105	0.993026
692.336990	0.992803
692.673825	0.992901
693.010610	0.993109
693.347345	0.993045
693.684030	0.993172
694.020665	0.992815
694.357251	0.992400
694.693786	0.993439
695.030272	0.991736
695.366707	0.993191
695.703093	0.993445
696.039429	0.992832
696.375716	0.994207
696.711952	0.993610
697.048139	0.993077
697.384276	0.992454
697.720363	0.994115
698.056400	0.992665
698.392388	0.992649
698.728326	0.993310
699.064214	0.993725
699.400053	0.993152
699.735842	0.993119
700.071581	0.993461
700.407270	0.993065
700.742910	0.994279
701.078501	0.993255
701.414042	0.994304
701.749533	0.992841
702.084974	0.993775
702.420366	0.993987
702.755709	0.993513
703.091002	0.994412
703.426246	0.994414
703.761440	0.993789
704.096584	0.993553
704.431679	0.993164
704.766725	0.993129
705.101721	0.994312
705.436668	0.994089
705.771565	0.993278
706.106413	0.993539
706.441212	0.993621
706.775961	0.993987
707.110661	0.992727
707.445311	0.994540
707.779913	0.994251
708.114465	0.993975
708.448967	0.993904
708.783421	0.994866
709.117825	0.994051
709.452180	0.993168
709.786485	0.993567
710.120742	0.993717
710.454949	0.992867
710.789107	0.992954
711.123216	0.992710
711.457275	0.992047
711.791286	0.992272
712.125247	0.994210
712.459159	0.991915
712.793023	0.992377
713.126837	0.993148
713.460602	0.991534
713.794318	0.992585
714.127985	0.992203
714.461602	0.992833
714.795171	0.992890
715.128691	0.993257
715.462162	0.992914
715.795584	0.992997
716.128957	0.993688
716.462281	0.993638
716.795556	0.992523
717.128782	0.993834
717.461960	0.992530
717.795088	0.993714
718.128167	0.994547
718.461198	0.993979
718.794180	0.994278
719.127113	0.993735
719.459997	0.992721
719.792833	0.993428
720.125619	0.993128
720.458357	0.993689
720.791046	0.994875
721.123686	0.993522
721.456278	0.993424
721.788821	0.993511
722.121315	0.994459
722.453761	0.994124
722.786158	0.994231
723.118506	0.993987
723.450805	0.993619
723.783056	0.994343
724.115259	0.994318
724.447412	0.994649
724.779518	0.994112
725.111574	0.993125
725.443582	0.994470
725.775542	0.994244
726.107453	0.994584
726.439315	0.994908
726.771129	0.994110
727.102895	0.993816
727.434612	0.993588
727.766281	0.993868
728.097901	0.993042
728.429473	0.994403
728.760996	0.993027
729.092471	0.993066
729.423897	0.993689
729.755276	0.993530
730.086606	0.992598
730.417887	0.993569
730.749120	0.993991
731.080305	0.993660
731.411442	0.992358
731.742530	0.991935
732.073570	0.992362
732.404562	0.992858
732.735506	0.992372
733.066401	0.993641
733.397249	0.992541
733.728048	0.994022
734.058798	0.993069
734.389501	0.993345
734.720156	0.994246
735.050762	0.992951
735.381320	0.993883
735.711831	0.993149
736.042293	0.994392
736.372707	0.994462
736.703073	0.992169
737.033391	0.992836
737.363661	0.994323
737.693883	0.994462
738.024056	0.993227
738.354182	0.993926
738.684260	0.993600
739.014290	0.993768
739.344272	0.993702
739.674207	0.993779
740.004093	0.993626
740.333931	0.993256
740.663722	0.993292
740.993464	0.993472
741.323159	0.993557
741.652806	0.994142
741.982405	0.993974
742.311956	0.994221
742.641460	0.994853
742.970915	0.993965
743.300323	0.993217
743.629683	0.993881
743.958996	0.995552
744.288260	0.993224
744.617477	0.994186
744.946647	0.994009
745.275768	0.994965
745.604842	0.994033
745.933869	0.994088
746.262847	0.994699
746.591778	0.993727
746.920662	0.994922
747.249498	0.994773
747.578286	0.995537
747.907027	0.995071
748.235720	0.994254
748.564365	0.994958
748.892963	0.993432
749.221514	0.994215
749.550017	0.993091
749.878473	0.994594
750.206881	0.995308
750.535242	0.994705
750.863555	0.994484
751.191821	0.994518
751.520039	0.993428
751.848210	0.993121
752.176334	0.994518
752.504411	0.994209
752.832440	0.994236
753.160421	0.995417
753.488356	0.995952
753.816243	0.994527
754.144082	0.994444
754.471875	0.994355
754.799620	0.995906
755.127318	0.994311
755.454969	0.993872
755.782572	0.995960
756.110129	0.994914
756.437638	0.996474
756.765100	0.995592
757.092515	0.994324
757.419882	0.995015
757.747203	0.994100
758.074477	0.995155
758.401703	0.995387
758.728882	0.994238
759.056014	0.994579
759.383099	0.994362
759.710138	0.994505
760.037129	0.994020
760.364073	0.994893
760.690970	0.994318
761.017820	0.993894
761.344623	0.995127
761.671379	0.995336
761.998088	0.994015
762.324751	0.993940
762.651366	0.993750
762.977935	0.991920
763.304456	0.992105
763.630931	0.988759
763.957359	0.988375
764.283740	0.990019
764.610074	0.991786
764.936362	0.991058
765.262602	0.992882
765.588796	0.993817
765.914943	0.994073
766.241044	0.994316
766.567097	0.995265
766.893104	0.994747
767.219064	0.994475
767.544978	0.994850
767.870845	0.994978
768.196665	0.994988
768.522438	0.996278
768.848165	0.995334
769.173846	0.995415
769.499479	0.997078
769.825066	0.996666
770.150607	0.996829
770.476101	0.995980
770.801548	0.995884
771.126949	0.996959
771.452303	0.996970
771.777611	0.996259
772.102872	0.995942
772.428087	0.995934
772.753256	0.996137
773.078378	0.996624
773.403453	0.996416
773.728482	0.997534
774.053465	0.995676
774.378401	0.995362
774.703291	0.997164
775.028135	0.997880
775.352932	0.995744
775.677683	0.997399
776.002388	0.997009
776.327046	0.996945
776.651658	0.997531
776.976224	0.997231
777.300743	0.995907
777.625216	0.996211
777.949643	0.997636
778.274024	0.996190
778.598359	0.997174
778.922647	0.996984
779.246889	0.998291
779.571086	0.996963
779.895236	0.997349
780.219339	0.998618
780.543397	0.996625
780.867409	0.998154
781.191374	0.996579
781.515294	0.997474
781.839167	0.997721
782.162995	0.996730
782.486776	0.996922
782.810511	0.996133
783.134201	0.996802
783.457844	0.997234
783.781441	0.996259
784.104993	0.996253
784.428498	0.997823
784.751958	0.998160
785.075372	0.998202
785.398739	0.997463
785.722061	0.996568
786.045337	0.997926
786.368568	0.996414
786.691752	0.997684
787.014891	0.996235
787.337983	0.994700
787.661030	0.996299
787.984031	0.996677
788.306987	0.996611
788.629897	0.994764
788.952760	0.995886
789.275579	0.996350
789.598351	0.994834
789.921078	0.996824
790.243759	0.996568
790.566395	0.995802
790.888984	0.997664
791.211529	0.997292
791.534027	0.996896
791.856480	0.997842
792.178888	0.996751
792.501249	0.997746
792.823566	0.998285
793.145836	0.997161
793.468062	0.996330
793.790241	0.997895
794.112375	0.996735
794.434464	0.997266
794.756507	0.997877
795.078505	0.996009
795.400457	0.998241
795.722364	0.997107
796.044226	0.997211
796.366042	0.995851
796.687812	0.995643
797.009538	0.995768
797.331218	0.997456
797.652852	0.997287
797.974442	0.995999
798.295986	0.995689
798.617484	0.996184
798.938938	0.996573
799.260346	0.996233
799.581709	0.996148
799.903026	0.996805
800.224299	0.996758
800.545526	0.996166
800.866708	0.996220
801.187845	0.997616
801.508936	0.997595
801.829983	0.996448
802.150984	0.997594
802.471940	0.997286
802.792851	0.997109
803.113717	0.998433
803.434538	0.997865
803.755314	0.999103
804.076045	0.997634
804.396731	0.996281
804.717372	0.996767
805.037967	0.997786
805.358518	0.996794
805.679024	0.997039
805.999485	0.998174
806.319901	0.997542
806.640272	0.998799
806.960598	0.998245
807.280879	0.997426
807.601115	0.998475
807.921306	0.997986
808.241453	0.997675
808.561554	0.997488
808.881611	0.997839
809.201623	0.996247
809.521590	0.997186
809.841513	0.998399
810.161390	0.996757
810.481223	0.997056
810.801011	0.998142
811.120755	0.998405
811.440453	0.997099
811.760107	0.997935
812.079716	0.996941
812.399281	0.996230
812.718801	0.997333
813.038276	0.997235
813.357707	0.997643
813.677093	0.998738
813.996434	0.997709
814.315731	0.999381
814.634983	0.998569
814.954191	0.998353
815.273354	0.997095
815.592473	0.997305
815.911547	0.997681
816.230577	0.997154
816.549562	0.998211
816.868502	0.996455
817.187399	0.998399
817.506250	0.997546
817.825058	0.995826
818.143821	0.997197
818.462539	0.996952
818.781213	0.996357
819.099843	0.996818
819.418429	0.994827
819.736970	0.995595
820.055466	0.993981
820.373919	0.993777
820.692327	0.992375
821.010691	0.991737
821.329011	0.987639
821.647286	0.985359
821.965517	0.982946
822.283704	0.978511
822.601847	0.977034
822.919945	0.976517
823.237999	0.978873
823.556010	0.980320
823.873976	0.981902
824.191897	0.984923
824.509775	0.987724
824.827609	0.987373
825.145398	0.989423
825.463144	0.987766
825.780845	0.988684
826.098502	0.989965
826.416116	0.988489
826.733685	0.985631
827.051210	0.984150
827.368692	0.984612
827.686129	0.985902
828.003522	0.987627
828.320872	0.989278
828.638177	0.990435
828.955439	0.992425
829.272656	0.993289
829.589830	0.993595
829.906960	0.995149
830.224046	0.996062
830.541088	0.995761
830.858086	0.995327
831.175041	0.997089
831.491952	0.995455
831.808819	0.996320
832.125642	0.995455
832.442421	0.996094
832.759157	0.995918
833.075849	0.993143
833.392497	0.991414
833.709101	0.989605
834.025662	0.989379
834.342179	0.990577
834.658653	0.991854
834.975083	0.993483
835.291469	0.993790
835.607811	0.994529
835.924110	0.995661
836.240366	0.997449
836.556578	0.996951
836.872746	0.997765
837.188871	0.997284
837.504952	0.996812
837.820990	0.997570
838.136984	0.996121
838.452935	0.997799
838.768842	0.998477
839.084706	0.997598
839.400526	0.997737
839.716303	0.995500
840.032037	0.995009
840.347727	0.993846
840.663373	0.994549
840.978977	0.995438
841.294537	0.997343
841.610054	0.997469
841.925527	0.998442
842.240957	0.998503
842.556344	0.998537
842.871687	0.996985
843.186987	0.998587
843.502244	0.999580
843.817458	0.998001
844.132629	0.997775
844.447756	0.999100
844.762840	0.999162
845.077881	1.000085
845.392879	0.998442
845.707833	0.999656
846.022745	0.999216
846.337613	1.000199
846.652438	0.999070
846.967221	0.998801
847.281960	1.000202
847.596656	1.000131
847.911309	0.999315
848.225919	0.998102
848.540485	1.000149
848.855009	1.001225
849.169490	0.999405
849.483928	0.999077
849.798323	0.997712
850.112675	0.999426
850.426984	0.999910
850.741251	1.000038
851.055474	0.999244
851.369654	1.000028
851.683792	0.998021
851.997887	1.000413
852.311938	0.999929
852.625947	0.999119
852.939914	0.998837
853.253837	1.001178
853.567718	0.999728
853.881555	1.000219
854.195350	1.000025
854.509103	1.000223
854.822812	1.000226
855.136479	1.000137
855.450103	0.999120
855.763685	0.999576
856.077224	0.998652
856.390720	1.000096
856.704173	0.999861
857.017584	1.000413
857.330953	1.000140
857.644278	1.000265
857.957561	1.000928
858.270802	1.000615
858.584000	0.999982
858.897155	0.999194
859.210268	0.999936
859.523339	0.999147
859.836367	0.999756
860.149352	0.998582
860.462295	0.999448
860.775195	0.999469
861.088054	0.999282
861.400869	0.999632
861.713642	0.999655
862.026373	1.000151
862.339062	1.000075
862.651708	0.999649
862.964312	1.001289
863.276873	0.999298
863.589392	0.999584
863.901869	0.998541
864.214303	0.999025
864.526696	0.999176
864.839045	0.999243
865.151353	0.999664
865.463619	0.998683
865.775842	0.999622
866.088023	1.000072
866.400162	0.999996
866.712258	1.001307
867.024313	1.000083
867.336325	1.000096
867.648296	0.999478
867.960224	1.000750
868.272110	0.999757
868.583954	0.999859
868.895755	0.999657
869.207515	0.999360
869.519233	0.999707
869.830909	0.998184
870.142542	0.998296
870.454134	0.999130
870.765684	0.998472
871.077191	0.998672
871.388657	0.999208
871.700081	0.999103
872.011463	1.000094
872.322803	1.000201
872.634101	0.998594
872.945357	0.998555
873.256571	0.998457
873.567744	0.999281
873.878874	0.999380
874.189963	0.998480
874.501010	1.000174
874.812015	0.999142
875.122979	0.998322
875.433900	0.998471
875.744780	0.998403
876.055618	0.997221
876.366415	0.998066
876.677169	0.998569
876.987882	0.997988
877.298554	0.999609
877.609183	0.998719
877.919771	0.998085
878.230317	0.998279
878.540822	0.996892
878.851285	0.996603
879.161707	0.996146
879.472087	0.997961
879.782425	0.994004
880.092722	0.992749
880.402977	0.990025
880.713191	0.986125
881.023363	0.981436
881.333494	0.979117
881.643583	0.980054
881.953631	0.981229
882.263637	0.979030
882.573602	0.979878
882.883526	0.982216
883.193408	0.984789
883.503248	0.986115
883.813048	0.987938
884.122806	0.989189
884.432522	0.990810
884.742197	0.993154
885.051831	0.993903
885.361424	0.993585
885.670975	0.995497
885.980485	0.995444
886.289954	0.995464
886.599382	0.995690
886.908768	0.996974
887.218113	0.995842
887.527417	0.996822
887.836680	0.998281
888.145901	0.997215
888.455082	0.998298
888.764221	0.999481
889.073319	0.998002
889.382376	0.998206
889.691392	0.997347
890.000366	0.998846
890.309300	0.998782
890.618193	0.998398
890.927044	0.999471
891.235855	0.997956
891.544625	0.997830
891.853353	0.997894
892.162041	0.997138
892.470687	0.998226
892.779293	0.996181
893.087858	0.996438
893.396381	0.996096
893.704864	0.994615
894.013306	0.993653
894.321707	0.991942
894.630068	0.990171
894.938387	0.989921
895.246665	0.990449
895.554903	0.989466
895.863100	0.991076
896.171256	0.992609
896.479371	0.994545
896.787446	0.994744
897.095480	0.994619
897.403473	0.995474
897.711425	0.994816
898.019336	0.997269
898.327207	0.997975
898.635038	0.996033
898.942827	0.997962
899.250576	0.996862
899.558284	0.997594
899.865952	0.996763
900.173579	0.997827
900.481165	0.998424
900.788711	0.997490
901.096216	0.998271
901.403681	0.998501
901.711105	0.997555
902.018489	0.998205
902.325832	0.998444
902.633135	0.997406
902.940397	0.998525
903.247619	0.996704
903.554800	0.993905
903.861941	0.992469
904.169041	0.989077
904.476101	0.987397
904.783121	0.987350
905.090100	0.989079
905.397039	0.990965
905.703938	0.991513
906.010796	0.993425
906.317614	0.994343
906.624391	0.995447
906.931129	0.997274
907.237826	0.996496
907.544483	0.998368
907.851099	0.997543
908.157675	0.997931
908.464211	0.998504
908.770707	0.997359
909.077163	0.999346
909.383578	0.999440
909.689954	0.998466
909.996289	0.999193
910.302584	0.999543
910.608839	1.001042
910.915054	0.998820
911.221229	1.000113
911.527363	0.998997
911.833458	1.000006
912.139513	1.000131
912.445527	1.000206
912.751502	0.998324
913.057436	0.998804
913.363331	0.998587
913.669186	0.999218
913.975000	0.998014
914.280775	0.996962
914.586510	0.996514
914.892205	0.994042
915.197859	0.993134
915.503475	0.991925
915.809050	0.989990
916.114585	0.987844
916.420081	0.988268
916.725536	0.988151
917.030952	0.989027
917.336328	0.989816
917.641665	0.990526
917.946961	0.991819
918.252218	0.993648
918.557435	0.993954
918.862612	0.995009
919.167750	0.995606
919.472848	0.996467
919.777906	0.997259
920.082925	0.997328
920.387904	0.998149
920.692843	0.998319
920.997743	0.997255
921.302603	0.999321
921.607423	0.997846
921.912204	0.998400
922.216946	0.999397
922.521647	0.999647
922.826310	0.999677
923.130932	0.999692
923.435516	0.999821
923.740059	0.999565
924.044564	0.998821
924.349028	0.998697
924.653454	1.000366
924.957840	0.998526
925.262186	0.999111
925.566493	0.999280
925.870761	0.999539
926.174989	1.000293
926.479178	1.000843
926.783328	0.999384
927.087438	1.000326
927.391509	0.999027
927.695541	1.001084
927.999533	1.000369
928.303486	1.000391
928.607400	1.000681
928.911275	1.000768
929.215110	1.002071
929.518906	1.000401
929.822663	1.001666
930.126381	1.001714
930.430060	1.000574
930.733699	1.001003
931.037299	1.001385
931.340861	1.000267
931.644383	0.999895
931.947866	1.001363
932.251309	1.000522
932.554714	1.000363
932.858080	1.000117
933.161407	1.000073
933.464694	1.000569
933.767943	1.001190
934.071153	1.001160
934.374323	1.001317
934.677455	1.000852
934.980548	1.000641
935.283602	1.001570
935.586617	0.999869
935.889593	1.001393
936.192530	1.001675
936.495428	1.000749
936.798287	1.000354
937.101108	1.000945
937.403890	0.999849
937.706632	1.000995
938.009336	1.000369
938.312002	0.999294
938.614628	0.999647
938.917216	0.999313
939.219765	0.999346
939.522275	1.000605
939.824747	1.000367
940.127179	0.999766
940.429573	1.001600
940.731929	0.999301
941.034246	0.999128
941.336524	0.998632
941.638763	0.999841
941.940964	0.999559
942.243126	0.999741
942.545250	1.001291
942.847335	1.001087
943.149381	1.000606
943.451389	0.999865
943.753359	0.999434
944.055290	1.001260
944.357182	1.000711
944.659036	1.000691
944.960851	1.000642
945.262628	1.000740
945.564367	0.999238
945.866067	0.999831
946.167729	1.001551
946.469352	1.000754
946.770937	0.998965
947.072484	1.001204
947.373992	1.000452
947.675462	1.000521
947.976893	0.999840
948.278286	1.001525
948.579641	1.001425
948.880958	1.001104
949.182236	1.000795
949.483476	1.000800
949.784678	1.000780
950.085841	0.999230
950.386967	1.000785
950.688054	1.000567
950.989103	0.999393
951.290114	0.998690
951.591087	1.000581
951.892021	1.000381
952.192917	1.000559
952.493776	1.000112
952.794596	0.999891
953.095378	1.000519
953.396122	1.000095
953.696828	1.000350
953.997496	1.001028
954.298126	1.001203
954.598718	0.999612
954.899272	1.001013
955.199788	0.999751
955.500266	1.003067
955.800706	1.000425
956.101108	1.000557
956.401472	1.001752
956.701798	1.001521
957.002087	1.000795
957.302337	1.000636
957.602550	1.001084
957.902724	1.000204
958.202861	1.001170
958.502960	1.000671
958.803022	1.001429
959.103045	1.001027
959.403031	1.002797
959.702979	1.002242
960.002889	1.001120
960.302762	0.999859
960.602596	1.001351
960.902393	1.001803
961.202153	1.001665
961.501875	1.002876
961.801559	1.000414
962.101205	1.001238
962.400814	1.001321
962.700385	1.001734
962.999918	1.001241
963.299414	1.001331
963.598873	1.001505
963.898293	1.002540
964.197677	1.001270
964.497022	1.001593
964.796331	1.000968
965.095601	1.002103
965.394835	1.000864
965.694030	1.002100
965.993189	1.001081
966.292309	1.000583
966.591393	1.000197
966.890439	1.001760
967.189447	1.001113
967.488419	1.001833
967.787353	1.001853
968.086249	1.001390
968.385108	0.999949
968.683930	1.001981
968.982714	1.001296
969.281462	1.001039
969.580172	1.001541
969.878844	1.002006
970.177480	1.000787
970.476078	1.001703
970.774639	1.000872
971.073162	1.001534
971.371649	1.002040
971.670098	1.001438
971.968510	1.001042
972.266885	1.000460
972.565223	1.000894
972.863524	1.001095
973.161788	1.000945
973.460014	1.002136
973.758204	1.001734
974.056356	1.001069
974.354471	1.000569
974.652550	1.001451
974.950591	1.000867
975.248595	1.001009
975.546563	1.001000
975.844493	1.002448
976.142386	0.999582
976.440243	1.003041
976.738062	1.002599
977.035845	1.000564
977.333590	1.001452
977.631299	1.000939
977.928971	1.001159
978.226606	1.002283
978.524204	1.000317
978.821765	1.001914
979.119290	1.002712
979.416777	1.002322
979.714228	1.000714
980.011642	1.002167
980.309020	1.002272
980.606360	1.001288
980.903664	1.002247
981.200931	1.001179
981.498162	1.002388
981.795356	1.001050
982.092513	1.000440
982.389633	1.002322
982.686717	1.000115
982.983764	1.000967
983.280775	0.999494
983.577749	1.001424
983.874686	0.999671
984.171587	1.000555
984.468451	1.000385
984.765279	1.001800
985.062070	1.001279
985.358824	1.001517
985.655543	1.001833
985.952224	1.001245
986.248869	1.000912
986.545478	1.002030
986.842050	1.001668
987.138586	1.000420
987.435086	1.000695
987.731549	1.002773
988.027975	1.002034
988.324366	1.001158
988.620719	1.001781
988.917037	1.001448
989.213318	1.002741
989.509563	1.001528
989.805772	1.001415
990.101944	1.001511
990.398080	1.001248
990.694180	1.002691
990.990244	1.001215
991.286271	1.001402
991.582262	1.001940
991.878217	1.000851
992.174136	1.002621
992.470019	1.001587
992.765865	1.003409
993.061676	1.002346
993.357450	1.001674
993.653188	1.003101
993.948890	1.001299
994.244556	1.001399
994.540186	1.001573
994.835780	1.000174
995.131337	1.003816
995.426859	1.002191
995.722345	1.001704
996.017795	1.000940
996.313208	1.001774
996.608586	1.001751
996.903928	1.001529
997.199234	1.001454
997.494504	1.001836
997.789738	1.000092
998.084936	1.001538
998.380099	1.000357
998.675225	1.002859
998.970316	1.001528
999.265371	1.001423
999.560390	1.001463
999.855373	1.001807
1000.150320	1.001413
1000.445232	1.001462
1000.740108	1.001850
1001.034948	1.000726
1001.329752	1.002014
1001.624521	1.001361
1001.919254	1.000716
1002.213951	1.002905
1002.508613	1.000828
1002.803239	1.002117
1003.097829	1.002188
1003.392384	1.002422
1003.686903	1.001765
1003.981386	1.001564
1004.275834	1.003266
1004.570246	0.999663
1004.864623	1.002674
1005.158964	1.001942
1005.453270	1.001329
1005.747540	1.001115
1006.041775	1.001941
1006.335974	1.002441
1006.630138	1.003412
1006.924266	1.000895
1007.218359	0.999897
1007.512416	1.002946
1007.806438	1.001133
1008.100425	1.000987
1008.394376	1.001507
1008.688292	1.001851
1008.982172	1.001775
1009.276017	1.001985
1009.569827	1.002249
1009.863602	1.000617
1010.157341	1.002524
1010.451045	1.001550
1010.744714	1.002345
1011.038347	1.002590
1011.331945	1.000852
1011.625508	1.002210
1011.919036	1.002139
1012.212528	1.002318
1012.505986	1.001715
1012.799408	1.001395
1013.092795	1.001950
1013.386147	1.001649
1013.679464	1.002531
1013.972745	1.001758
1014.265992	1.001470
1014.559204	1.000941
1014.852380	1.002221
1015.145521	1.002217
1015.438628	1.001118
1015.731699	1.001890
1016.024736	1.003232
1016.317737	1.002180
1016.610703	1.002419
1016.903635	1.002707
1017.196531	1.002141
1017.489393	1.001518
1017.782219	1.001316
1018.075011	1.000922
1018.367768	1.000445
1018.660490	1.002672
1018.953177	1.002672
1019.245829	1.002672
