Dividing Wavelength (nm)	Counts (n)	Blue Motor Position (mm): 1.600000	Red Motor Position (mm): 0.000000	
326.493990	1.006234
326.888308	1.006234
327.282561	1.006234
327.676750	1.006851
328.070874	1.008128
328.464933	1.007257
328.858929	1.008438
329.252859	1.006659
329.646726	1.006272
330.040528	1.006031
330.434265	1.007693
330.827938	1.005843
331.221547	1.006829
331.615091	1.007785
332.008571	1.007668
332.401986	1.007698
332.795338	1.007248
333.188625	1.007342
333.581847	1.006632
333.975006	1.005756
334.368100	1.007854
334.761129	1.005098
335.154095	1.007306
335.546996	1.003687
335.939833	0.999606
336.332606	0.999112
336.725315	0.999533
337.117960	1.000870
337.510540	0.998993
337.903056	1.000062
338.295508	1.000936
338.687896	1.000107
339.080220	0.999493
339.472480	1.000705
339.864676	1.000782
340.256807	0.998691
340.648875	1.000184
341.040879	0.999576
341.432818	1.000804
341.824694	1.000584
342.216506	1.000826
342.608253	0.999409
342.999937	0.999408
343.391557	0.999864
343.783113	1.001152
344.174605	1.000422
344.566033	0.999447
344.957397	1.000441
345.348697	0.999983
345.739934	0.998916
346.131106	0.999477
346.522215	1.000128
346.913260	0.999020
347.304241	0.999710
347.695159	1.000075
348.086012	1.000361
348.476802	0.999198
348.867528	0.998966
349.258191	0.999140
349.648789	0.999784
350.039324	1.000501
350.429796	0.999318
350.820203	0.997491
351.210548	0.999354
351.600828	0.999185
351.991045	0.999632
352.381198	0.999825
352.771288	0.999541
353.161314	0.998726
353.551276	0.999319
353.941175	0.996238
354.331010	0.999359
354.720782	0.999076
355.110490	0.999275
355.500135	0.999754
355.889717	0.997245
356.279235	0.998551
356.668689	0.999199
357.058080	0.998790
357.447408	0.997442
357.836672	0.998606
358.225873	0.997784
358.615010	0.998619
359.004084	0.998125
359.393095	0.998807
359.782043	0.997463
360.170927	0.997895
360.559748	0.999088
360.948505	0.997868
361.337199	0.998356
361.725830	0.998331
362.114398	0.998215
362.502903	0.997096
362.891344	0.996787
363.279722	0.997531
363.668037	0.998683
364.056289	0.996953
364.444478	0.998128
364.832603	0.997381
365.220665	0.997822
365.608665	0.995901
365.996601	0.997359
366.384474	0.995406
366.772284	0.996662
367.160031	0.995377
367.547715	0.996086
367.935336	0.994962
368.322893	0.995191
368.710388	0.992217
369.097820	0.992137
369.485189	0.989139
369.872495	0.987834
370.259738	0.985660
370.646918	0.982180
371.034035	0.980159
371.421090	0.976419
371.808081	0.972265
372.195010	0.969254
372.581875	0.964233
372.968678	0.960420
373.355418	0.956812
373.742096	0.948955
374.128710	0.944466
374.515262	0.940180
374.901751	0.934537
375.288177	0.929788
375.674540	0.922566
376.060841	0.917152
376.447079	0.909808
376.833254	0.903221
377.219367	0.898462
377.605417	0.885842
377.991404	0.883136
378.377329	0.877119
378.763191	0.871094
379.148991	0.861468
379.534727	0.853575
379.920402	0.846347
380.306013	0.842948
380.691563	0.829620
381.077049	0.823435
381.462474	0.818914
381.847835	0.807402
382.233134	0.803473
382.618371	0.802611
383.003545	0.785906
383.388657	0.783912
383.773706	0.775335
384.158693	0.772133
384.543618	0.766857
384.928480	0.757755
385.313280	0.747654
385.698017	0.747383
386.082692	0.736677
386.467305	0.734039
386.851856	0.729064
387.236344	0.723561
387.620770	0.717630
388.005133	0.712363
388.389435	0.707432
388.773674	0.704363
389.157851	0.695716
389.541965	0.694107
389.926018	0.700525
390.310008	0.687388
390.693936	0.683416
391.077802	0.675599
391.461606	0.678131
391.845348	0.666604
392.229027	0.665837
392.612645	0.664171
392.996200	0.651114
393.379694	0.644580
393.763125	0.634278
394.146494	0.639438
394.529801	0.630186
394.913047	0.621834
395.296230	0.627897
395.679351	0.619376
396.062410	0.616062
396.445408	0.619134
396.828343	0.613989
397.211217	0.609091
397.594028	0.621103
397.976778	0.611521
398.359466	0.607473
398.742092	0.603619
399.124656	0.615422
399.507158	0.603357
399.889598	0.600583
400.271977	0.591996
400.654294	0.595782
401.036549	0.595247
401.418742	0.599381
401.800874	0.584416
402.182944	0.581876
402.564952	0.573764
402.946898	0.576201
403.328783	0.576356
403.710606	0.587412
404.092367	0.562066
404.474067	0.566782
404.855705	0.566172
405.237282	0.574797
405.618797	0.561364
406.000250	0.557782
406.381642	0.547470
406.762972	0.551862
407.144240	0.550804
407.525447	0.550494
407.906593	0.543266
408.287677	0.539072
408.668700	0.547640
409.049661	0.540907
409.430560	0.536560
409.811399	0.545280
410.192176	0.526612
410.572891	0.533971
410.953545	0.522238
411.334138	0.536201
411.714669	0.527608
412.095139	0.540099
412.475547	0.523903
412.855894	0.525618
413.236180	0.525025
413.616405	0.530080
413.996568	0.520970
414.376670	0.526597
414.756711	0.531790
415.136691	0.528424
415.516609	0.519717
415.896466	0.515920
416.276262	0.512921
416.655997	0.514544
417.035670	0.496056
417.415283	0.487465
417.794834	0.492484
418.174324	0.497596
418.553753	0.506608
418.933121	0.488904
419.312428	0.483241
419.691674	0.488449
420.070859	0.476605
420.449983	0.484977
420.829045	0.474389
421.208047	0.483312
421.586988	0.475956
421.965867	0.474938
422.344686	0.462887
422.723444	0.475978
423.102141	0.493168
423.480777	0.465970
423.859352	0.486944
424.237866	0.463799
424.616319	0.465498
424.994712	0.455641
425.373044	0.465778
425.751314	0.454695
426.129524	0.470840
426.507673	0.454085
426.885762	0.447610
427.263789	0.453312
427.641756	0.462910
428.019662	0.452792
428.397508	0.452622
428.775292	0.456497
429.153016	0.448347
429.530679	0.455210
429.908282	0.448368
430.285824	0.458299
430.663305	0.436632
431.040726	0.457984
431.418086	0.456975
431.795385	0.449242
432.172624	0.448440
432.549802	0.448753
432.926920	0.447737
433.303977	0.447139
433.680974	0.444152
434.057910	0.442965
434.434786	0.442252
434.811601	0.445144
435.188355	0.427472
435.565050	0.437013
435.941683	0.437867
436.318257	0.421522
436.694770	0.423097
437.071222	0.421018
437.447614	0.425295
437.823946	0.431467
438.200218	0.421276
438.576429	0.431079
438.952580	0.423994
439.328670	0.420087
439.704700	0.427016
440.080670	0.428745
440.456580	0.409727
440.832429	0.417305
441.208218	0.428124
441.583947	0.417955
441.959616	0.416837
442.335224	0.422505
442.710773	0.413410
443.086261	0.411168
443.461689	0.425128
443.837057	0.414798
444.212365	0.405074
444.587612	0.411645
444.962800	0.401828
445.337927	0.403464
445.712995	0.429692
446.088002	0.391575
446.462949	0.401834
446.837837	0.407144
447.212664	0.395857
447.587431	0.386503
447.962139	0.357662
448.336786	0.316236
448.711374	0.327040
449.085901	0.371346
449.460369	0.375446
449.834776	0.379080
450.209124	0.358108
450.583412	0.351117
450.957640	0.343818
451.331808	0.355530
451.705917	0.378253
452.079965	0.383126
452.453954	0.371435
452.827883	0.378304
453.201752	0.373305
453.575562	0.384350
453.949311	0.372877
454.323001	0.378633
454.696632	0.375252
455.070202	0.367060
455.443713	0.358978
455.817164	0.353847
456.190556	0.350113
456.563888	0.346608
456.937160	0.344245
457.310373	0.361607
457.683526	0.360386
458.056619	0.365857
458.429653	0.366480
458.802628	0.370063
459.175542	0.364185
459.548398	0.346715
459.921194	0.339668
460.293930	0.339520
460.666607	0.316986
461.039224	0.305026
461.411782	0.300857
461.784280	0.299913
462.156719	0.303841
462.529099	0.308633
462.901419	0.324547
463.273680	0.328663
463.645882	0.328555
464.018024	0.334150
464.390106	0.327438
464.762130	0.311695
465.134094	0.294668
465.505999	0.263657
465.877845	0.233977
466.249631	0.220833
466.621358	0.228452
466.993026	0.242244
467.364634	0.248454
467.736184	0.257257
468.107674	0.266110
468.479105	0.265133
468.850477	0.272013
469.221790	0.278822
469.593043	0.289183
469.964238	0.293805
470.335373	0.293344
470.706449	0.291334
471.077467	0.291967
471.448425	0.254135
471.819324	0.229448
472.190164	0.228965
472.560945	0.257947
472.931667	0.280124
473.302330	0.284499
473.672934	0.296615
474.043479	0.284476
474.413965	0.286259
474.784393	0.289597
475.154761	0.284987
475.525070	0.281653
475.895321	0.287520
476.265513	0.281844
476.635645	0.277349
477.005719	0.277104
477.375734	0.273642
477.745691	0.266686
478.115588	0.263023
478.485427	0.256783
478.855207	0.243499
479.224928	0.225861
479.594591	0.214002
479.964194	0.217554
480.333739	0.218439
480.703226	0.220003
481.072653	0.218369
481.442022	0.214114
481.811333	0.210842
482.180584	0.214309
482.549777	0.219656
482.918912	0.222899
483.287988	0.222644
483.657005	0.222587
484.025964	0.228614
484.394864	0.226072
484.763706	0.226898
485.132489	0.231644
485.501213	0.232629
485.869879	0.230884
486.238487	0.233888
486.607036	0.231891
486.975527	0.236724
487.343959	0.232194
487.712333	0.231297
488.080648	0.232746
488.448905	0.232215
488.817104	0.233245
489.185244	0.227789
489.553326	0.224463
489.921350	0.214577
490.289315	0.196777
490.657222	0.191671
491.025070	0.193150
491.392861	0.194967
491.760593	0.200915
492.128267	0.206753
492.495883	0.212025
492.863440	0.218533
493.230939	0.224922
493.598380	0.226391
493.965763	0.228513
494.333088	0.230469
494.700354	0.232217
495.067563	0.231362
495.434713	0.234599
495.801805	0.232214
496.168839	0.233928
496.535815	0.235415
496.902733	0.235236
497.269593	0.236715
497.636395	0.234434
498.003139	0.234661
498.369825	0.237898
498.736453	0.234254
499.103023	0.235779
499.469535	0.234953
499.835989	0.235303
500.202385	0.236133
500.568723	0.239420
500.935003	0.234665
501.301226	0.239001
501.667390	0.233255
502.033497	0.231328
502.399546	0.234281
502.765537	0.236044
503.131470	0.234515
503.497345	0.231065
503.863163	0.239719
504.228923	0.232564
504.594625	0.231412
504.960269	0.236821
505.325856	0.232177
505.691385	0.236773
506.056856	0.233116
506.422270	0.232544
506.787625	0.234850
507.152924	0.232480
507.518164	0.232883
507.883347	0.234503
508.248472	0.236132
508.613540	0.231132
508.978550	0.233598
509.343503	0.234438
509.708398	0.231952
510.073236	0.229468
510.438016	0.229302
510.802738	0.230419
511.167403	0.229310
511.532010	0.231648
511.896561	0.226743
512.261053	0.225217
512.625488	0.227723
512.989866	0.227992
513.354186	0.228121
513.718449	0.230161
514.082655	0.226454
514.446803	0.228523
514.810894	0.226414
515.174927	0.229108
515.538904	0.228537
515.902822	0.225086
516.266684	0.227815
516.630488	0.229007
516.994235	0.227593
517.357925	0.226725
517.721558	0.224810
518.085133	0.224544
518.448651	0.224256
518.812112	0.226789
519.175516	0.226292
519.538863	0.223830
519.902152	0.225602
520.265385	0.222117
520.628560	0.224158
520.991678	0.224320
521.354739	0.223430
521.717743	0.224659
522.080690	0.224936
522.443580	0.222183
522.806413	0.223461
523.169189	0.222574
523.531908	0.221226
523.894569	0.225189
524.257174	0.224954
524.619722	0.222744
524.982213	0.223551
525.344647	0.222464
525.707025	0.223613
526.069345	0.221790
526.431608	0.223455
526.793815	0.221461
527.155964	0.225664
527.518057	0.224327
527.880093	0.225481
528.242072	0.224142
528.603995	0.226042
528.965860	0.227639
529.327669	0.226871
529.689421	0.227324
530.051117	0.228192
530.412755	0.226093
530.774337	0.228379
531.135862	0.228947
531.497331	0.228041
531.858743	0.231007
532.220098	0.227674
532.581396	0.230209
532.942638	0.230485
533.303824	0.231685
533.664953	0.231268
534.026025	0.233045
534.387040	0.231220
534.747999	0.230657
535.108902	0.229756
535.469748	0.234963
535.830537	0.232890
536.191270	0.232913
536.551947	0.232773
536.912567	0.232764
537.273131	0.234236
537.633638	0.234698
537.994089	0.235127
538.354483	0.235932
538.714821	0.233030
539.075103	0.232792
539.435328	0.233616
539.795497	0.237207
540.155609	0.233717
540.515665	0.232148
540.875665	0.237772
541.235609	0.236150
541.595496	0.236204
541.955328	0.232938
542.315102	0.235526
542.674821	0.236536
543.034483	0.236902
543.394090	0.236407
543.753640	0.238100
544.113134	0.233328
544.472571	0.236678
544.831953	0.233166
545.191278	0.237679
545.550548	0.236780
545.909761	0.233920
546.268918	0.234433
546.628019	0.232862
546.987064	0.235509
547.346053	0.237346
547.704986	0.235052
548.063863	0.235616
548.422684	0.235517
548.781449	0.237236
549.140158	0.235303
549.498811	0.237800
549.857408	0.240750
550.215949	0.235670
550.574434	0.238710
550.932864	0.236851
551.291237	0.235264
551.649555	0.236988
552.007817	0.236819
552.366022	0.237504
552.724173	0.237651
553.082267	0.237819
553.440305	0.235094
553.798288	0.239094
554.156215	0.235775
554.514086	0.236664
554.871902	0.239756
555.229661	0.238778
555.587365	0.239373
555.945014	0.242071
556.302606	0.238814
556.660143	0.241642
557.017625	0.238020
557.375050	0.240225
557.732421	0.237104
558.089735	0.238999
558.446994	0.239079
558.804197	0.238598
559.161345	0.237987
559.518437	0.241904
559.875474	0.239963
560.232455	0.239120
560.589381	0.240148
560.946251	0.240646
561.303065	0.238013
561.659825	0.239282
562.016528	0.240877
562.373177	0.243757
562.729770	0.241007
563.086307	0.242725
563.442789	0.241015
563.799216	0.243534
564.155587	0.242582
564.511904	0.243848
564.868164	0.243808
565.224370	0.243717
565.580520	0.245007
565.936615	0.245104
566.292654	0.248292
566.648638	0.245098
567.004567	0.246022
567.360441	0.246636
567.716260	0.248417
568.072023	0.246128
568.427732	0.246880
568.783385	0.249471
569.138982	0.247476
569.494525	0.247385
569.850013	0.250243
570.205445	0.248794
570.560823	0.251270
570.916145	0.253181
571.271412	0.251437
571.626625	0.253087
571.981782	0.253349
572.336884	0.254196
572.691931	0.253951
573.046923	0.255652
573.401860	0.256636
573.756743	0.258218
574.111570	0.257105
574.466342	0.257674
574.821059	0.256868
575.175722	0.259738
575.530330	0.259392
575.884882	0.259398
576.239380	0.261294
576.593823	0.262125
576.948211	0.261515
577.302544	0.264984
577.656823	0.264678
578.011047	0.264477
578.365216	0.265236
578.719330	0.267304
579.073389	0.266689
579.427394	0.267959
579.781344	0.269234
580.135239	0.270328
580.489080	0.270262
580.842866	0.273146
581.196597	0.273548
581.550273	0.271702
581.903895	0.272865
582.257463	0.270645
582.610975	0.274200
582.964434	0.273409
583.317837	0.275852
583.671186	0.276552
584.024481	0.276521
584.377721	0.278921
584.730906	0.279816
585.084037	0.279282
585.437113	0.280898
585.790135	0.280255
586.143103	0.283394
586.496016	0.284404
586.848874	0.281966
587.201679	0.282541
587.554428	0.285992
587.907124	0.284670
588.259765	0.285071
588.612352	0.285775
588.964884	0.289534
589.317362	0.289433
589.669786	0.288970
590.022155	0.287670
590.374470	0.286851
590.726731	0.288990
591.078937	0.294177
591.431090	0.290250
591.783188	0.294234
592.135232	0.294872
592.487222	0.295038
592.839157	0.292748
593.191038	0.295329
593.542866	0.297157
593.894639	0.300436
594.246358	0.298975
594.598022	0.298616
594.949633	0.302160
595.301190	0.302789
595.652692	0.301713
596.004141	0.297646
596.355535	0.305831
596.706876	0.306792
597.058162	0.308691
597.409395	0.306242
597.760573	0.303608
598.111698	0.307145
598.462768	0.307558
598.813785	0.308504
599.164748	0.309913
599.515657	0.310463
599.866511	0.313809
600.217312	0.309358
600.568060	0.314308
600.918753	0.310912
601.269392	0.311857
601.619978	0.315595
601.970510	0.313103
602.320988	0.312879
602.671412	0.310719
603.021783	0.313158
603.372100	0.314390
603.722363	0.314008
604.072572	0.315317
604.422728	0.314651
604.772830	0.316918
605.122878	0.316459
605.472872	0.317052
605.822813	0.315433
606.172701	0.318300
606.522534	0.315088
606.872314	0.315333
607.222041	0.316393
607.571714	0.314200
607.921333	0.315783
608.270899	0.315522
608.620411	0.312786
608.969870	0.316322
609.319276	0.316232
609.668627	0.316583
610.017926	0.315206
610.367171	0.313583
610.716362	0.314148
611.065500	0.314397
611.414585	0.312959
611.763616	0.313119
612.112594	0.314058
612.461518	0.313383
612.810389	0.311456
613.159207	0.313698
613.507971	0.315281
613.856682	0.311156
614.205340	0.312362
614.553945	0.309332
614.902496	0.313188
615.250994	0.311346
615.599439	0.311925
615.947830	0.311288
616.296169	0.312278
616.644454	0.312325
616.992686	0.312268
617.340864	0.309859
617.688990	0.313358
618.037063	0.310041
618.385082	0.311868
618.733048	0.308513
619.080961	0.311091
619.428821	0.310322
619.776628	0.310228
620.124382	0.312443
620.472083	0.312668
620.819731	0.311741
621.167326	0.315619
621.514868	0.315691
621.862357	0.319818
622.209793	0.319541
622.557176	0.321729
622.904506	0.322530
623.251783	0.324871
623.599007	0.327879
623.946179	0.327221
624.293297	0.328993
624.640363	0.332993
624.987376	0.333540
625.334336	0.335584
625.681243	0.338056
626.028097	0.338587
626.374899	0.339620
626.721647	0.340366
627.068343	0.343654
627.414987	0.344214
627.761577	0.346257
628.108115	0.344466
628.454600	0.350193
628.801032	0.347052
629.147412	0.349663
629.493739	0.350289
629.840014	0.353264
630.186236	0.350444
630.532405	0.356547
630.878521	0.352944
631.224585	0.355842
631.570597	0.359273
631.916556	0.357732
632.262462	0.357180
632.608316	0.360102
632.954117	0.360721
633.299866	0.361509
633.645562	0.361789
633.991206	0.366505
634.336797	0.368861
634.682336	0.371664
635.027823	0.373024
635.373257	0.373618
635.718639	0.377378
636.063968	0.376682
636.409245	0.382326
636.754470	0.383088
637.099642	0.385111
637.444762	0.388897
637.789829	0.387557
638.134845	0.391562
638.479808	0.392095
638.824719	0.392447
639.169577	0.396748
639.514383	0.394860
639.859137	0.399732
640.203839	0.398904
640.548489	0.399555
640.893086	0.400346
641.237632	0.402681
641.582125	0.400809
641.926566	0.402779
642.270955	0.403294
642.615292	0.403116
642.959576	0.402577
643.303809	0.402926
643.647990	0.402449
643.992118	0.402894
644.336195	0.406517
644.680219	0.404620
645.024192	0.405063
645.368112	0.398899
645.711981	0.398159
646.055797	0.393474
646.399562	0.395800
646.743274	0.388260
647.086935	0.385046
647.430544	0.385688
647.774101	0.383963
648.117606	0.383875
648.461059	0.384476
648.804460	0.387100
649.147810	0.392009
649.491108	0.394080
649.834354	0.394515
650.177548	0.400636
650.520690	0.405829
650.863781	0.407571
651.206820	0.406528
651.549807	0.411294
651.892742	0.414920
652.235626	0.414253
652.578458	0.415767
652.921238	0.421737
653.263967	0.419619
653.606644	0.423390
653.949269	0.423559
654.291843	0.427355
654.634365	0.424091
654.976836	0.426877
655.319255	0.427677
655.661622	0.428743
656.003938	0.429271
656.346203	0.432094
656.688416	0.430105
657.030577	0.432807
657.372687	0.435371
657.714746	0.435897
658.056753	0.432848
658.398708	0.436671
658.740612	0.438363
659.082465	0.434099
659.424266	0.435055
659.766016	0.434492
660.107715	0.437299
660.449362	0.435899
660.790958	0.436340
661.132503	0.437421
661.473996	0.434180
661.815438	0.435950
662.156829	0.436023
662.498168	0.436268
662.839456	0.438299
663.180693	0.435813
663.521879	0.435628
663.863013	0.436629
664.204097	0.434894
664.545129	0.431740
664.886110	0.431898
665.227040	0.429712
665.567918	0.432062
665.908746	0.429697
666.249522	0.429662
666.590248	0.430761
666.930922	0.428680
667.271545	0.427707
667.612118	0.427938
667.952639	0.429592
668.293109	0.428457
668.633528	0.430760
668.973896	0.431371
669.314213	0.431107
669.654480	0.433054
669.994695	0.432792
670.334859	0.434234
670.674973	0.434222
671.015035	0.434628
671.355047	0.434077
671.695008	0.435180
672.034918	0.436797
672.374777	0.436627
672.714585	0.437519
673.054342	0.438320
673.394049	0.437990
673.733705	0.435466
674.073310	0.436423
674.412864	0.440183
674.752368	0.439822
675.091820	0.440600
675.431223	0.445368
675.770574	0.444145
676.109875	0.447958
676.449125	0.447376
676.788324	0.450174
677.127473	0.455440
677.466571	0.455097
677.805619	0.456863
678.144616	0.458356
678.483562	0.459930
678.822458	0.462729
679.161303	0.462786
679.500098	0.464063
679.838842	0.465240
680.177535	0.464636
680.516179	0.462680
680.854771	0.462420
681.193314	0.455230
681.531805	0.447018
681.870247	0.436143
682.208638	0.428423
682.546978	0.427054
682.885268	0.428582
683.223508	0.435000
683.561697	0.439023
683.899836	0.441799
684.237925	0.444587
684.575963	0.447410
684.913951	0.450806
685.251889	0.445748
685.589776	0.448457
685.927614	0.451119
686.265401	0.444837
686.603137	0.446538
686.940824	0.440004
687.278460	0.438620
687.616046	0.437760
687.953582	0.432574
688.291068	0.434256
688.628504	0.429788
688.965889	0.432422
689.303224	0.436166
689.640510	0.440054
689.977745	0.445182
690.314930	0.453104
690.652065	0.458572
690.989150	0.466239
691.326185	0.472367
691.663170	0.477497
692.000105	0.484097
692.336990	0.491156
692.673825	0.493800
693.010610	0.500347
693.347345	0.506961
693.684030	0.507556
694.020665	0.512610
694.357251	0.521040
694.693786	0.521163
695.030272	0.524126
695.366707	0.528713
695.703093	0.531777
696.039429	0.529862
696.375716	0.532371
696.711952	0.534634
697.048139	0.536056
697.384276	0.538265
697.720363	0.536694
698.056400	0.535476
698.392388	0.540970
698.728326	0.544298
699.064214	0.546734
699.400053	0.547651
699.735842	0.552125
700.071581	0.553980
700.407270	0.557434
700.742910	0.559506
701.078501	0.566256
701.414042	0.567133
701.749533	0.569983
702.084974	0.579255
702.420366	0.571473
702.755709	0.578382
703.091002	0.586617
703.426246	0.580050
703.761440	0.585801
704.096584	0.590556
704.431679	0.587569
704.766725	0.589705
705.101721	0.591463
705.436668	0.587822
705.771565	0.594153
706.106413	0.590454
706.441212	0.586153
706.775961	0.585179
707.110661	0.587720
707.445311	0.584189
707.779913	0.581926
708.114465	0.580670
708.448967	0.577539
708.783421	0.568642
709.117825	0.563333
709.452180	0.562257
709.786485	0.557202
710.120742	0.546746
710.454949	0.548562
710.789107	0.540619
711.123216	0.530827
711.457275	0.532581
711.791286	0.524382
712.125247	0.524052
712.459159	0.534742
712.793023	0.526160
713.126837	0.530120
713.460602	0.530825
713.794318	0.539581
714.127985	0.539223
714.461602	0.549394
714.795171	0.552630
715.128691	0.561018
715.462162	0.567702
715.795584	0.574271
716.128957	0.576932
716.462281	0.583230
716.795556	0.586354
717.128782	0.592363
717.461960	0.601802
717.795088	0.600111
718.128167	0.606542
718.461198	0.614813
718.794180	0.615625
719.127113	0.618404
719.459997	0.621667
719.792833	0.627588
720.125619	0.629414
720.458357	0.635509
720.791046	0.634796
721.123686	0.638203
721.456278	0.645677
721.788821	0.642918
722.121315	0.647645
722.453761	0.651523
722.786158	0.648367
723.118506	0.645504
723.450805	0.652167
723.783056	0.650233
724.115259	0.646068
724.447412	0.646120
724.779518	0.647756
725.111574	0.645666
725.443582	0.641877
725.775542	0.644284
726.107453	0.636352
726.439315	0.636434
726.771129	0.634865
727.102895	0.628502
727.434612	0.620930
727.766281	0.619352
728.097901	0.617799
728.429473	0.617536
728.760996	0.615700
729.092471	0.616807
729.423897	0.620048
729.755276	0.618483
730.086606	0.619414
730.417887	0.613768
730.749120	0.603900
731.080305	0.595606
731.411442	0.590691
731.742530	0.595157
732.073570	0.595204
732.404562	0.587395
732.735506	0.588174
733.066401	0.593906
733.397249	0.603181
733.728048	0.614158
734.058798	0.626887
734.389501	0.638306
734.720156	0.648057
735.050762	0.656203
735.381320	0.656271
735.711831	0.663886
736.042293	0.670187
736.372707	0.666952
736.703073	0.670365
737.033391	0.672639
737.363661	0.669559
737.693883	0.665735
738.024056	0.664163
738.354182	0.665355
738.684260	0.653507
739.014290	0.650081
739.344272	0.650108
739.674207	0.644269
740.004093	0.643246
740.333931	0.644501
740.663722	0.643464
740.993464	0.644281
741.323159	0.648548
741.652806	0.652430
741.982405	0.657889
742.311956	0.663282
742.641460	0.666132
742.970915	0.669572
743.300323	0.676563
743.629683	0.681739
743.958996	0.684861
744.288260	0.688463
744.617477	0.694981
744.946647	0.696988
745.275768	0.702635
745.604842	0.702069
745.933869	0.712017
746.262847	0.714040
746.591778	0.706290
746.920662	0.713194
747.249498	0.720158
747.578286	0.710073
747.907027	0.706861
748.235720	0.705800
748.564365	0.701971
748.892963	0.701491
749.221514	0.705164
749.550017	0.709160
749.878473	0.709691
750.206881	0.717584
750.535242	0.716286
750.863555	0.716269
751.191821	0.717903
751.520039	0.720474
751.848210	0.724228
752.176334	0.718985
752.504411	0.716841
752.832440	0.725396
753.160421	0.729088
753.488356	0.728433
753.816243	0.724922
754.144082	0.733884
754.471875	0.736915
754.799620	0.732851
755.127318	0.734673
755.454969	0.734288
755.782572	0.735074
756.110129	0.738252
756.437638	0.742057
756.765100	0.737798
757.092515	0.736129
757.419882	0.733515
757.747203	0.741291
758.074477	0.740097
758.401703	0.736524
758.728882	0.731034
759.056014	0.730486
759.383099	0.729656
759.710138	0.729750
760.037129	0.726176
760.364073	0.720761
760.690970	0.723744
761.017820	0.727521
761.344623	0.724178
761.671379	0.715680
761.998088	0.704148
762.324751	0.680437
762.651366	0.638128
762.977935	0.569766
763.304456	0.518061
763.630931	0.508234
763.957359	0.546598
764.283740	0.591605
764.610074	0.619736
764.936362	0.651554
765.262602	0.679801
765.588796	0.700339
765.914943	0.717284
766.241044	0.736017
766.567097	0.742201
766.893104	0.753301
767.219064	0.759691
767.544978	0.765700
767.870845	0.779026
768.196665	0.783173
768.522438	0.781115
768.848165	0.782838
769.173846	0.792114
769.499479	0.796630
769.825066	0.800879
770.150607	0.804634
770.476101	0.800379
770.801548	0.802071
771.126949	0.814027
771.452303	0.817239
771.777611	0.816047
772.102872	0.814923
772.428087	0.821404
772.753256	0.823913
773.078378	0.826080
773.403453	0.834964
773.728482	0.838281
774.053465	0.832519
774.378401	0.836583
774.703291	0.844997
775.028135	0.844944
775.352932	0.845070
775.677683	0.849894
776.002388	0.850784
776.327046	0.848963
776.651658	0.853701
776.976224	0.855806
777.300743	0.855803
777.625216	0.858350
777.949643	0.860340
778.274024	0.859714
778.598359	0.862028
778.922647	0.859436
779.246889	0.861862
779.571086	0.865003
779.895236	0.866577
780.219339	0.864646
780.543397	0.859528
780.867409	0.859822
781.191374	0.861241
781.515294	0.863805
781.839167	0.863038
782.162995	0.866051
782.486776	0.860928
782.810511	0.863818
783.134201	0.867920
783.457844	0.866566
783.781441	0.867976
784.104993	0.874043
784.428498	0.873066
784.751958	0.870483
785.075372	0.872202
785.398739	0.877065
785.722061	0.871004
786.045337	0.868148
786.368568	0.872109
786.691752	0.874210
787.014891	0.860926
787.337983	0.850923
787.661030	0.843114
787.984031	0.826354
788.306987	0.813224
788.629897	0.814634
788.952760	0.819336
789.275579	0.823355
789.598351	0.839253
789.921078	0.852753
790.243759	0.854886
790.566395	0.858910
790.888984	0.865779
791.211529	0.871645
791.534027	0.874778
791.856480	0.877411
792.178888	0.882481
792.501249	0.884207
792.823566	0.887194
793.145836	0.886476
793.468062	0.889080
793.790241	0.888487
794.112375	0.885774
794.434464	0.883291
794.756507	0.881467
795.078505	0.879517
795.400457	0.874811
795.722364	0.862613
796.044226	0.856980
796.366042	0.854601
796.687812	0.858239
797.009538	0.854427
797.331218	0.857714
797.652852	0.862339
797.974442	0.866725
798.295986	0.867479
798.617484	0.870139
798.938938	0.873419
799.260346	0.879050
799.581709	0.879906
799.903026	0.883190
800.224299	0.883919
800.545526	0.887858
800.866708	0.892258
801.187845	0.896165
801.508936	0.895206
801.829983	0.892603
802.150984	0.897237
802.471940	0.900988
802.792851	0.900667
803.113717	0.900988
803.434538	0.899717
803.755314	0.903329
804.076045	0.904420
804.396731	0.902968
804.717372	0.902319
805.037967	0.905872
805.358518	0.902841
805.679024	0.898390
805.999485	0.900961
806.319901	0.900133
806.640272	0.902259
806.960598	0.900175
807.280879	0.896440
807.601115	0.894645
807.921306	0.899770
808.241453	0.899876
808.561554	0.899587
808.881611	0.898099
809.201623	0.899903
809.521590	0.899366
809.841513	0.902185
810.161390	0.898925
810.481223	0.901934
810.801011	0.905066
811.120755	0.906627
811.440453	0.904615
811.760107	0.906025
812.079716	0.903887
812.399281	0.907345
812.718801	0.909773
813.038276	0.910324
813.357707	0.911125
813.677093	0.907858
813.996434	0.909547
814.315731	0.912536
814.634983	0.913515
814.954191	0.913143
815.273354	0.907393
815.592473	0.905090
815.911547	0.906297
816.230577	0.901918
816.549562	0.900044
816.868502	0.899267
817.187399	0.897487
817.506250	0.891415
817.825058	0.893082
818.143821	0.890136
818.462539	0.884775
818.781213	0.876174
819.099843	0.865901
819.418429	0.848523
819.736970	0.831525
820.055466	0.810848
820.373919	0.784235
820.692327	0.751397
821.010691	0.715269
821.329011	0.635108
821.647286	0.517424
821.965517	0.402752
822.283704	0.359495
822.601847	0.360155
822.919945	0.396112
823.237999	0.430569
823.556010	0.479535
823.873976	0.536103
824.191897	0.587443
824.509775	0.631541
824.827609	0.676629
825.145398	0.701204
825.463144	0.702224
825.780845	0.684967
826.098502	0.665543
826.416116	0.620003
826.733685	0.574423
827.051210	0.565616
827.368692	0.581252
827.686129	0.618505
828.003522	0.675360
828.320872	0.722293
828.638177	0.765923
828.955439	0.800094
829.272656	0.822441
829.589830	0.840436
829.906960	0.857159
830.224046	0.869261
830.541088	0.879602
830.858086	0.883289
831.175041	0.890820
831.491952	0.889599
831.808819	0.886664
832.125642	0.878934
832.442421	0.865658
832.759157	0.842460
833.075849	0.793808
833.392497	0.728365
833.709101	0.688011
834.025662	0.697464
834.342179	0.728609
834.658653	0.770509
834.975083	0.806408
835.291469	0.833714
835.607811	0.856420
835.924110	0.873648
836.240366	0.890014
836.556578	0.902626
836.872746	0.912026
837.188871	0.918443
837.504952	0.924342
837.820990	0.927232
838.136984	0.930514
838.452935	0.934264
838.768842	0.934971
839.084706	0.928527
839.400526	0.902837
839.716303	0.859995
840.032037	0.838624
840.347727	0.842108
840.663373	0.860448
840.978977	0.882224
841.294537	0.906221
841.610054	0.922140
841.925527	0.930075
842.240957	0.936647
842.556344	0.944379
842.871687	0.950625
843.186987	0.953086
843.502244	0.956148
843.817458	0.956357
844.132629	0.961225
844.447756	0.964975
844.762840	0.965714
845.077881	0.965967
845.392879	0.962990
845.707833	0.966869
846.022745	0.969177
846.337613	0.969784
846.652438	0.969630
846.967221	0.970139
847.281960	0.970874
847.596656	0.973166
847.911309	0.971848
848.225919	0.971453
848.540485	0.974529
848.855009	0.974381
849.169490	0.974202
849.483928	0.973228
849.798323	0.972738
850.112675	0.975167
850.426984	0.974805
850.741251	0.975334
851.055474	0.975011
851.369654	0.973775
851.683792	0.973193
851.997887	0.975605
852.311938	0.974961
852.625947	0.974384
852.939914	0.972783
853.253837	0.974762
853.567718	0.975867
853.881555	0.974703
854.195350	0.974515
854.509103	0.974041
854.822812	0.975792
855.136479	0.974849
855.450103	0.974930
855.763685	0.973903
856.077224	0.974662
856.390720	0.976600
856.704173	0.975053
857.017584	0.974805
857.330953	0.972372
857.644278	0.971980
857.957561	0.973904
858.270802	0.974575
858.584000	0.973879
858.897155	0.971663
859.210268	0.972483
859.523339	0.973884
859.836367	0.975208
860.149352	0.975334
860.462295	0.974992
860.775195	0.975368
861.088054	0.973624
861.400869	0.975208
861.713642	0.974248
862.026373	0.977493
862.339062	0.975033
862.651708	0.973919
862.964312	0.974455
863.276873	0.973573
863.589392	0.972580
863.901869	0.971084
864.214303	0.969311
864.526696	0.968798
864.839045	0.968626
865.151353	0.966924
865.463619	0.967208
865.775842	0.968320
866.088023	0.968141
866.400162	0.966926
866.712258	0.968318
867.024313	0.967979
867.336325	0.969361
867.648296	0.968536
867.960224	0.966565
868.272110	0.967089
868.583954	0.969097
868.895755	0.970096
869.207515	0.966709
869.519233	0.964892
869.830909	0.965030
870.142542	0.966454
870.454134	0.965920
870.765684	0.964191
871.077191	0.964490
871.388657	0.962341
871.700081	0.963771
872.011463	0.964458
872.322803	0.962023
872.634101	0.960312
872.945357	0.958712
873.256571	0.956383
873.567744	0.958667
873.878874	0.957927
874.189963	0.957160
874.501010	0.957208
874.812015	0.954443
875.122979	0.953897
875.433900	0.957591
875.744780	0.957690
876.055618	0.954217
876.366415	0.953009
876.677169	0.953679
876.987882	0.956251
877.298554	0.955816
877.609183	0.952700
877.919771	0.948513
878.230317	0.948102
878.540822	0.944363
878.851285	0.938188
879.161707	0.929777
879.472087	0.918313
879.782425	0.900573
880.092722	0.865277
880.402977	0.811926
880.713191	0.747572
881.023363	0.686525
881.333494	0.651211
881.643583	0.624308
881.953631	0.624895
882.263637	0.652821
882.573602	0.692580
882.883526	0.718632
883.193408	0.744854
883.503248	0.767442
883.813048	0.795856
884.122806	0.827283
884.432522	0.850932
884.742197	0.870673
885.051831	0.883057
885.361424	0.892970
885.670975	0.906196
885.980485	0.915533
886.289954	0.921377
886.599382	0.926136
886.908768	0.931982
887.218113	0.937478
887.527417	0.943222
887.836680	0.944833
888.145901	0.948056
888.455082	0.951384
888.764221	0.955323
889.073319	0.955881
889.382376	0.959185
889.691392	0.956464
890.000366	0.958403
890.309300	0.957512
890.618193	0.956962
890.927044	0.956083
891.235855	0.955562
891.544625	0.955992
891.853353	0.956008
892.162041	0.952925
892.470687	0.946234
892.779293	0.941280
893.087858	0.935948
893.396381	0.927925
893.704864	0.914785
894.013306	0.891359
894.321707	0.863620
894.630068	0.847588
894.938387	0.842117
895.246665	0.844843
895.554903	0.856444
895.863100	0.870488
896.171256	0.888808
896.479371	0.907542
896.787446	0.921980
897.095480	0.929098
897.403473	0.930992
897.711425	0.936375
898.019336	0.942337
898.327207	0.946889
898.635038	0.947322
898.942827	0.949425
899.250576	0.951868
899.558284	0.956549
899.865952	0.957768
900.173579	0.958371
900.481165	0.960260
900.788711	0.962801
901.096216	0.965502
901.403681	0.966450
901.711105	0.966018
902.018489	0.967716
902.325832	0.966158
902.633135	0.965176
902.940397	0.959420
903.247619	0.946033
903.554800	0.920537
903.861941	0.880417
904.169041	0.840681
904.476101	0.823366
904.783121	0.824141
905.090100	0.841194
905.397039	0.863660
905.703938	0.886575
906.010796	0.906449
906.317614	0.923842
906.624391	0.937441
906.931129	0.947392
907.237826	0.956539
907.544483	0.962618
907.851099	0.967673
908.157675	0.970825
908.464211	0.974839
908.770707	0.977429
909.077163	0.978931
909.383578	0.979452
909.689954	0.980651
909.996289	0.980605
910.302584	0.984165
910.608839	0.984755
910.915054	0.983646
911.221229	0.982806
911.527363	0.981665
911.833458	0.982850
912.139513	0.981966
912.445527	0.981422
912.751502	0.980356
913.057436	0.976021
913.363331	0.975483
913.669186	0.972427
913.975000	0.965070
914.280775	0.960710
914.586510	0.952425
914.892205	0.936859
915.197859	0.915228
915.503475	0.886669
915.809050	0.866374
916.114585	0.860240
916.420081	0.856902
916.725536	0.855688
917.030952	0.863148
917.336328	0.876313
917.641665	0.893052
917.946961	0.908918
918.252218	0.920274
918.557435	0.929537
918.862612	0.938681
919.167750	0.944600
919.472848	0.950368
919.777906	0.957452
920.082925	0.962671
920.387904	0.965499
920.692843	0.966711
920.997743	0.968246
921.302603	0.971818
921.607423	0.973089
921.912204	0.977196
922.216946	0.978558
922.521647	0.978610
922.826310	0.979779
923.130932	0.982444
923.435516	0.983390
923.740059	0.984143
924.044564	0.984049
924.349028	0.985181
924.653454	0.988331
924.957840	0.988666
925.262186	0.989685
925.566493	0.988314
925.870761	0.990217
926.174989	0.991162
926.479178	0.993450
926.783328	0.993019
927.087438	0.992929
927.391509	0.992358
927.695541	0.994025
927.999533	0.994933
928.303486	0.995695
928.607400	0.996039
928.911275	0.995788
929.215110	0.996467
929.518906	0.996231
929.822663	0.997411
930.126381	0.996885
930.430060	0.996184
930.733699	0.996241
931.037299	0.996596
931.340861	0.997415
931.644383	0.994006
931.947866	0.995299
932.251309	0.995764
932.554714	0.994823
932.858080	0.995922
933.161407	0.995554
933.464694	0.995737
933.767943	0.998094
934.071153	0.996946
934.374323	0.997479
934.677455	0.996756
934.980548	0.996633
935.283602	0.997981
935.586617	0.997330
935.889593	0.996751
936.192530	0.997633
936.495428	0.996773
936.798287	0.996910
937.101108	0.994730
937.403890	0.994442
937.706632	0.994883
938.009336	0.992689
938.312002	0.990439
938.614628	0.989011
938.917216	0.988458
939.219765	0.986956
939.522275	0.987461
939.824747	0.988136
940.127179	0.987973
940.429573	0.989365
940.731929	0.990100
941.034246	0.989480
941.336524	0.989362
941.638763	0.990781
941.940964	0.991990
942.243126	0.991585
942.545250	0.993066
942.847335	0.993186
943.149381	0.993788
943.451389	0.993750
943.753359	0.995507
944.055290	0.995722
944.357182	0.995431
944.659036	0.996258
944.960851	0.995694
945.262628	0.996432
945.564367	0.994560
945.866067	0.994996
946.167729	0.995202
946.469352	0.996167
946.770937	0.994598
947.072484	0.997467
947.373992	0.995271
947.675462	0.996736
947.976893	0.996267
948.278286	0.996842
948.579641	0.998143
948.880958	0.996485
949.182236	0.996645
949.483476	0.997264
949.784678	0.996607
950.085841	0.996718
950.386967	0.997066
950.688054	0.997053
950.989103	0.995059
951.290114	0.994860
951.591087	0.995630
951.892021	0.994275
952.192917	0.995554
952.493776	0.994518
952.794596	0.993601
953.095378	0.993134
953.396122	0.992992
953.696828	0.993700
953.997496	0.995214
954.298126	0.996881
954.598718	0.995305
954.899272	0.997073
955.199788	0.996266
955.500266	0.998831
955.800706	0.997810
956.101108	0.999129
956.401472	0.999638
956.701798	0.998045
957.002087	0.999057
957.302337	1.000317
957.602550	1.000854
957.902724	1.000576
958.202861	1.001046
958.502960	1.001039
958.803022	1.003152
959.103045	1.000282
959.403031	1.003174
959.702979	1.002958
960.002889	1.001127
960.302762	1.000418
960.602596	1.002922
960.902393	1.001703
961.202153	1.002635
961.501875	1.001510
961.801559	1.003712
962.101205	1.002204
962.400814	1.002767
962.700385	1.003665
962.999918	1.003023
963.299414	1.002330
963.598873	1.003270
963.898293	1.002333
964.197677	1.002790
964.497022	1.002586
964.796331	1.002068
965.095601	1.003775
965.394835	1.003505
965.694030	1.002719
965.993189	1.002505
966.292309	1.003601
966.591393	1.002364
966.890439	1.003956
967.189447	1.003454
967.488419	1.003601
967.787353	1.003669
968.086249	1.003092
968.385108	1.003283
968.683930	1.004048
968.982714	1.002944
969.281462	1.003522
969.580172	1.002907
969.878844	1.002946
970.177480	1.004112
970.476078	1.004687
970.774639	1.002810
971.073162	1.003115
971.371649	1.002663
971.670098	1.001571
971.968510	1.003063
972.266885	1.002016
972.565223	1.002139
972.863524	1.000885
973.161788	1.001421
973.460014	1.003626
973.758204	1.001046
974.056356	1.002806
974.354471	1.001489
974.652550	1.002994
974.950591	1.002269
975.248595	1.001913
975.546563	1.004263
975.844493	1.002995
976.142386	1.001749
976.440243	1.003042
976.738062	1.002412
977.035845	1.001781
977.333590	1.003627
977.631299	1.001879
977.928971	1.002116
978.226606	1.003554
978.524204	1.002902
978.821765	1.004456
979.119290	1.003235
979.416777	1.004426
979.714228	1.002033
980.011642	1.004566
980.309020	1.001723
980.606360	1.002223
980.903664	1.002120
981.200931	1.001615
981.498162	1.002016
981.795356	1.000583
982.092513	0.999914
982.389633	1.001787
982.686717	0.998042
982.983764	0.996495
983.280775	0.997209
983.577749	0.997672
983.874686	0.996903
984.171587	0.996843
984.468451	0.998988
984.765279	1.001518
985.062070	1.000986
985.358824	1.000483
985.655543	1.002152
985.952224	1.002771
986.248869	1.002478
986.545478	1.004869
986.842050	1.002664
987.138586	1.003890
987.435086	1.002265
987.731549	1.004982
988.027975	1.003909
988.324366	1.003882
988.620719	1.003293
988.917037	1.004305
989.213318	1.004194
989.509563	1.003237
989.805772	1.004347
990.101944	1.005839
990.398080	1.005227
990.694180	1.005471
990.990244	1.003363
991.286271	1.003754
991.582262	1.004886
991.878217	1.003276
992.174136	1.004777
992.470019	1.003950
992.765865	1.005720
993.061676	1.005488
993.357450	1.004705
993.653188	1.006058
993.948890	1.004311
994.244556	1.004716
994.540186	1.003325
994.835780	1.003118
995.131337	1.005044
995.426859	1.002560
995.722345	1.002778
996.017795	1.001777
996.313208	1.002992
996.608586	1.002489
996.903928	1.003051
997.199234	1.001996
997.494504	1.004188
997.789738	1.002108
998.084936	1.002341
998.380099	1.002117
998.675225	1.003625
998.970316	1.004170
999.265371	1.004369
999.560390	1.003813
999.855373	1.003313
1000.150320	1.004961
1000.445232	1.004533
1000.740108	1.004295
1001.034948	1.003932
1001.329752	1.005500
1001.624521	1.005605
1001.919254	1.004683
1002.213951	1.005027
1002.508613	1.004099
1002.803239	1.003701
1003.097829	1.005632
1003.392384	1.004792
1003.686903	1.004181
1003.981386	1.005191
1004.275834	1.006763
1004.570246	1.003520
1004.864623	1.005306
1005.158964	1.005629
1005.453270	1.004916
1005.747540	1.004845
1006.041775	1.004790
1006.335974	1.005366
1006.630138	1.005255
1006.924266	1.003561
1007.218359	1.003555
1007.512416	1.006717
1007.806438	1.004756
1008.100425	1.005477
1008.394376	1.005500
1008.688292	1.003378
1008.982172	1.004140
1009.276017	1.005002
1009.569827	1.005674
1009.863602	1.003630
1010.157341	1.003602
1010.451045	1.005032
1010.744714	1.006465
1011.038347	1.005183
1011.331945	1.005128
1011.625508	1.003807
1011.919036	1.005049
1012.212528	1.005824
1012.505986	1.005191
1012.799408	1.005946
1013.092795	1.005391
1013.386147	1.004775
1013.679464	1.005566
1013.972745	1.005219
1014.265992	1.005999
1014.559204	1.004879
1014.852380	1.005743
1015.145521	1.004740
1015.438628	1.005494
1015.731699	1.005079
1016.024736	1.005485
1016.317737	1.004862
1016.610703	1.005743
1016.903635	1.005554
1017.196531	1.003698
1017.489393	1.004457
1017.782219	1.004470
1018.075011	1.005135
1018.367768	1.004586
1018.660490	1.005487
1018.953177	1.005487
1019.245829	1.005487
