Dividing Wavelength (nm)	Counts (n)	Blue Motor Position (mm): 6.200000	Red Motor Position (mm): 0.000000	
326.493990	1.005291
326.888308	1.005291
327.282561	1.005291
327.676750	1.006039
328.070874	1.007811
328.464933	1.007683
328.858929	1.007653
329.252859	1.005825
329.646726	1.004771
330.040528	1.005671
330.434265	1.006452
330.827938	1.006743
331.221547	1.006548
331.615091	1.007579
332.008571	1.005924
332.401986	1.006206
332.795338	1.006526
333.188625	1.006716
333.581847	1.004963
333.975006	1.006410
334.368100	1.006869
334.761129	1.004405
335.154095	1.005895
335.546996	1.004818
335.939833	0.998650
336.332606	1.000483
336.725315	0.996740
337.117960	1.000315
337.510540	0.998493
337.903056	0.999674
338.295508	1.000715
338.687896	0.999823
339.080220	0.999020
339.472480	0.998167
339.864676	1.000048
340.256807	0.997431
340.648875	0.999871
341.040879	0.998867
341.432818	0.999615
341.824694	0.998052
342.216506	0.998129
342.608253	0.999060
342.999937	0.998334
343.391557	0.999339
343.783113	1.000135
344.174605	0.999280
344.566033	0.998476
344.957397	0.999336
345.348697	1.000419
345.739934	1.000267
346.131106	0.999321
346.522215	0.997944
346.913260	0.998529
347.304241	0.997551
347.695159	0.999297
348.086012	0.998611
348.476802	1.000023
348.867528	0.997917
349.258191	1.000008
349.648789	0.998998
350.039324	0.998790
350.429796	0.998584
350.820203	0.997986
351.210548	0.998845
351.600828	0.998118
351.991045	0.998052
352.381198	0.999202
352.771288	0.998303
353.161314	0.998840
353.551276	0.998347
353.941175	0.997194
354.331010	0.998499
354.720782	0.999108
355.110490	0.998320
355.500135	0.998822
355.889717	0.997093
356.279235	0.997697
356.668689	0.998027
357.058080	0.997643
357.447408	0.998352
357.836672	0.998260
358.225873	0.997587
358.615010	0.998563
359.004084	0.996831
359.393095	0.998129
359.782043	0.997770
360.170927	0.997750
360.559748	0.998346
360.948505	0.997241
361.337199	0.996588
361.725830	0.998140
362.114398	0.997959
362.502903	0.997525
362.891344	0.996861
363.279722	0.997168
363.668037	0.997884
364.056289	0.997125
364.444478	0.996491
364.832603	0.996612
365.220665	0.997179
365.608665	0.995830
365.996601	0.996262
366.384474	0.996398
366.772284	0.996223
367.160031	0.995533
367.547715	0.995933
367.935336	0.994553
368.322893	0.994025
368.710388	0.993065
369.097820	0.991347
369.485189	0.987656
369.872495	0.986547
370.259738	0.984683
370.646918	0.982350
371.034035	0.980137
371.421090	0.976842
371.808081	0.971273
372.195010	0.968649
372.581875	0.964239
372.968678	0.959226
373.355418	0.956226
373.742096	0.947819
374.128710	0.944711
374.515262	0.938875
374.901751	0.933711
375.288177	0.927546
375.674540	0.922360
376.060841	0.915345
376.447079	0.909269
376.833254	0.903025
377.219367	0.898979
377.605417	0.886741
377.991404	0.882770
378.377329	0.876930
378.763191	0.870745
379.148991	0.860552
379.534727	0.854408
379.920402	0.845376
380.306013	0.842401
380.691563	0.828485
381.077049	0.822859
381.462474	0.818399
381.847835	0.806340
382.233134	0.802795
382.618371	0.802916
383.003545	0.785210
383.388657	0.784309
383.773706	0.775233
384.158693	0.771957
384.543618	0.767170
384.928480	0.757298
385.313280	0.747423
385.698017	0.746688
386.082692	0.735945
386.467305	0.733510
386.851856	0.728739
387.236344	0.723389
387.620770	0.717416
388.005133	0.711373
388.389435	0.705634
388.773674	0.703674
389.157851	0.695443
389.541965	0.691926
389.926018	0.699895
390.310008	0.687224
390.693936	0.684135
391.077802	0.675445
391.461606	0.677488
391.845348	0.666663
392.229027	0.665383
392.612645	0.663508
392.996200	0.651549
393.379694	0.643811
393.763125	0.634251
394.146494	0.639261
394.529801	0.630016
394.913047	0.620963
395.296230	0.627109
395.679351	0.618964
396.062410	0.615851
396.445408	0.617686
396.828343	0.613523
397.211217	0.608615
397.594028	0.620455
397.976778	0.610901
398.359466	0.607271
398.742092	0.603260
399.124656	0.615220
399.507158	0.603003
399.889598	0.601163
400.271977	0.591730
400.654294	0.595872
401.036549	0.594602
401.418742	0.598396
401.800874	0.584259
402.182944	0.580664
402.564952	0.572649
402.946898	0.574538
403.328783	0.575843
403.710606	0.586921
404.092367	0.561872
404.474067	0.567125
404.855705	0.566080
405.237282	0.574520
405.618797	0.560824
406.000250	0.556590
406.381642	0.546703
406.762972	0.551748
407.144240	0.550756
407.525447	0.550205
407.906593	0.543284
408.287677	0.538075
408.668700	0.546527
409.049661	0.540548
409.430560	0.536177
409.811399	0.543654
410.192176	0.526781
410.572891	0.533253
410.953545	0.521754
411.334138	0.535174
411.714669	0.527755
412.095139	0.540154
412.475547	0.524121
412.855894	0.525721
413.236180	0.525192
413.616405	0.530087
413.996568	0.520374
414.376670	0.526771
414.756711	0.531922
415.136691	0.528254
415.516609	0.519840
415.896466	0.516204
416.276262	0.512784
416.655997	0.514240
417.035670	0.495789
417.415283	0.486711
417.794834	0.492026
418.174324	0.497522
418.553753	0.505797
418.933121	0.489012
419.312428	0.482965
419.691674	0.488929
420.070859	0.476009
420.449983	0.484858
420.829045	0.474062
421.208047	0.482812
421.586988	0.476021
421.965867	0.474611
422.344686	0.463534
422.723444	0.476080
423.102141	0.492692
423.480777	0.465886
423.859352	0.486841
424.237866	0.463600
424.616319	0.464605
424.994712	0.455784
425.373044	0.465655
425.751314	0.454400
426.129524	0.470002
426.507673	0.453827
426.885762	0.447120
427.263789	0.453294
427.641756	0.462535
428.019662	0.452801
428.397508	0.451975
428.775292	0.456617
429.153016	0.448216
429.530679	0.454921
429.908282	0.447226
430.285824	0.458335
430.663305	0.436400
431.040726	0.457783
431.418086	0.457215
431.795385	0.448921
432.172624	0.448246
432.549802	0.448474
432.926920	0.447384
433.303977	0.446577
433.680974	0.444314
434.057910	0.442359
434.434786	0.442291
434.811601	0.444462
435.188355	0.426937
435.565050	0.436683
435.941683	0.437584
436.318257	0.421796
436.694770	0.422029
437.071222	0.420946
437.447614	0.424769
437.823946	0.431473
438.200218	0.420880
438.576429	0.430615
438.952580	0.423543
439.328670	0.419675
439.704700	0.426487
440.080670	0.428104
440.456580	0.409552
440.832429	0.417042
441.208218	0.427953
441.583947	0.417384
441.959616	0.416733
442.335224	0.422510
442.710773	0.412637
443.086261	0.410865
443.461689	0.424589
443.837057	0.414507
444.212365	0.404398
444.587612	0.412084
444.962800	0.401512
445.337927	0.403093
445.712995	0.429409
446.088002	0.391100
446.462949	0.401878
446.837837	0.406179
447.212664	0.395165
447.587431	0.387234
447.962139	0.356778
448.336786	0.315886
448.711374	0.326586
449.085901	0.370645
449.460369	0.375490
449.834776	0.378560
450.209124	0.358160
450.583412	0.350330
450.957640	0.343297
451.331808	0.354934
451.705917	0.378028
452.079965	0.383327
452.453954	0.371673
452.827883	0.378024
453.201752	0.372786
453.575562	0.383952
453.949311	0.372545
454.323001	0.378322
454.696632	0.374290
455.070202	0.367279
455.443713	0.359061
455.817164	0.353412
456.190556	0.349969
456.563888	0.346486
456.937160	0.344166
457.310373	0.361110
457.683526	0.360274
458.056619	0.365926
458.429653	0.366396
458.802628	0.369894
459.175542	0.363949
459.548398	0.346577
459.921194	0.339080
460.293930	0.339536
460.666607	0.316887
461.039224	0.305021
461.411782	0.300492
461.784280	0.299810
462.156719	0.303852
462.529099	0.308075
462.901419	0.324573
463.273680	0.328625
463.645882	0.327996
464.018024	0.334027
464.390106	0.326634
464.762130	0.311533
465.134094	0.294450
465.505999	0.263488
465.877845	0.233656
466.249631	0.220645
466.621358	0.228085
466.993026	0.242053
467.364634	0.248221
467.736184	0.257255
468.107674	0.265727
468.479105	0.264584
468.850477	0.271703
469.221790	0.278710
469.593043	0.288811
469.964238	0.293733
470.335373	0.292910
470.706449	0.291184
471.077467	0.291698
471.448425	0.253883
471.819324	0.229118
472.190164	0.228827
472.560945	0.257693
472.931667	0.280163
473.302330	0.284242
473.672934	0.296358
474.043479	0.284284
474.413965	0.285820
474.784393	0.289729
475.154761	0.284468
475.525070	0.281517
475.895321	0.287435
476.265513	0.281658
476.635645	0.276850
477.005719	0.276901
477.375734	0.273402
477.745691	0.266421
478.115588	0.262821
478.485427	0.256601
478.855207	0.243150
479.224928	0.225693
479.594591	0.213928
479.964194	0.217162
480.333739	0.218524
480.703226	0.219962
481.072653	0.218299
481.442022	0.213781
481.811333	0.210616
482.180584	0.214201
482.549777	0.219611
482.918912	0.222798
483.287988	0.222507
483.657005	0.221873
484.025964	0.228520
484.394864	0.225743
484.763706	0.226646
485.132489	0.231659
485.501213	0.232313
485.869879	0.230620
486.238487	0.233938
486.607036	0.231664
486.975527	0.236324
487.343959	0.232191
487.712333	0.231231
488.080648	0.232486
488.448905	0.231732
488.817104	0.233107
489.185244	0.227625
489.553326	0.224655
489.921350	0.214079
490.289315	0.196713
490.657222	0.191581
491.025070	0.193149
491.392861	0.195313
491.760593	0.200799
492.128267	0.206529
492.495883	0.211760
492.863440	0.218062
493.230939	0.224554
493.598380	0.226280
493.965763	0.228395
494.333088	0.230577
494.700354	0.232197
495.067563	0.230997
495.434713	0.234303
495.801805	0.232103
496.168839	0.233766
496.535815	0.235084
496.902733	0.235135
497.269593	0.236586
497.636395	0.234236
498.003139	0.234319
498.369825	0.237744
498.736453	0.234031
499.103023	0.235742
499.469535	0.234951
499.835989	0.235441
500.202385	0.235980
500.568723	0.239313
500.935003	0.234383
501.301226	0.238901
501.667390	0.233050
502.033497	0.231440
502.399546	0.234057
502.765537	0.236030
503.131470	0.234460
503.497345	0.230813
503.863163	0.239146
504.228923	0.232163
504.594625	0.231257
504.960269	0.236394
505.325856	0.231851
505.691385	0.236358
506.056856	0.233134
506.422270	0.232425
506.787625	0.234746
507.152924	0.232470
507.518164	0.232581
507.883347	0.234282
508.248472	0.236452
508.613540	0.230834
508.978550	0.233805
509.343503	0.234202
509.708398	0.231654
510.073236	0.229289
510.438016	0.228894
510.802738	0.229992
511.167403	0.229140
511.532010	0.231135
511.896561	0.226609
512.261053	0.224950
512.625488	0.227514
512.989866	0.227517
513.354186	0.228019
513.718449	0.229829
514.082655	0.226412
514.446803	0.228356
514.810894	0.226048
515.174927	0.228888
515.538904	0.228173
515.902822	0.225222
516.266684	0.227737
516.630488	0.228821
516.994235	0.227635
517.357925	0.226331
517.721558	0.224920
518.085133	0.224155
518.448651	0.224185
518.812112	0.226650
519.175516	0.226094
519.538863	0.223735
519.902152	0.225636
520.265385	0.222366
520.628560	0.223935
520.991678	0.224429
521.354739	0.223295
521.717743	0.224166
522.080690	0.224995
522.443580	0.222291
522.806413	0.222902
523.169189	0.222528
523.531908	0.221311
523.894569	0.224897
524.257174	0.224814
524.619722	0.222390
524.982213	0.223711
525.344647	0.222473
525.707025	0.223360
526.069345	0.221567
526.431608	0.223267
526.793815	0.221381
527.155964	0.225470
527.518057	0.224126
527.880093	0.225264
528.242072	0.223890
528.603995	0.225566
528.965860	0.227807
529.327669	0.226377
529.689421	0.227185
530.051117	0.228328
530.412755	0.225948
530.774337	0.227942
531.135862	0.228827
531.497331	0.227980
531.858743	0.230754
532.220098	0.227293
532.581396	0.230184
532.942638	0.230582
533.303824	0.231620
533.664953	0.231366
534.026025	0.233001
534.387040	0.230860
534.747999	0.230866
535.108902	0.229539
535.469748	0.235086
535.830537	0.232607
536.191270	0.232878
536.551947	0.232434
536.912567	0.232365
537.273131	0.234269
537.633638	0.234425
537.994089	0.234892
538.354483	0.236031
538.714821	0.233059
539.075103	0.232476
539.435328	0.233436
539.795497	0.237012
540.155609	0.233702
540.515665	0.231910
540.875665	0.237327
541.235609	0.236216
541.595496	0.235983
541.955328	0.232609
542.315102	0.235386
542.674821	0.236303
543.034483	0.236440
543.394090	0.236135
543.753640	0.238244
544.113134	0.232733
544.472571	0.236371
544.831953	0.232939
545.191278	0.237412
545.550548	0.236776
545.909761	0.233598
546.268918	0.234570
546.628019	0.232763
546.987064	0.235245
547.346053	0.237152
547.704986	0.235053
548.063863	0.235158
548.422684	0.235675
548.781449	0.237043
549.140158	0.235228
549.498811	0.237849
549.857408	0.240810
550.215949	0.235581
550.574434	0.238732
550.932864	0.236672
551.291237	0.235008
551.649555	0.236987
552.007817	0.236287
552.366022	0.237604
552.724173	0.237552
553.082267	0.237769
553.440305	0.234697
553.798288	0.239022
554.156215	0.235630
554.514086	0.236365
554.871902	0.239519
555.229661	0.238681
555.587365	0.239235
555.945014	0.241697
556.302606	0.238743
556.660143	0.241400
557.017625	0.237793
557.375050	0.240109
557.732421	0.236899
558.089735	0.239104
558.446994	0.239156
558.804197	0.238180
559.161345	0.238196
559.518437	0.241793
559.875474	0.239690
560.232455	0.238740
560.589381	0.240228
560.946251	0.240548
561.303065	0.237799
561.659825	0.239265
562.016528	0.240841
562.373177	0.243468
562.729770	0.240883
563.086307	0.242672
563.442789	0.240794
563.799216	0.243302
564.155587	0.242323
564.511904	0.243702
564.868164	0.243356
565.224370	0.243361
565.580520	0.245110
565.936615	0.244841
566.292654	0.248230
566.648638	0.245341
567.004567	0.245950
567.360441	0.246583
567.716260	0.248473
568.072023	0.246125
568.427732	0.246905
568.783385	0.249443
569.138982	0.247362
569.494525	0.247215
569.850013	0.250131
570.205445	0.248554
570.560823	0.251083
570.916145	0.253085
571.271412	0.251387
571.626625	0.252972
571.981782	0.253406
572.336884	0.254073
572.691931	0.253534
573.046923	0.255569
573.401860	0.256205
573.756743	0.258082
574.111570	0.256871
574.466342	0.257393
574.821059	0.256609
575.175722	0.259442
575.530330	0.259200
575.884882	0.259506
576.239380	0.261163
576.593823	0.262012
576.948211	0.261325
577.302544	0.264699
577.656823	0.264152
578.011047	0.264185
578.365216	0.265163
578.719330	0.267272
579.073389	0.266450
579.427394	0.268307
579.781344	0.269026
580.135239	0.270478
580.489080	0.269849
580.842866	0.273265
581.196597	0.273049
581.550273	0.271611
581.903895	0.272518
582.257463	0.270659
582.610975	0.274083
582.964434	0.273419
583.317837	0.275508
583.671186	0.276688
584.024481	0.276354
584.377721	0.278789
584.730906	0.279683
585.084037	0.279022
585.437113	0.280695
585.790135	0.280010
586.143103	0.283098
586.496016	0.284194
586.848874	0.281609
587.201679	0.282235
587.554428	0.285491
587.907124	0.284701
588.259765	0.285298
588.612352	0.285407
588.964884	0.289539
589.317362	0.289015
589.669786	0.288907
590.022155	0.287493
590.374470	0.286564
590.726731	0.288751
591.078937	0.294030
591.431090	0.290286
591.783188	0.294195
592.135232	0.294904
592.487222	0.294624
592.839157	0.292863
593.191038	0.294895
593.542866	0.297262
593.894639	0.300425
594.246358	0.298815
594.598022	0.298141
594.949633	0.301641
595.301190	0.302338
595.652692	0.301670
596.004141	0.297641
596.355535	0.305695
596.706876	0.306393
597.058162	0.308867
597.409395	0.305892
597.760573	0.303437
598.111698	0.307021
598.462768	0.307125
598.813785	0.308517
599.164748	0.309910
599.515657	0.310604
599.866511	0.313938
600.217312	0.309030
600.568060	0.314481
600.918753	0.310624
601.269392	0.311478
601.619978	0.315129
601.970510	0.312669
602.320988	0.312526
602.671412	0.310241
603.021783	0.312551
603.372100	0.313742
603.722363	0.313854
604.072572	0.314976
604.422728	0.314380
604.772830	0.316912
605.122878	0.316149
605.472872	0.316983
605.822813	0.315072
606.172701	0.317893
606.522534	0.314752
606.872314	0.315469
607.222041	0.316159
607.571714	0.314493
607.921333	0.315936
608.270899	0.315735
608.620411	0.312280
608.969870	0.316255
609.319276	0.316128
609.668627	0.315990
610.017926	0.314792
610.367171	0.312996
610.716362	0.313843
611.065500	0.314108
611.414585	0.312993
611.763616	0.313136
612.112594	0.313888
612.461518	0.313081
612.810389	0.310792
613.159207	0.313135
613.507971	0.315060
613.856682	0.310855
614.205340	0.312104
614.553945	0.309669
614.902496	0.313007
615.250994	0.310995
615.599439	0.311680
615.947830	0.310821
616.296169	0.311851
616.644454	0.311926
616.992686	0.311552
617.340864	0.310057
617.688990	0.313119
618.037063	0.309809
618.385082	0.311696
618.733048	0.308523
619.080961	0.310899
619.428821	0.310325
619.776628	0.310067
620.124382	0.312176
620.472083	0.312655
620.819731	0.311222
621.167326	0.315540
621.514868	0.315427
621.862357	0.319404
622.209793	0.319197
622.557176	0.321425
622.904506	0.322715
623.251783	0.324951
623.599007	0.327449
623.946179	0.326826
624.293297	0.328986
624.640363	0.332741
624.987376	0.332955
625.334336	0.335423
625.681243	0.337971
626.028097	0.338429
626.374899	0.339653
626.721647	0.339758
627.068343	0.343228
627.414987	0.344172
627.761577	0.346217
628.108115	0.344491
628.454600	0.349978
628.801032	0.347474
629.147412	0.349475
629.493739	0.350094
629.840014	0.352707
630.186236	0.349765
630.532405	0.355684
630.878521	0.352938
631.224585	0.355497
631.570597	0.359164
631.916556	0.357384
632.262462	0.357097
632.608316	0.359379
632.954117	0.360438
633.299866	0.361151
633.645562	0.361510
633.991206	0.366118
634.336797	0.368869
634.682336	0.371378
635.027823	0.373020
635.373257	0.373614
635.718639	0.377035
636.063968	0.376504
636.409245	0.382279
636.754470	0.382468
637.099642	0.384907
637.444762	0.388314
637.789829	0.387540
638.134845	0.390749
638.479808	0.391726
638.824719	0.392241
639.169577	0.396149
639.514383	0.394859
639.859137	0.399161
640.203839	0.398514
640.548489	0.399654
640.893086	0.400145
641.237632	0.402297
641.582125	0.401003
641.926566	0.403259
642.270955	0.402645
642.615292	0.402929
642.959576	0.401863
643.303809	0.402868
643.647990	0.402297
643.992118	0.402852
644.336195	0.406031
644.680219	0.404225
645.024192	0.404994
645.368112	0.399031
645.711981	0.397859
646.055797	0.393239
646.399562	0.395636
646.743274	0.388135
647.086935	0.384904
647.430544	0.385107
647.774101	0.383763
648.117606	0.384031
648.461059	0.384282
648.804460	0.386257
649.147810	0.391595
649.491108	0.393477
649.834354	0.395394
650.177548	0.400577
650.520690	0.405674
650.863781	0.406847
651.206820	0.406662
651.549807	0.410419
651.892742	0.415507
652.235626	0.414403
652.578458	0.415552
652.921238	0.421894
653.263967	0.419166
653.606644	0.423195
653.949269	0.423161
654.291843	0.427069
654.634365	0.423963
654.976836	0.426383
655.319255	0.427904
655.661622	0.428510
656.003938	0.428549
656.346203	0.431471
656.688416	0.429477
657.030577	0.432821
657.372687	0.435272
657.714746	0.435757
658.056753	0.432656
658.398708	0.436375
658.740612	0.437773
659.082465	0.434259
659.424266	0.434301
659.766016	0.434217
660.107715	0.436708
660.449362	0.435571
660.790958	0.436185
661.132503	0.437108
661.473996	0.434708
661.815438	0.435330
662.156829	0.435999
662.498168	0.436602
662.839456	0.437733
663.180693	0.435493
663.521879	0.435480
663.863013	0.435597
664.204097	0.434325
664.545129	0.431399
664.886110	0.431976
665.227040	0.429530
665.567918	0.432106
665.908746	0.429630
666.249522	0.430168
666.590248	0.430814
666.930922	0.428854
667.271545	0.427396
667.612118	0.427384
667.952639	0.429655
668.293109	0.427858
668.633528	0.430633
668.973896	0.430661
669.314213	0.431016
669.654480	0.433277
669.994695	0.432816
670.334859	0.433858
670.674973	0.434338
671.015035	0.434298
671.355047	0.434157
671.695008	0.434956
672.034918	0.437343
672.374777	0.436407
672.714585	0.437654
673.054342	0.437108
673.394049	0.437729
673.733705	0.435382
674.073310	0.436418
674.412864	0.439617
674.752368	0.439800
675.091820	0.440266
675.431223	0.444977
675.770574	0.443965
676.109875	0.447254
676.449125	0.447099
676.788324	0.449442
677.127473	0.455108
677.466571	0.455644
677.805619	0.457050
678.144616	0.457604
678.483562	0.459657
678.822458	0.462574
679.161303	0.462776
679.500098	0.463054
679.838842	0.464945
680.177535	0.464468
680.516179	0.463079
680.854771	0.462650
681.193314	0.455261
681.531805	0.446788
681.870247	0.435624
682.208638	0.428004
682.546978	0.426930
682.885268	0.428323
683.223508	0.434859
683.561697	0.438745
683.899836	0.441437
684.237925	0.444180
684.575963	0.447599
684.913951	0.450939
685.251889	0.446236
685.589776	0.448180
685.927614	0.450658
686.265401	0.444825
686.603137	0.446061
686.940824	0.440365
687.278460	0.439277
687.616046	0.437906
687.953582	0.432931
688.291068	0.434181
688.628504	0.429338
688.965889	0.432137
689.303224	0.435977
689.640510	0.439302
689.977745	0.445613
690.314930	0.453652
690.652065	0.458453
690.989150	0.465841
691.326185	0.472973
691.663170	0.476535
692.000105	0.484305
692.336990	0.491362
692.673825	0.493883
693.010610	0.500230
693.347345	0.506769
693.684030	0.507613
694.020665	0.512008
694.357251	0.520790
694.693786	0.521148
695.030272	0.524229
695.366707	0.528358
695.703093	0.532395
696.039429	0.529144
696.375716	0.531807
696.711952	0.533784
697.048139	0.536361
697.384276	0.538856
697.720363	0.537634
698.056400	0.535376
698.392388	0.541493
698.728326	0.544088
699.064214	0.546868
699.400053	0.547148
699.735842	0.551441
700.071581	0.553830
700.407270	0.557412
700.742910	0.559456
701.078501	0.566009
701.414042	0.567313
701.749533	0.569970
702.084974	0.579174
702.420366	0.571374
702.755709	0.579039
703.091002	0.586486
703.426246	0.580394
703.761440	0.585792
704.096584	0.590166
704.431679	0.587689
704.766725	0.590663
705.101721	0.591747
705.436668	0.587970
705.771565	0.595007
706.106413	0.591004
706.441212	0.586633
706.775961	0.586067
707.110661	0.587759
707.445311	0.585980
707.779913	0.582005
708.114465	0.580560
708.448967	0.576796
708.783421	0.568696
709.117825	0.563666
709.452180	0.562937
709.786485	0.557827
710.120742	0.547309
710.454949	0.549311
710.789107	0.541592
711.123216	0.532206
711.457275	0.532978
711.791286	0.525443
712.125247	0.524131
712.459159	0.535228
712.793023	0.526671
713.126837	0.531027
713.460602	0.531278
713.794318	0.540790
714.127985	0.539966
714.461602	0.550263
714.795171	0.553268
715.128691	0.560784
715.462162	0.568684
715.795584	0.575108
716.128957	0.576895
716.462281	0.584292
716.795556	0.587174
717.128782	0.592954
717.461960	0.602500
717.795088	0.601026
718.128167	0.607272
718.461198	0.614852
718.794180	0.615862
719.127113	0.618406
719.459997	0.622624
719.792833	0.628688
720.125619	0.630178
720.458357	0.636234
720.791046	0.635485
721.123686	0.639771
721.456278	0.646577
721.788821	0.643143
722.121315	0.648501
722.453761	0.652040
722.786158	0.649921
723.118506	0.645991
723.450805	0.653898
723.783056	0.650638
724.115259	0.647642
724.447412	0.647951
724.779518	0.648039
725.111574	0.647018
725.443582	0.642793
725.775542	0.644956
726.107453	0.637094
726.439315	0.637411
726.771129	0.635499
727.102895	0.628956
727.434612	0.622070
727.766281	0.619923
728.097901	0.619446
728.429473	0.618460
728.760996	0.617558
729.092471	0.618161
729.423897	0.621397
729.755276	0.620583
730.086606	0.620018
730.417887	0.615067
730.749120	0.605791
731.080305	0.596333
731.411442	0.593288
731.742530	0.596980
732.073570	0.597036
732.404562	0.589162
732.735506	0.589946
733.066401	0.595027
733.397249	0.604216
733.728048	0.615884
734.058798	0.628420
734.389501	0.639744
734.720156	0.649653
735.050762	0.656693
735.381320	0.657287
735.711831	0.666501
736.042293	0.671162
736.372707	0.668310
736.703073	0.672573
737.033391	0.673750
737.363661	0.671237
737.693883	0.666557
738.024056	0.665243
738.354182	0.666652
738.684260	0.655414
739.014290	0.652043
739.344272	0.652467
739.674207	0.645312
740.004093	0.645168
740.333931	0.646500
740.663722	0.645978
740.993464	0.646608
741.323159	0.649766
741.652806	0.655106
741.982405	0.660130
742.311956	0.665402
742.641460	0.666658
742.970915	0.671089
743.300323	0.677396
743.629683	0.683896
743.958996	0.686970
744.288260	0.690231
744.617477	0.696901
744.946647	0.698083
745.275768	0.704075
745.604842	0.703349
745.933869	0.712892
746.262847	0.715866
746.591778	0.707903
746.920662	0.714818
747.249498	0.721517
747.578286	0.711866
747.907027	0.708092
748.235720	0.709136
748.564365	0.703824
748.892963	0.703254
749.221514	0.707233
749.550017	0.711610
749.878473	0.712977
750.206881	0.718723
750.535242	0.718548
750.863555	0.718198
751.191821	0.719142
751.520039	0.723786
751.848210	0.726075
752.176334	0.720970
752.504411	0.720827
752.832440	0.727442
753.160421	0.730838
753.488356	0.729558
753.816243	0.727082
754.144082	0.735952
754.471875	0.738805
754.799620	0.735052
755.127318	0.736364
755.454969	0.736618
755.782572	0.736556
756.110129	0.740040
756.437638	0.743677
756.765100	0.740380
757.092515	0.737530
757.419882	0.736183
757.747203	0.741961
758.074477	0.741682
758.401703	0.739265
758.728882	0.733686
759.056014	0.732780
759.383099	0.731940
759.710138	0.732277
760.037129	0.728588
760.364073	0.723466
760.690970	0.726433
761.017820	0.730497
761.344623	0.726765
761.671379	0.718022
761.998088	0.706709
762.324751	0.683303
762.651366	0.640928
762.977935	0.573314
763.304456	0.523010
763.630931	0.513644
763.957359	0.552700
764.283740	0.596542
764.610074	0.624747
764.936362	0.654966
765.262602	0.682792
765.588796	0.703511
765.914943	0.720613
766.241044	0.739286
766.567097	0.744834
766.893104	0.755952
767.219064	0.762342
767.544978	0.768311
767.870845	0.781250
768.196665	0.785415
768.522438	0.784698
768.848165	0.785299
769.173846	0.794008
769.499479	0.798099
769.825066	0.802042
770.150607	0.806182
770.476101	0.802810
770.801548	0.804758
771.126949	0.815830
771.452303	0.819926
771.777611	0.818518
772.102872	0.816454
772.428087	0.822864
772.753256	0.826886
773.078378	0.828062
773.403453	0.835511
773.728482	0.840403
774.053465	0.834302
774.378401	0.838920
774.703291	0.846669
775.028135	0.847254
775.352932	0.847104
775.677683	0.851321
776.002388	0.851733
776.327046	0.852498
776.651658	0.856584
776.976224	0.858749
777.300743	0.857879
777.625216	0.859750
777.949643	0.861291
778.274024	0.860885
778.598359	0.863743
778.922647	0.860736
779.246889	0.863770
779.571086	0.866148
779.895236	0.868314
780.219339	0.866632
780.543397	0.863023
780.867409	0.862105
781.191374	0.863877
781.515294	0.865723
781.839167	0.864881
782.162995	0.866940
782.486776	0.864672
782.810511	0.865212
783.134201	0.870342
783.457844	0.867949
783.781441	0.870005
784.104993	0.875106
784.428498	0.875075
784.751958	0.871658
785.075372	0.873978
785.398739	0.877574
785.722061	0.873664
786.045337	0.869813
786.368568	0.874056
786.691752	0.875269
787.014891	0.861944
787.337983	0.852728
787.661030	0.845668
787.984031	0.828125
788.306987	0.816979
788.629897	0.816931
788.952760	0.822302
789.275579	0.826291
789.598351	0.841759
789.921078	0.855675
790.243759	0.856893
790.566395	0.860608
790.888984	0.869538
791.211529	0.873746
791.534027	0.876813
791.856480	0.879111
792.178888	0.884632
792.501249	0.886682
792.823566	0.889521
793.145836	0.888200
793.468062	0.890253
793.790241	0.890424
794.112375	0.888160
794.434464	0.884164
794.756507	0.883483
795.078505	0.881915
795.400457	0.877005
795.722364	0.865114
796.044226	0.858334
796.366042	0.857089
796.687812	0.860157
797.009538	0.855043
797.331218	0.860609
797.652852	0.864959
797.974442	0.868839
798.295986	0.870927
798.617484	0.870729
798.938938	0.876791
799.260346	0.879371
799.581709	0.881581
799.903026	0.885535
800.224299	0.885092
800.545526	0.889628
800.866708	0.893586
801.187845	0.896832
801.508936	0.895579
801.829983	0.894540
802.150984	0.898567
802.471940	0.903082
802.792851	0.902419
803.113717	0.903636
803.434538	0.901790
803.755314	0.903527
804.076045	0.905232
804.396731	0.905233
804.717372	0.903927
805.037967	0.907657
805.358518	0.904223
805.679024	0.900852
805.999485	0.902864
806.319901	0.901428
806.640272	0.904734
806.960598	0.902933
807.280879	0.898336
807.601115	0.896087
807.921306	0.902230
808.241453	0.901875
808.561554	0.899892
808.881611	0.899431
809.201623	0.900811
809.521590	0.902545
809.841513	0.903256
810.161390	0.900857
810.481223	0.903244
810.801011	0.905824
811.120755	0.909135
811.440453	0.906132
811.760107	0.907229
812.079716	0.906274
812.399281	0.908892
812.718801	0.911609
813.038276	0.912292
813.357707	0.912135
813.677093	0.910428
813.996434	0.911777
814.315731	0.913912
814.634983	0.915594
814.954191	0.914814
815.273354	0.910050
815.592473	0.906884
815.911547	0.907548
816.230577	0.904916
816.549562	0.901604
816.868502	0.901681
817.187399	0.899781
817.506250	0.894332
817.825058	0.896052
818.143821	0.891715
818.462539	0.887398
818.781213	0.879073
819.099843	0.868116
819.418429	0.851188
819.736970	0.834063
820.055466	0.815562
820.373919	0.789815
820.692327	0.757397
821.010691	0.723093
821.329011	0.643323
821.647286	0.528169
821.965517	0.414074
822.283704	0.370946
822.601847	0.372943
822.919945	0.409884
823.237999	0.445795
823.556010	0.492540
823.873976	0.548013
824.191897	0.598847
824.509775	0.642247
824.827609	0.685766
825.145398	0.709627
825.463144	0.710516
825.780845	0.692822
826.098502	0.675280
826.416116	0.629787
826.733685	0.585351
827.051210	0.576965
827.368692	0.592656
827.686129	0.629896
828.003522	0.683615
828.320872	0.731051
828.638177	0.774158
828.955439	0.806366
829.272656	0.828072
829.589830	0.844192
829.906960	0.860940
830.224046	0.873908
830.541088	0.883254
830.858086	0.888274
831.175041	0.894324
831.491952	0.892763
831.808819	0.889479
832.125642	0.881406
832.442421	0.869714
832.759157	0.846652
833.075849	0.799576
833.392497	0.736375
833.709101	0.695893
834.025662	0.706492
834.342179	0.738123
834.658653	0.777406
834.975083	0.813463
835.291469	0.839809
835.607811	0.860757
835.924110	0.877601
836.240366	0.895134
836.556578	0.907124
836.872746	0.915096
837.188871	0.920745
837.504952	0.926282
837.820990	0.929750
838.136984	0.933182
838.452935	0.936322
838.768842	0.936878
839.084706	0.931374
839.400526	0.905155
839.716303	0.863536
840.032037	0.842653
840.347727	0.847083
840.663373	0.864453
840.978977	0.886941
841.294537	0.908619
841.610054	0.924867
841.925527	0.931900
842.240957	0.938830
842.556344	0.946268
842.871687	0.951290
843.186987	0.953823
843.502244	0.955763
843.817458	0.956963
844.132629	0.961018
844.447756	0.965498
844.762840	0.965972
845.077881	0.966905
845.392879	0.965050
845.707833	0.967600
846.022745	0.969704
846.337613	0.970333
846.652438	0.971079
846.967221	0.971708
847.281960	0.970564
847.596656	0.973206
847.911309	0.971630
848.225919	0.973213
848.540485	0.973290
848.855009	0.975815
849.169490	0.974059
849.483928	0.973912
849.798323	0.973219
850.112675	0.975273
850.426984	0.974827
850.741251	0.976286
851.055474	0.975592
851.369654	0.973997
851.683792	0.973947
851.997887	0.975611
852.311938	0.975974
852.625947	0.975467
852.939914	0.973095
853.253837	0.975458
853.567718	0.976646
853.881555	0.975655
854.195350	0.974389
854.509103	0.974637
854.822812	0.976666
855.136479	0.974769
855.450103	0.975870
855.763685	0.974526
856.077224	0.974830
856.390720	0.976052
856.704173	0.975948
857.017584	0.973774
857.330953	0.973713
857.644278	0.972644
857.957561	0.972998
858.270802	0.973838
858.584000	0.974441
858.897155	0.972521
859.210268	0.971708
859.523339	0.973331
859.836367	0.975440
860.149352	0.975826
860.462295	0.974901
860.775195	0.974991
861.088054	0.974729
861.400869	0.975047
861.713642	0.975757
862.026373	0.977954
862.339062	0.976972
862.651708	0.973940
862.964312	0.974387
863.276873	0.974264
863.589392	0.974333
863.901869	0.972229
864.214303	0.970066
864.526696	0.969866
864.839045	0.969100
865.151353	0.968793
865.463619	0.967153
865.775842	0.968891
866.088023	0.968771
866.400162	0.967913
866.712258	0.968842
867.024313	0.968567
867.336325	0.970449
867.648296	0.969780
867.960224	0.967299
868.272110	0.968468
868.583954	0.971065
868.895755	0.970633
869.207515	0.967891
869.519233	0.967131
869.830909	0.966761
870.142542	0.968411
870.454134	0.967857
870.765684	0.966455
871.077191	0.966568
871.388657	0.964180
871.700081	0.964726
872.011463	0.964896
872.322803	0.964517
872.634101	0.962908
872.945357	0.959364
873.256571	0.958924
873.567744	0.959730
873.878874	0.960557
874.189963	0.959425
874.501010	0.960480
874.812015	0.955887
875.122979	0.956308
875.433900	0.958696
875.744780	0.960140
876.055618	0.955957
876.366415	0.955503
876.677169	0.956143
876.987882	0.957112
877.298554	0.959136
877.609183	0.954771
877.919771	0.952414
878.230317	0.950342
878.540822	0.946660
878.851285	0.941429
879.161707	0.934427
879.472087	0.923304
879.782425	0.906223
880.092722	0.872150
880.402977	0.819726
880.713191	0.758484
881.023363	0.697679
881.333494	0.662974
881.643583	0.636515
881.953631	0.637076
882.263637	0.666675
882.573602	0.705605
882.883526	0.732047
883.193408	0.756516
883.503248	0.779272
883.813048	0.805766
884.122806	0.835683
884.432522	0.858704
884.742197	0.878456
885.051831	0.889658
885.361424	0.899045
885.670975	0.911659
885.980485	0.921301
886.289954	0.926795
886.599382	0.930645
886.908768	0.935408
887.218113	0.940210
887.527417	0.945587
887.836680	0.948894
888.145901	0.950767
888.455082	0.953502
888.764221	0.957757
889.073319	0.958099
889.382376	0.960425
889.691392	0.959306
890.000366	0.960209
890.309300	0.959736
890.618193	0.958906
890.927044	0.957880
891.235855	0.958258
891.544625	0.958227
891.853353	0.958995
892.162041	0.955030
892.470687	0.949340
892.779293	0.944302
893.087858	0.939160
893.396381	0.931403
893.704864	0.919215
894.013306	0.895659
894.321707	0.869173
894.630068	0.855392
894.938387	0.849339
895.246665	0.853237
895.554903	0.864174
895.863100	0.878291
896.171256	0.894185
896.479371	0.914428
896.787446	0.926074
897.095480	0.931007
897.403473	0.934599
897.711425	0.940240
898.019336	0.946596
898.327207	0.950448
898.635038	0.950168
898.942827	0.951722
899.250576	0.955249
899.558284	0.958883
899.865952	0.960350
900.173579	0.961105
900.481165	0.962524
900.788711	0.964553
901.096216	0.966904
901.403681	0.968021
901.711105	0.968370
902.018489	0.968751
902.325832	0.968916
902.633135	0.967012
902.940397	0.961501
903.247619	0.949119
903.554800	0.924802
903.861941	0.885504
904.169041	0.848856
904.476101	0.831107
904.783121	0.833195
905.090100	0.848356
905.397039	0.871310
905.703938	0.892824
906.010796	0.913395
906.317614	0.928541
906.624391	0.942169
906.931129	0.951788
907.237826	0.958308
907.544483	0.965489
907.851099	0.968775
908.157675	0.972296
908.464211	0.975638
908.770707	0.977979
909.077163	0.980384
909.383578	0.980266
909.689954	0.980510
909.996289	0.982464
910.302584	0.983805
910.608839	0.985180
910.915054	0.984809
911.221229	0.984019
911.527363	0.982354
911.833458	0.983391
912.139513	0.982719
912.445527	0.983256
912.751502	0.980609
913.057436	0.978454
913.363331	0.976470
913.669186	0.971668
913.975000	0.967998
914.280775	0.961568
914.586510	0.954323
914.892205	0.941161
915.197859	0.919333
915.503475	0.893198
915.809050	0.872956
916.114585	0.867824
916.420081	0.865655
916.725536	0.862636
917.030952	0.871080
917.336328	0.883650
917.641665	0.897807
917.946961	0.912396
918.252218	0.924118
918.557435	0.933145
918.862612	0.942323
919.167750	0.948178
919.472848	0.953586
919.777906	0.959769
920.082925	0.964552
920.387904	0.967064
920.692843	0.968795
920.997743	0.970793
921.302603	0.972958
921.607423	0.974073
921.912204	0.977273
922.216946	0.979625
922.521647	0.979446
922.826310	0.980266
923.130932	0.983143
923.435516	0.983906
923.740059	0.985568
924.044564	0.984422
924.349028	0.985456
924.653454	0.987993
924.957840	0.989076
925.262186	0.989462
925.566493	0.989568
925.870761	0.990340
926.174989	0.991422
926.479178	0.993787
926.783328	0.993639
927.087438	0.993439
927.391509	0.993370
927.695541	0.994039
927.999533	0.995509
928.303486	0.995452
928.607400	0.994469
928.911275	0.995041
929.215110	0.996948
929.518906	0.995569
929.822663	0.996379
930.126381	0.996551
930.430060	0.995956
930.733699	0.997276
931.037299	0.995816
931.340861	0.995324
931.644383	0.995233
931.947866	0.995426
932.251309	0.995919
932.554714	0.995782
932.858080	0.995650
933.161407	0.994848
933.464694	0.995972
933.767943	0.995716
934.071153	0.996742
934.374323	0.996437
934.677455	0.995047
934.980548	0.995073
935.283602	0.996433
935.586617	0.996909
935.889593	0.996585
936.192530	0.997022
936.495428	0.995554
936.798287	0.995061
937.101108	0.995513
937.403890	0.994628
937.706632	0.995339
938.009336	0.992737
938.312002	0.990052
938.614628	0.989791
938.917216	0.987189
939.219765	0.986791
939.522275	0.988488
939.824747	0.988699
940.127179	0.988884
940.429573	0.990768
940.731929	0.989719
941.034246	0.989897
941.336524	0.990398
941.638763	0.991428
941.940964	0.991392
942.243126	0.992960
942.545250	0.993268
942.847335	0.993421
943.149381	0.994403
943.451389	0.992526
943.753359	0.994913
944.055290	0.995801
944.357182	0.995263
944.659036	0.994675
944.960851	0.995772
945.262628	0.996054
945.564367	0.995183
945.866067	0.994766
946.167729	0.995010
946.469352	0.996372
946.770937	0.993040
947.072484	0.995410
947.373992	0.995698
947.675462	0.995650
947.976893	0.995296
948.278286	0.997759
948.579641	0.997763
948.880958	0.996669
949.182236	0.996400
949.483476	0.996238
949.784678	0.996251
950.085841	0.996651
950.386967	0.996480
950.688054	0.995843
950.989103	0.995860
951.290114	0.994115
951.591087	0.995470
951.892021	0.993922
952.192917	0.995702
952.493776	0.994962
952.794596	0.993680
953.095378	0.993604
953.396122	0.993007
953.696828	0.994444
953.997496	0.994775
954.298126	0.996310
954.598718	0.995620
954.899272	0.995588
955.199788	0.995745
955.500266	0.996921
955.800706	0.998791
956.101108	0.997875
956.401472	1.000213
956.701798	0.998668
957.002087	0.999449
957.302337	0.998586
957.602550	1.000236
957.902724	1.000377
958.202861	1.000246
958.502960	0.999217
958.803022	1.001959
959.103045	1.001329
959.403031	1.001727
959.702979	1.001651
960.002889	1.001828
960.302762	1.000461
960.602596	1.001797
960.902393	1.001479
961.202153	1.001340
961.501875	1.002072
961.801559	1.001626
962.101205	1.000031
962.400814	1.002772
962.700385	1.003108
962.999918	1.001839
963.299414	1.001847
963.598873	1.002098
963.898293	1.002145
964.197677	1.002315
964.497022	1.001711
964.796331	1.002761
965.095601	1.002124
965.394835	1.001512
965.694030	1.004469
965.993189	1.002192
966.292309	1.002831
966.591393	1.001400
966.890439	1.002405
967.189447	1.001548
967.488419	1.002288
967.787353	1.001426
968.086249	1.003613
968.385108	1.002087
968.683930	1.002741
968.982714	1.002462
969.281462	1.003471
969.580172	1.002002
969.878844	1.003340
970.177480	1.001725
970.476078	1.004340
970.774639	1.001670
971.073162	1.001557
971.371649	1.002281
971.670098	1.001477
971.968510	1.002224
972.266885	1.002056
972.565223	1.001609
972.863524	1.000789
973.161788	1.001684
973.460014	1.002357
973.758204	1.001902
974.056356	1.002121
974.354471	1.000826
974.652550	1.002086
974.950591	1.001622
975.248595	1.001338
975.546563	1.002131
975.844493	1.002636
976.142386	1.001505
976.440243	1.003196
976.738062	1.003433
977.035845	1.001438
977.333590	1.003074
977.631299	1.001846
977.928971	1.002194
978.226606	1.002076
978.524204	1.001914
978.821765	1.002827
979.119290	1.003794
979.416777	1.002712
979.714228	1.002064
980.011642	1.002815
980.309020	1.002311
980.606360	1.001151
980.903664	1.003303
981.200931	1.001464
981.498162	1.002315
981.795356	1.000778
982.092513	1.000510
982.389633	0.999877
982.686717	0.997157
982.983764	0.995927
983.280775	0.996076
983.577749	0.997642
983.874686	0.996045
984.171587	0.997530
984.468451	0.999380
984.765279	1.000782
985.062070	1.001058
985.358824	1.000703
985.655543	1.001131
985.952224	1.001141
986.248869	1.001226
986.545478	1.002935
986.842050	1.003737
987.138586	1.002778
987.435086	1.002483
987.731549	1.003690
988.027975	1.004326
988.324366	1.001550
988.620719	1.003981
988.917037	1.003181
989.213318	1.004415
989.509563	1.003857
989.805772	1.003853
990.101944	1.005146
990.398080	1.003049
990.694180	1.004625
990.990244	1.003779
991.286271	1.005003
991.582262	1.004716
991.878217	1.003624
992.174136	1.003497
992.470019	1.004620
992.765865	1.004149
993.061676	1.003586
993.357450	1.003850
993.653188	1.004488
993.948890	1.002309
994.244556	1.003556
994.540186	1.002294
994.835780	1.003185
995.131337	1.004294
995.426859	1.002423
995.722345	1.003053
996.017795	1.000806
996.313208	1.001660
996.608586	1.001476
996.903928	1.002752
997.199234	1.001491
997.494504	1.003778
997.789738	1.001626
998.084936	1.003291
998.380099	1.001303
998.675225	1.003568
998.970316	1.003737
999.265371	1.002745
999.560390	1.002805
999.855373	1.002631
1000.150320	1.004202
1000.445232	1.003603
1000.740108	1.003451
1001.034948	1.002086
1001.329752	1.004523
1001.624521	1.005279
1001.919254	1.003114
1002.213951	1.004518
1002.508613	1.003932
1002.803239	1.003091
1003.097829	1.004433
1003.392384	1.004696
1003.686903	1.004352
1003.981386	1.003223
1004.275834	1.005481
1004.570246	1.004315
1004.864623	1.005411
1005.158964	1.004304
1005.453270	1.004904
1005.747540	1.003198
1006.041775	1.004788
1006.335974	1.004746
1006.630138	1.004457
1006.924266	1.002780
1007.218359	1.002200
1007.512416	1.004138
1007.806438	1.004153
1008.100425	1.004420
1008.394376	1.005538
1008.688292	1.004457
1008.982172	1.005020
1009.276017	1.003491
1009.569827	1.005978
1009.863602	1.003454
1010.157341	1.004583
1010.451045	1.003400
1010.744714	1.005385
1011.038347	1.005439
1011.331945	1.003378
1011.625508	1.002423
1011.919036	1.004873
1012.212528	1.005536
1012.505986	1.004848
1012.799408	1.004172
1013.092795	1.004139
1013.386147	1.006053
1013.679464	1.005261
1013.972745	1.004929
1014.265992	1.004598
1014.559204	1.004410
1014.852380	1.005262
1015.145521	1.004690
1015.438628	1.004034
1015.731699	1.005023
1016.024736	1.006253
1016.317737	1.002885
1016.610703	1.004890
1016.903635	1.004671
1017.196531	1.004576
1017.489393	1.003950
1017.782219	1.004277
1018.075011	1.003733
1018.367768	1.004254
1018.660490	1.005249
1018.953177	1.005249
1019.245829	1.005249
