Dividing Wavelength (nm)	Counts (n)	Blue Motor Position (mm): 40.100000	Red Motor Position (mm): 0.000000	
326.493990	1.000659
326.888308	1.000659
327.282561	1.000659
327.676750	1.000141
328.070874	1.000783
328.464933	1.001043
328.858929	1.001532
329.252859	0.999890
329.646726	0.998424
330.040528	0.999371
330.434265	0.999919
330.827938	1.000498
331.221547	0.999766
331.615091	0.999806
332.008571	1.001267
332.401986	0.999127
332.795338	0.999274
333.188625	1.000730
333.581847	0.998663
333.975006	0.999657
334.368100	1.001044
334.761129	0.999320
335.154095	0.999440
335.546996	0.999957
335.939833	1.000191
336.332606	1.000041
336.725315	0.997347
337.117960	1.000784
337.510540	0.998701
337.903056	0.999723
338.295508	1.000051
338.687896	1.001253
339.080220	0.998979
339.472480	1.000361
339.864676	1.000674
340.256807	0.999244
340.648875	1.000604
341.040879	0.998495
341.432818	1.000206
341.824694	0.999896
342.216506	1.001326
342.608253	0.999084
342.999937	0.998871
343.391557	0.999163
343.783113	1.001423
344.174605	1.000729
344.566033	1.000720
344.957397	0.999830
345.348697	1.000201
345.739934	1.000275
346.131106	0.999620
346.522215	0.998507
346.913260	1.000456
347.304241	0.999126
347.695159	0.999424
348.086012	0.999687
348.476802	1.000211
348.867528	0.999339
349.258191	1.000062
349.648789	0.999833
350.039324	0.999731
350.429796	0.999487
350.820203	0.998409
351.210548	0.999260
351.600828	1.000109
351.991045	0.998718
352.381198	0.999760
352.771288	0.999493
353.161314	0.999974
353.551276	1.000077
353.941175	0.996680
354.331010	1.000045
354.720782	0.999116
355.110490	0.998917
355.500135	0.999354
355.889717	0.998201
356.279235	0.998170
356.668689	0.999305
357.058080	0.998638
357.447408	0.998972
357.836672	0.999348
358.225873	0.998134
358.615010	0.999079
359.004084	0.997923
359.393095	0.999032
359.782043	0.997535
360.170927	0.999366
360.559748	0.998946
360.948505	0.998548
361.337199	0.998588
361.725830	0.999050
362.114398	0.998290
362.502903	0.997436
362.891344	0.998064
363.279722	0.997925
363.668037	0.999837
364.056289	0.998397
364.444478	0.999336
364.832603	0.998707
365.220665	0.998189
365.608665	0.997322
365.996601	0.997751
366.384474	0.997205
366.772284	0.997670
367.160031	0.996476
367.547715	0.995766
367.935336	0.995400
368.322893	0.994910
368.710388	0.994313
369.097820	0.991353
369.485189	0.990221
369.872495	0.988278
370.259738	0.986295
370.646918	0.983348
371.034035	0.978994
371.421090	0.979978
371.808081	0.972846
372.195010	0.971720
372.581875	0.965277
372.968678	0.961480
373.355418	0.957937
373.742096	0.951111
374.128710	0.945864
374.515262	0.941648
374.901751	0.936118
375.288177	0.930631
375.674540	0.924469
376.060841	0.918686
376.447079	0.910467
376.833254	0.905113
377.219367	0.900621
377.605417	0.888574
377.991404	0.885915
378.377329	0.878753
378.763191	0.872687
379.148991	0.864105
379.534727	0.856267
379.920402	0.848986
380.306013	0.845156
380.691563	0.832071
381.077049	0.825210
381.462474	0.820578
381.847835	0.810606
382.233134	0.805095
382.618371	0.805654
383.003545	0.788425
383.388657	0.785537
383.773706	0.778935
384.158693	0.774523
384.543618	0.769438
384.928480	0.760039
385.313280	0.750623
385.698017	0.750533
386.082692	0.739544
386.467305	0.737831
386.851856	0.733137
387.236344	0.728556
387.620770	0.723605
388.005133	0.719162
388.389435	0.714983
388.773674	0.713070
389.157851	0.707660
389.541965	0.706750
389.926018	0.715491
390.310008	0.705062
390.693936	0.705360
391.077802	0.702515
391.461606	0.706448
391.845348	0.700969
392.229027	0.704877
392.612645	0.707228
392.996200	0.701202
393.379694	0.699521
393.763125	0.695816
394.146494	0.706141
394.529801	0.704421
394.913047	0.704007
395.296230	0.715367
395.679351	0.714959
396.062410	0.719268
396.445408	0.728854
396.828343	0.732721
397.211217	0.736582
397.594028	0.752551
397.976778	0.754671
398.359466	0.760036
398.742092	0.766128
399.124656	0.780780
399.507158	0.781788
399.889598	0.789143
400.271977	0.793035
400.654294	0.803684
401.036549	0.812458
401.418742	0.822333
401.800874	0.824502
402.182944	0.831854
402.564952	0.836149
402.946898	0.845790
403.328783	0.854192
403.710606	0.866520
404.092367	0.865726
404.474067	0.876332
404.855705	0.882619
405.237282	0.891287
405.618797	0.895601
406.000250	0.901327
406.381642	0.905031
406.762972	0.913068
407.144240	0.919660
407.525447	0.924628
407.906593	0.929008
408.287677	0.934478
408.668700	0.941225
409.049661	0.946032
409.430560	0.948758
409.811399	0.955450
410.192176	0.956394
410.572891	0.962577
410.953545	0.965085
411.334138	0.969184
411.714669	0.971459
412.095139	0.975617
412.475547	0.977010
412.855894	0.980409
413.236180	0.982012
413.616405	0.984198
413.996568	0.985709
414.376670	0.987395
414.756711	0.989450
415.136691	0.990180
415.516609	0.991019
415.896466	0.992128
416.276262	0.993034
416.655997	0.994871
417.035670	0.994938
417.415283	0.995238
417.794834	0.995592
418.174324	0.997043
418.553753	0.997084
418.933121	0.997537
419.312428	0.998796
419.691674	0.998210
420.070859	0.998748
420.449983	0.998973
420.829045	0.998041
421.208047	0.999456
421.586988	0.998342
421.965867	0.997905
422.344686	0.998714
422.723444	0.998657
423.102141	0.999020
423.480777	0.998699
423.859352	0.999684
424.237866	0.999265
424.616319	1.000374
424.994712	0.999690
425.373044	0.999780
425.751314	0.999975
426.129524	1.000239
426.507673	0.998511
426.885762	0.999347
427.263789	0.999827
427.641756	0.999601
428.019662	1.000087
428.397508	0.999106
428.775292	0.999474
429.153016	0.999109
429.530679	1.000598
429.908282	1.000775
430.285824	0.999669
430.663305	1.000019
431.040726	1.000666
431.418086	0.999993
431.795385	1.000440
432.172624	1.000612
432.549802	0.999384
432.926920	1.000474
433.303977	0.999411
433.680974	1.001118
434.057910	1.000305
434.434786	0.999322
434.811601	0.999736
435.188355	1.000810
435.565050	1.000152
435.941683	1.000007
436.318257	0.999568
436.694770	1.000119
437.071222	0.999711
437.447614	1.000058
437.823946	1.000254
438.200218	1.000102
438.576429	0.999637
438.952580	1.000230
439.328670	0.998567
439.704700	0.999681
440.080670	1.000459
440.456580	0.999809
440.832429	1.000261
441.208218	1.000103
441.583947	1.000768
441.959616	0.999229
442.335224	1.001074
442.710773	1.000360
443.086261	1.000516
443.461689	0.999784
443.837057	1.000242
444.212365	1.001253
444.587612	1.000637
444.962800	1.000262
445.337927	1.001064
445.712995	1.000892
446.088002	0.999746
446.462949	0.999472
446.837837	1.001207
447.212664	1.000287
447.587431	1.000123
447.962139	1.000171
448.336786	0.999929
448.711374	0.999482
449.085901	1.000200
449.460369	1.000437
449.834776	1.000266
450.209124	1.000526
450.583412	0.999813
450.957640	1.000151
451.331808	1.001364
451.705917	0.999759
452.079965	1.000090
452.453954	1.000730
452.827883	1.000203
453.201752	1.000475
453.575562	1.000061
453.949311	1.000844
454.323001	0.999687
454.696632	1.000642
455.070202	1.000335
455.443713	1.000292
455.817164	1.000171
456.190556	1.000525
456.563888	1.000255
456.937160	1.000342
457.310373	0.999673
457.683526	1.000585
458.056619	1.000808
458.429653	0.999832
458.802628	0.999940
459.175542	1.000178
459.548398	0.999910
459.921194	1.000359
460.293930	1.000650
460.666607	1.000412
461.039224	0.999971
461.411782	0.999843
461.784280	0.999721
462.156719	1.000646
462.529099	1.000842
462.901419	1.000843
463.273680	0.999880
463.645882	0.999910
464.018024	1.000607
464.390106	0.999800
464.762130	1.000094
465.134094	0.999963
465.505999	0.999385
465.877845	0.999226
466.249631	0.999574
466.621358	0.999085
466.993026	0.999624
467.364634	0.999983
467.736184	1.000309
468.107674	0.999593
468.479105	0.999980
468.850477	1.000167
469.221790	1.000481
469.593043	0.999592
469.964238	0.999463
470.335373	0.999920
470.706449	0.999376
471.077467	1.000506
471.448425	0.999977
471.819324	0.999642
472.190164	0.999742
472.560945	0.999823
472.931667	0.999887
473.302330	1.000072
473.672934	1.000253
474.043479	0.999878
474.413965	1.000254
474.784393	0.999989
475.154761	0.999738
475.525070	0.999955
475.895321	1.000367
476.265513	1.000273
476.635645	1.000742
477.005719	1.000221
477.375734	0.999827
477.745691	0.999861
478.115588	0.999320
478.485427	1.000093
478.855207	0.999774
479.224928	1.000000
479.594591	0.999609
479.964194	0.999854
480.333739	1.000104
480.703226	0.999605
481.072653	0.999460
481.442022	1.000163
481.811333	0.999418
482.180584	0.999898
482.549777	1.000123
482.918912	0.999447
483.287988	0.999932
483.657005	0.999535
484.025964	1.000277
484.394864	0.999891
484.763706	0.999957
485.132489	1.000308
485.501213	1.001154
485.869879	0.999860
486.238487	0.999266
486.607036	1.000501
486.975527	1.000138
487.343959	0.999288
487.712333	1.000332
488.080648	1.000043
488.448905	1.000182
488.817104	1.000281
489.185244	1.000260
489.553326	1.000126
489.921350	1.000424
490.289315	1.000152
490.657222	0.999922
491.025070	0.999915
491.392861	1.000256
491.760593	0.999798
492.128267	0.999881
492.495883	0.999430
492.863440	1.000165
493.230939	1.000393
493.598380	1.000315
493.965763	0.999581
494.333088	0.999468
494.700354	0.999625
495.067563	1.000151
495.434713	1.000314
495.801805	0.999872
496.168839	0.999886
496.535815	0.999753
496.902733	0.999755
497.269593	1.000021
497.636395	0.999612
498.003139	0.999181
498.369825	1.000499
498.736453	1.000213
499.103023	1.000348
499.469535	1.000442
499.835989	0.999791
500.202385	0.999898
500.568723	0.999949
500.935003	1.000204
501.301226	0.999986
501.667390	0.999820
502.033497	1.000388
502.399546	0.999479
502.765537	0.999943
503.131470	1.000540
503.497345	1.000534
503.863163	1.000169
504.228923	0.999463
504.594625	0.999916
504.960269	0.999552
505.325856	1.000389
505.691385	1.000294
506.056856	1.000471
506.422270	1.000078
506.787625	0.999888
507.152924	1.000556
507.518164	0.999492
507.883347	0.999137
508.248472	0.999846
508.613540	0.999782
508.978550	1.000026
509.343503	0.999730
509.708398	0.999915
510.073236	1.000379
510.438016	0.999080
510.802738	0.999279
511.167403	0.999784
511.532010	1.000475
511.896561	0.999989
512.261053	0.999937
512.625488	0.999930
512.989866	1.000381
513.354186	0.999728
513.718449	0.999723
514.082655	0.999987
514.446803	0.999966
514.810894	1.000152
515.174927	1.000436
515.538904	1.000542
515.902822	1.000357
516.266684	1.000080
516.630488	1.000011
516.994235	1.000034
517.357925	1.000186
517.721558	0.999431
518.085133	1.000135
518.448651	0.999967
518.812112	1.000764
519.175516	1.000257
519.538863	0.999793
519.902152	1.000348
520.265385	0.999629
520.628560	1.000206
520.991678	1.000284
521.354739	1.000701
521.717743	0.999746
522.080690	0.999710
522.443580	1.000125
522.806413	1.000253
523.169189	1.000547
523.531908	0.999453
523.894569	0.999908
524.257174	0.999888
524.619722	1.000282
524.982213	1.000271
525.344647	0.999765
525.707025	0.999813
526.069345	0.999714
526.431608	1.000168
526.793815	1.000383
527.155964	1.000323
527.518057	1.000151
527.880093	1.000246
528.242072	1.000056
528.603995	0.999983
528.965860	1.000653
529.327669	1.000701
529.689421	1.000531
530.051117	1.000248
530.412755	1.000894
530.774337	0.999974
531.135862	1.000582
531.497331	1.000369
531.858743	1.000265
532.220098	1.000018
532.581396	1.000060
532.942638	1.000159
533.303824	1.000945
533.664953	0.999931
534.026025	1.001139
534.387040	1.000390
534.747999	1.000029
535.108902	1.000686
535.469748	1.000279
535.830537	1.000189
536.191270	1.000392
536.551947	1.000048
536.912567	0.999760
537.273131	1.000831
537.633638	1.000447
537.994089	1.000328
538.354483	1.000309
538.714821	1.000520
539.075103	1.000180
539.435328	1.000936
539.795497	1.000575
540.155609	1.000157
540.515665	1.000575
540.875665	0.999418
541.235609	1.000300
541.595496	0.999313
541.955328	1.000134
542.315102	0.999631
542.674821	1.000877
543.034483	1.000873
543.394090	1.000034
543.753640	1.000112
544.113134	0.999513
544.472571	1.000747
544.831953	1.000409
545.191278	1.000540
545.550548	1.000440
545.909761	0.999744
546.268918	1.000727
546.628019	1.000636
546.987064	0.999852
547.346053	1.000141
547.704986	0.999879
548.063863	1.000004
548.422684	1.000340
548.781449	1.000049
549.140158	1.000579
549.498811	0.999577
549.857408	0.999776
550.215949	1.000051
550.574434	1.000291
550.932864	1.000824
551.291237	1.000068
551.649555	1.000481
552.007817	1.000080
552.366022	1.000528
552.724173	1.000044
553.082267	0.999696
553.440305	0.999924
553.798288	0.999746
554.156215	0.999809
554.514086	1.000254
554.871902	1.000630
555.229661	1.000031
555.587365	0.999965
555.945014	1.000659
556.302606	1.000237
556.660143	1.000271
557.017625	1.000728
557.375050	1.000085
557.732421	1.000172
558.089735	1.000303
558.446994	1.000478
558.804197	1.000264
559.161345	0.999563
559.518437	1.000846
559.875474	1.000431
560.232455	1.000032
560.589381	1.000635
560.946251	0.999796
561.303065	1.000385
561.659825	0.999766
562.016528	1.000902
562.373177	1.000150
562.729770	1.000342
563.086307	0.999335
563.442789	1.000353
563.799216	1.000048
564.155587	0.999881
564.511904	1.000588
564.868164	0.999706
565.224370	0.999888
565.580520	0.999954
565.936615	1.000463
566.292654	0.999979
566.648638	1.000523
567.004567	0.999696
567.360441	1.000804
567.716260	1.000358
568.072023	0.999474
568.427732	1.000335
568.783385	1.000229
569.138982	1.000013
569.494525	1.000194
569.850013	1.000327
570.205445	1.000744
570.560823	1.000004
570.916145	0.999550
571.271412	1.000183
571.626625	1.000584
571.981782	1.000190
572.336884	1.000683
572.691931	1.000338
573.046923	1.000731
573.401860	0.999705
573.756743	0.999955
574.111570	0.999571
574.466342	1.000909
574.821059	0.999639
575.175722	1.000764
575.530330	1.000233
575.884882	0.999920
576.239380	1.000301
576.593823	0.999944
576.948211	1.000155
577.302544	1.000209
577.656823	1.000364
578.011047	0.999352
578.365216	1.000461
578.719330	1.000447
579.073389	0.998861
579.427394	0.999600
579.781344	1.000254
580.135239	0.999584
580.489080	1.000061
580.842866	1.000396
581.196597	0.999875
581.550273	1.000008
581.903895	1.000203
582.257463	1.000074
582.610975	0.999192
582.964434	1.000552
583.317837	1.000135
583.671186	1.000189
584.024481	0.999947
584.377721	0.999405
584.730906	1.000125
585.084037	1.000830
585.437113	1.000905
585.790135	1.000494
586.143103	1.000085
586.496016	0.999642
586.848874	1.000238
587.201679	0.999890
587.554428	0.999624
587.907124	1.000284
588.259765	1.000438
588.612352	0.999860
588.964884	1.000195
589.317362	0.999995
589.669786	0.999420
590.022155	0.999820
590.374470	1.000000
590.726731	1.000134
591.078937	0.999691
591.431090	0.999736
591.783188	0.999619
592.135232	1.000325
592.487222	0.999896
592.839157	0.999508
593.191038	1.000319
593.542866	1.000169
593.894639	0.999425
594.246358	0.999545
594.598022	1.000557
594.949633	0.999890
595.301190	1.000080
595.652692	0.999581
596.004141	1.000167
596.355535	0.999613
596.706876	1.000568
597.058162	1.000252
597.409395	1.000341
597.760573	1.000128
598.111698	0.999900
598.462768	0.999461
598.813785	0.999071
599.164748	1.000121
599.515657	0.999935
599.866511	0.999705
600.217312	1.000202
600.568060	1.000047
600.918753	1.000313
601.269392	0.999971
601.619978	1.000500
601.970510	0.999014
602.320988	0.999783
602.671412	0.999399
603.021783	1.000199
603.372100	1.000344
603.722363	1.000055
604.072572	0.999659
604.422728	0.999179
604.772830	0.999654
605.122878	1.000100
605.472872	1.000085
605.822813	0.999653
606.172701	1.000441
606.522534	1.000220
606.872314	1.001017
607.222041	0.999526
607.571714	0.999898
607.921333	0.999297
608.270899	0.999438
608.620411	1.000381
608.969870	1.000653
609.319276	0.999424
609.668627	1.000374
610.017926	0.999992
610.367171	1.000712
610.716362	1.000046
611.065500	0.999278
611.414585	0.999769
611.763616	0.999236
612.112594	0.999889
612.461518	0.999379
612.810389	0.999057
613.159207	0.999726
613.507971	1.000103
613.856682	1.000645
614.205340	0.999104
614.553945	1.000099
614.902496	0.999902
615.250994	1.000486
615.599439	0.999864
615.947830	0.998974
616.296169	1.000098
616.644454	0.999916
616.992686	1.000191
617.340864	0.999793
617.688990	0.999423
618.037063	1.000193
618.385082	0.999863
618.733048	0.999190
619.080961	0.999338
619.428821	1.000023
619.776628	0.999354
620.124382	1.000033
620.472083	0.999681
620.819731	1.000484
621.167326	0.999993
621.514868	1.000370
621.862357	0.999451
622.209793	0.999408
622.557176	0.999418
622.904506	0.999599
623.251783	0.999567
623.599007	1.000398
623.946179	0.999451
624.293297	0.999574
624.640363	1.000181
624.987376	0.998905
625.334336	0.999295
625.681243	0.999862
626.028097	1.000656
626.374899	0.999580
626.721647	1.000335
627.068343	0.999462
627.414987	0.999733
627.761577	0.999363
628.108115	0.999647
628.454600	0.998971
628.801032	1.000318
629.147412	0.999944
629.493739	1.000632
629.840014	0.999583
630.186236	0.999191
630.532405	0.999547
630.878521	0.999674
631.224585	0.999428
631.570597	1.000156
631.916556	0.999859
632.262462	0.998617
632.608316	1.000062
632.954117	0.999033
633.299866	0.999736
633.645562	0.999360
633.991206	0.999779
634.336797	0.999909
634.682336	1.000353
635.027823	1.000091
635.373257	0.999889
635.718639	1.000203
636.063968	0.999760
636.409245	0.998766
636.754470	0.999706
637.099642	1.000478
637.444762	0.999898
637.789829	1.000123
638.134845	0.999177
638.479808	0.999991
638.824719	1.000027
639.169577	0.999370
639.514383	1.000253
639.859137	1.000144
640.203839	0.999038
640.548489	0.999912
640.893086	0.998821
641.237632	1.000179
641.582125	0.999246
641.926566	1.000690
642.270955	1.000197
642.615292	0.999856
642.959576	1.000478
643.303809	1.000559
643.647990	0.999778
643.992118	1.000740
644.336195	1.000232
644.680219	1.000404
645.024192	0.999068
645.368112	0.999672
645.711981	0.999091
646.055797	0.999222
646.399562	0.999367
646.743274	1.000379
647.086935	0.998961
647.430544	0.999172
647.774101	0.999379
648.117606	1.000414
648.461059	0.999400
648.804460	0.999646
649.147810	0.998752
649.491108	1.000426
649.834354	1.000094
650.177548	0.999584
650.520690	0.999309
650.863781	0.999531
651.206820	0.999788
651.549807	0.999408
651.892742	1.000006
652.235626	0.999458
652.578458	0.999264
652.921238	0.999582
653.263967	0.999540
653.606644	0.999853
653.949269	1.000302
654.291843	0.999497
654.634365	1.000525
654.976836	0.999409
655.319255	1.000238
655.661622	1.000533
656.003938	0.999029
656.346203	0.998803
656.688416	1.000346
657.030577	0.999874
657.372687	0.999599
657.714746	0.999302
658.056753	0.999712
658.398708	0.999282
658.740612	1.000342
659.082465	0.999602
659.424266	1.000049
659.766016	0.999058
660.107715	1.000076
660.449362	0.999050
660.790958	0.998840
661.132503	0.999574
661.473996	0.999660
661.815438	0.999616
662.156829	1.000341
662.498168	1.000951
662.839456	0.999606
663.180693	0.999044
663.521879	1.000020
663.863013	1.000879
664.204097	0.998968
664.545129	0.999297
664.886110	0.999483
665.227040	0.999499
665.567918	0.999768
665.908746	0.999329
666.249522	0.999170
666.590248	0.999351
666.930922	0.998932
667.271545	0.999514
667.612118	0.999386
667.952639	0.999585
668.293109	1.000509
668.633528	0.999258
668.973896	0.998836
669.314213	0.999159
669.654480	0.999656
669.994695	0.998779
670.334859	0.999173
670.674973	0.999555
671.015035	0.999224
671.355047	0.999157
671.695008	0.999154
672.034918	0.999326
672.374777	1.000188
672.714585	0.999284
673.054342	0.998849
673.394049	0.998963
673.733705	0.998948
674.073310	0.999144
674.412864	0.998900
674.752368	0.998663
675.091820	1.000183
675.431223	0.999702
675.770574	0.998899
676.109875	0.999102
676.449125	0.999177
676.788324	0.999265
677.127473	0.999748
677.466571	0.999864
677.805619	0.999481
678.144616	1.000013
678.483562	0.999626
678.822458	0.999708
679.161303	0.998329
679.500098	0.999994
679.838842	0.999825
680.177535	0.999080
680.516179	0.998698
680.854771	0.998948
681.193314	0.998762
681.531805	0.999143
681.870247	0.999132
682.208638	0.999129
682.546978	0.998488
682.885268	0.998976
683.223508	0.998645
683.561697	0.998494
683.899836	0.999469
684.237925	0.998426
684.575963	0.998630
684.913951	0.999032
685.251889	0.998959
685.589776	0.999015
685.927614	0.998668
686.265401	0.998470
686.603137	0.998051
686.940824	0.998475
687.278460	0.999354
687.616046	0.998372
687.953582	0.998832
688.291068	0.999119
688.628504	0.998247
688.965889	0.999088
689.303224	0.997801
689.640510	0.998305
689.977745	0.998576
690.314930	0.998913
690.652065	0.999173
690.989150	0.998552
691.326185	0.999093
691.663170	0.999023
692.000105	0.999183
692.336990	0.998627
692.673825	0.998437
693.010610	0.998814
693.347345	0.998874
693.684030	0.999188
694.020665	0.998567
694.357251	0.998604
694.693786	0.998683
695.030272	0.997013
695.366707	0.998961
695.703093	0.998608
696.039429	0.997627
696.375716	1.000323
696.711952	0.998559
697.048139	0.999712
697.384276	0.999043
697.720363	0.998868
698.056400	0.997049
698.392388	0.998471
698.728326	0.998548
699.064214	1.000154
699.400053	0.998205
699.735842	0.999650
700.071581	0.999234
700.407270	0.999111
700.742910	0.999037
701.078501	0.999025
701.414042	0.999016
701.749533	0.998372
702.084974	0.999824
702.420366	0.999274
702.755709	0.999190
703.091002	0.999564
703.426246	0.999426
703.761440	0.998900
704.096584	0.998143
704.431679	0.998312
704.766725	0.998798
705.101721	0.998713
705.436668	0.999209
705.771565	0.997527
706.106413	0.997264
706.441212	0.998721
706.775961	0.998718
707.110661	0.997956
707.445311	0.999000
707.779913	0.999732
708.114465	0.998969
708.448967	0.998771
708.783421	0.999273
709.117825	0.998308
709.452180	0.999174
709.786485	0.999074
710.120742	0.998537
710.454949	0.997649
710.789107	0.998281
711.123216	0.997495
711.457275	0.997658
711.791286	0.998037
712.125247	0.999228
712.459159	0.998737
712.793023	0.998720
713.126837	0.998486
713.460602	0.998050
713.794318	0.997003
714.127985	0.997469
714.461602	0.998380
714.795171	0.998640
715.128691	0.998017
715.462162	0.998369
715.795584	0.997902
716.128957	0.998795
716.462281	0.999205
716.795556	0.998509
717.128782	0.998777
717.461960	0.998199
717.795088	0.998269
718.128167	0.999482
718.461198	0.998160
718.794180	0.998732
719.127113	0.998536
719.459997	0.998225
719.792833	0.998197
720.125619	0.997884
720.458357	0.997884
720.791046	0.999498
721.123686	0.998246
721.456278	0.998063
721.788821	0.998265
722.121315	0.999565
722.453761	0.998656
722.786158	0.997736
723.118506	0.998791
723.450805	0.997845
723.783056	0.999585
724.115259	0.998337
724.447412	0.999616
724.779518	0.998639
725.111574	0.998447
725.443582	0.998777
725.775542	0.998718
726.107453	0.998522
726.439315	0.998964
726.771129	0.998978
727.102895	0.998208
727.434612	0.998668
727.766281	0.998512
728.097901	0.997582
728.429473	0.999067
728.760996	0.997670
729.092471	0.998674
729.423897	0.998430
729.755276	0.997178
730.086606	0.998093
730.417887	0.999134
730.749120	0.998945
731.080305	0.998061
731.411442	0.997042
731.742530	0.997644
732.073570	0.997983
732.404562	0.997925
732.735506	0.997962
733.066401	0.998151
733.397249	0.998748
733.728048	0.998074
734.058798	0.998249
734.389501	0.999090
734.720156	0.998205
735.050762	0.999193
735.381320	0.998975
735.711831	0.997783
736.042293	0.998445
736.372707	0.999981
736.703073	0.997378
737.033391	0.998206
737.363661	0.999132
737.693883	0.998589
738.024056	0.996738
738.354182	0.998502
738.684260	0.998705
739.014290	0.997627
739.344272	0.998273
739.674207	0.998565
740.004093	0.997482
740.333931	0.999541
740.663722	0.997819
740.993464	0.998113
741.323159	0.998032
741.652806	0.997812
741.982405	0.998620
742.311956	0.999255
742.641460	0.998014
742.970915	0.998882
743.300323	0.997605
743.629683	0.997995
743.958996	0.999694
744.288260	0.997421
744.617477	0.998138
744.946647	0.997168
745.275768	0.999111
745.604842	0.998660
745.933869	0.998867
746.262847	0.999335
746.591778	0.997258
746.920662	0.998517
747.249498	0.998303
747.578286	0.998433
747.907027	0.998732
748.235720	0.998984
748.564365	0.998527
748.892963	0.997949
749.221514	0.998939
749.550017	0.997648
749.878473	0.998938
750.206881	0.999117
750.535242	0.998109
750.863555	0.997438
751.191821	0.998082
751.520039	0.999392
751.848210	0.996753
752.176334	0.997656
752.504411	0.998867
752.832440	0.998116
753.160421	0.997500
753.488356	0.997691
753.816243	0.998620
754.144082	0.997658
754.471875	0.997395
754.799620	0.998895
755.127318	0.998629
755.454969	0.997534
755.782572	0.999661
756.110129	0.997993
756.437638	0.998600
756.765100	0.998543
757.092515	0.997781
757.419882	0.999750
757.747203	0.998203
758.074477	0.999081
758.401703	0.998304
758.728882	0.998327
759.056014	0.997253
759.383099	0.998107
759.710138	0.998492
760.037129	0.998672
760.364073	0.998476
760.690970	0.997768
761.017820	0.997415
761.344623	0.998519
761.671379	0.999391
761.998088	0.997988
762.324751	0.997177
762.651366	0.997464
762.977935	0.997065
763.304456	0.997712
763.630931	0.996534
763.957359	0.996611
764.283740	0.996897
764.610074	0.997424
764.936362	0.997419
765.262602	0.998026
765.588796	0.998753
765.914943	0.997744
766.241044	0.998271
766.567097	0.998744
766.893104	0.999359
767.219064	0.997649
767.544978	0.998212
767.870845	0.998809
768.196665	0.997886
768.522438	0.999233
768.848165	0.998145
769.173846	0.998896
769.499479	0.998969
769.825066	0.999350
770.150607	0.998883
770.476101	0.999417
770.801548	0.998457
771.126949	0.999129
771.452303	0.998156
771.777611	0.999068
772.102872	0.999178
772.428087	0.998081
772.753256	0.998769
773.078378	0.998160
773.403453	0.997691
773.728482	0.999290
774.053465	0.998000
774.378401	0.999019
774.703291	0.999639
775.028135	0.999641
775.352932	0.997406
775.677683	0.999667
776.002388	0.999182
776.327046	0.997969
776.651658	1.000571
776.976224	0.999142
777.300743	0.998240
777.625216	0.999095
777.949643	0.998980
778.274024	0.997912
778.598359	0.999756
778.922647	0.998683
779.246889	0.999143
779.571086	0.999089
779.895236	0.998574
780.219339	0.999698
780.543397	0.998192
780.867409	0.999725
781.191374	0.999262
781.515294	1.000166
781.839167	0.999524
782.162995	0.998346
782.486776	0.998180
782.810511	0.998931
783.134201	0.999060
783.457844	0.999714
783.781441	0.998629
784.104993	0.998935
784.428498	0.999139
784.751958	0.998833
785.075372	0.999023
785.398739	0.999238
785.722061	0.997488
786.045337	0.998923
786.368568	0.999589
786.691752	0.998838
787.014891	0.997904
787.337983	0.998914
787.661030	0.998261
787.984031	0.998596
788.306987	0.998688
788.629897	0.996883
788.952760	0.997912
789.275579	0.998520
789.598351	0.998201
789.921078	1.000169
790.243759	0.999388
790.566395	0.998389
790.888984	0.998557
791.211529	0.999081
791.534027	0.999539
791.856480	0.998997
792.178888	0.997887
792.501249	0.998138
792.823566	1.000336
793.145836	0.999568
793.468062	0.999320
793.790241	0.998973
794.112375	0.998788
794.434464	0.998200
794.756507	0.999077
795.078505	0.998307
795.400457	0.998752
795.722364	0.999711
796.044226	0.998177
796.366042	0.998398
796.687812	0.996539
797.009538	0.997747
797.331218	0.999735
797.652852	0.999894
797.974442	0.997372
798.295986	0.998457
798.617484	0.998168
798.938938	0.999648
799.260346	0.998094
799.581709	0.998330
799.903026	0.999746
800.224299	0.997006
800.545526	0.998087
800.866708	0.999173
801.187845	0.998575
801.508936	0.998063
801.829983	0.999047
802.150984	0.998796
802.471940	0.999052
802.792851	0.998610
803.113717	0.999418
803.434538	1.000012
803.755314	0.999726
804.076045	0.998999
804.396731	0.998822
804.717372	0.998879
805.037967	0.998768
805.358518	0.999702
805.679024	0.998282
805.999485	0.998501
806.319901	0.998843
806.640272	0.999324
806.960598	0.999450
807.280879	0.997941
807.601115	1.000377
807.921306	0.999997
808.241453	0.998958
808.561554	0.999026
808.881611	0.999743
809.201623	0.998900
809.521590	0.998279
809.841513	0.999099
810.161390	0.998134
810.481223	0.997866
810.801011	0.999091
811.120755	1.000423
811.440453	0.998150
811.760107	0.998831
812.079716	0.997990
812.399281	0.998651
812.718801	0.998943
813.038276	0.999074
813.357707	0.998486
813.677093	1.000397
813.996434	0.999047
814.315731	0.999300
814.634983	0.999772
814.954191	0.999726
815.273354	0.998467
815.592473	0.997531
815.911547	0.999054
816.230577	0.999392
816.549562	0.999491
816.868502	0.998641
817.187399	0.999358
817.506250	0.999392
817.825058	0.997798
818.143821	0.998808
818.462539	0.998702
818.781213	0.999225
819.099843	0.999510
819.418429	0.998832
819.736970	0.999101
820.055466	0.997594
820.373919	0.997133
820.692327	0.996109
821.010691	0.996543
821.329011	0.995844
821.647286	0.994872
821.965517	0.993608
822.283704	0.993741
822.601847	0.992510
822.919945	0.992666
823.237999	0.994223
823.556010	0.994284
823.873976	0.994808
824.191897	0.995276
824.509775	0.996313
824.827609	0.996214
825.145398	0.996670
825.463144	0.995722
825.780845	0.995779
826.098502	0.995769
826.416116	0.996057
826.733685	0.995369
827.051210	0.993794
827.368692	0.994547
827.686129	0.995160
828.003522	0.995277
828.320872	0.996182
828.638177	0.997241
828.955439	0.997885
829.272656	0.998763
829.589830	0.997887
829.906960	0.997688
830.224046	0.998537
830.541088	0.998063
830.858086	0.997579
831.175041	0.999577
831.491952	0.998139
831.808819	0.998227
832.125642	0.997832
832.442421	0.998284
832.759157	0.998455
833.075849	0.997376
833.392497	0.995945
833.709101	0.995512
834.025662	0.996647
834.342179	0.996686
834.658653	0.997534
834.975083	0.997593
835.291469	0.998584
835.607811	0.998497
835.924110	0.998197
836.240366	0.999676
836.556578	0.999208
836.872746	0.998743
837.188871	0.998707
837.504952	0.998896
837.820990	0.998978
838.136984	0.998392
838.452935	0.999137
838.768842	0.999302
839.084706	0.999068
839.400526	0.998932
839.716303	0.996758
840.032037	0.998428
840.347727	0.999170
840.663373	0.997984
840.978977	0.998844
841.294537	0.999916
841.610054	0.998626
841.925527	0.999720
842.240957	0.999124
842.556344	0.998953
842.871687	0.999088
843.186987	0.999700
843.502244	0.999644
843.817458	0.997978
844.132629	0.998847
844.447756	0.998991
844.762840	0.999216
845.077881	1.001179
845.392879	0.997823
845.707833	0.998716
846.022745	0.999696
846.337613	0.999448
846.652438	1.000747
846.967221	0.999517
847.281960	0.999819
847.596656	0.999472
847.911309	1.000538
848.225919	0.998731
848.540485	0.999535
848.855009	1.001412
849.169490	0.999799
849.483928	0.999436
849.798323	0.998181
850.112675	1.000223
850.426984	0.999298
850.741251	0.999648
851.055474	1.000024
851.369654	1.000321
851.683792	0.998400
851.997887	0.999427
852.311938	0.999483
852.625947	0.998956
852.939914	0.998789
853.253837	1.000133
853.567718	0.999634
853.881555	0.999792
854.195350	1.000173
854.509103	0.999140
854.822812	0.999615
855.136479	1.000286
855.450103	1.000199
855.763685	0.999451
856.077224	0.999482
856.390720	0.999729
856.704173	1.000921
857.017584	0.999713
857.330953	1.000456
857.644278	0.999619
857.957561	0.999536
858.270802	1.000550
858.584000	0.999286
858.897155	0.998880
859.210268	0.999647
859.523339	1.001540
859.836367	0.999195
860.149352	0.998858
860.462295	0.999243
860.775195	0.999705
861.088054	0.998707
861.400869	0.999732
861.713642	0.998922
862.026373	0.999333
862.339062	1.000012
862.651708	0.999425
862.964312	0.999575
863.276873	0.998993
863.589392	0.999048
863.901869	1.000105
864.214303	0.998040
864.526696	0.999936
864.839045	0.999153
865.151353	0.999209
865.463619	0.998509
865.775842	0.999325
866.088023	1.000132
866.400162	0.999735
866.712258	1.000809
867.024313	0.998909
867.336325	1.000302
867.648296	1.000153
867.960224	1.000337
868.272110	1.000532
868.583954	0.999876
868.895755	1.000581
869.207515	0.999113
869.519233	1.000015
869.830909	0.999588
870.142542	0.999159
870.454134	0.998870
870.765684	0.998710
871.077191	0.999494
871.388657	0.999863
871.700081	0.999946
872.011463	1.000660
872.322803	0.999674
872.634101	0.998638
872.945357	0.998218
873.256571	0.998424
873.567744	0.999297
873.878874	0.998687
874.189963	0.998694
874.501010	1.000293
874.812015	0.999748
875.122979	0.999534
875.433900	0.998517
875.744780	0.998748
876.055618	0.998616
876.366415	0.999014
876.677169	0.998302
876.987882	0.999139
877.298554	1.000286
877.609183	0.999533
877.919771	0.999578
878.230317	0.999767
878.540822	0.998388
878.851285	0.998780
879.161707	0.998426
879.472087	1.000396
879.782425	0.997980
880.092722	0.998038
880.402977	0.997763
880.713191	0.995954
881.023363	0.994564
881.333494	0.994553
881.643583	0.995382
881.953631	0.994667
882.263637	0.994418
882.573602	0.994802
882.883526	0.995090
883.193408	0.996112
883.503248	0.995118
883.813048	0.995804
884.122806	0.997448
884.432522	0.997393
884.742197	0.998150
885.051831	0.997768
885.361424	0.997649
885.670975	0.999111
885.980485	0.998818
886.289954	0.998344
886.599382	0.998215
886.908768	0.999504
887.218113	0.998335
887.527417	0.999557
887.836680	0.998963
888.145901	0.999803
888.455082	1.000119
888.764221	0.999906
889.073319	0.998100
889.382376	0.999906
889.691392	0.997260
890.000366	0.999119
890.309300	0.999240
890.618193	0.999448
890.927044	0.998435
891.235855	1.000061
891.544625	0.998872
891.853353	0.998368
892.162041	0.999145
892.470687	0.999871
892.779293	0.998569
893.087858	0.997921
893.396381	0.998513
893.704864	0.998327
894.013306	0.998274
894.321707	0.998511
894.630068	0.997249
894.938387	0.996813
895.246665	0.997586
895.554903	0.997020
895.863100	0.997387
896.171256	0.997773
896.479371	0.997824
896.787446	0.997426
897.095480	0.997684
897.403473	0.998067
897.711425	0.998057
898.019336	0.999812
898.327207	0.998828
898.635038	0.998764
898.942827	0.999084
899.250576	0.998339
899.558284	0.999313
899.865952	0.997963
900.173579	0.999461
900.481165	0.999373
900.788711	0.998848
901.096216	0.999488
901.403681	0.998694
901.711105	0.998804
902.018489	0.999472
902.325832	0.998630
902.633135	0.998991
902.940397	0.999635
903.247619	0.999198
903.554800	0.996238
903.861941	0.997964
904.169041	0.997051
904.476101	0.998249
904.783121	0.996421
905.090100	0.997295
905.397039	0.996997
905.703938	0.998417
906.010796	0.997017
906.317614	0.997989
906.624391	0.998795
906.931129	0.999287
907.237826	0.998581
907.544483	0.999510
907.851099	0.998912
908.157675	0.998652
908.464211	0.999026
908.770707	0.998520
909.077163	0.999597
909.383578	0.999892
909.689954	0.999890
909.996289	1.000348
910.302584	1.000584
910.608839	1.000991
910.915054	0.999432
911.221229	1.000111
911.527363	0.999310
911.833458	1.000065
912.139513	0.998391
912.445527	0.999806
912.751502	1.000518
913.057436	0.999565
913.363331	1.000496
913.669186	1.000332
913.975000	0.999702
914.280775	0.999848
914.586510	0.998323
914.892205	0.999434
915.197859	0.998723
915.503475	0.997244
915.809050	0.996818
916.114585	0.996620
916.420081	0.997287
916.725536	0.997561
917.030952	0.996912
917.336328	0.996734
917.641665	0.996731
917.946961	0.996573
918.252218	0.997097
918.557435	0.997180
918.862612	0.997881
919.167750	0.997561
919.472848	0.999316
919.777906	0.999231
920.082925	0.999491
920.387904	1.000728
920.692843	0.999684
920.997743	0.998974
921.302603	0.998315
921.607423	0.997977
921.912204	0.999275
922.216946	0.999530
922.521647	0.998933
922.826310	0.998071
923.130932	1.000225
923.435516	1.000600
923.740059	0.998769
924.044564	0.998670
924.349028	0.999555
924.653454	0.998922
924.957840	0.998633
925.262186	1.000166
925.566493	0.999309
925.870761	0.999947
926.174989	0.999167
926.479178	1.000777
926.783328	0.998897
927.087438	0.999339
927.391509	0.998800
927.695541	1.000419
927.999533	1.000554
928.303486	0.999887
928.607400	1.000544
928.911275	0.998744
929.215110	0.999403
929.518906	1.000960
929.822663	1.000235
930.126381	1.001262
930.430060	0.999368
930.733699	0.999777
931.037299	1.000016
931.340861	1.000078
931.644383	0.998888
931.947866	0.999871
932.251309	1.000162
932.554714	1.000636
932.858080	0.999899
933.161407	0.998903
933.464694	0.999014
933.767943	0.999573
934.071153	0.999934
934.374323	1.000832
934.677455	0.999615
934.980548	0.999882
935.283602	1.000899
935.586617	0.999455
935.889593	0.999858
936.192530	1.001347
936.495428	0.999848
936.798287	0.999330
937.101108	0.999893
937.403890	0.999728
937.706632	1.001215
938.009336	0.999560
938.312002	0.999153
938.614628	0.999750
938.917216	0.998211
939.219765	0.999678
939.522275	1.000619
939.824747	0.999035
940.127179	0.999327
940.429573	1.000761
940.731929	0.998039
941.034246	0.998341
941.336524	0.999352
941.638763	0.998910
941.940964	0.998997
942.243126	0.999324
942.545250	0.999717
942.847335	1.000156
943.149381	0.999756
943.451389	0.999421
943.753359	0.998479
944.055290	1.001304
944.357182	1.000456
944.659036	1.000412
944.960851	1.000948
945.262628	1.000453
945.564367	0.999705
945.866067	0.998505
946.167729	1.000140
946.469352	0.998939
946.770937	0.997867
947.072484	1.000965
947.373992	0.999893
947.675462	0.999973
947.976893	0.998935
948.278286	1.001697
948.579641	1.000130
948.880958	0.999727
949.182236	1.000323
949.483476	1.000303
949.784678	1.000452
950.085841	0.999788
950.386967	0.999343
950.688054	0.999787
950.989103	0.998313
951.290114	0.997045
951.591087	0.999947
951.892021	0.999974
952.192917	1.000365
952.493776	1.000131
952.794596	0.999247
953.095378	0.999434
953.396122	0.999610
953.696828	1.001095
953.997496	0.999991
954.298126	1.000682
954.598718	0.999050
954.899272	0.999793
955.199788	0.999182
955.500266	0.999738
955.800706	0.999814
956.101108	0.999274
956.401472	1.001290
956.701798	0.998653
957.002087	1.000134
957.302337	0.999451
957.602550	0.999088
957.902724	0.998409
958.202861	0.998353
958.502960	0.998331
958.803022	1.000468
959.103045	0.999243
959.403031	0.999751
959.702979	1.001245
960.002889	0.999167
960.302762	0.999269
960.602596	1.000022
960.902393	1.000604
961.202153	0.999226
961.501875	0.999993
961.801559	0.999756
962.101205	1.000682
962.400814	0.999452
962.700385	0.999748
962.999918	1.000461
963.299414	0.998954
963.598873	0.999106
963.898293	0.999705
964.197677	0.999822
964.497022	1.000729
964.796331	0.999633
965.095601	1.001461
965.394835	0.999874
965.694030	1.000980
965.993189	0.999586
966.292309	1.000771
966.591393	0.999130
966.890439	0.999950
967.189447	1.000465
967.488419	0.999161
967.787353	0.999260
968.086249	1.000035
968.385108	0.999883
968.683930	1.001329
968.982714	0.999864
969.281462	0.999807
969.580172	1.000879
969.878844	1.000996
970.177480	1.000815
970.476078	1.001284
970.774639	0.999810
971.073162	0.999654
971.371649	0.999371
971.670098	0.999730
971.968510	1.001003
972.266885	0.998834
972.565223	0.999452
972.863524	0.998653
973.161788	0.999655
973.460014	1.000261
973.758204	0.999266
974.056356	1.000444
974.354471	0.999348
974.652550	1.001084
974.950591	0.999700
975.248595	0.998801
975.546563	1.000630
975.844493	0.999604
976.142386	0.999452
976.440243	1.000645
976.738062	1.000316
977.035845	0.998634
977.333590	1.000542
977.631299	0.998729
977.928971	1.000344
978.226606	1.000446
978.524204	0.999614
978.821765	1.001539
979.119290	1.000577
979.416777	0.999410
979.714228	0.999079
980.011642	0.999359
980.309020	0.999165
980.606360	0.999196
980.903664	0.999789
981.200931	1.000021
981.498162	1.000587
981.795356	1.000936
982.092513	0.999700
982.389633	1.000214
982.686717	0.999785
982.983764	0.997804
983.280775	1.000464
983.577749	1.000710
983.874686	0.998586
984.171587	0.999178
984.468451	1.000123
984.765279	1.000890
985.062070	1.000201
985.358824	1.000188
985.655543	0.999963
985.952224	1.000267
986.248869	1.000090
986.545478	1.001910
986.842050	0.999935
987.138586	0.999274
987.435086	0.998938
987.731549	1.001654
988.027975	1.000438
988.324366	0.999245
988.620719	1.001459
988.917037	1.000164
989.213318	1.001171
989.509563	0.999590
989.805772	1.000740
990.101944	1.000805
990.398080	1.000246
990.694180	1.000962
990.990244	0.998292
991.286271	1.000000
991.582262	1.000600
991.878217	0.999626
992.174136	1.001029
992.470019	1.000615
992.765865	1.000704
993.061676	1.000548
993.357450	1.000583
993.653188	1.001001
993.948890	0.999471
994.244556	0.999762
994.540186	0.999795
994.835780	0.999497
995.131337	1.000285
995.426859	0.999569
995.722345	1.000911
996.017795	1.000149
996.313208	0.999334
996.608586	0.999624
996.903928	0.999838
997.199234	1.000143
997.494504	1.000742
997.789738	0.998752
998.084936	1.000126
998.380099	0.999402
998.675225	1.000077
998.970316	1.000769
999.265371	1.000600
999.560390	1.000377
999.855373	1.000603
1000.150320	1.000342
1000.445232	0.999785
1000.740108	1.000204
1001.034948	0.999659
1001.329752	1.001395
1001.624521	0.999543
1001.919254	0.999397
1002.213951	1.000797
1002.508613	0.999006
1002.803239	0.999277
1003.097829	0.999456
1003.392384	0.998552
1003.686903	0.999828
1003.981386	0.999935
1004.275834	1.002127
1004.570246	0.998323
1004.864623	1.001277
1005.158964	1.000430
1005.453270	1.000380
1005.747540	0.999953
1006.041775	1.001094
1006.335974	0.999760
1006.630138	1.000786
1006.924266	0.999020
1007.218359	0.998718
1007.512416	1.000587
1007.806438	0.999805
1008.100425	1.000558
1008.394376	1.001706
1008.688292	0.998688
1008.982172	0.999806
1009.276017	1.000483
1009.569827	1.000444
1009.863602	0.998847
1010.157341	1.000477
1010.451045	0.999962
1010.744714	1.001896
1011.038347	1.001042
1011.331945	0.999537
1011.625508	1.000398
1011.919036	1.000162
1012.212528	1.000166
1012.505986	0.999072
1012.799408	1.001099
1013.092795	1.000375
1013.386147	0.999621
1013.679464	1.000804
1013.972745	1.000408
1014.265992	0.998872
1014.559204	0.999983
1014.852380	1.000804
1015.145521	0.999717
1015.438628	0.999092
1015.731699	0.999531
1016.024736	1.000340
1016.317737	1.000727
1016.610703	1.000761
1016.903635	1.000039
1017.196531	1.000487
1017.489393	0.999987
1017.782219	0.999720
1018.075011	0.998680
1018.367768	0.999487
1018.660490	0.999598
1018.953177	0.999598
1019.245829	0.999598
