Dividing Wavelength (nm)	Counts (n)	Blue Motor Position (mm): 20.900000	Red Motor Position (mm): 0.000000	
326.493990	1.001372
326.888308	1.001372
327.282561	1.001372
327.676750	1.001991
328.070874	1.002661
328.464933	1.002116
328.858929	1.003249
329.252859	1.001707
329.646726	1.001182
330.040528	1.001510
330.434265	1.002989
330.827938	1.000809
331.221547	1.001950
331.615091	1.002402
332.008571	1.002691
332.401986	1.001310
332.795338	1.001453
333.188625	1.001433
333.581847	1.001315
333.975006	1.001707
334.368100	1.002171
334.761129	1.000762
335.154095	1.001883
335.546996	1.001731
335.939833	0.999055
336.332606	0.998948
336.725315	0.998701
337.117960	1.000701
337.510540	0.998866
337.903056	0.998965
338.295508	0.999363
338.687896	1.000301
339.080220	1.000194
339.472480	0.998447
339.864676	0.999298
340.256807	0.999239
340.648875	0.998665
341.040879	0.999500
341.432818	0.999905
341.824694	0.999100
342.216506	1.000020
342.608253	0.999524
342.999937	0.998813
343.391557	0.997764
343.783113	1.001986
344.174605	1.000128
344.566033	0.997704
344.957397	0.999714
345.348697	0.999473
345.739934	0.998828
346.131106	0.998244
346.522215	0.998238
346.913260	0.999365
347.304241	0.997941
347.695159	0.999663
348.086012	0.998908
348.476802	0.997811
348.867528	0.998718
349.258191	0.999131
349.648789	0.999125
350.039324	0.998523
350.429796	0.999028
350.820203	0.998089
351.210548	0.998558
351.600828	0.999302
351.991045	0.998863
352.381198	0.998704
352.771288	0.998003
353.161314	0.998581
353.551276	0.996554
353.941175	0.997511
354.331010	0.997749
354.720782	0.998036
355.110490	0.997247
355.500135	0.998292
355.889717	0.996747
356.279235	0.998095
356.668689	0.997945
357.058080	0.998243
357.447408	0.998027
357.836672	0.998207
358.225873	0.996996
358.615010	0.997826
359.004084	0.997269
359.393095	0.998081
359.782043	0.998350
360.170927	0.998657
360.559748	0.997535
360.948505	0.997424
361.337199	0.997332
361.725830	0.999433
362.114398	0.997341
362.502903	0.996751
362.891344	0.996608
363.279722	0.995921
363.668037	0.997961
364.056289	0.996970
364.444478	0.998907
364.832603	0.996922
365.220665	0.997921
365.608665	0.996080
365.996601	0.996279
366.384474	0.995817
366.772284	0.997681
367.160031	0.994870
367.547715	0.995272
367.935336	0.994367
368.322893	0.993041
368.710388	0.992017
369.097820	0.990517
369.485189	0.989170
369.872495	0.987041
370.259738	0.984520
370.646918	0.981933
371.034035	0.980235
371.421090	0.976038
371.808081	0.972223
372.195010	0.968389
372.581875	0.963149
372.968678	0.959291
373.355418	0.956029
373.742096	0.948720
374.128710	0.944048
374.515262	0.940224
374.901751	0.933404
375.288177	0.929038
375.674540	0.921014
376.060841	0.916333
376.447079	0.909334
376.833254	0.901876
377.219367	0.898600
377.605417	0.886273
377.991404	0.883004
378.377329	0.876728
378.763191	0.870121
379.148991	0.861114
379.534727	0.854166
379.920402	0.845700
380.306013	0.842215
380.691563	0.829663
381.077049	0.822355
381.462474	0.818339
381.847835	0.807602
382.233134	0.802321
382.618371	0.802549
383.003545	0.785861
383.388657	0.783452
383.773706	0.775742
384.158693	0.771192
384.543618	0.765862
384.928480	0.757532
385.313280	0.747641
385.698017	0.747235
386.082692	0.735768
386.467305	0.734214
386.851856	0.728766
387.236344	0.722469
387.620770	0.717808
388.005133	0.711859
388.389435	0.706343
388.773674	0.703758
389.157851	0.695372
389.541965	0.693379
389.926018	0.700154
390.310008	0.685594
390.693936	0.683830
391.077802	0.675849
391.461606	0.677088
391.845348	0.666502
392.229027	0.665283
392.612645	0.664475
392.996200	0.651289
393.379694	0.644330
393.763125	0.634423
394.146494	0.638849
394.529801	0.629514
394.913047	0.621499
395.296230	0.627433
395.679351	0.618803
396.062410	0.615382
396.445408	0.618428
396.828343	0.613601
397.211217	0.608763
397.594028	0.620826
397.976778	0.611492
398.359466	0.607610
398.742092	0.603128
399.124656	0.614771
399.507158	0.603318
399.889598	0.600217
400.271977	0.592026
400.654294	0.594873
401.036549	0.594479
401.418742	0.598544
401.800874	0.585308
402.182944	0.581344
402.564952	0.573246
402.946898	0.575619
403.328783	0.575884
403.710606	0.586940
404.092367	0.561504
404.474067	0.567193
404.855705	0.565781
405.237282	0.574498
405.618797	0.560974
406.000250	0.556838
406.381642	0.547178
406.762972	0.551509
407.144240	0.550552
407.525447	0.550355
407.906593	0.543154
408.287677	0.538526
408.668700	0.547273
409.049661	0.541652
409.430560	0.535901
409.811399	0.544337
410.192176	0.526524
410.572891	0.533821
410.953545	0.521322
411.334138	0.534711
411.714669	0.527540
412.095139	0.539399
412.475547	0.523716
412.855894	0.525936
413.236180	0.525746
413.616405	0.530439
413.996568	0.520652
414.376670	0.526870
414.756711	0.531555
415.136691	0.528658
415.516609	0.519509
415.896466	0.516944
416.276262	0.511788
416.655997	0.514554
417.035670	0.496038
417.415283	0.487445
417.794834	0.492466
418.174324	0.497121
418.553753	0.506456
418.933121	0.488556
419.312428	0.482646
419.691674	0.488271
420.070859	0.476607
420.449983	0.484662
420.829045	0.473589
421.208047	0.482642
421.586988	0.476091
421.965867	0.474622
422.344686	0.463662
422.723444	0.476904
423.102141	0.492913
423.480777	0.465704
423.859352	0.487404
424.237866	0.464326
424.616319	0.465147
424.994712	0.455701
425.373044	0.465740
425.751314	0.454338
426.129524	0.470211
426.507673	0.454210
426.885762	0.447628
427.263789	0.453929
427.641756	0.462573
428.019662	0.453136
428.397508	0.452013
428.775292	0.456454
429.153016	0.448566
429.530679	0.454588
429.908282	0.447740
430.285824	0.458105
430.663305	0.436725
431.040726	0.457373
431.418086	0.457531
431.795385	0.449340
432.172624	0.448726
432.549802	0.448469
432.926920	0.447646
433.303977	0.447060
433.680974	0.444466
434.057910	0.442905
434.434786	0.442003
434.811601	0.444864
435.188355	0.427133
435.565050	0.437129
435.941683	0.437438
436.318257	0.422118
436.694770	0.422709
437.071222	0.420682
437.447614	0.425276
437.823946	0.431915
438.200218	0.420514
438.576429	0.431312
438.952580	0.423637
439.328670	0.420574
439.704700	0.426820
440.080670	0.428356
440.456580	0.409120
440.832429	0.417616
441.208218	0.428232
441.583947	0.417515
441.959616	0.417002
442.335224	0.422977
442.710773	0.413248
443.086261	0.411530
443.461689	0.424696
443.837057	0.414736
444.212365	0.405145
444.587612	0.411946
444.962800	0.401788
445.337927	0.403660
445.712995	0.429492
446.088002	0.391865
446.462949	0.401576
446.837837	0.407152
447.212664	0.395383
447.587431	0.387376
447.962139	0.357290
448.336786	0.316486
448.711374	0.327100
449.085901	0.370994
449.460369	0.375363
449.834776	0.379042
450.209124	0.358439
450.583412	0.351118
450.957640	0.343987
451.331808	0.355711
451.705917	0.378880
452.079965	0.383762
452.453954	0.371890
452.827883	0.378270
453.201752	0.373247
453.575562	0.384347
453.949311	0.373223
454.323001	0.379212
454.696632	0.375072
455.070202	0.367669
455.443713	0.359286
455.817164	0.354578
456.190556	0.350117
456.563888	0.347098
456.937160	0.344444
457.310373	0.362075
457.683526	0.360641
458.056619	0.366491
458.429653	0.367049
458.802628	0.370716
459.175542	0.364886
459.548398	0.347210
459.921194	0.339761
460.293930	0.339839
460.666607	0.317399
461.039224	0.305825
461.411782	0.301261
461.784280	0.300501
462.156719	0.304304
462.529099	0.309166
462.901419	0.325170
463.273680	0.328937
463.645882	0.328750
464.018024	0.335292
464.390106	0.327610
464.762130	0.312281
465.134094	0.295353
465.505999	0.264166
465.877845	0.234655
466.249631	0.221500
466.621358	0.228935
466.993026	0.242926
467.364634	0.249288
467.736184	0.257967
468.107674	0.266904
468.479105	0.265882
468.850477	0.272878
469.221790	0.279542
469.593043	0.289878
469.964238	0.294432
470.335373	0.294315
470.706449	0.292149
471.077467	0.292753
471.448425	0.254812
471.819324	0.230408
472.190164	0.230192
472.560945	0.259116
472.931667	0.281385
473.302330	0.285522
473.672934	0.297356
474.043479	0.285326
474.413965	0.287668
474.784393	0.291046
475.154761	0.286001
475.525070	0.283059
475.895321	0.289166
476.265513	0.283048
476.635645	0.278760
477.005719	0.278735
477.375734	0.275430
477.745691	0.268597
478.115588	0.265145
478.485427	0.258894
478.855207	0.246012
479.224928	0.228723
479.594591	0.216953
479.964194	0.220431
480.333739	0.221635
480.703226	0.223399
481.072653	0.222318
481.442022	0.218508
481.811333	0.215410
482.180584	0.219165
482.549777	0.225047
482.918912	0.228532
483.287988	0.228643
483.657005	0.228889
484.025964	0.235782
484.394864	0.233510
484.763706	0.234535
485.132489	0.240330
485.501213	0.241606
485.869879	0.240543
486.238487	0.244601
486.607036	0.242999
486.975527	0.248640
487.343959	0.244861
487.712333	0.244982
488.080648	0.247191
488.448905	0.247248
488.817104	0.249703
489.185244	0.245129
489.553326	0.243384
489.921350	0.234828
490.289315	0.219345
490.657222	0.215141
491.025070	0.218076
491.392861	0.221170
491.760593	0.227954
492.128267	0.234949
492.495883	0.241462
492.863440	0.248769
493.230939	0.257057
493.598380	0.260100
493.965763	0.264175
494.333088	0.267345
494.700354	0.271101
495.067563	0.271830
495.434713	0.277159
495.801805	0.276749
496.168839	0.280648
496.535815	0.284510
496.902733	0.286121
497.269593	0.290171
497.636395	0.289916
498.003139	0.293635
498.369825	0.299111
498.736453	0.298735
499.103023	0.302349
499.469535	0.304929
499.835989	0.307861
500.202385	0.311441
500.568723	0.317797
500.935003	0.316051
501.301226	0.325209
501.667390	0.321783
502.033497	0.323991
502.399546	0.329912
502.765537	0.335212
503.131470	0.337460
503.497345	0.338049
503.863163	0.349308
504.228923	0.347097
504.594625	0.349248
504.960269	0.358622
505.325856	0.358542
505.691385	0.367429
506.056856	0.368039
506.422270	0.372597
506.787625	0.378226
507.152924	0.381389
507.518164	0.385492
507.883347	0.392061
508.248472	0.398334
508.613540	0.398810
508.978550	0.406566
509.343503	0.411454
509.708398	0.415143
510.073236	0.418049
510.438016	0.422607
510.802738	0.429188
511.167403	0.433687
511.532010	0.441511
511.896561	0.441654
512.261053	0.446289
512.625488	0.454218
512.989866	0.460055
513.354186	0.466058
513.718449	0.473557
514.082655	0.475353
514.446803	0.483228
514.810894	0.487230
515.174927	0.495685
515.538904	0.500200
515.902822	0.504432
516.266684	0.511421
516.630488	0.518889
516.994235	0.523334
517.357925	0.529175
517.721558	0.533810
518.085133	0.539561
518.448651	0.545413
518.812112	0.553170
519.175516	0.559102
519.538863	0.563706
519.902152	0.570747
520.265385	0.575585
520.628560	0.580974
520.991678	0.589526
521.354739	0.594032
521.717743	0.600063
522.080690	0.606158
522.443580	0.612452
522.806413	0.618503
523.169189	0.624438
523.531908	0.628904
523.894569	0.637346
524.257174	0.643580
524.619722	0.648448
524.982213	0.653941
525.344647	0.660478
525.707025	0.666031
526.069345	0.671688
526.431608	0.679394
526.793815	0.683601
527.155964	0.692061
527.518057	0.695707
527.880093	0.702681
528.242072	0.707030
528.603995	0.714039
528.965860	0.720374
529.327669	0.725308
529.689421	0.731000
530.051117	0.737337
530.412755	0.742036
530.774337	0.746883
531.135862	0.753372
531.497331	0.757007
531.858743	0.765180
532.220098	0.767168
532.581396	0.774277
532.942638	0.779194
533.303824	0.784129
533.664953	0.789228
534.026025	0.795293
534.387040	0.798651
534.747999	0.802975
535.108902	0.807342
535.469748	0.813661
535.830537	0.817619
536.191270	0.821876
536.551947	0.825304
536.912567	0.830078
537.273131	0.835098
537.633638	0.837989
537.994089	0.843878
538.354483	0.847077
538.714821	0.850180
539.075103	0.853980
539.435328	0.858378
539.795497	0.862791
540.155609	0.865366
540.515665	0.869253
540.875665	0.872962
541.235609	0.877265
541.595496	0.879569
541.955328	0.883718
542.315102	0.886573
542.674821	0.890712
543.034483	0.893482
543.394090	0.896100
543.753640	0.900151
544.113134	0.901774
544.472571	0.905727
544.831953	0.908517
545.191278	0.911335
545.550548	0.913949
545.909761	0.915204
546.268918	0.919317
546.628019	0.921106
546.987064	0.923807
547.346053	0.925949
547.704986	0.927997
548.063863	0.930357
548.422684	0.932790
548.781449	0.935384
549.140158	0.936468
549.498811	0.938594
549.857408	0.940991
550.215949	0.942459
550.574434	0.944441
550.932864	0.946918
551.291237	0.947584
551.649555	0.950624
552.007817	0.951562
552.366022	0.953798
552.724173	0.955194
553.082267	0.956052
553.440305	0.957535
553.798288	0.958567
554.156215	0.960954
554.514086	0.962240
554.871902	0.963416
555.229661	0.963486
555.587365	0.965435
555.945014	0.967517
556.302606	0.967387
556.660143	0.969257
557.017625	0.970534
557.375050	0.970326
557.732421	0.972039
558.089735	0.972584
558.446994	0.973670
558.804197	0.974390
559.161345	0.975267
559.518437	0.975743
559.875474	0.977789
560.232455	0.977760
560.589381	0.979202
560.946251	0.978877
561.303065	0.979950
561.659825	0.980368
562.016528	0.981668
562.373177	0.981602
562.729770	0.981745
563.086307	0.982102
563.442789	0.983197
563.799216	0.983248
564.155587	0.984443
564.511904	0.984689
564.868164	0.984025
565.224370	0.984262
565.580520	0.985641
565.936615	0.986127
566.292654	0.986060
566.648638	0.986696
567.004567	0.986389
567.360441	0.987442
567.716260	0.987095
568.072023	0.986870
568.427732	0.987601
568.783385	0.987885
569.138982	0.988200
569.494525	0.988526
569.850013	0.988792
570.205445	0.988675
570.560823	0.989060
570.916145	0.988966
571.271412	0.989817
571.626625	0.990193
571.981782	0.990382
572.336884	0.990658
572.691931	0.990563
573.046923	0.990736
573.401860	0.990375
573.756743	0.990415
574.111570	0.991152
574.466342	0.990880
574.821059	0.990355
575.175722	0.991220
575.530330	0.990951
575.884882	0.991333
576.239380	0.991717
576.593823	0.990971
576.948211	0.991640
577.302544	0.991505
577.656823	0.991955
578.011047	0.990904
578.365216	0.991571
578.719330	0.991798
579.073389	0.991606
579.427394	0.991679
579.781344	0.992341
580.135239	0.991498
580.489080	0.992143
580.842866	0.992339
581.196597	0.992253
581.550273	0.991717
581.903895	0.992740
582.257463	0.992535
582.610975	0.991939
582.964434	0.992747
583.317837	0.992986
583.671186	0.992720
584.024481	0.992523
584.377721	0.991596
584.730906	0.993566
585.084037	0.993420
585.437113	0.993834
585.790135	0.992726
586.143103	0.993013
586.496016	0.993039
586.848874	0.993059
587.201679	0.992592
587.554428	0.992933
587.907124	0.993819
588.259765	0.993452
588.612352	0.993667
588.964884	0.993540
589.317362	0.993095
589.669786	0.992514
590.022155	0.993377
590.374470	0.992722
590.726731	0.992678
591.078937	0.993894
591.431090	0.992680
591.783188	0.992667
592.135232	0.994288
592.487222	0.993560
592.839157	0.994063
593.191038	0.993018
593.542866	0.993053
593.894639	0.992774
594.246358	0.993823
594.598022	0.993490
594.949633	0.993256
595.301190	0.993635
595.652692	0.992979
596.004141	0.993048
596.355535	0.992739
596.706876	0.993871
597.058162	0.993962
597.409395	0.993210
597.760573	0.993223
598.111698	0.993413
598.462768	0.992770
598.813785	0.992627
599.164748	0.993005
599.515657	0.994046
599.866511	0.993901
600.217312	0.994054
600.568060	0.993054
600.918753	0.993521
601.269392	0.993368
601.619978	0.994300
601.970510	0.993046
602.320988	0.993260
602.671412	0.993781
603.021783	0.994583
603.372100	0.994473
603.722363	0.994463
604.072572	0.993438
604.422728	0.993648
604.772830	0.993557
605.122878	0.994321
605.472872	0.994047
605.822813	0.993595
606.172701	0.993779
606.522534	0.993920
606.872314	0.994344
607.222041	0.994033
607.571714	0.994600
607.921333	0.993877
608.270899	0.993848
608.620411	0.994387
608.969870	0.994643
609.319276	0.993780
609.668627	0.993942
610.017926	0.993494
610.367171	0.994260
610.716362	0.993510
611.065500	0.993812
611.414585	0.993558
611.763616	0.993178
612.112594	0.993951
612.461518	0.993621
612.810389	0.994091
613.159207	0.993956
613.507971	0.993362
613.856682	0.995143
614.205340	0.993404
614.553945	0.993744
614.902496	0.993147
615.250994	0.993264
615.599439	0.994254
615.947830	0.993532
616.296169	0.994301
616.644454	0.993898
616.992686	0.993977
617.340864	0.993870
617.688990	0.993372
618.037063	0.993726
618.385082	0.993477
618.733048	0.993176
619.080961	0.993444
619.428821	0.994174
619.776628	0.993359
620.124382	0.994940
620.472083	0.993713
620.819731	0.994722
621.167326	0.994887
621.514868	0.994461
621.862357	0.994334
622.209793	0.994137
622.557176	0.993614
622.904506	0.993798
623.251783	0.994967
623.599007	0.993906
623.946179	0.993376
624.293297	0.994984
624.640363	0.994185
624.987376	0.994091
625.334336	0.993444
625.681243	0.994246
626.028097	0.994555
626.374899	0.994411
626.721647	0.995402
627.068343	0.994517
627.414987	0.994672
627.761577	0.993115
628.108115	0.993229
628.454600	0.994570
628.801032	0.994490
629.147412	0.994814
629.493739	0.994997
629.840014	0.993866
630.186236	0.993738
630.532405	0.993881
630.878521	0.993907
631.224585	0.994153
631.570597	0.993967
631.916556	0.994858
632.262462	0.993072
632.608316	0.994743
632.954117	0.993816
633.299866	0.993639
633.645562	0.994042
633.991206	0.994348
634.336797	0.993587
634.682336	0.995100
635.027823	0.994302
635.373257	0.994617
635.718639	0.994552
636.063968	0.994306
636.409245	0.994000
636.754470	0.994715
637.099642	0.994612
637.444762	0.994675
637.789829	0.993643
638.134845	0.993276
638.479808	0.994824
638.824719	0.994109
639.169577	0.993917
639.514383	0.994916
639.859137	0.995369
640.203839	0.994119
640.548489	0.994726
640.893086	0.993902
641.237632	0.995242
641.582125	0.994321
641.926566	0.995285
642.270955	0.994880
642.615292	0.994521
642.959576	0.994871
643.303809	0.994761
643.647990	0.995316
643.992118	0.995179
644.336195	0.993979
644.680219	0.994376
645.024192	0.994286
645.368112	0.993608
645.711981	0.994360
646.055797	0.994217
646.399562	0.993654
646.743274	0.995179
647.086935	0.994108
647.430544	0.994106
647.774101	0.993907
648.117606	0.994959
648.461059	0.994521
648.804460	0.993515
649.147810	0.994288
649.491108	0.994322
649.834354	0.994221
650.177548	0.993844
650.520690	0.994063
650.863781	0.993663
651.206820	0.994047
651.549807	0.994195
651.892742	0.994463
652.235626	0.993980
652.578458	0.994793
652.921238	0.994342
653.263967	0.994498
653.606644	0.993478
653.949269	0.995097
654.291843	0.993534
654.634365	0.995193
654.976836	0.993378
655.319255	0.994597
655.661622	0.994769
656.003938	0.994091
656.346203	0.993713
656.688416	0.994511
657.030577	0.994846
657.372687	0.994887
657.714746	0.994186
658.056753	0.993219
658.398708	0.994247
658.740612	0.994983
659.082465	0.994260
659.424266	0.994512
659.766016	0.993911
660.107715	0.995109
660.449362	0.993638
660.790958	0.994254
661.132503	0.995050
661.473996	0.993922
661.815438	0.994912
662.156829	0.995026
662.498168	0.994592
662.839456	0.993322
663.180693	0.994799
663.521879	0.994210
663.863013	0.995031
664.204097	0.994093
664.545129	0.994643
664.886110	0.994101
665.227040	0.994764
665.567918	0.994086
665.908746	0.993522
666.249522	0.993507
666.590248	0.993303
666.930922	0.993913
667.271545	0.993815
667.612118	0.994723
667.952639	0.993786
668.293109	0.993666
668.633528	0.994182
668.973896	0.994224
669.314213	0.993818
669.654480	0.994027
669.994695	0.993492
670.334859	0.994385
670.674973	0.993388
671.015035	0.994602
671.355047	0.994224
671.695008	0.993989
672.034918	0.994145
672.374777	0.993584
672.714585	0.993266
673.054342	0.994454
673.394049	0.994006
673.733705	0.994204
674.073310	0.993491
674.412864	0.994238
674.752368	0.993290
675.091820	0.994131
675.431223	0.994166
675.770574	0.993182
676.109875	0.994234
676.449125	0.993126
676.788324	0.992866
677.127473	0.994735
677.466571	0.994566
677.805619	0.994668
678.144616	0.995146
678.483562	0.994373
678.822458	0.994988
679.161303	0.993782
679.500098	0.994869
679.838842	0.994528
680.177535	0.993921
680.516179	0.993282
680.854771	0.993432
681.193314	0.993676
681.531805	0.993487
681.870247	0.994625
682.208638	0.993708
682.546978	0.993969
682.885268	0.993180
683.223508	0.993599
683.561697	0.993726
683.899836	0.994093
684.237925	0.993269
684.575963	0.993096
684.913951	0.993895
685.251889	0.993659
685.589776	0.994034
685.927614	0.993923
686.265401	0.993731
686.603137	0.992942
686.940824	0.993413
687.278460	0.993719
687.616046	0.992882
687.953582	0.993191
688.291068	0.993193
688.628504	0.993687
688.965889	0.992317
689.303224	0.991690
689.640510	0.993432
689.977745	0.992970
690.314930	0.993280
690.652065	0.993875
690.989150	0.991876
691.326185	0.993954
691.663170	0.993752
692.000105	0.994254
692.336990	0.994587
692.673825	0.994029
693.010610	0.993482
693.347345	0.994349
693.684030	0.993319
694.020665	0.993661
694.357251	0.994471
694.693786	0.994286
695.030272	0.993223
695.366707	0.993929
695.703093	0.994467
696.039429	0.993045
696.375716	0.995044
696.711952	0.993637
697.048139	0.994349
697.384276	0.994074
697.720363	0.994223
698.056400	0.992894
698.392388	0.993277
698.728326	0.993848
699.064214	0.995134
699.400053	0.993608
699.735842	0.994503
700.071581	0.993215
700.407270	0.993340
700.742910	0.994565
701.078501	0.993522
701.414042	0.995313
701.749533	0.993244
702.084974	0.994811
702.420366	0.995511
702.755709	0.994501
703.091002	0.995288
703.426246	0.994561
703.761440	0.994663
704.096584	0.993996
704.431679	0.993655
704.766725	0.994048
705.101721	0.995517
705.436668	0.993583
705.771565	0.993953
706.106413	0.993899
706.441212	0.993709
706.775961	0.994540
707.110661	0.993489
707.445311	0.994596
707.779913	0.994974
708.114465	0.995578
708.448967	0.994989
708.783421	0.994071
709.117825	0.994028
709.452180	0.995115
709.786485	0.994461
710.120742	0.993363
710.454949	0.993367
710.789107	0.993908
711.123216	0.992074
711.457275	0.993155
711.791286	0.993994
712.125247	0.995376
712.459159	0.993496
712.793023	0.992792
713.126837	0.994056
713.460602	0.993103
713.794318	0.993594
714.127985	0.992919
714.461602	0.993436
714.795171	0.993062
715.128691	0.994303
715.462162	0.994538
715.795584	0.993825
716.128957	0.993738
716.462281	0.993742
716.795556	0.993388
717.128782	0.994338
717.461960	0.993962
717.795088	0.994118
718.128167	0.995089
718.461198	0.993485
718.794180	0.994964
719.127113	0.994326
719.459997	0.993629
719.792833	0.994415
720.125619	0.994572
720.458357	0.993692
720.791046	0.994934
721.123686	0.993647
721.456278	0.995296
721.788821	0.993881
722.121315	0.994874
722.453761	0.995172
722.786158	0.994658
723.118506	0.993772
723.450805	0.994068
723.783056	0.994346
724.115259	0.993404
724.447412	0.994849
724.779518	0.994548
725.111574	0.994167
725.443582	0.994464
725.775542	0.995073
726.107453	0.995268
726.439315	0.995159
726.771129	0.994902
727.102895	0.994128
727.434612	0.994586
727.766281	0.993705
728.097901	0.993396
728.429473	0.994453
728.760996	0.993339
729.092471	0.993755
729.423897	0.994111
729.755276	0.994501
730.086606	0.993049
730.417887	0.994126
730.749120	0.993956
731.080305	0.994114
731.411442	0.992540
731.742530	0.993224
732.073570	0.993078
732.404562	0.993456
732.735506	0.994079
733.066401	0.994332
733.397249	0.994067
733.728048	0.993291
734.058798	0.994246
734.389501	0.994362
734.720156	0.994769
735.050762	0.994646
735.381320	0.994183
735.711831	0.993593
736.042293	0.994134
736.372707	0.995651
736.703073	0.993450
737.033391	0.994378
737.363661	0.994921
737.693883	0.994679
738.024056	0.994151
738.354182	0.995220
738.684260	0.994064
739.014290	0.994250
739.344272	0.993971
739.674207	0.993857
740.004093	0.993874
740.333931	0.993816
740.663722	0.993652
740.993464	0.994039
741.323159	0.994505
741.652806	0.994223
741.982405	0.993886
742.311956	0.995227
742.641460	0.994138
742.970915	0.993887
743.300323	0.993709
743.629683	0.993611
743.958996	0.996021
744.288260	0.993721
744.617477	0.994708
744.946647	0.994098
745.275768	0.994949
745.604842	0.993258
745.933869	0.994983
746.262847	0.995628
746.591778	0.993974
746.920662	0.995354
747.249498	0.995742
747.578286	0.995883
747.907027	0.995450
748.235720	0.995781
748.564365	0.995359
748.892963	0.994121
749.221514	0.995217
749.550017	0.993662
749.878473	0.994999
750.206881	0.995635
750.535242	0.994377
750.863555	0.994653
751.191821	0.994059
751.520039	0.994976
751.848210	0.993232
752.176334	0.995227
752.504411	0.994432
752.832440	0.994408
753.160421	0.995753
753.488356	0.995306
753.816243	0.994791
754.144082	0.994274
754.471875	0.995005
754.799620	0.995608
755.127318	0.995642
755.454969	0.995392
755.782572	0.996419
756.110129	0.994345
756.437638	0.996018
756.765100	0.995592
757.092515	0.995482
757.419882	0.994875
757.747203	0.994452
758.074477	0.996080
758.401703	0.996118
758.728882	0.994382
759.056014	0.993556
759.383099	0.994862
759.710138	0.994867
760.037129	0.994220
760.364073	0.995321
760.690970	0.995186
761.017820	0.994327
761.344623	0.995161
761.671379	0.995870
761.998088	0.995316
762.324751	0.994563
762.651366	0.993462
762.977935	0.993050
763.304456	0.991325
763.630931	0.989325
763.957359	0.989116
764.283740	0.990908
764.610074	0.991918
764.936362	0.992389
765.262602	0.992666
765.588796	0.993822
765.914943	0.993617
766.241044	0.993949
766.567097	0.994444
766.893104	0.994740
767.219064	0.994871
767.544978	0.994167
767.870845	0.996622
768.196665	0.995299
768.522438	0.995950
768.848165	0.996489
769.173846	0.995862
769.499479	0.997093
769.825066	0.995685
770.150607	0.996839
770.476101	0.996392
770.801548	0.996466
771.126949	0.996409
771.452303	0.995638
771.777611	0.997381
772.102872	0.995908
772.428087	0.995084
772.753256	0.996304
773.078378	0.996803
773.403453	0.995560
773.728482	0.997866
774.053465	0.997189
774.378401	0.996363
774.703291	0.996484
775.028135	0.997608
775.352932	0.995052
775.677683	0.997662
776.002388	0.996898
776.327046	0.995888
776.651658	0.997337
776.976224	0.997298
777.300743	0.996754
777.625216	0.997454
777.949643	0.997447
778.274024	0.996992
778.598359	0.997767
778.922647	0.997156
779.246889	0.997276
779.571086	0.996778
779.895236	0.996864
780.219339	0.997467
780.543397	0.996882
780.867409	0.997379
781.191374	0.996628
781.515294	0.997861
781.839167	0.997231
782.162995	0.997456
782.486776	0.995841
782.810511	0.997021
783.134201	0.998164
783.457844	0.997253
783.781441	0.996847
784.104993	0.996030
784.428498	0.997398
784.751958	0.997686
785.075372	0.997197
785.398739	0.996441
785.722061	0.997426
786.045337	0.997565
786.368568	0.996185
786.691752	0.996650
787.014891	0.996324
787.337983	0.995735
787.661030	0.996660
787.984031	0.997482
788.306987	0.996966
788.629897	0.993963
788.952760	0.996020
789.275579	0.996276
789.598351	0.994754
789.921078	0.997528
790.243759	0.996206
790.566395	0.996052
790.888984	0.997201
791.211529	0.996916
791.534027	0.996553
791.856480	0.996990
792.178888	0.996740
792.501249	0.997144
792.823566	0.998691
793.145836	0.997479
793.468062	0.998498
793.790241	0.997921
794.112375	0.995604
794.434464	0.998298
794.756507	0.997227
795.078505	0.997009
795.400457	0.997473
795.722364	0.997553
796.044226	0.996241
796.366042	0.996660
796.687812	0.995768
797.009538	0.996128
797.331218	0.996991
797.652852	0.998288
797.974442	0.996371
798.295986	0.996923
798.617484	0.995640
798.938938	0.996883
799.260346	0.996517
799.581709	0.996300
799.903026	0.997605
800.224299	0.996588
800.545526	0.998056
800.866708	0.995659
801.187845	0.997368
801.508936	0.997069
801.829983	0.997322
802.150984	0.997853
802.471940	0.997955
802.792851	0.997717
803.113717	0.997878
803.434538	0.997525
803.755314	0.998870
804.076045	0.997516
804.396731	0.997680
804.717372	0.996108
805.037967	0.998442
805.358518	0.997165
805.679024	0.996516
805.999485	0.997913
806.319901	0.997381
806.640272	0.997655
806.960598	0.997510
807.280879	0.997159
807.601115	0.998019
807.921306	0.998138
808.241453	0.997485
808.561554	0.997769
808.881611	0.997053
809.201623	0.996400
809.521590	0.996816
809.841513	0.997347
810.161390	0.996394
810.481223	0.996502
810.801011	0.997486
811.120755	0.998435
811.440453	0.996753
811.760107	0.998051
812.079716	0.997298
812.399281	0.997569
812.718801	0.996820
813.038276	0.997474
813.357707	0.997090
813.677093	0.997524
813.996434	0.998168
814.315731	0.997941
814.634983	0.997029
814.954191	0.997900
815.273354	0.997278
815.592473	0.997496
815.911547	0.998362
816.230577	0.997004
816.549562	0.998246
816.868502	0.996447
817.187399	0.997940
817.506250	0.997068
817.825058	0.995991
818.143821	0.995819
818.462539	0.996030
818.781213	0.996525
819.099843	0.996070
819.418429	0.994792
819.736970	0.993941
820.055466	0.993182
820.373919	0.992940
820.692327	0.992566
821.010691	0.990783
821.329011	0.986811
821.647286	0.983076
821.965517	0.980324
822.283704	0.976512
822.601847	0.974011
822.919945	0.975579
823.237999	0.977921
823.556010	0.978779
823.873976	0.980979
824.191897	0.984331
824.509775	0.986197
824.827609	0.987124
825.145398	0.988352
825.463144	0.988015
825.780845	0.988072
826.098502	0.987712
826.416116	0.988267
826.733685	0.985232
827.051210	0.982300
827.368692	0.983476
827.686129	0.984359
828.003522	0.988497
828.320872	0.988395
828.638177	0.990536
828.955439	0.993239
829.272656	0.992968
829.589830	0.993594
829.906960	0.995680
830.224046	0.995147
830.541088	0.995122
830.858086	0.995457
831.175041	0.997092
831.491952	0.995774
831.808819	0.995935
832.125642	0.995422
832.442421	0.996035
832.759157	0.995454
833.075849	0.992793
833.392497	0.990723
833.709101	0.988836
834.025662	0.988641
834.342179	0.989171
834.658653	0.991595
834.975083	0.992824
835.291469	0.992984
835.607811	0.994769
835.924110	0.994749
836.240366	0.996308
836.556578	0.996868
836.872746	0.997397
837.188871	0.996300
837.504952	0.996150
837.820990	0.996470
838.136984	0.996875
838.452935	0.997697
838.768842	0.997521
839.084706	0.997806
839.400526	0.998124
839.716303	0.993654
840.032037	0.994219
840.347727	0.993544
840.663373	0.994131
840.978977	0.995784
841.294537	0.997229
841.610054	0.997134
841.925527	0.998676
842.240957	0.997643
842.556344	0.998760
842.871687	0.997252
843.186987	0.997528
843.502244	0.999266
843.817458	0.997975
844.132629	0.998155
844.447756	0.999103
844.762840	0.999826
845.077881	1.000131
845.392879	0.997188
845.707833	0.999380
846.022745	0.998617
846.337613	0.999874
846.652438	0.998994
846.967221	0.998913
847.281960	0.999902
847.596656	0.998984
847.911309	0.999795
848.225919	0.998647
848.540485	0.999263
848.855009	1.000114
849.169490	0.999044
849.483928	0.999135
849.798323	0.999002
850.112675	1.000855
850.426984	0.999662
850.741251	1.000318
851.055474	0.999905
851.369654	0.999997
851.683792	0.999389
851.997887	0.999300
852.311938	1.000507
852.625947	0.999387
852.939914	0.998956
853.253837	1.001149
853.567718	0.999615
853.881555	0.999812
854.195350	0.999301
854.509103	0.999611
854.822812	0.999770
855.136479	0.999235
855.450103	0.999620
855.763685	0.999814
856.077224	0.999623
856.390720	1.000177
856.704173	1.000387
857.017584	1.001017
857.330953	0.999389
857.644278	0.998845
857.957561	0.999385
858.270802	0.999674
858.584000	0.998980
858.897155	0.999734
859.210268	0.999394
859.523339	0.999664
859.836367	1.000211
860.149352	0.999255
860.462295	0.999575
860.775195	0.999923
861.088054	0.997661
861.400869	0.999215
861.713642	0.998538
862.026373	0.999872
862.339062	1.000498
862.651708	1.000381
862.964312	0.999794
863.276873	0.998804
863.589392	0.998906
863.901869	0.998641
864.214303	0.999115
864.526696	0.998643
864.839045	0.999466
865.151353	0.999459
865.463619	0.998512
865.775842	1.000059
866.088023	1.000316
866.400162	0.999688
866.712258	1.000067
867.024313	0.999200
867.336325	0.999635
867.648296	0.999413
867.960224	0.999338
868.272110	0.999847
868.583954	0.999036
868.895755	1.000271
869.207515	0.998258
869.519233	0.999062
869.830909	0.998086
870.142542	0.998180
870.454134	0.998454
870.765684	0.999465
871.077191	0.998400
871.388657	0.998491
871.700081	0.999022
872.011463	0.999986
872.322803	0.998853
872.634101	0.998179
872.945357	0.997878
873.256571	0.996910
873.567744	0.999293
873.878874	0.998664
874.189963	0.998130
874.501010	1.000189
874.812015	0.998263
875.122979	0.997670
875.433900	0.998138
875.744780	0.998620
876.055618	0.997771
876.366415	0.997653
876.677169	0.997932
876.987882	0.998572
877.298554	0.998989
877.609183	0.997270
877.919771	0.998454
878.230317	0.997798
878.540822	0.997382
878.851285	0.996162
879.161707	0.995808
879.472087	0.996824
879.782425	0.992831
880.092722	0.992335
880.402977	0.989495
880.713191	0.984091
881.023363	0.979584
881.333494	0.977254
881.643583	0.977704
881.953631	0.978034
882.263637	0.977418
882.573602	0.978669
882.883526	0.980505
883.193408	0.984864
883.503248	0.985285
883.813048	0.986351
884.122806	0.988385
884.432522	0.990095
884.742197	0.992734
885.051831	0.992697
885.361424	0.993634
885.670975	0.995110
885.980485	0.993927
886.289954	0.994490
886.599382	0.995250
886.908768	0.996836
887.218113	0.994569
887.527417	0.996969
887.836680	0.997213
888.145901	0.997991
888.455082	0.998755
888.764221	0.998195
889.073319	0.997226
889.382376	0.998109
889.691392	0.996662
890.000366	0.996947
890.309300	0.998466
890.618193	0.998846
890.927044	0.997266
891.235855	0.996703
891.544625	0.996876
891.853353	0.997425
892.162041	0.997074
892.470687	0.997480
892.779293	0.997004
893.087858	0.995794
893.396381	0.995615
893.704864	0.994719
894.013306	0.993317
894.321707	0.991064
894.630068	0.988138
894.938387	0.988802
895.246665	0.989084
895.554903	0.989422
895.863100	0.991208
896.171256	0.992031
896.479371	0.992401
896.787446	0.993068
897.095480	0.995135
897.403473	0.996310
897.711425	0.995530
898.019336	0.995919
898.327207	0.997037
898.635038	0.996094
898.942827	0.997091
899.250576	0.997861
899.558284	0.996079
899.865952	0.996580
900.173579	0.996779
900.481165	0.997428
900.788711	0.997427
901.096216	0.997267
901.403681	0.998035
901.711105	0.998273
902.018489	0.999140
902.325832	0.997935
902.633135	0.997871
902.940397	0.997811
903.247619	0.996480
903.554800	0.994223
903.861941	0.992570
904.169041	0.988296
904.476101	0.986585
904.783121	0.985711
905.090100	0.987878
905.397039	0.989051
905.703938	0.990991
906.010796	0.992260
906.317614	0.994227
906.624391	0.995600
906.931129	0.996526
907.237826	0.996520
907.544483	0.997387
907.851099	0.997741
908.157675	0.996778
908.464211	0.999120
908.770707	0.998583
909.077163	0.998010
909.383578	0.998031
909.689954	0.997656
909.996289	0.999781
910.302584	0.999350
910.608839	1.000205
910.915054	0.999245
911.221229	1.000747
911.527363	0.998248
911.833458	0.999854
912.139513	0.998576
912.445527	0.998657
912.751502	0.998094
913.057436	0.997594
913.363331	0.999210
913.669186	0.998955
913.975000	0.997976
914.280775	0.996896
914.586510	0.996033
914.892205	0.993761
915.197859	0.992456
915.503475	0.991161
915.809050	0.989148
916.114585	0.985893
916.420081	0.985790
916.725536	0.987481
917.030952	0.987837
917.336328	0.988328
917.641665	0.988664
917.946961	0.990821
918.252218	0.991628
918.557435	0.993619
918.862612	0.995166
919.167750	0.995498
919.472848	0.996564
919.777906	0.996871
920.082925	0.997927
920.387904	0.997894
920.692843	0.997225
920.997743	0.997059
921.302603	0.998003
921.607423	0.999322
921.912204	0.997885
922.216946	0.998961
922.521647	0.998148
922.826310	0.997772
923.130932	0.999658
923.435516	0.999825
923.740059	0.998652
924.044564	0.998643
924.349028	0.998498
924.653454	0.999362
924.957840	0.999761
925.262186	0.999324
925.566493	0.999278
925.870761	1.000513
926.174989	0.999016
926.479178	0.999509
926.783328	0.999957
927.087438	0.999224
927.391509	0.999043
927.695541	1.000116
927.999533	0.999654
928.303486	1.000380
928.607400	1.000118
928.911275	0.999932
929.215110	1.001519
929.518906	1.000896
929.822663	1.000854
930.126381	1.000768
930.430060	0.999761
930.733699	1.000521
931.037299	1.001485
931.340861	1.000522
931.644383	1.000169
931.947866	1.000068
932.251309	1.000519
932.554714	1.000209
932.858080	1.001122
933.161407	0.998431
933.464694	0.999678
933.767943	1.000989
934.071153	1.000453
934.374323	1.000737
934.677455	1.000555
934.980548	1.000195
935.283602	1.000257
935.586617	0.999830
935.889593	1.000290
936.192530	1.000773
936.495428	1.000462
936.798287	0.999198
937.101108	1.000690
937.403890	0.999901
937.706632	1.001722
938.009336	1.000369
938.312002	0.999676
938.614628	0.999952
938.917216	0.998362
939.219765	0.999036
939.522275	1.000101
939.824747	0.998302
940.127179	0.999490
940.429573	1.000228
940.731929	0.998030
941.034246	0.998932
941.336524	0.997333
941.638763	1.000158
941.940964	0.999195
942.243126	0.999953
942.545250	1.000656
942.847335	0.999239
943.149381	1.000077
943.451389	0.998833
943.753359	0.999949
944.055290	1.000758
944.357182	1.001298
944.659036	1.000703
944.960851	1.000175
945.262628	1.001319
945.564367	0.999267
945.866067	0.999872
946.167729	0.999974
946.469352	1.000831
946.770937	0.997767
947.072484	1.001451
947.373992	1.000100
947.675462	0.998874
947.976893	0.999144
948.278286	1.001715
948.579641	1.000089
948.880958	0.999755
949.182236	1.000847
949.483476	1.000701
949.784678	1.001749
950.085841	0.999673
950.386967	0.999175
950.688054	1.000998
950.989103	0.998886
951.290114	0.997967
951.591087	1.001069
951.892021	0.999411
952.192917	1.000064
952.493776	0.999916
952.794596	0.999810
953.095378	1.000786
953.396122	0.999674
953.696828	1.000757
953.997496	1.000725
954.298126	0.999848
954.598718	0.999865
954.899272	1.000021
955.199788	1.000610
955.500266	1.001621
955.800706	1.000392
956.101108	1.000240
956.401472	1.001513
956.701798	0.999385
957.002087	1.000220
957.302337	1.000043
957.602550	1.001234
957.902724	1.000370
958.202861	1.000586
958.502960	0.999605
958.803022	1.001800
959.103045	1.001114
959.403031	1.001841
959.702979	1.002594
960.002889	1.000195
960.302762	1.001087
960.602596	1.001530
960.902393	1.002194
961.202153	1.001789
961.501875	1.001387
961.801559	1.001531
962.101205	1.000342
962.400814	1.001621
962.700385	1.002651
962.999918	1.002298
963.299414	0.999527
963.598873	1.001915
963.898293	1.001944
964.197677	0.999860
964.497022	1.000553
964.796331	1.001979
965.095601	1.001164
965.394835	1.001181
965.694030	1.002405
965.993189	1.000979
966.292309	1.001370
966.591393	0.999452
966.890439	1.001616
967.189447	1.000978
967.488419	1.000967
967.787353	1.001645
968.086249	1.001606
968.385108	1.002020
968.683930	1.002191
968.982714	1.000123
969.281462	1.000926
969.580172	0.999735
969.878844	1.002436
970.177480	1.001592
970.476078	1.001540
970.774639	1.002128
971.073162	1.000839
971.371649	1.001222
971.670098	1.001187
971.968510	1.001048
972.266885	1.000149
972.565223	1.000368
972.863524	0.999822
973.161788	1.000417
973.460014	1.001122
973.758204	1.000283
974.056356	1.000897
974.354471	1.001017
974.652550	1.001726
974.950591	1.000551
975.248595	0.999729
975.546563	1.003224
975.844493	1.002894
976.142386	1.000306
976.440243	1.001356
976.738062	1.001077
977.035845	0.999762
977.333590	1.001219
977.631299	1.000796
977.928971	0.999760
978.226606	1.002120
978.524204	1.000843
978.821765	1.001882
979.119290	1.000984
979.416777	1.001293
979.714228	1.001107
980.011642	1.001406
980.309020	1.000860
980.606360	1.001026
980.903664	1.001889
981.200931	1.000846
981.498162	1.001166
981.795356	1.000562
982.092513	1.000629
982.389633	1.000384
982.686717	1.000256
982.983764	1.000456
983.280775	1.000038
983.577749	1.003058
983.874686	0.999959
984.171587	0.999357
984.468451	1.000633
984.765279	1.000825
985.062070	1.002041
985.358824	1.000451
985.655543	1.001486
985.952224	1.001818
986.248869	1.000676
986.545478	1.002598
986.842050	1.001387
987.138586	1.000628
987.435086	1.001096
987.731549	1.002874
988.027975	1.002457
988.324366	1.000666
988.620719	1.002307
988.917037	1.001959
989.213318	1.001195
989.509563	1.001709
989.805772	1.001096
990.101944	1.002124
990.398080	1.002458
990.694180	1.001971
990.990244	1.001181
991.286271	1.002026
991.582262	1.002297
991.878217	1.000301
992.174136	1.001813
992.470019	1.001467
992.765865	1.002118
993.061676	1.000657
993.357450	1.002634
993.653188	1.001287
993.948890	1.000654
994.244556	1.000039
994.540186	1.002257
994.835780	1.001299
995.131337	1.002168
995.426859	1.001802
995.722345	1.001453
996.017795	1.000880
996.313208	1.001228
996.608586	1.001136
996.903928	1.001638
997.199234	1.000803
997.494504	1.001437
997.789738	1.000159
998.084936	1.001708
998.380099	1.000947
998.675225	1.001380
998.970316	1.001814
999.265371	1.000994
999.560390	1.000888
999.855373	1.002105
1000.150320	1.002271
1000.445232	1.001547
1000.740108	1.001855
1001.034948	1.001062
1001.329752	1.002422
1001.624521	1.001590
1001.919254	1.001060
1002.213951	1.001366
1002.508613	1.001292
1002.803239	1.000860
1003.097829	1.002043
1003.392384	1.002008
1003.686903	1.000888
1003.981386	1.001030
1004.275834	1.002679
1004.570246	1.000432
1004.864623	1.001144
1005.158964	1.001712
1005.453270	1.001399
1005.747540	1.000814
1006.041775	1.001572
1006.335974	1.000868
1006.630138	1.002707
1006.924266	1.000348
1007.218359	1.001433
1007.512416	1.003070
1007.806438	1.001503
1008.100425	1.001486
1008.394376	1.001959
1008.688292	1.001232
1008.982172	1.000407
1009.276017	1.001686
1009.569827	1.002488
1009.863602	0.999724
1010.157341	1.002312
1010.451045	1.000765
1010.744714	1.001901
1011.038347	1.001337
1011.331945	1.001058
1011.625508	1.001350
1011.919036	1.002035
1012.212528	1.001624
1012.505986	1.001501
1012.799408	1.001517
1013.092795	1.001500
1013.386147	1.001775
1013.679464	1.002747
1013.972745	1.000503
1014.265992	1.001070
1014.559204	1.000431
1014.852380	1.002422
1015.145521	1.001420
1015.438628	1.002729
1015.731699	1.001728
1016.024736	1.002554
1016.317737	1.000381
1016.610703	1.002776
1016.903635	0.999591
1017.196531	1.001474
1017.489393	1.000640
1017.782219	1.000322
1018.075011	1.001313
1018.367768	1.000340
1018.660490	1.002119
1018.953177	1.002119
1019.245829	1.002119
