Dividing Wavelength (nm)	Counts (n)	Blue Motor Position (mm): 40.500000	Red Motor Position (mm): 0.000000	
326.493990	0.999916
326.888308	0.999916
327.282561	0.999916
327.676750	0.998976
328.070874	1.000575
328.464933	1.000572
328.858929	1.000599
329.252859	1.000415
329.646726	1.000567
330.040528	0.999760
330.434265	0.999475
330.827938	0.999245
331.221547	0.999901
331.615091	1.000095
332.008571	1.000707
332.401986	0.999478
332.795338	1.000763
333.188625	1.000960
333.581847	0.999929
333.975006	1.000592
334.368100	1.000033
334.761129	0.999011
335.154095	1.000175
335.546996	1.000516
335.939833	0.999373
336.332606	0.999286
336.725315	0.998233
337.117960	1.000140
337.510540	0.999086
337.903056	1.000492
338.295508	1.000194
338.687896	0.999531
339.080220	0.999049
339.472480	0.998961
339.864676	1.001000
340.256807	0.999447
340.648875	1.001067
341.040879	0.999731
341.432818	1.000533
341.824694	0.999285
342.216506	0.999500
342.608253	0.998830
342.999937	0.999944
343.391557	1.000010
343.783113	1.000883
344.174605	0.999667
344.566033	1.000157
344.957397	1.000633
345.348697	1.000132
345.739934	1.000349
346.131106	0.999427
346.522215	1.000101
346.913260	0.999052
347.304241	0.998331
347.695159	1.000326
348.086012	1.000304
348.476802	0.999652
348.867528	0.998479
349.258191	0.999221
349.648789	0.999783
350.039324	0.999029
350.429796	0.999352
350.820203	0.998121
351.210548	0.999289
351.600828	0.999486
351.991045	0.999664
352.381198	1.000494
352.771288	0.998382
353.161314	0.999313
353.551276	0.999301
353.941175	0.997556
354.331010	0.998938
354.720782	0.999660
355.110490	0.997923
355.500135	1.000449
355.889717	0.998332
356.279235	0.998387
356.668689	0.999396
357.058080	0.999345
357.447408	0.998171
357.836672	0.998418
358.225873	0.999548
358.615010	0.998354
359.004084	0.998106
359.393095	0.999253
359.782043	0.999478
360.170927	0.998602
360.559748	0.999090
360.948505	0.997579
361.337199	0.998552
361.725830	0.999632
362.114398	0.999287
362.502903	0.998327
362.891344	0.996936
363.279722	0.998592
363.668037	0.998506
364.056289	0.998425
364.444478	1.000201
364.832603	0.999228
365.220665	0.999113
365.608665	0.996944
365.996601	0.998358
366.384474	0.997768
366.772284	0.997789
367.160031	0.996396
367.547715	0.996440
367.935336	0.995865
368.322893	0.994699
368.710388	0.994218
369.097820	0.992257
369.485189	0.989368
369.872495	0.988453
370.259738	0.985538
370.646918	0.984680
371.034035	0.981397
371.421090	0.978860
371.808081	0.973795
372.195010	0.971171
372.581875	0.965538
372.968678	0.961449
373.355418	0.959121
373.742096	0.950636
374.128710	0.946626
374.515262	0.940883
374.901751	0.935786
375.288177	0.932173
375.674540	0.924291
376.060841	0.918383
376.447079	0.911871
376.833254	0.905638
377.219367	0.900943
377.605417	0.887938
377.991404	0.885781
378.377329	0.878766
378.763191	0.873564
379.148991	0.864408
379.534727	0.857256
379.920402	0.848280
380.306013	0.845053
380.691563	0.832259
381.077049	0.825776
381.462474	0.821467
381.847835	0.810974
382.233134	0.805409
382.618371	0.806094
383.003545	0.788312
383.388657	0.786832
383.773706	0.779152
384.158693	0.775652
384.543618	0.770368
384.928480	0.761156
385.313280	0.751855
385.698017	0.751708
386.082692	0.740781
386.467305	0.740434
386.851856	0.735831
387.236344	0.731447
387.620770	0.727416
388.005133	0.723632
388.389435	0.720769
388.773674	0.720290
389.157851	0.715196
389.541965	0.716785
389.926018	0.725320
390.310008	0.716680
390.693936	0.718375
391.077802	0.714768
391.461606	0.721092
391.845348	0.715954
392.229027	0.720407
392.612645	0.723515
392.996200	0.717421
393.379694	0.718390
393.763125	0.716587
394.146494	0.726477
394.529801	0.724931
394.913047	0.726772
395.296230	0.738866
395.679351	0.739567
396.062410	0.745765
396.445408	0.754442
396.828343	0.759616
397.211217	0.764911
397.594028	0.779985
397.976778	0.783421
398.359466	0.789530
398.742092	0.796526
399.124656	0.809898
399.507158	0.811712
399.889598	0.819695
400.271977	0.823891
400.654294	0.833507
401.036549	0.842962
401.418742	0.852180
401.800874	0.855236
402.182944	0.861489
402.564952	0.866959
402.946898	0.875391
403.328783	0.884091
403.710606	0.892894
404.092367	0.894364
404.474067	0.903969
404.855705	0.909563
405.237282	0.916874
405.618797	0.920444
406.000250	0.925478
406.381642	0.928939
406.762972	0.936397
407.144240	0.941969
407.525447	0.944531
407.906593	0.949234
408.287677	0.954742
408.668700	0.959446
409.049661	0.963460
409.430560	0.965469
409.811399	0.970524
410.192176	0.971020
410.572891	0.974939
410.953545	0.976670
411.334138	0.980423
411.714669	0.981250
412.095139	0.984890
412.475547	0.986502
412.855894	0.987821
413.236180	0.989930
413.616405	0.991024
413.996568	0.991460
414.376670	0.992725
414.756711	0.993170
415.136691	0.994332
415.516609	0.994075
415.896466	0.995842
416.276262	0.995347
416.655997	0.996614
417.035670	0.996277
417.415283	0.995905
417.794834	0.997632
418.174324	0.998043
418.553753	0.997451
418.933121	0.997979
419.312428	0.999723
419.691674	0.998630
420.070859	0.998605
420.449983	0.998880
420.829045	0.997748
421.208047	0.999360
421.586988	0.998289
421.965867	0.997691
422.344686	0.998698
422.723444	0.998816
423.102141	0.999049
423.480777	0.998644
423.859352	0.999491
424.237866	0.999043
424.616319	0.999743
424.994712	0.999037
425.373044	0.999490
425.751314	0.999480
426.129524	0.999721
426.507673	0.998573
426.885762	0.999430
427.263789	0.998727
427.641756	0.999132
428.019662	1.000212
428.397508	0.999954
428.775292	0.999135
429.153016	0.999225
429.530679	0.999623
429.908282	1.000060
430.285824	0.999158
430.663305	0.999512
431.040726	1.000084
431.418086	0.999567
431.795385	1.000635
432.172624	1.000804
432.549802	0.999828
432.926920	0.999545
433.303977	0.999897
433.680974	1.000208
434.057910	0.999266
434.434786	0.998830
434.811601	0.999803
435.188355	1.000229
435.565050	0.999918
435.941683	0.999333
436.318257	0.999169
436.694770	1.000179
437.071222	1.000317
437.447614	0.999408
437.823946	1.000034
438.200218	0.999758
438.576429	0.999779
438.952580	0.999499
439.328670	0.999328
439.704700	0.999221
440.080670	0.999091
440.456580	0.998865
440.832429	0.999757
441.208218	0.999885
441.583947	0.999667
441.959616	0.998308
442.335224	1.000049
442.710773	0.999709
443.086261	0.999989
443.461689	0.999877
443.837057	0.998961
444.212365	1.000537
444.587612	1.000717
444.962800	1.000105
445.337927	1.000391
445.712995	0.999386
446.088002	0.999281
446.462949	0.999849
446.837837	1.001302
447.212664	0.999315
447.587431	0.999626
447.962139	1.000278
448.336786	0.998395
448.711374	0.999430
449.085901	1.000132
449.460369	1.000023
449.834776	0.998330
450.209124	0.999201
450.583412	1.000124
450.957640	0.999969
451.331808	1.000091
451.705917	0.999096
452.079965	0.999717
452.453954	0.999969
452.827883	0.999639
453.201752	0.999778
453.575562	0.999317
453.949311	0.999811
454.323001	0.999531
454.696632	0.999841
455.070202	0.999177
455.443713	0.998959
455.817164	0.999619
456.190556	0.999880
456.563888	1.000415
456.937160	0.999744
457.310373	0.999615
457.683526	0.999659
458.056619	1.000300
458.429653	0.999183
458.802628	0.999484
459.175542	1.000575
459.548398	0.999545
459.921194	0.999055
460.293930	1.000184
460.666607	1.000675
461.039224	0.999644
461.411782	0.999826
461.784280	0.999302
462.156719	1.000427
462.529099	0.999729
462.901419	0.999826
463.273680	0.999309
463.645882	0.998990
464.018024	0.999752
464.390106	0.999178
464.762130	0.999577
465.134094	0.999660
465.505999	0.999360
465.877845	0.999802
466.249631	0.999140
466.621358	0.998558
466.993026	0.999417
467.364634	0.999372
467.736184	0.999306
468.107674	0.999227
468.479105	0.999319
468.850477	0.999681
469.221790	0.999301
469.593043	0.999318
469.964238	0.999429
470.335373	0.999189
470.706449	0.998900
471.077467	0.999738
471.448425	0.999573
471.819324	0.999917
472.190164	0.999037
472.560945	0.998808
472.931667	0.999479
473.302330	0.999543
473.672934	0.998966
474.043479	0.999562
474.413965	1.000309
474.784393	0.999537
475.154761	0.998789
475.525070	0.999546
475.895321	0.999915
476.265513	0.999577
476.635645	1.000516
477.005719	0.999342
477.375734	0.999367
477.745691	0.999414
478.115588	0.999193
478.485427	0.998994
478.855207	0.999538
479.224928	0.999242
479.594591	0.999991
479.964194	0.999267
480.333739	0.999470
480.703226	0.999359
481.072653	0.998789
481.442022	0.999474
481.811333	0.999162
482.180584	0.999251
482.549777	0.998997
482.918912	0.999365
483.287988	0.999364
483.657005	0.999740
484.025964	0.999632
484.394864	0.999039
484.763706	0.998819
485.132489	0.999200
485.501213	0.999249
485.869879	0.998940
486.238487	0.998405
486.607036	0.999693
486.975527	0.999533
487.343959	0.999603
487.712333	0.999332
488.080648	0.999337
488.448905	0.999393
488.817104	0.999517
489.185244	0.998577
489.553326	0.999309
489.921350	0.999473
490.289315	0.998925
490.657222	0.999082
491.025070	0.999856
491.392861	0.999338
491.760593	0.999423
492.128267	0.999740
492.495883	0.998576
492.863440	0.999587
493.230939	0.999506
493.598380	1.000004
493.965763	0.999251
494.333088	0.999004
494.700354	0.998370
495.067563	0.999555
495.434713	1.000152
495.801805	0.999298
496.168839	0.999758
496.535815	0.999826
496.902733	0.999298
497.269593	0.998915
497.636395	0.998114
498.003139	0.998631
498.369825	0.999556
498.736453	0.999326
499.103023	0.999325
499.469535	0.999473
499.835989	0.999112
500.202385	0.998934
500.568723	0.998663
500.935003	0.999571
501.301226	0.999216
501.667390	0.998830
502.033497	0.998953
502.399546	0.999014
502.765537	0.999495
503.131470	0.999472
503.497345	0.999305
503.863163	0.999314
504.228923	0.999241
504.594625	0.999363
504.960269	0.999173
505.325856	1.000260
505.691385	0.999675
506.056856	0.999245
506.422270	0.999298
506.787625	0.999806
507.152924	0.999383
507.518164	0.999379
507.883347	0.998796
508.248472	0.999518
508.613540	0.998595
508.978550	1.000327
509.343503	0.999539
509.708398	0.999989
510.073236	0.999892
510.438016	0.998858
510.802738	0.998542
511.167403	0.999455
511.532010	0.999810
511.896561	0.999370
512.261053	0.999543
512.625488	0.998541
512.989866	0.999450
513.354186	0.999101
513.718449	0.999515
514.082655	0.998918
514.446803	0.999394
514.810894	1.000232
515.174927	0.999626
515.538904	0.999526
515.902822	0.999604
516.266684	0.999862
516.630488	0.999494
516.994235	0.999582
517.357925	0.999432
517.721558	0.998920
518.085133	0.999266
518.448651	0.999888
518.812112	0.999548
519.175516	0.999553
519.538863	0.998902
519.902152	0.999778
520.265385	0.999857
520.628560	0.999419
520.991678	0.999651
521.354739	0.999884
521.717743	0.999477
522.080690	0.999831
522.443580	0.999526
522.806413	0.999045
523.169189	0.999740
523.531908	0.999012
523.894569	1.000005
524.257174	0.999695
524.619722	0.998948
524.982213	0.999611
525.344647	1.000337
525.707025	0.998873
526.069345	0.999585
526.431608	0.999598
526.793815	1.000165
527.155964	0.999715
527.518057	0.999530
527.880093	0.999433
528.242072	0.999760
528.603995	0.999600
528.965860	0.999814
529.327669	1.000095
529.689421	0.998626
530.051117	0.999828
530.412755	0.999359
530.774337	0.999528
531.135862	0.999768
531.497331	0.999461
531.858743	1.000075
532.220098	0.999329
532.581396	0.999073
532.942638	0.999997
533.303824	0.999765
533.664953	0.999196
534.026025	0.999889
534.387040	0.999585
534.747999	0.999575
535.108902	0.999553
535.469748	1.000054
535.830537	1.000251
536.191270	0.999845
536.551947	0.999580
536.912567	0.999565
537.273131	1.000069
537.633638	1.000175
537.994089	1.000200
538.354483	0.999868
538.714821	0.999628
539.075103	0.999925
539.435328	1.000332
539.795497	1.000003
540.155609	0.999345
540.515665	0.999715
540.875665	0.999866
541.235609	1.000054
541.595496	0.999204
541.955328	0.999770
542.315102	0.999839
542.674821	1.000206
543.034483	1.000078
543.394090	0.999127
543.753640	0.999443
544.113134	0.999477
544.472571	0.999762
544.831953	0.999715
545.191278	1.000231
545.550548	0.999388
545.909761	0.998909
546.268918	1.000420
546.628019	1.000318
546.987064	0.999485
547.346053	0.999043
547.704986	0.999580
548.063863	0.999701
548.422684	1.000324
548.781449	0.999518
549.140158	1.000141
549.498811	0.999244
549.857408	0.998846
550.215949	0.999240
550.574434	0.999707
550.932864	0.999782
551.291237	0.999375
551.649555	1.000356
552.007817	0.999611
552.366022	1.000068
552.724173	1.000549
553.082267	1.000052
553.440305	0.998517
553.798288	0.999121
554.156215	0.999824
554.514086	0.999753
554.871902	0.999662
555.229661	0.998875
555.587365	0.999721
555.945014	1.000704
556.302606	0.998798
556.660143	0.999985
557.017625	1.000098
557.375050	0.999335
557.732421	0.999790
558.089735	0.999307
558.446994	0.999614
558.804197	0.999993
559.161345	0.999121
559.518437	0.999762
559.875474	1.000008
560.232455	1.000270
560.589381	0.999562
560.946251	0.999273
561.303065	1.000116
561.659825	0.999921
562.016528	1.000050
562.373177	0.999822
562.729770	0.999715
563.086307	0.999230
563.442789	1.000339
563.799216	0.999506
564.155587	1.000120
564.511904	1.000108
564.868164	0.999281
565.224370	0.998835
565.580520	0.999206
565.936615	0.999930
566.292654	0.999208
566.648638	0.999704
567.004567	0.999596
567.360441	1.000201
567.716260	0.999467
568.072023	0.999702
568.427732	1.000158
568.783385	0.999551
569.138982	1.000131
569.494525	0.999071
569.850013	0.999851
570.205445	1.000617
570.560823	0.999423
570.916145	0.999126
571.271412	0.999849
571.626625	0.999677
571.981782	0.999210
572.336884	0.999360
572.691931	0.999417
573.046923	1.000504
573.401860	0.999617
573.756743	0.999586
574.111570	0.999679
574.466342	0.999910
574.821059	0.999669
575.175722	1.000127
575.530330	0.999525
575.884882	0.999793
576.239380	0.999908
576.593823	0.999353
576.948211	1.000184
577.302544	0.999946
577.656823	0.999986
578.011047	0.999254
578.365216	1.000289
578.719330	0.999818
579.073389	0.998877
579.427394	0.999670
579.781344	1.000214
580.135239	0.998913
580.489080	1.000169
580.842866	0.999698
581.196597	0.999559
581.550273	0.999420
581.903895	0.999586
582.257463	0.999682
582.610975	0.999165
582.964434	1.000410
583.317837	1.000406
583.671186	1.000338
584.024481	0.999139
584.377721	0.998738
584.730906	0.999549
585.084037	1.000852
585.437113	1.000812
585.790135	0.999296
586.143103	0.999940
586.496016	0.999760
586.848874	0.999804
587.201679	0.999436
587.554428	0.999040
587.907124	0.999712
588.259765	1.000078
588.612352	1.000080
588.964884	0.999723
589.317362	0.999356
589.669786	0.999189
590.022155	0.998925
590.374470	1.000296
590.726731	0.999138
591.078937	1.000362
591.431090	0.999780
591.783188	0.999029
592.135232	1.000766
592.487222	0.999721
592.839157	0.999638
593.191038	0.999554
593.542866	0.999790
593.894639	0.998927
594.246358	1.000054
594.598022	1.000333
594.949633	0.999487
595.301190	0.999738
595.652692	0.999286
596.004141	0.999517
596.355535	0.998619
596.706876	0.999295
597.058162	0.999224
597.409395	0.999902
597.760573	0.999586
598.111698	0.999601
598.462768	0.999228
598.813785	0.999272
599.164748	0.999497
599.515657	0.999507
599.866511	0.999824
600.217312	1.000387
600.568060	0.999161
600.918753	0.999888
601.269392	0.999540
601.619978	0.999741
601.970510	0.999530
602.320988	0.999464
602.671412	0.999526
603.021783	1.000025
603.372100	0.999515
603.722363	1.000304
604.072572	0.999478
604.422728	0.999402
604.772830	0.998874
605.122878	0.999496
605.472872	0.999974
605.822813	0.999028
606.172701	0.999251
606.522534	0.999917
606.872314	1.001001
607.222041	0.999216
607.571714	0.998880
607.921333	0.999801
608.270899	0.998994
608.620411	0.999510
608.969870	0.999525
609.319276	0.999386
609.668627	0.999830
610.017926	0.999825
610.367171	1.000533
610.716362	0.999511
611.065500	0.999518
611.414585	1.000071
611.763616	0.998608
612.112594	0.999627
612.461518	0.998949
612.810389	0.999379
613.159207	0.999619
613.507971	0.998939
613.856682	1.000059
614.205340	0.998911
614.553945	0.999567
614.902496	0.999410
615.250994	0.999485
615.599439	0.999321
615.947830	0.998761
616.296169	0.999397
616.644454	1.000008
616.992686	1.000548
617.340864	0.999420
617.688990	0.999290
618.037063	0.999338
618.385082	0.998859
618.733048	0.998651
619.080961	0.999468
619.428821	1.000415
619.776628	0.999349
620.124382	1.000593
620.472083	0.999922
620.819731	1.000001
621.167326	1.000056
621.514868	0.999503
621.862357	0.999077
622.209793	1.000023
622.557176	0.999382
622.904506	0.999398
623.251783	0.999929
623.599007	0.999735
623.946179	0.999397
624.293297	1.000226
624.640363	1.000030
624.987376	0.998591
625.334336	1.000079
625.681243	0.999629
626.028097	0.999791
626.374899	1.000187
626.721647	1.000120
627.068343	0.999993
627.414987	0.999476
627.761577	0.998787
628.108115	0.998224
628.454600	0.999978
628.801032	0.999290
629.147412	0.999678
629.493739	0.999757
629.840014	0.999353
630.186236	0.999284
630.532405	0.999792
630.878521	0.998952
631.224585	0.999881
631.570597	0.999159
631.916556	0.999828
632.262462	0.998128
632.608316	1.000400
632.954117	0.999232
633.299866	0.998851
633.645562	0.999665
633.991206	0.999601
634.336797	0.999483
634.682336	0.999940
635.027823	0.999709
635.373257	1.000654
635.718639	1.000331
636.063968	0.998642
636.409245	0.998682
636.754470	1.000249
637.099642	1.000261
637.444762	0.999440
637.789829	0.998894
638.134845	0.999102
638.479808	0.999426
638.824719	0.999672
639.169577	0.999253
639.514383	0.999410
639.859137	1.000115
640.203839	0.999481
640.548489	0.999174
640.893086	0.998670
641.237632	0.999671
641.582125	0.999323
641.926566	1.000215
642.270955	0.999516
642.615292	0.999183
642.959576	1.000151
643.303809	0.999344
643.647990	0.998935
643.992118	1.000393
644.336195	0.999235
644.680219	0.998809
645.024192	0.999614
645.368112	0.998632
645.711981	0.999394
646.055797	0.999221
646.399562	0.998764
646.743274	0.999480
647.086935	0.999013
647.430544	0.998837
647.774101	0.998686
648.117606	0.999362
648.461059	1.000116
648.804460	0.999909
649.147810	0.999194
649.491108	0.999636
649.834354	0.999566
650.177548	0.999295
650.520690	0.999526
650.863781	0.998702
651.206820	0.999329
651.549807	1.000109
651.892742	0.999274
652.235626	0.999077
652.578458	0.999943
652.921238	0.999106
653.263967	0.999476
653.606644	0.998970
653.949269	1.000396
654.291843	0.998197
654.634365	0.999495
654.976836	0.998657
655.319255	1.001102
655.661622	0.999003
656.003938	0.998662
656.346203	0.998894
656.688416	0.999535
657.030577	0.999304
657.372687	0.999407
657.714746	0.998385
658.056753	0.998793
658.398708	0.998204
658.740612	1.000542
659.082465	0.999444
659.424266	0.999666
659.766016	0.998736
660.107715	0.999736
660.449362	0.999540
660.790958	0.999000
661.132503	0.999642
661.473996	0.998633
661.815438	0.999774
662.156829	0.999301
662.498168	1.000431
662.839456	0.998602
663.180693	0.999312
663.521879	0.999789
663.863013	1.000036
664.204097	0.998419
664.545129	0.999188
664.886110	0.999279
665.227040	1.000145
665.567918	0.998771
665.908746	0.997761
666.249522	0.998782
666.590248	0.998373
666.930922	0.998380
667.271545	0.998961
667.612118	0.999138
667.952639	0.999267
668.293109	0.998225
668.633528	0.998863
668.973896	0.999038
669.314213	0.998011
669.654480	0.999103
669.994695	0.998681
670.334859	0.998741
670.674973	0.998399
671.015035	0.999039
671.355047	0.998753
671.695008	0.998588
672.034918	0.999510
672.374777	0.998824
672.714585	0.997956
673.054342	0.999115
673.394049	0.999175
673.733705	0.999428
674.073310	0.999560
674.412864	0.999296
674.752368	0.998707
675.091820	1.000122
675.431223	0.999715
675.770574	0.997891
676.109875	0.999144
676.449125	0.998386
676.788324	0.999391
677.127473	0.999457
677.466571	0.998794
677.805619	0.998591
678.144616	0.999924
678.483562	0.999266
678.822458	0.998820
679.161303	0.997970
679.500098	0.998706
679.838842	0.999496
680.177535	0.998463
680.516179	0.998916
680.854771	0.998124
681.193314	0.998933
681.531805	0.998450
681.870247	0.999063
682.208638	0.998410
682.546978	0.998681
682.885268	0.998727
683.223508	0.998624
683.561697	0.998137
683.899836	0.998659
684.237925	0.997968
684.575963	0.997816
684.913951	0.998298
685.251889	0.998347
685.589776	0.998599
685.927614	0.998457
686.265401	0.997976
686.603137	0.998113
686.940824	0.998661
687.278460	0.998815
687.616046	0.997942
687.953582	0.998296
688.291068	0.998260
688.628504	0.998567
688.965889	0.998354
689.303224	0.997023
689.640510	0.999326
689.977745	0.998635
690.314930	0.998675
690.652065	0.998401
690.989150	0.998258
691.326185	0.998126
691.663170	0.998151
692.000105	0.998423
692.336990	0.998933
692.673825	0.998765
693.010610	0.998627
693.347345	0.998763
693.684030	0.997799
694.020665	0.998090
694.357251	0.998150
694.693786	0.998544
695.030272	0.997568
695.366707	0.997899
695.703093	0.998069
696.039429	0.997392
696.375716	0.998583
696.711952	0.997453
697.048139	0.998865
697.384276	0.998275
697.720363	0.999306
698.056400	0.996613
698.392388	0.998149
698.728326	0.998538
699.064214	0.999672
699.400053	0.998272
699.735842	0.999434
700.071581	0.998336
700.407270	0.997203
700.742910	0.999056
701.078501	0.998708
701.414042	0.998869
701.749533	0.996605
702.084974	0.998673
702.420366	0.998494
702.755709	0.997757
703.091002	0.997302
703.426246	0.998813
703.761440	0.997605
704.096584	0.998359
704.431679	0.998640
704.766725	0.997660
705.101721	0.999110
705.436668	0.998926
705.771565	0.997508
706.106413	0.997794
706.441212	0.998296
706.775961	0.998435
707.110661	0.998579
707.445311	0.997626
707.779913	0.998960
708.114465	0.999121
708.448967	0.997824
708.783421	0.999278
709.117825	0.997976
709.452180	0.998798
709.786485	0.998656
710.120742	0.998120
710.454949	0.997782
710.789107	0.998372
711.123216	0.997523
711.457275	0.997407
711.791286	0.998487
712.125247	0.998515
712.459159	0.997162
712.793023	0.997942
713.126837	0.997962
713.460602	0.998353
713.794318	0.997060
714.127985	0.997682
714.461602	0.998364
714.795171	0.997646
715.128691	0.997781
715.462162	0.998446
715.795584	0.997893
716.128957	0.997858
716.462281	0.997938
716.795556	0.997225
717.128782	0.998859
717.461960	0.997793
717.795088	0.997733
718.128167	0.998614
718.461198	0.998710
718.794180	0.997750
719.127113	0.998172
719.459997	0.997542
719.792833	0.998145
720.125619	0.997451
720.458357	0.998806
720.791046	0.999470
721.123686	0.998766
721.456278	0.997626
721.788821	0.997758
722.121315	0.998874
722.453761	0.998102
722.786158	0.998278
723.118506	0.998623
723.450805	0.997633
723.783056	0.999117
724.115259	0.996930
724.447412	0.998861
724.779518	0.997652
725.111574	0.997975
725.443582	0.997461
725.775542	0.998434
726.107453	0.997935
726.439315	0.998796
726.771129	0.998924
727.102895	0.998517
727.434612	0.997827
727.766281	0.998228
728.097901	0.997260
728.429473	0.998556
728.760996	0.997762
729.092471	0.997882
729.423897	0.998281
729.755276	0.998158
730.086606	0.998464
730.417887	0.998833
730.749120	0.998109
731.080305	0.998152
731.411442	0.996813
731.742530	0.997489
732.073570	0.998284
732.404562	0.998369
732.735506	0.997836
733.066401	0.997965
733.397249	0.997943
733.728048	0.998715
734.058798	0.998349
734.389501	0.998899
734.720156	0.998423
735.050762	0.998624
735.381320	0.997722
735.711831	0.998123
736.042293	0.997657
736.372707	0.999040
736.703073	0.997770
737.033391	0.998056
737.363661	0.998127
737.693883	0.998204
738.024056	0.997362
738.354182	0.999035
738.684260	0.997848
739.014290	0.998642
739.344272	0.997660
739.674207	0.998176
740.004093	0.998592
740.333931	0.998440
740.663722	0.998656
740.993464	0.998521
741.323159	0.997760
741.652806	0.997748
741.982405	0.998474
742.311956	0.998354
742.641460	0.997875
742.970915	0.997504
743.300323	0.996769
743.629683	0.997670
743.958996	0.999392
744.288260	0.998465
744.617477	0.998761
744.946647	0.997905
745.275768	0.998545
745.604842	0.998083
745.933869	0.998235
746.262847	0.997957
746.591778	0.997367
746.920662	0.998783
747.249498	0.999150
747.578286	0.999860
747.907027	0.998248
748.235720	0.998995
748.564365	0.998911
748.892963	0.998015
749.221514	0.997013
749.550017	0.997755
749.878473	0.999097
750.206881	0.999967
750.535242	0.999050
750.863555	0.997232
751.191821	0.998084
751.520039	0.997590
751.848210	0.996323
752.176334	0.997756
752.504411	0.997307
752.832440	0.997299
753.160421	0.997902
753.488356	0.998498
753.816243	0.998461
754.144082	0.997877
754.471875	0.998242
754.799620	0.998626
755.127318	0.997874
755.454969	0.998130
755.782572	0.998918
756.110129	0.997794
756.437638	0.998926
756.765100	0.998112
757.092515	0.998168
757.419882	0.999159
757.747203	0.997541
758.074477	0.999767
758.401703	0.998508
758.728882	0.998128
759.056014	0.998499
759.383099	0.998686
759.710138	0.998170
760.037129	0.997770
760.364073	0.998767
760.690970	0.997749
761.017820	0.996772
761.344623	0.998831
761.671379	0.999405
761.998088	0.997975
762.324751	0.997565
762.651366	0.997652
762.977935	0.998099
763.304456	0.998149
763.630931	0.995539
763.957359	0.995994
764.283740	0.996951
764.610074	0.997389
764.936362	0.996911
765.262602	0.998709
765.588796	0.998354
765.914943	0.998636
766.241044	0.997758
766.567097	0.997874
766.893104	0.998064
767.219064	0.997134
767.544978	0.997476
767.870845	0.998535
768.196665	0.997945
768.522438	0.999458
768.848165	0.998449
769.173846	0.998659
769.499479	0.998514
769.825066	0.999277
770.150607	0.999770
770.476101	0.999260
770.801548	0.998777
771.126949	0.999675
771.452303	0.999161
771.777611	0.999198
772.102872	0.998862
772.428087	0.998139
772.753256	0.998678
773.078378	0.997880
773.403453	0.998377
773.728482	0.999247
774.053465	0.997819
774.378401	0.999005
774.703291	0.999400
775.028135	0.999562
775.352932	0.997845
775.677683	0.998730
776.002388	0.998754
776.327046	0.997875
776.651658	1.000071
776.976224	0.998401
777.300743	0.998966
777.625216	0.998482
777.949643	0.999229
778.274024	0.997814
778.598359	0.998697
778.922647	0.998559
779.246889	0.998783
779.571086	0.998514
779.895236	0.998756
780.219339	0.999732
780.543397	0.997732
780.867409	0.999533
781.191374	0.998577
781.515294	0.998897
781.839167	0.998422
782.162995	0.998878
782.486776	0.999684
782.810511	0.999491
783.134201	0.998906
783.457844	0.999525
783.781441	0.999400
784.104993	0.997223
784.428498	0.999681
784.751958	1.000509
785.075372	1.000066
785.398739	0.999924
785.722061	0.998294
786.045337	0.997722
786.368568	0.997401
786.691752	0.999084
787.014891	0.998874
787.337983	0.998113
787.661030	0.998754
787.984031	0.999223
788.306987	0.998718
788.629897	0.997336
788.952760	0.998533
789.275579	0.999188
789.598351	0.997214
789.921078	0.999874
790.243759	0.997923
790.566395	0.997499
790.888984	0.999009
791.211529	0.998618
791.534027	0.998359
791.856480	0.998790
792.178888	0.998197
792.501249	0.997815
792.823566	0.999103
793.145836	0.999423
793.468062	1.000040
793.790241	1.000255
794.112375	0.998296
794.434464	0.998726
794.756507	0.998680
795.078505	0.998168
795.400457	0.999596
795.722364	0.999315
796.044226	0.998348
796.366042	0.998152
796.687812	0.997977
797.009538	0.997638
797.331218	0.999045
797.652852	0.999494
797.974442	0.997110
798.295986	0.999322
798.617484	0.998069
798.938938	0.999608
799.260346	0.997257
799.581709	0.997909
799.903026	0.999827
800.224299	0.999002
800.545526	0.999230
800.866708	0.998031
801.187845	0.999304
801.508936	1.000042
801.829983	0.998659
802.150984	0.999613
802.471940	1.000065
802.792851	0.998567
803.113717	1.000281
803.434538	0.998901
803.755314	1.000590
804.076045	1.000554
804.396731	0.998483
804.717372	0.997274
805.037967	0.998674
805.358518	0.999295
805.679024	0.998257
805.999485	0.998484
806.319901	0.999743
806.640272	0.999303
806.960598	0.999028
807.280879	0.998608
807.601115	0.999587
807.921306	0.999335
808.241453	0.998985
808.561554	0.999029
808.881611	1.000073
809.201623	0.998179
809.521590	0.997768
809.841513	0.998767
810.161390	0.998325
810.481223	0.998967
810.801011	0.999344
811.120755	0.999519
811.440453	0.998087
811.760107	0.999374
812.079716	0.998707
812.399281	0.998369
812.718801	0.999115
813.038276	0.998900
813.357707	0.998967
813.677093	0.999155
813.996434	0.998788
814.315731	1.000137
814.634983	0.999370
814.954191	1.000312
815.273354	0.998437
815.592473	0.999247
815.911547	0.999398
816.230577	0.998650
816.549562	0.998676
816.868502	0.997550
817.187399	0.999772
817.506250	0.999833
817.825058	0.998414
818.143821	0.999355
818.462539	0.998991
818.781213	0.998801
819.099843	0.999902
819.418429	0.999148
819.736970	0.998830
820.055466	0.996711
820.373919	0.997415
820.692327	0.996361
821.010691	0.996955
821.329011	0.996060
821.647286	0.993697
821.965517	0.993976
822.283704	0.992928
822.601847	0.992142
822.919945	0.992196
823.237999	0.992651
823.556010	0.993585
823.873976	0.994158
824.191897	0.995158
824.509775	0.995224
824.827609	0.995436
825.145398	0.996148
825.463144	0.995436
825.780845	0.995336
826.098502	0.996413
826.416116	0.996486
826.733685	0.995535
827.051210	0.994850
827.368692	0.994998
827.686129	0.994868
828.003522	0.996373
828.320872	0.996848
828.638177	0.996895
828.955439	0.998049
829.272656	0.997815
829.589830	0.997317
829.906960	0.998918
830.224046	0.997282
830.541088	0.997875
830.858086	0.998139
831.175041	0.999968
831.491952	0.998199
831.808819	0.998696
832.125642	0.999058
832.442421	0.999237
832.759157	0.999963
833.075849	0.997780
833.392497	0.997775
833.709101	0.996316
834.025662	0.996892
834.342179	0.997361
834.658653	0.997681
834.975083	0.997845
835.291469	0.998769
835.607811	0.998472
835.924110	0.997761
836.240366	0.999918
836.556578	0.999245
836.872746	0.999527
837.188871	0.998550
837.504952	0.999167
837.820990	1.000525
838.136984	0.997951
838.452935	0.998797
838.768842	0.998985
839.084706	0.998912
839.400526	0.999707
839.716303	0.997580
840.032037	0.998224
840.347727	0.998271
840.663373	0.997548
840.978977	0.998140
841.294537	0.998922
841.610054	0.998644
841.925527	0.999598
842.240957	0.999143
842.556344	0.999095
842.871687	0.999182
843.186987	0.999338
843.502244	1.000265
843.817458	0.998945
844.132629	0.998612
844.447756	0.999393
844.762840	0.999880
845.077881	0.999396
845.392879	0.998695
845.707833	0.998648
846.022745	0.999353
846.337613	0.999831
846.652438	0.999100
846.967221	0.999427
847.281960	1.000348
847.596656	1.000067
847.911309	1.000531
848.225919	0.998361
848.540485	1.000253
848.855009	1.001026
849.169490	0.999457
849.483928	0.999610
849.798323	0.998298
850.112675	0.999607
850.426984	0.999240
850.741251	1.000245
851.055474	0.998969
851.369654	1.000571
851.683792	0.999453
851.997887	0.999766
852.311938	0.999584
852.625947	0.999511
852.939914	0.998364
853.253837	1.002079
853.567718	0.999142
853.881555	0.999216
854.195350	0.998921
854.509103	1.000241
854.822812	0.999026
855.136479	1.000084
855.450103	1.000605
855.763685	0.999763
856.077224	0.999461
856.390720	1.000154
856.704173	0.999687
857.017584	1.000891
857.330953	0.999855
857.644278	0.999731
857.957561	0.999935
858.270802	1.000211
858.584000	0.998948
858.897155	0.998416
859.210268	1.000158
859.523339	0.999601
859.836367	0.999931
860.149352	0.999082
860.462295	1.000306
860.775195	0.999501
861.088054	0.998521
861.400869	0.999412
861.713642	0.999078
862.026373	0.999587
862.339062	1.000032
862.651708	1.000059
862.964312	1.000127
863.276873	0.999249
863.589392	0.999653
863.901869	0.999037
864.214303	0.999750
864.526696	0.999287
864.839045	0.999811
865.151353	1.000010
865.463619	0.998378
865.775842	1.000184
866.088023	1.000779
866.400162	0.999451
866.712258	1.000497
867.024313	0.999569
867.336325	1.000139
867.648296	1.000644
867.960224	0.999190
868.272110	1.000138
868.583954	1.000070
868.895755	1.000965
869.207515	0.998273
869.519233	1.000159
869.830909	0.999073
870.142542	0.998661
870.454134	0.999745
870.765684	0.998149
871.077191	0.999286
871.388657	0.999817
871.700081	0.999854
872.011463	0.999373
872.322803	0.999263
872.634101	0.998157
872.945357	0.999745
873.256571	0.998711
873.567744	0.999354
873.878874	0.999762
874.189963	0.999480
874.501010	1.000694
874.812015	0.999625
875.122979	0.999510
875.433900	0.999336
875.744780	0.999394
876.055618	0.998745
876.366415	0.998811
876.677169	0.998702
876.987882	0.999283
877.298554	1.000436
877.609183	0.999309
877.919771	0.999507
878.230317	0.999917
878.540822	0.998614
878.851285	0.999260
879.161707	0.998647
879.472087	1.000025
879.782425	0.998515
880.092722	0.997952
880.402977	0.996760
880.713191	0.994441
881.023363	0.993875
881.333494	0.992977
881.643583	0.993939
881.953631	0.994025
882.263637	0.993369
882.573602	0.993813
882.883526	0.995113
883.193408	0.996155
883.503248	0.996086
883.813048	0.995901
884.122806	0.997072
884.432522	0.996737
884.742197	0.998229
885.051831	0.997566
885.361424	0.997723
885.670975	1.000069
885.980485	0.998460
886.289954	0.998623
886.599382	0.997674
886.908768	0.999006
887.218113	0.998455
887.527417	0.998711
887.836680	1.000267
888.145901	0.999203
888.455082	1.000520
888.764221	0.999906
889.073319	0.999907
889.382376	0.999970
889.691392	0.997932
890.000366	0.999677
890.309300	0.999924
890.618193	0.999686
890.927044	0.999152
891.235855	0.998990
891.544625	0.999120
891.853353	0.998852
892.162041	0.999496
892.470687	0.999879
892.779293	0.998666
893.087858	0.997194
893.396381	0.998610
893.704864	0.997413
894.013306	0.997537
894.321707	0.997736
894.630068	0.997084
894.938387	0.997225
895.246665	0.998068
895.554903	0.996521
895.863100	0.998611
896.171256	0.997610
896.479371	0.998092
896.787446	0.998278
897.095480	0.997854
897.403473	0.998859
897.711425	0.998234
898.019336	0.998178
898.327207	0.999840
898.635038	0.998100
898.942827	0.999908
899.250576	0.999079
899.558284	0.999685
899.865952	0.998211
900.173579	0.998484
900.481165	0.999404
900.788711	0.999352
901.096216	0.998367
901.403681	0.998585
901.711105	0.998901
902.018489	0.998802
902.325832	0.998926
902.633135	0.999534
902.940397	1.000167
903.247619	0.998889
903.554800	0.998103
903.861941	0.997741
904.169041	0.996002
904.476101	0.997301
904.783121	0.996539
905.090100	0.997196
905.397039	0.996937
905.703938	0.997457
906.010796	0.997792
906.317614	0.998073
906.624391	0.998425
906.931129	0.998559
907.237826	0.998685
907.544483	0.999616
907.851099	0.999163
908.157675	0.998613
908.464211	0.999156
908.770707	0.998521
909.077163	0.999762
909.383578	0.999562
909.689954	0.998292
909.996289	0.999404
910.302584	1.000649
910.608839	1.001847
910.915054	0.999258
911.221229	1.000158
911.527363	0.998883
911.833458	1.000622
912.139513	0.999667
912.445527	1.000935
912.751502	0.999520
913.057436	0.999810
913.363331	0.999491
913.669186	1.000554
913.975000	1.000636
914.280775	0.999694
914.586510	0.997794
914.892205	0.999072
915.197859	0.998591
915.503475	0.997102
915.809050	0.997220
916.114585	0.996362
916.420081	0.997124
916.725536	0.997898
917.030952	0.996525
917.336328	0.997373
917.641665	0.996921
917.946961	0.997529
918.252218	0.998003
918.557435	0.997579
918.862612	0.998078
919.167750	0.998386
919.472848	0.999580
919.777906	0.999636
920.082925	0.999250
920.387904	1.000152
920.692843	0.998794
920.997743	0.998479
921.302603	1.000038
921.607423	0.998088
921.912204	0.998073
922.216946	1.000502
922.521647	0.998471
922.826310	0.997979
923.130932	0.999074
923.435516	1.000624
923.740059	0.998287
924.044564	0.998522
924.349028	0.999192
924.653454	0.999772
924.957840	0.999687
925.262186	0.999647
925.566493	0.998834
925.870761	0.999234
926.174989	1.000346
926.479178	1.000495
926.783328	0.999755
927.087438	1.000418
927.391509	1.000014
927.695541	0.998870
927.999533	0.999613
928.303486	0.999559
928.607400	0.999691
928.911275	0.999870
929.215110	1.000822
929.518906	0.999917
929.822663	1.000230
930.126381	1.000797
930.430060	0.999850
930.733699	0.999906
931.037299	0.999906
931.340861	0.999086
931.644383	0.998605
931.947866	1.000332
932.251309	0.999973
932.554714	1.000354
932.858080	1.000995
933.161407	0.998712
933.464694	0.999165
933.767943	1.000675
934.071153	1.000115
934.374323	1.000558
934.677455	1.000067
934.980548	1.000077
935.283602	1.001119
935.586617	0.999626
935.889593	1.000260
936.192530	1.000301
936.495428	1.000200
936.798287	0.998491
937.101108	0.999678
937.403890	0.999886
937.706632	1.000213
938.009336	0.999130
938.312002	0.999306
938.614628	1.000543
938.917216	0.999896
939.219765	0.999024
939.522275	1.000006
939.824747	0.998388
940.127179	1.000443
940.429573	0.999626
940.731929	0.999786
941.034246	1.000065
941.336524	0.998900
941.638763	0.998680
941.940964	0.999796
942.243126	1.000742
942.545250	0.999830
942.847335	0.998633
943.149381	1.000106
943.451389	0.997764
943.753359	0.999635
944.055290	1.001459
944.357182	0.999720
944.659036	1.000855
944.960851	0.999888
945.262628	0.999755
945.564367	1.000342
945.866067	1.000067
946.167729	1.000402
946.469352	1.000067
946.770937	0.998178
947.072484	1.001177
947.373992	1.000191
947.675462	0.999732
947.976893	0.999989
948.278286	1.001232
948.579641	0.999885
948.880958	0.998807
949.182236	0.999834
949.483476	1.000650
949.784678	1.000031
950.085841	0.999917
950.386967	0.999707
950.688054	1.000505
950.989103	0.997995
951.290114	0.998583
951.591087	0.999114
951.892021	0.998661
952.192917	1.000073
952.493776	1.000305
952.794596	1.000077
953.095378	0.998744
953.396122	0.999396
953.696828	0.998977
953.997496	1.000028
954.298126	0.999720
954.598718	0.999089
954.899272	0.999626
955.199788	0.999296
955.500266	1.000996
955.800706	0.999285
956.101108	0.998840
956.401472	1.001414
956.701798	1.000646
957.002087	0.999393
957.302337	1.001295
957.602550	1.000175
957.902724	0.998875
958.202861	0.999217
958.502960	0.998495
958.803022	1.000347
959.103045	0.999781
959.403031	1.001435
959.702979	1.002029
960.002889	0.998578
960.302762	0.999158
960.602596	1.000215
960.902393	0.999756
961.202153	0.999862
961.501875	0.999669
961.801559	1.000594
962.101205	0.999516
962.400814	0.999656
962.700385	1.001057
962.999918	1.000878
963.299414	0.999501
963.598873	0.999951
963.898293	1.000771
964.197677	0.999703
964.497022	1.000093
964.796331	1.000079
965.095601	1.000640
965.394835	0.999413
965.694030	0.999776
965.993189	0.999556
966.292309	1.001230
966.591393	0.999519
966.890439	1.000540
967.189447	0.999543
967.488419	0.999306
967.787353	0.999531
968.086249	0.999930
968.385108	0.999267
968.683930	1.001475
968.982714	1.000573
969.281462	0.999173
969.580172	0.999223
969.878844	1.001121
970.177480	0.999719
970.476078	1.001615
970.774639	1.000522
971.073162	0.999467
971.371649	0.999694
971.670098	1.001041
971.968510	1.000085
972.266885	0.999605
972.565223	0.999592
972.863524	0.999653
973.161788	0.999563
973.460014	1.000805
973.758204	0.998060
974.056356	0.999328
974.354471	0.999737
974.652550	1.000731
974.950591	0.999686
975.248595	0.999148
975.546563	0.999657
975.844493	0.999821
976.142386	0.998689
976.440243	1.000139
976.738062	1.000432
977.035845	0.998912
977.333590	1.001266
977.631299	0.998848
977.928971	1.000646
978.226606	0.999329
978.524204	1.000997
978.821765	1.000254
979.119290	1.000712
979.416777	1.000377
979.714228	0.999355
980.011642	1.001510
980.309020	0.999485
980.606360	0.999292
980.903664	0.999445
981.200931	0.999542
981.498162	1.000799
981.795356	0.999347
982.092513	1.000269
982.389633	1.000882
982.686717	0.999196
982.983764	1.000754
983.280775	1.000455
983.577749	1.000746
983.874686	0.999265
984.171587	0.999534
984.468451	1.000552
984.765279	1.000349
985.062070	0.999492
985.358824	0.999680
985.655543	1.000289
985.952224	1.000468
986.248869	0.999960
986.545478	1.001460
986.842050	0.998966
987.138586	1.000135
987.435086	0.999658
987.731549	1.000104
988.027975	0.999893
988.324366	0.999476
988.620719	1.000810
988.917037	0.999961
989.213318	1.000297
989.509563	0.999592
989.805772	0.999993
990.101944	1.000369
990.398080	1.001232
990.694180	1.001273
990.990244	0.999118
991.286271	1.000212
991.582262	1.000505
991.878217	1.000093
992.174136	1.000539
992.470019	1.000087
992.765865	1.000543
993.061676	1.001097
993.357450	1.000011
993.653188	1.001520
993.948890	0.999305
994.244556	1.000131
994.540186	0.999738
994.835780	0.999784
995.131337	1.001140
995.426859	0.999381
995.722345	1.000653
996.017795	1.000000
996.313208	0.999247
996.608586	1.000229
996.903928	1.000372
997.199234	0.999709
997.494504	0.999809
997.789738	0.998514
998.084936	0.999856
998.380099	0.999255
998.675225	1.000289
998.970316	1.000217
999.265371	1.000513
999.560390	1.000212
999.855373	1.000042
1000.150320	1.000670
1000.445232	0.999091
1000.740108	1.000403
1001.034948	0.999791
1001.329752	1.001289
1001.624521	1.000707
1001.919254	0.999242
1002.213951	0.999998
1002.508613	0.999623
1002.803239	1.000818
1003.097829	1.000716
1003.392384	1.000625
1003.686903	0.999768
1003.981386	0.999603
1004.275834	1.001311
1004.570246	0.999781
1004.864623	0.999960
1005.158964	1.000603
1005.453270	0.999441
1005.747540	1.000022
1006.041775	0.999110
1006.335974	1.001100
1006.630138	1.000240
1006.924266	0.999150
1007.218359	0.998519
1007.512416	1.002770
1007.806438	1.000917
1008.100425	1.000099
1008.394376	1.001109
1008.688292	0.999478
1008.982172	1.000502
1009.276017	1.000502
1009.569827	1.001059
1009.863602	0.999453
1010.157341	1.000405
1010.451045	0.999386
1010.744714	1.002275
1011.038347	1.000696
1011.331945	0.999661
1011.625508	0.998923
1011.919036	0.998653
1012.212528	1.001640
1012.505986	1.000285
1012.799408	1.001517
1013.092795	1.000334
1013.386147	1.001322
1013.679464	1.002344
1013.972745	1.000076
1014.265992	0.999670
1014.559204	0.999751
1014.852380	1.000333
1015.145521	0.999059
1015.438628	1.000196
1015.731699	1.000674
1016.024736	1.001017
1016.317737	1.000052
1016.610703	0.999876
1016.903635	1.001100
1017.196531	0.999889
1017.489393	0.999527
1017.782219	0.999527
1018.075011	0.999569
1018.367768	0.999703
1018.660490	0.999840
1018.953177	0.999840
1019.245829	0.999840
