Dividing Wavelength (nm)	Counts (n)	Blue Motor Position (mm): 2.000000	Red Motor Position (mm): 0.000000	
326.493990	1.005632
326.888308	1.005632
327.282561	1.005632
327.676750	1.006953
328.070874	1.007223
328.464933	1.006974
328.858929	1.006419
329.252859	1.006184
329.646726	1.005248
330.040528	1.007191
330.434265	1.005757
330.827938	1.006164
331.221547	1.006464
331.615091	1.006922
332.008571	1.006361
332.401986	1.005817
332.795338	1.005812
333.188625	1.007170
333.581847	1.005198
333.975006	1.006811
334.368100	1.006856
334.761129	1.005406
335.154095	1.005876
335.546996	1.003758
335.939833	0.998228
336.332606	1.000013
336.725315	0.998951
337.117960	1.000568
337.510540	0.999329
337.903056	1.000137
338.295508	1.000156
338.687896	1.000787
339.080220	0.999644
339.472480	0.999161
339.864676	0.999332
340.256807	0.997744
340.648875	1.000741
341.040879	0.999242
341.432818	1.000468
341.824694	0.998154
342.216506	1.001229
342.608253	0.998664
342.999937	0.999575
343.391557	1.000019
343.783113	1.000845
344.174605	0.999732
344.566033	0.998731
344.957397	0.999605
345.348697	0.999633
345.739934	1.001300
346.131106	0.997759
346.522215	0.998627
346.913260	0.999030
347.304241	0.997968
347.695159	0.999038
348.086012	0.999488
348.476802	0.999383
348.867528	0.998373
349.258191	0.999793
349.648789	0.998575
350.039324	0.999224
350.429796	0.998506
350.820203	0.999359
351.210548	0.999278
351.600828	0.998937
351.991045	0.998935
352.381198	1.000050
352.771288	0.998221
353.161314	0.999059
353.551276	0.997524
353.941175	0.997278
354.331010	1.000695
354.720782	0.999318
355.110490	0.998241
355.500135	0.999407
355.889717	0.997490
356.279235	0.997655
356.668689	0.999972
357.058080	0.997859
357.447408	0.997795
357.836672	0.997880
358.225873	0.998101
358.615010	0.997981
359.004084	0.997133
359.393095	0.998509
359.782043	0.998385
360.170927	0.998051
360.559748	0.997535
360.948505	0.998664
361.337199	0.996825
361.725830	0.998674
362.114398	0.997843
362.502903	0.997322
362.891344	0.996380
363.279722	0.996797
363.668037	0.997816
364.056289	0.997610
364.444478	0.998788
364.832603	0.996964
365.220665	0.997866
365.608665	0.997008
365.996601	0.996231
366.384474	0.995381
366.772284	0.997138
367.160031	0.994661
367.547715	0.995096
367.935336	0.994252
368.322893	0.994185
368.710388	0.992549
369.097820	0.992175
369.485189	0.988521
369.872495	0.987132
370.259738	0.985662
370.646918	0.981511
371.034035	0.980799
371.421090	0.976261
371.808081	0.972280
372.195010	0.969990
372.581875	0.963914
372.968678	0.959599
373.355418	0.956817
373.742096	0.949043
374.128710	0.943654
374.515262	0.939706
374.901751	0.934006
375.288177	0.930339
375.674540	0.922469
376.060841	0.915589
376.447079	0.909368
376.833254	0.902263
377.219367	0.898836
377.605417	0.886645
377.991404	0.883339
378.377329	0.876475
378.763191	0.870211
379.148991	0.862063
379.534727	0.853692
379.920402	0.846604
380.306013	0.841647
380.691563	0.829461
381.077049	0.822635
381.462474	0.819238
381.847835	0.807972
382.233134	0.802459
382.618371	0.802568
383.003545	0.786282
383.388657	0.782822
383.773706	0.775631
384.158693	0.771975
384.543618	0.766726
384.928480	0.757315
385.313280	0.747351
385.698017	0.746780
386.082692	0.735502
386.467305	0.733235
386.851856	0.728954
387.236344	0.723657
387.620770	0.718191
388.005133	0.711754
388.389435	0.706844
388.773674	0.704237
389.157851	0.695372
389.541965	0.693007
389.926018	0.699415
390.310008	0.686085
390.693936	0.683933
391.077802	0.675985
391.461606	0.676784
391.845348	0.667026
392.229027	0.665676
392.612645	0.664350
392.996200	0.651277
393.379694	0.644361
393.763125	0.634453
394.146494	0.639574
394.529801	0.629056
394.913047	0.621611
395.296230	0.627793
395.679351	0.619205
396.062410	0.615632
396.445408	0.618587
396.828343	0.613778
397.211217	0.609472
397.594028	0.621484
397.976778	0.611030
398.359466	0.608279
398.742092	0.603789
399.124656	0.615105
399.507158	0.603139
399.889598	0.600482
400.271977	0.592306
400.654294	0.595549
401.036549	0.594864
401.418742	0.598593
401.800874	0.584665
402.182944	0.580929
402.564952	0.573300
402.946898	0.575690
403.328783	0.575626
403.710606	0.587285
404.092367	0.562202
404.474067	0.567183
404.855705	0.565619
405.237282	0.574864
405.618797	0.560400
406.000250	0.556305
406.381642	0.547100
406.762972	0.551758
407.144240	0.550282
407.525447	0.549918
407.906593	0.543301
408.287677	0.539282
408.668700	0.547291
409.049661	0.541277
409.430560	0.536036
409.811399	0.544276
410.192176	0.526371
410.572891	0.533858
410.953545	0.522055
411.334138	0.534701
411.714669	0.527684
412.095139	0.539416
412.475547	0.523823
412.855894	0.525917
413.236180	0.524831
413.616405	0.530424
413.996568	0.521009
414.376670	0.526576
414.756711	0.531931
415.136691	0.528989
415.516609	0.519319
415.896466	0.516191
416.276262	0.512794
416.655997	0.514367
417.035670	0.495854
417.415283	0.487453
417.794834	0.492119
418.174324	0.497496
418.553753	0.506339
418.933121	0.489186
419.312428	0.482850
419.691674	0.488541
420.070859	0.477042
420.449983	0.484671
420.829045	0.473968
421.208047	0.482938
421.586988	0.475551
421.965867	0.474897
422.344686	0.463171
422.723444	0.475847
423.102141	0.493061
423.480777	0.465726
423.859352	0.487262
424.237866	0.463977
424.616319	0.464628
424.994712	0.455465
425.373044	0.465292
425.751314	0.453826
426.129524	0.470999
426.507673	0.453871
426.885762	0.447862
427.263789	0.452773
427.641756	0.462784
428.019662	0.452843
428.397508	0.452477
428.775292	0.456811
429.153016	0.448655
429.530679	0.454697
429.908282	0.447716
430.285824	0.457719
430.663305	0.436019
431.040726	0.457448
431.418086	0.457755
431.795385	0.449054
432.172624	0.448071
432.549802	0.449188
432.926920	0.447418
433.303977	0.446893
433.680974	0.444113
434.057910	0.442558
434.434786	0.441707
434.811601	0.444921
435.188355	0.427425
435.565050	0.436416
435.941683	0.437804
436.318257	0.421546
436.694770	0.422788
437.071222	0.420593
437.447614	0.425437
437.823946	0.431755
438.200218	0.421067
438.576429	0.430566
438.952580	0.423563
439.328670	0.420346
439.704700	0.426521
440.080670	0.427922
440.456580	0.409469
440.832429	0.417264
441.208218	0.428230
441.583947	0.416736
441.959616	0.416787
442.335224	0.422528
442.710773	0.412669
443.086261	0.411106
443.461689	0.424987
443.837057	0.414797
444.212365	0.404825
444.587612	0.411717
444.962800	0.401631
445.337927	0.403428
445.712995	0.429118
446.088002	0.391288
446.462949	0.401858
446.837837	0.406896
447.212664	0.395234
447.587431	0.386483
447.962139	0.357080
448.336786	0.316179
448.711374	0.326687
449.085901	0.370914
449.460369	0.375657
449.834776	0.378578
450.209124	0.357896
450.583412	0.350955
450.957640	0.344008
451.331808	0.355037
451.705917	0.378554
452.079965	0.382794
452.453954	0.371716
452.827883	0.378010
453.201752	0.373462
453.575562	0.383985
453.949311	0.372708
454.323001	0.378652
454.696632	0.374777
455.070202	0.367293
455.443713	0.359097
455.817164	0.353550
456.190556	0.349954
456.563888	0.346612
456.937160	0.343572
457.310373	0.361210
457.683526	0.360068
458.056619	0.365919
458.429653	0.366119
458.802628	0.369859
459.175542	0.364513
459.548398	0.347037
459.921194	0.339280
460.293930	0.339372
460.666607	0.317016
461.039224	0.305086
461.411782	0.300431
461.784280	0.300124
462.156719	0.304073
462.529099	0.308500
462.901419	0.324644
463.273680	0.328958
463.645882	0.328340
464.018024	0.334301
464.390106	0.326934
464.762130	0.311514
465.134094	0.294383
465.505999	0.263370
465.877845	0.233579
466.249631	0.220726
466.621358	0.228171
466.993026	0.242320
467.364634	0.248420
467.736184	0.257093
468.107674	0.266306
468.479105	0.264921
468.850477	0.272060
469.221790	0.278644
469.593043	0.289010
469.964238	0.293696
470.335373	0.293414
470.706449	0.291751
471.077467	0.291873
471.448425	0.254108
471.819324	0.229272
472.190164	0.229089
472.560945	0.257758
472.931667	0.280368
473.302330	0.284550
473.672934	0.296108
474.043479	0.284131
474.413965	0.286001
474.784393	0.289730
475.154761	0.284580
475.525070	0.281638
475.895321	0.287521
476.265513	0.281473
476.635645	0.276959
477.005719	0.277025
477.375734	0.273491
477.745691	0.266847
478.115588	0.263054
478.485427	0.256223
478.855207	0.243788
479.224928	0.225602
479.594591	0.213854
479.964194	0.217568
480.333739	0.218627
480.703226	0.219685
481.072653	0.218252
481.442022	0.214021
481.811333	0.210509
482.180584	0.214039
482.549777	0.219660
482.918912	0.223014
483.287988	0.222596
483.657005	0.222244
484.025964	0.228614
484.394864	0.225919
484.763706	0.226577
485.132489	0.231565
485.501213	0.232555
485.869879	0.230514
486.238487	0.233912
486.607036	0.231725
486.975527	0.236754
487.343959	0.232267
487.712333	0.231150
488.080648	0.232633
488.448905	0.232084
488.817104	0.232875
489.185244	0.227872
489.553326	0.224465
489.921350	0.214367
490.289315	0.196885
490.657222	0.191704
491.025070	0.193398
491.392861	0.195179
491.760593	0.200802
492.128267	0.206467
492.495883	0.212028
492.863440	0.218378
493.230939	0.224546
493.598380	0.226493
493.965763	0.228274
494.333088	0.230531
494.700354	0.231921
495.067563	0.231001
495.434713	0.234446
495.801805	0.232163
496.168839	0.233820
496.535815	0.235360
496.902733	0.235147
497.269593	0.236727
497.636395	0.234247
498.003139	0.234696
498.369825	0.237844
498.736453	0.234037
499.103023	0.235730
499.469535	0.235217
499.835989	0.235634
500.202385	0.235779
500.568723	0.239565
500.935003	0.234497
501.301226	0.238943
501.667390	0.233075
502.033497	0.231089
502.399546	0.234184
502.765537	0.236129
503.131470	0.234602
503.497345	0.231103
503.863163	0.239509
504.228923	0.232483
504.594625	0.231133
504.960269	0.236559
505.325856	0.232027
505.691385	0.236313
506.056856	0.233256
506.422270	0.232402
506.787625	0.234805
507.152924	0.232348
507.518164	0.232796
507.883347	0.234167
508.248472	0.236228
508.613540	0.231156
508.978550	0.233659
509.343503	0.234160
509.708398	0.231864
510.073236	0.229577
510.438016	0.228858
510.802738	0.230118
511.167403	0.229095
511.532010	0.231369
511.896561	0.226749
512.261053	0.225110
512.625488	0.227264
512.989866	0.227750
513.354186	0.228108
513.718449	0.230116
514.082655	0.226377
514.446803	0.228449
514.810894	0.226374
515.174927	0.228996
515.538904	0.228548
515.902822	0.225041
516.266684	0.227640
516.630488	0.228919
516.994235	0.227877
517.357925	0.226611
517.721558	0.224800
518.085133	0.224464
518.448651	0.224070
518.812112	0.226588
519.175516	0.226318
519.538863	0.223804
519.902152	0.225555
520.265385	0.222189
520.628560	0.223880
520.991678	0.224400
521.354739	0.223427
521.717743	0.224361
522.080690	0.225055
522.443580	0.222356
522.806413	0.223087
523.169189	0.222457
523.531908	0.221166
523.894569	0.225124
524.257174	0.224905
524.619722	0.222583
524.982213	0.223887
525.344647	0.222457
525.707025	0.223424
526.069345	0.221470
526.431608	0.223247
526.793815	0.221260
527.155964	0.225304
527.518057	0.224500
527.880093	0.225289
528.242072	0.223966
528.603995	0.225969
528.965860	0.227666
529.327669	0.226726
529.689421	0.227573
530.051117	0.228080
530.412755	0.226008
530.774337	0.228129
531.135862	0.228447
531.497331	0.227771
531.858743	0.230831
532.220098	0.227480
532.581396	0.230092
532.942638	0.230567
533.303824	0.231704
533.664953	0.231042
534.026025	0.233172
534.387040	0.231100
534.747999	0.230783
535.108902	0.229689
535.469748	0.234856
535.830537	0.232687
536.191270	0.232787
536.551947	0.232623
536.912567	0.232532
537.273131	0.234179
537.633638	0.234401
537.994089	0.235070
538.354483	0.235955
538.714821	0.232869
539.075103	0.232654
539.435328	0.233471
539.795497	0.237229
540.155609	0.233978
540.515665	0.232073
540.875665	0.237572
541.235609	0.236276
541.595496	0.236203
541.955328	0.232827
542.315102	0.235570
542.674821	0.236539
543.034483	0.236509
543.394090	0.236123
543.753640	0.238348
544.113134	0.233034
544.472571	0.236396
544.831953	0.233384
545.191278	0.237595
545.550548	0.236536
545.909761	0.233799
546.268918	0.234480
546.628019	0.232615
546.987064	0.235334
547.346053	0.237245
547.704986	0.235140
548.063863	0.235302
548.422684	0.235598
548.781449	0.237207
549.140158	0.235035
549.498811	0.237644
549.857408	0.241008
550.215949	0.235645
550.574434	0.238543
550.932864	0.236756
551.291237	0.235124
551.649555	0.237002
552.007817	0.236576
552.366022	0.237359
552.724173	0.237703
553.082267	0.237632
553.440305	0.234932
553.798288	0.239080
554.156215	0.236113
554.514086	0.236401
554.871902	0.239761
555.229661	0.238636
555.587365	0.239668
555.945014	0.242054
556.302606	0.238784
556.660143	0.241782
557.017625	0.237903
557.375050	0.240039
557.732421	0.237088
558.089735	0.239140
558.446994	0.239296
558.804197	0.238280
559.161345	0.238194
559.518437	0.241815
559.875474	0.239681
560.232455	0.239090
560.589381	0.240099
560.946251	0.240252
561.303065	0.237685
561.659825	0.239178
562.016528	0.240838
562.373177	0.243824
562.729770	0.240862
563.086307	0.242738
563.442789	0.240725
563.799216	0.243668
564.155587	0.242619
564.511904	0.243619
564.868164	0.243532
565.224370	0.243009
565.580520	0.245122
565.936615	0.245221
566.292654	0.248065
566.648638	0.244946
567.004567	0.246076
567.360441	0.246563
567.716260	0.248614
568.072023	0.246013
568.427732	0.247027
568.783385	0.249556
569.138982	0.247393
569.494525	0.247263
569.850013	0.250343
570.205445	0.248835
570.560823	0.251113
570.916145	0.253160
571.271412	0.251257
571.626625	0.252945
571.981782	0.253202
572.336884	0.254172
572.691931	0.253937
573.046923	0.255388
573.401860	0.256577
573.756743	0.258315
574.111570	0.256857
574.466342	0.257726
574.821059	0.256616
575.175722	0.259736
575.530330	0.259295
575.884882	0.259384
576.239380	0.261358
576.593823	0.261772
576.948211	0.261469
577.302544	0.264666
577.656823	0.264450
578.011047	0.264197
578.365216	0.265124
578.719330	0.267492
579.073389	0.266771
579.427394	0.267876
579.781344	0.269063
580.135239	0.270048
580.489080	0.270078
580.842866	0.273418
581.196597	0.273457
581.550273	0.271584
581.903895	0.272480
582.257463	0.270453
582.610975	0.274142
582.964434	0.273628
583.317837	0.275871
583.671186	0.276554
584.024481	0.276396
584.377721	0.278826
584.730906	0.279829
585.084037	0.279065
585.437113	0.280894
585.790135	0.280108
586.143103	0.283347
586.496016	0.284034
586.848874	0.281675
587.201679	0.282236
587.554428	0.286031
587.907124	0.284438
588.259765	0.285243
588.612352	0.285900
588.964884	0.289648
589.317362	0.289271
589.669786	0.289031
590.022155	0.287478
590.374470	0.287022
590.726731	0.288665
591.078937	0.293878
591.431090	0.290313
591.783188	0.293955
592.135232	0.294915
592.487222	0.294879
592.839157	0.292743
593.191038	0.295098
593.542866	0.296983
593.894639	0.300238
594.246358	0.299045
594.598022	0.298403
594.949633	0.301757
595.301190	0.302398
595.652692	0.301630
596.004141	0.297596
596.355535	0.305512
596.706876	0.306568
597.058162	0.308811
597.409395	0.306059
597.760573	0.303678
598.111698	0.306736
598.462768	0.307238
598.813785	0.308688
599.164748	0.309896
599.515657	0.310214
599.866511	0.313726
600.217312	0.308847
600.568060	0.314310
600.918753	0.310750
601.269392	0.311754
601.619978	0.315012
601.970510	0.312804
602.320988	0.313035
602.671412	0.310622
603.021783	0.312996
603.372100	0.314394
603.722363	0.314063
604.072572	0.315115
604.422728	0.314693
604.772830	0.316597
605.122878	0.316707
605.472872	0.317281
605.822813	0.315179
606.172701	0.317888
606.522534	0.315304
606.872314	0.315093
607.222041	0.316637
607.571714	0.314266
607.921333	0.315979
608.270899	0.315296
608.620411	0.312059
608.969870	0.316352
609.319276	0.316324
609.668627	0.316278
610.017926	0.314896
610.367171	0.313574
610.716362	0.313967
611.065500	0.313990
611.414585	0.312766
611.763616	0.313352
612.112594	0.314225
612.461518	0.313298
612.810389	0.310916
613.159207	0.313285
613.507971	0.315237
613.856682	0.310738
614.205340	0.312077
614.553945	0.309440
614.902496	0.313052
615.250994	0.311093
615.599439	0.312095
615.947830	0.311159
616.296169	0.312450
616.644454	0.312085
616.992686	0.311998
617.340864	0.309713
617.688990	0.312808
618.037063	0.309910
618.385082	0.311808
618.733048	0.308464
619.080961	0.310817
619.428821	0.310264
619.776628	0.310066
620.124382	0.312086
620.472083	0.312487
620.819731	0.311835
621.167326	0.315539
621.514868	0.315434
621.862357	0.319771
622.209793	0.319159
622.557176	0.321889
622.904506	0.322698
623.251783	0.324817
623.599007	0.327258
623.946179	0.326797
624.293297	0.328943
624.640363	0.332647
624.987376	0.333266
625.334336	0.335599
625.681243	0.338194
626.028097	0.338609
626.374899	0.339664
626.721647	0.340220
627.068343	0.343446
627.414987	0.344093
627.761577	0.346235
628.108115	0.344598
628.454600	0.350226
628.801032	0.347359
629.147412	0.349428
629.493739	0.349706
629.840014	0.352840
630.186236	0.349681
630.532405	0.355393
630.878521	0.353401
631.224585	0.355461
631.570597	0.359233
631.916556	0.357399
632.262462	0.357359
632.608316	0.359855
632.954117	0.360602
633.299866	0.361071
633.645562	0.361466
633.991206	0.365835
634.336797	0.368918
634.682336	0.371413
635.027823	0.373268
635.373257	0.373420
635.718639	0.377144
636.063968	0.376201
636.409245	0.382315
636.754470	0.382584
637.099642	0.384688
637.444762	0.388865
637.789829	0.387221
638.134845	0.390767
638.479808	0.391744
638.824719	0.392058
639.169577	0.395769
639.514383	0.395119
639.859137	0.399521
640.203839	0.398874
640.548489	0.399575
640.893086	0.400736
641.237632	0.402445
641.582125	0.401079
641.926566	0.402836
642.270955	0.402579
642.615292	0.402548
642.959576	0.401741
643.303809	0.402403
643.647990	0.402673
643.992118	0.403437
644.336195	0.405854
644.680219	0.404723
645.024192	0.405408
645.368112	0.398931
645.711981	0.397758
646.055797	0.393309
646.399562	0.395602
646.743274	0.388140
647.086935	0.385324
647.430544	0.384835
647.774101	0.384102
648.117606	0.384194
648.461059	0.384552
648.804460	0.387226
649.147810	0.391748
649.491108	0.393465
649.834354	0.395127
650.177548	0.400730
650.520690	0.405448
650.863781	0.407043
651.206820	0.406233
651.549807	0.411069
651.892742	0.415118
652.235626	0.414299
652.578458	0.415300
652.921238	0.421896
653.263967	0.419379
653.606644	0.423007
653.949269	0.423399
654.291843	0.426779
654.634365	0.424082
654.976836	0.426740
655.319255	0.427593
655.661622	0.428628
656.003938	0.429340
656.346203	0.431262
656.688416	0.429583
657.030577	0.432858
657.372687	0.435527
657.714746	0.435699
658.056753	0.432632
658.398708	0.436228
658.740612	0.438309
659.082465	0.433848
659.424266	0.434677
659.766016	0.433526
660.107715	0.437034
660.449362	0.435602
660.790958	0.436277
661.132503	0.437351
661.473996	0.434000
661.815438	0.435922
662.156829	0.435988
662.498168	0.436589
662.839456	0.437706
663.180693	0.435714
663.521879	0.435631
663.863013	0.436486
664.204097	0.434722
664.545129	0.431051
664.886110	0.432005
665.227040	0.429037
665.567918	0.431776
665.908746	0.429849
666.249522	0.430370
666.590248	0.430563
666.930922	0.428567
667.271545	0.427596
667.612118	0.427688
667.952639	0.429348
668.293109	0.428050
668.633528	0.430972
668.973896	0.430466
669.314213	0.431208
669.654480	0.432990
669.994695	0.433027
670.334859	0.433912
670.674973	0.434395
671.015035	0.434149
671.355047	0.434329
671.695008	0.435229
672.034918	0.437293
672.374777	0.436719
672.714585	0.437489
673.054342	0.437151
673.394049	0.437649
673.733705	0.435123
674.073310	0.436594
674.412864	0.439526
674.752368	0.439792
675.091820	0.440274
675.431223	0.444814
675.770574	0.444416
676.109875	0.447652
676.449125	0.447417
676.788324	0.450148
677.127473	0.454719
677.466571	0.454938
677.805619	0.456944
678.144616	0.457702
678.483562	0.459427
678.822458	0.461929
679.161303	0.462442
679.500098	0.464220
679.838842	0.464726
680.177535	0.464251
680.516179	0.462957
680.854771	0.462009
681.193314	0.455347
681.531805	0.446543
681.870247	0.435170
682.208638	0.428025
682.546978	0.426770
682.885268	0.428803
683.223508	0.434451
683.561697	0.439330
683.899836	0.440611
684.237925	0.443914
684.575963	0.447328
684.913951	0.450199
685.251889	0.445909
685.589776	0.448334
685.927614	0.450779
686.265401	0.444233
686.603137	0.445829
686.940824	0.440088
687.278460	0.438867
687.616046	0.437580
687.953582	0.432754
688.291068	0.434189
688.628504	0.429470
688.965889	0.431798
689.303224	0.435575
689.640510	0.439720
689.977745	0.444897
690.314930	0.452599
690.652065	0.457904
690.989150	0.465793
691.326185	0.472096
691.663170	0.476418
692.000105	0.484117
692.336990	0.491049
692.673825	0.493314
693.010610	0.499758
693.347345	0.506528
693.684030	0.506792
694.020665	0.511856
694.357251	0.521012
694.693786	0.521080
695.030272	0.524072
695.366707	0.528585
695.703093	0.531755
696.039429	0.529973
696.375716	0.531716
696.711952	0.534065
697.048139	0.536351
697.384276	0.538772
697.720363	0.536959
698.056400	0.534851
698.392388	0.541151
698.728326	0.543704
699.064214	0.546686
699.400053	0.547565
699.735842	0.550764
700.071581	0.554161
700.407270	0.557254
700.742910	0.559445
701.078501	0.565766
701.414042	0.567034
701.749533	0.569262
702.084974	0.578577
702.420366	0.571016
702.755709	0.577540
703.091002	0.586638
703.426246	0.580401
703.761440	0.584636
704.096584	0.590133
704.431679	0.587273
704.766725	0.589592
705.101721	0.591335
705.436668	0.587299
705.771565	0.594229
706.106413	0.590168
706.441212	0.585876
706.775961	0.585078
707.110661	0.586531
707.445311	0.584434
707.779913	0.581459
708.114465	0.579487
708.448967	0.575942
708.783421	0.568690
709.117825	0.562961
709.452180	0.563114
709.786485	0.556950
710.120742	0.546736
710.454949	0.548666
710.789107	0.539787
711.123216	0.530858
711.457275	0.532754
711.791286	0.524337
712.125247	0.523454
712.459159	0.533993
712.793023	0.525756
713.126837	0.529837
713.460602	0.530787
713.794318	0.539699
714.127985	0.538615
714.461602	0.549401
714.795171	0.552145
715.128691	0.560114
715.462162	0.567689
715.795584	0.573904
716.128957	0.576667
716.462281	0.583394
716.795556	0.586194
717.128782	0.592043
717.461960	0.601134
717.795088	0.600072
718.128167	0.606209
718.461198	0.614315
718.794180	0.615661
719.127113	0.617986
719.459997	0.620888
719.792833	0.628094
720.125619	0.629011
720.458357	0.635495
720.791046	0.634439
721.123686	0.637564
721.456278	0.645162
721.788821	0.642049
722.121315	0.647379
722.453761	0.650524
722.786158	0.648770
723.118506	0.645485
723.450805	0.652797
723.783056	0.649498
724.115259	0.646495
724.447412	0.646133
724.779518	0.647779
725.111574	0.645787
725.443582	0.641679
725.775542	0.643881
726.107453	0.636195
726.439315	0.636476
726.771129	0.635495
727.102895	0.627670
727.434612	0.620608
727.766281	0.618587
728.097901	0.617567
728.429473	0.616998
728.760996	0.615890
729.092471	0.616057
729.423897	0.620503
729.755276	0.619130
730.086606	0.618694
730.417887	0.613844
730.749120	0.604082
731.080305	0.594919
731.411442	0.590614
731.742530	0.594337
732.073570	0.594140
732.404562	0.586966
732.735506	0.588541
733.066401	0.593614
733.397249	0.602199
733.728048	0.613765
734.058798	0.627499
734.389501	0.637860
734.720156	0.647555
735.050762	0.655970
735.381320	0.656070
735.711831	0.664061
736.042293	0.669291
736.372707	0.666263
736.703073	0.670305
737.033391	0.672773
737.363661	0.668855
737.693883	0.665304
738.024056	0.664044
738.354182	0.664551
738.684260	0.653539
739.014290	0.650193
739.344272	0.650250
739.674207	0.643800
740.004093	0.643613
740.333931	0.643731
740.663722	0.643902
740.993464	0.644412
741.323159	0.648208
741.652806	0.653071
741.982405	0.658015
742.311956	0.663066
742.641460	0.664968
742.970915	0.668278
743.300323	0.674926
743.629683	0.681559
743.958996	0.684585
744.288260	0.687810
744.617477	0.694790
744.946647	0.696370
745.275768	0.702856
745.604842	0.701597
745.933869	0.712198
746.262847	0.712813
746.591778	0.706207
746.920662	0.712035
747.249498	0.719813
747.578286	0.709819
747.907027	0.706143
748.235720	0.707026
748.564365	0.701593
748.892963	0.701348
749.221514	0.705151
749.550017	0.709149
749.878473	0.709950
750.206881	0.717180
750.535242	0.717049
750.863555	0.715211
751.191821	0.717601
751.520039	0.721398
751.848210	0.724428
752.176334	0.718755
752.504411	0.716661
752.832440	0.725824
753.160421	0.728855
753.488356	0.727392
753.816243	0.725051
754.144082	0.733385
754.471875	0.736773
754.799620	0.733702
755.127318	0.733923
755.454969	0.734842
755.782572	0.734617
756.110129	0.738675
756.437638	0.741616
756.765100	0.737942
757.092515	0.734766
757.419882	0.734928
757.747203	0.740070
758.074477	0.739517
758.401703	0.735880
758.728882	0.732694
759.056014	0.730658
759.383099	0.729586
759.710138	0.729539
760.037129	0.725969
760.364073	0.720749
760.690970	0.723815
761.017820	0.726518
761.344623	0.723972
761.671379	0.714991
761.998088	0.703740
762.324751	0.680481
762.651366	0.636713
762.977935	0.570102
763.304456	0.517473
763.630931	0.507409
763.957359	0.547373
764.283740	0.591599
764.610074	0.619438
764.936362	0.651391
765.262602	0.678534
765.588796	0.700100
765.914943	0.717335
766.241044	0.735789
766.567097	0.742297
766.893104	0.752949
767.219064	0.759718
767.544978	0.766120
767.870845	0.779332
768.196665	0.783980
768.522438	0.780859
768.848165	0.782321
769.173846	0.791687
769.499479	0.796514
769.825066	0.800046
770.150607	0.804886
770.476101	0.800003
770.801548	0.801566
771.126949	0.813453
771.452303	0.817881
771.777611	0.815940
772.102872	0.814084
772.428087	0.820299
772.753256	0.823744
773.078378	0.825016
773.403453	0.833709
773.728482	0.838767
774.053465	0.831215
774.378401	0.835697
774.703291	0.844702
775.028135	0.844689
775.352932	0.844578
775.677683	0.849414
776.002388	0.849586
776.327046	0.849442
776.651658	0.854131
776.976224	0.856435
777.300743	0.856180
777.625216	0.858230
777.949643	0.860118
778.274024	0.859146
778.598359	0.860696
778.922647	0.859450
779.246889	0.860588
779.571086	0.864278
779.895236	0.866422
780.219339	0.864639
780.543397	0.860484
780.867409	0.859558
781.191374	0.861038
781.515294	0.863315
781.839167	0.862541
782.162995	0.864480
782.486776	0.862401
782.810511	0.862896
783.134201	0.868140
783.457844	0.865445
783.781441	0.866986
784.104993	0.872490
784.428498	0.873902
784.751958	0.870245
785.075372	0.872690
785.398739	0.875722
785.722061	0.870437
786.045337	0.867973
786.368568	0.871840
786.691752	0.875706
787.014891	0.859761
787.337983	0.850916
787.661030	0.843896
787.984031	0.825692
788.306987	0.813206
788.629897	0.813834
788.952760	0.818366
789.275579	0.822468
789.598351	0.839355
789.921078	0.853055
790.243759	0.853568
790.566395	0.858236
790.888984	0.867906
791.211529	0.871129
791.534027	0.874307
791.856480	0.877688
792.178888	0.882028
792.501249	0.883681
792.823566	0.886258
793.145836	0.885359
793.468062	0.887590
793.790241	0.888893
794.112375	0.886458
794.434464	0.882210
794.756507	0.881434
795.078505	0.879298
795.400457	0.874848
795.722364	0.863368
796.044226	0.856004
796.366042	0.854523
796.687812	0.857925
797.009538	0.853369
797.331218	0.858011
797.652852	0.862012
797.974442	0.866143
798.295986	0.867727
798.617484	0.868354
798.938938	0.873668
799.260346	0.878161
799.581709	0.880004
799.903026	0.882528
800.224299	0.883803
800.545526	0.886978
800.866708	0.891930
801.187845	0.895616
801.508936	0.894272
801.829983	0.892220
802.150984	0.897084
802.471940	0.900944
802.792851	0.900374
803.113717	0.900961
803.434538	0.899506
803.755314	0.901637
804.076045	0.901938
804.396731	0.903837
804.717372	0.902573
805.037967	0.905460
805.358518	0.902891
805.679024	0.899067
805.999485	0.900025
806.319901	0.898686
806.640272	0.902142
806.960598	0.899567
807.280879	0.896361
807.601115	0.895162
807.921306	0.898909
808.241453	0.898670
808.561554	0.898159
808.881611	0.896974
809.201623	0.899259
809.521590	0.899419
809.841513	0.901438
810.161390	0.898455
810.481223	0.901133
810.801011	0.904694
811.120755	0.906999
811.440453	0.904647
811.760107	0.905274
812.079716	0.903794
812.399281	0.906394
812.718801	0.909179
813.038276	0.910355
813.357707	0.910705
813.677093	0.909015
813.996434	0.909274
814.315731	0.912352
814.634983	0.913363
814.954191	0.912682
815.273354	0.907599
815.592473	0.904203
815.911547	0.904862
816.230577	0.901692
816.549562	0.899461
816.868502	0.898526
817.187399	0.898192
817.506250	0.890638
817.825058	0.892142
818.143821	0.888157
818.462539	0.883424
818.781213	0.876004
819.099843	0.865173
819.418429	0.847624
819.736970	0.832026
820.055466	0.811126
820.373919	0.784140
820.692327	0.750822
821.010691	0.715098
821.329011	0.634324
821.647286	0.517329
821.965517	0.402273
822.283704	0.359573
822.601847	0.360279
822.919945	0.396024
823.237999	0.430579
823.556010	0.478453
823.873976	0.535690
824.191897	0.586731
824.509775	0.630968
824.827609	0.677004
825.145398	0.699849
825.463144	0.701345
825.780845	0.684466
826.098502	0.665367
826.416116	0.620073
826.733685	0.574381
827.051210	0.565313
827.368692	0.580466
827.686129	0.618562
828.003522	0.673038
828.320872	0.722336
828.638177	0.765984
828.955439	0.800224
829.272656	0.821414
829.589830	0.839788
829.906960	0.855723
830.224046	0.869791
830.541088	0.880122
830.858086	0.884375
831.175041	0.890701
831.491952	0.889020
831.808819	0.885972
832.125642	0.878392
832.442421	0.865303
832.759157	0.841347
833.075849	0.792972
833.392497	0.729163
833.709101	0.687955
834.025662	0.697160
834.342179	0.729822
834.658653	0.769377
834.975083	0.806751
835.291469	0.832831
835.607811	0.856304
835.924110	0.873183
836.240366	0.890943
836.556578	0.904153
836.872746	0.911599
837.188871	0.917277
837.504952	0.922875
837.820990	0.926616
838.136984	0.930781
838.452935	0.933220
838.768842	0.935879
839.084706	0.927762
839.400526	0.903525
839.716303	0.859688
840.032037	0.837842
840.347727	0.842594
840.663373	0.859857
840.978977	0.881806
841.294537	0.905243
841.610054	0.921345
841.925527	0.929296
842.240957	0.936218
842.556344	0.943402
842.871687	0.949534
843.186987	0.952692
843.502244	0.955194
843.817458	0.955865
844.132629	0.960818
844.447756	0.964212
844.762840	0.965337
845.077881	0.964959
845.392879	0.964199
845.707833	0.966084
846.022745	0.969091
846.337613	0.968557
846.652438	0.970191
846.967221	0.968902
847.281960	0.971144
847.596656	0.971542
847.911309	0.971632
848.225919	0.971748
848.540485	0.973884
848.855009	0.973942
849.169490	0.974070
849.483928	0.972715
849.798323	0.972338
850.112675	0.975924
850.426984	0.973351
850.741251	0.975177
851.055474	0.974248
851.369654	0.972529
851.683792	0.972814
851.997887	0.973991
852.311938	0.974716
852.625947	0.973483
852.939914	0.971685
853.253837	0.973872
853.567718	0.975588
853.881555	0.975341
854.195350	0.973315
854.509103	0.974869
854.822812	0.974798
855.136479	0.975204
855.450103	0.974594
855.763685	0.973677
856.077224	0.975463
856.390720	0.975507
856.704173	0.974318
857.017584	0.973302
857.330953	0.972861
857.644278	0.972879
857.957561	0.973252
858.270802	0.974512
858.584000	0.972851
858.897155	0.970912
859.210268	0.972120
859.523339	0.974633
859.836367	0.975679
860.149352	0.973820
860.462295	0.974588
860.775195	0.974595
861.088054	0.973457
861.400869	0.974405
861.713642	0.974469
862.026373	0.977318
862.339062	0.976017
862.651708	0.973123
862.964312	0.973403
863.276873	0.974084
863.589392	0.972451
863.901869	0.970766
864.214303	0.969164
864.526696	0.968663
864.839045	0.967195
865.151353	0.966395
865.463619	0.966445
865.775842	0.966968
866.088023	0.969201
866.400162	0.967296
866.712258	0.967892
867.024313	0.968383
867.336325	0.968594
867.648296	0.968357
867.960224	0.965864
868.272110	0.966633
868.583954	0.969682
868.895755	0.969643
869.207515	0.967144
869.519233	0.965234
869.830909	0.966071
870.142542	0.965999
870.454134	0.966012
870.765684	0.964011
871.077191	0.964021
871.388657	0.962735
871.700081	0.963916
872.011463	0.963204
872.322803	0.961633
872.634101	0.961712
872.945357	0.958083
873.256571	0.956042
873.567744	0.958427
873.878874	0.957311
874.189963	0.956951
874.501010	0.956771
874.812015	0.955169
875.122979	0.954199
875.433900	0.957316
875.744780	0.957782
876.055618	0.954229
876.366415	0.952791
876.677169	0.952983
876.987882	0.954698
877.298554	0.955628
877.609183	0.951338
877.919771	0.947816
878.230317	0.946954
878.540822	0.943142
878.851285	0.938535
879.161707	0.929518
879.472087	0.918211
879.782425	0.900434
880.092722	0.864847
880.402977	0.810949
880.713191	0.747788
881.023363	0.685939
881.333494	0.651741
881.643583	0.624237
881.953631	0.623754
882.263637	0.652854
882.573602	0.692307
882.883526	0.718334
883.193408	0.744813
883.503248	0.767000
883.813048	0.795152
884.122806	0.827661
884.432522	0.850264
884.742197	0.870882
885.051831	0.881987
885.361424	0.893616
885.670975	0.906993
885.980485	0.915695
886.289954	0.921817
886.599382	0.926835
886.908768	0.932069
887.218113	0.936864
887.527417	0.942117
887.836680	0.944939
888.145901	0.947521
888.455082	0.950531
888.764221	0.954230
889.073319	0.955925
889.382376	0.957009
889.691392	0.956187
890.000366	0.956499
890.309300	0.957739
890.618193	0.957080
890.927044	0.955635
891.235855	0.956230
891.544625	0.955818
891.853353	0.955851
892.162041	0.952460
892.470687	0.945992
892.779293	0.941586
893.087858	0.935851
893.396381	0.928448
893.704864	0.913514
894.013306	0.890876
894.321707	0.863121
894.630068	0.848264
894.938387	0.841913
895.246665	0.843824
895.554903	0.856391
895.863100	0.869916
896.171256	0.888328
896.479371	0.907355
896.787446	0.920456
897.095480	0.928110
897.403473	0.930403
897.711425	0.935283
898.019336	0.943033
898.327207	0.948269
898.635038	0.947361
898.942827	0.949313
899.250576	0.952648
899.558284	0.957069
899.865952	0.957631
900.173579	0.958320
900.481165	0.960013
900.788711	0.961901
901.096216	0.965636
901.403681	0.967133
901.711105	0.966580
902.018489	0.966376
902.325832	0.966475
902.633135	0.964594
902.940397	0.959846
903.247619	0.945799
903.554800	0.920457
903.861941	0.879302
904.169041	0.842159
904.476101	0.823507
904.783121	0.825037
905.090100	0.840394
905.397039	0.863891
905.703938	0.886336
906.010796	0.906426
906.317614	0.924681
906.624391	0.938477
906.931129	0.948071
907.237826	0.956683
907.544483	0.962456
907.851099	0.967482
908.157675	0.970871
908.464211	0.974578
908.770707	0.975764
909.077163	0.978967
909.383578	0.979375
909.689954	0.979130
909.996289	0.980325
910.302584	0.982975
910.608839	0.983800
910.915054	0.983187
911.221229	0.983873
911.527363	0.981142
911.833458	0.981165
912.139513	0.981846
912.445527	0.982048
912.751502	0.978040
913.057436	0.976903
913.363331	0.974476
913.669186	0.971296
913.975000	0.965407
914.280775	0.960072
914.586510	0.951544
914.892205	0.937819
915.197859	0.913862
915.503475	0.888296
915.809050	0.866392
916.114585	0.859271
916.420081	0.857724
916.725536	0.854024
917.030952	0.862998
917.336328	0.875735
917.641665	0.891524
917.946961	0.907474
918.252218	0.919834
918.557435	0.929193
918.862612	0.938184
919.167750	0.943670
919.472848	0.950909
919.777906	0.956398
920.082925	0.961460
920.387904	0.964632
920.692843	0.967327
920.997743	0.967266
921.302603	0.971579
921.607423	0.972429
921.912204	0.976319
922.216946	0.977636
922.521647	0.979152
922.826310	0.978763
923.130932	0.981001
923.435516	0.983009
923.740059	0.984442
924.044564	0.984319
924.349028	0.985025
924.653454	0.987674
924.957840	0.988484
925.262186	0.988823
925.566493	0.989277
925.870761	0.990051
926.174989	0.989963
926.479178	0.993901
926.783328	0.993067
927.087438	0.993723
927.391509	0.991438
927.695541	0.994660
927.999533	0.994867
928.303486	0.995562
928.607400	0.994986
928.911275	0.995561
929.215110	0.996470
929.518906	0.996026
929.822663	0.996623
930.126381	0.997053
930.430060	0.995132
930.733699	0.996194
931.037299	0.995449
931.340861	0.994773
931.644383	0.994586
931.947866	0.995355
932.251309	0.994653
932.554714	0.995593
932.858080	0.995952
933.161407	0.995426
933.464694	0.995055
933.767943	0.996733
934.071153	0.996090
934.374323	0.996823
934.677455	0.996050
934.980548	0.996113
935.283602	0.996754
935.586617	0.996145
935.889593	0.997303
936.192530	0.996870
936.495428	0.996513
936.798287	0.995801
937.101108	0.995666
937.403890	0.994331
937.706632	0.994114
938.009336	0.991894
938.312002	0.990379
938.614628	0.989717
938.917216	0.987380
939.219765	0.987275
939.522275	0.987968
939.824747	0.987505
940.127179	0.988166
940.429573	0.991006
940.731929	0.988336
941.034246	0.988395
941.336524	0.989357
941.638763	0.991184
941.940964	0.990492
942.243126	0.990774
942.545250	0.993273
942.847335	0.992584
943.149381	0.993425
943.451389	0.992475
943.753359	0.994516
944.055290	0.995690
944.357182	0.995167
944.659036	0.995367
944.960851	0.995176
945.262628	0.995660
945.564367	0.994704
945.866067	0.995491
946.167729	0.995514
946.469352	0.995264
946.770937	0.993692
947.072484	0.996410
947.373992	0.995471
947.675462	0.994852
947.976893	0.996208
948.278286	0.997606
948.579641	0.996141
948.880958	0.996720
949.182236	0.996932
949.483476	0.997954
949.784678	0.996705
950.085841	0.995860
950.386967	0.995925
950.688054	0.996174
950.989103	0.994503
951.290114	0.994749
951.591087	0.994578
951.892021	0.992697
952.192917	0.995200
952.493776	0.993745
952.794596	0.993184
953.095378	0.991680
953.396122	0.992900
953.696828	0.992936
953.997496	0.994424
954.298126	0.994894
954.598718	0.994427
954.899272	0.996251
955.199788	0.995105
955.500266	0.997256
955.800706	0.997990
956.101108	0.997565
956.401472	0.999374
956.701798	0.998798
957.002087	1.000426
957.302337	0.999084
957.602550	0.999096
957.902724	0.999400
958.202861	1.000591
958.502960	0.999470
958.803022	1.001925
959.103045	1.001177
959.403031	1.002352
959.702979	1.002128
960.002889	1.001682
960.302762	1.001248
960.602596	1.002721
960.902393	1.000947
961.202153	1.002123
961.501875	1.003058
961.801559	1.002627
962.101205	1.001224
962.400814	1.003265
962.700385	1.003384
962.999918	1.002226
963.299414	1.001538
963.598873	1.003208
963.898293	1.003479
964.197677	1.002714
964.497022	1.001974
964.796331	1.002705
965.095601	1.003504
965.394835	1.002362
965.694030	1.003611
965.993189	1.002467
966.292309	1.003437
966.591393	1.001452
966.890439	1.003309
967.189447	1.003408
967.488419	1.001717
967.787353	1.002148
968.086249	1.002705
968.385108	1.001407
968.683930	1.003107
968.982714	1.002822
969.281462	1.002368
969.580172	1.002823
969.878844	1.003878
970.177480	1.001912
970.476078	1.002690
970.774639	1.002495
971.073162	1.001319
971.371649	1.002082
971.670098	1.001481
971.968510	1.002460
972.266885	1.001714
972.565223	1.000607
972.863524	1.000762
973.161788	1.001624
973.460014	1.003597
973.758204	1.002139
974.056356	1.001099
974.354471	1.001634
974.652550	1.002987
974.950591	1.001180
975.248595	1.001763
975.546563	1.001983
975.844493	1.002260
976.142386	1.001400
976.440243	1.003265
976.738062	1.002345
977.035845	1.002209
977.333590	1.003520
977.631299	1.003430
977.928971	1.002180
978.226606	1.003287
978.524204	1.001339
978.821765	1.003161
979.119290	1.003586
979.416777	1.002527
979.714228	1.002621
980.011642	1.004001
980.309020	1.002687
980.606360	1.002228
980.903664	1.002693
981.200931	1.001331
981.498162	1.001871
981.795356	1.001285
982.092513	0.999484
982.389633	0.999521
982.686717	0.996965
982.983764	0.995918
983.280775	0.996355
983.577749	0.996419
983.874686	0.995824
984.171587	0.996632
984.468451	0.997829
984.765279	1.000040
985.062070	1.001195
985.358824	1.000898
985.655543	1.001919
985.952224	1.002901
986.248869	1.002476
986.545478	1.004073
986.842050	1.003426
987.138586	1.002427
987.435086	1.003561
987.731549	1.003417
988.027975	1.004183
988.324366	1.002864
988.620719	1.005670
988.917037	1.002784
989.213318	1.003696
989.509563	1.004129
989.805772	1.004314
990.101944	1.005068
990.398080	1.003176
990.694180	1.003863
990.990244	1.003764
991.286271	1.004118
991.582262	1.004063
991.878217	1.004150
992.174136	1.005475
992.470019	1.004551
992.765865	1.005429
993.061676	1.003367
993.357450	1.004698
993.653188	1.004633
993.948890	1.004391
994.244556	1.002903
994.540186	1.004248
994.835780	1.002344
995.131337	1.005053
995.426859	1.002446
995.722345	1.002538
996.017795	1.001467
996.313208	1.001607
996.608586	1.002083
996.903928	1.002782
997.199234	1.001943
997.494504	1.004141
997.789738	1.001434
998.084936	1.003385
998.380099	1.001839
998.675225	1.003900
998.970316	1.004659
999.265371	1.003348
999.560390	1.004072
999.855373	1.003718
1000.150320	1.003389
1000.445232	1.003678
1000.740108	1.004226
1001.034948	1.003885
1001.329752	1.005417
1001.624521	1.004119
1001.919254	1.003082
1002.213951	1.004379
1002.508613	1.003417
1002.803239	1.004139
1003.097829	1.003620
1003.392384	1.004927
1003.686903	1.004490
1003.981386	1.004739
1004.275834	1.006438
1004.570246	1.002916
1004.864623	1.005356
1005.158964	1.004657
1005.453270	1.004592
1005.747540	1.004114
1006.041775	1.004649
1006.335974	1.004557
1006.630138	1.005406
1006.924266	1.002958
1007.218359	1.003912
1007.512416	1.004708
1007.806438	1.004482
1008.100425	1.004404
1008.394376	1.005258
1008.688292	1.003734
1008.982172	1.004404
1009.276017	1.005507
1009.569827	1.004731
1009.863602	1.004024
1010.157341	1.006034
1010.451045	1.005848
1010.744714	1.006055
1011.038347	1.004901
1011.331945	1.003448
1011.625508	1.004439
1011.919036	1.003678
1012.212528	1.005348
1012.505986	1.004600
1012.799408	1.005774
1013.092795	1.004527
1013.386147	1.004675
1013.679464	1.005572
1013.972745	1.005014
1014.265992	1.004988
1014.559204	1.004634
1014.852380	1.006102
1015.145521	1.004731
1015.438628	1.004694
1015.731699	1.004618
1016.024736	1.004519
1016.317737	1.004966
1016.610703	1.003981
1016.903635	1.005598
1017.196531	1.004218
1017.489393	1.004000
1017.782219	1.005540
1018.075011	1.004739
1018.367768	1.004041
1018.660490	1.004650
1018.953177	1.004650
1019.245829	1.004650
