Dividing Wavelength (nm)	Counts (n)	Blue Motor Position (mm): 34.500000	Red Motor Position (mm): 0.000000	
326.493990	0.999229
326.888308	0.999229
327.282561	0.999229
327.676750	1.000286
328.070874	1.000738
328.464933	1.001445
328.858929	1.000031
329.252859	0.999689
329.646726	1.000870
330.040528	1.000251
330.434265	1.000686
330.827938	0.998964
331.221547	1.000113
331.615091	0.999862
332.008571	1.001688
332.401986	1.000708
332.795338	1.000252
333.188625	1.001072
333.581847	0.999777
333.975006	1.000776
334.368100	1.001066
334.761129	1.000239
335.154095	1.000021
335.546996	1.000691
335.939833	0.999962
336.332606	0.999802
336.725315	0.998965
337.117960	1.001331
337.510540	0.998752
337.903056	1.001359
338.295508	0.999781
338.687896	0.999732
339.080220	0.999712
339.472480	1.000221
339.864676	1.000672
340.256807	0.998136
340.648875	0.999834
341.040879	1.000634
341.432818	1.000206
341.824694	0.999856
342.216506	0.999916
342.608253	1.000280
342.999937	1.000335
343.391557	0.999217
343.783113	1.001763
344.174605	0.999329
344.566033	0.999195
344.957397	1.000523
345.348697	1.000240
345.739934	0.999356
346.131106	0.999290
346.522215	0.998740
346.913260	1.000646
347.304241	0.999414
347.695159	1.000283
348.086012	0.999035
348.476802	0.999166
348.867528	0.998741
349.258191	0.999974
349.648789	0.999072
350.039324	0.999968
350.429796	0.999832
350.820203	0.998448
351.210548	0.999118
351.600828	0.999584
351.991045	1.000431
352.381198	1.000074
352.771288	1.000080
353.161314	0.999022
353.551276	0.998268
353.941175	0.998697
354.331010	0.999844
354.720782	0.999968
355.110490	0.998461
355.500135	0.999385
355.889717	0.999090
356.279235	0.998250
356.668689	1.000132
357.058080	0.999116
357.447408	0.998550
357.836672	0.999417
358.225873	0.998359
358.615010	0.998640
359.004084	0.998013
359.393095	0.999489
359.782043	0.998306
360.170927	0.999835
360.559748	0.999734
360.948505	0.998777
361.337199	0.998838
361.725830	0.998327
362.114398	0.998194
362.502903	0.998244
362.891344	0.996897
363.279722	0.998592
363.668037	0.999187
364.056289	0.998267
364.444478	0.998683
364.832603	0.997538
365.220665	0.998410
365.608665	0.998072
365.996601	0.997618
366.384474	0.997305
366.772284	0.996643
367.160031	0.996065
367.547715	0.995541
367.935336	0.995950
368.322893	0.994586
368.710388	0.993458
369.097820	0.991541
369.485189	0.989836
369.872495	0.987133
370.259738	0.985563
370.646918	0.983316
371.034035	0.980086
371.421090	0.978466
371.808081	0.972480
372.195010	0.970176
372.581875	0.965188
372.968678	0.959830
373.355418	0.956161
373.742096	0.949086
374.128710	0.945379
374.515262	0.941170
374.901751	0.935347
375.288177	0.929257
375.674540	0.923925
376.060841	0.916103
376.447079	0.910624
376.833254	0.904166
377.219367	0.899176
377.605417	0.887502
377.991404	0.883429
378.377329	0.877736
378.763191	0.872285
379.148991	0.861688
379.534727	0.854929
379.920402	0.847148
380.306013	0.842375
380.691563	0.829623
381.077049	0.823810
381.462474	0.819880
381.847835	0.808008
382.233134	0.803095
382.618371	0.802628
383.003545	0.786477
383.388657	0.784712
383.773706	0.776836
384.158693	0.772871
384.543618	0.767661
384.928480	0.758771
385.313280	0.748928
385.698017	0.748246
386.082692	0.736510
386.467305	0.736241
386.851856	0.730511
387.236344	0.724520
387.620770	0.719255
388.005133	0.713207
388.389435	0.708231
388.773674	0.705008
389.157851	0.697195
389.541965	0.694709
389.926018	0.701437
390.310008	0.687764
390.693936	0.684900
391.077802	0.677082
391.461606	0.678466
391.845348	0.668834
392.229027	0.667612
392.612645	0.665216
392.996200	0.652791
393.379694	0.645768
393.763125	0.636187
394.146494	0.641230
394.529801	0.631171
394.913047	0.624093
395.296230	0.629405
395.679351	0.620651
396.062410	0.617467
396.445408	0.620098
396.828343	0.615661
397.211217	0.611343
397.594028	0.623422
397.976778	0.613448
398.359466	0.609668
398.742092	0.605321
399.124656	0.617446
399.507158	0.605286
399.889598	0.603342
400.271977	0.594447
400.654294	0.598313
401.036549	0.597193
401.418742	0.601496
401.800874	0.587872
402.182944	0.584860
402.564952	0.576708
402.946898	0.578131
403.328783	0.579699
403.710606	0.590890
404.092367	0.565643
404.474067	0.571529
404.855705	0.570517
405.237282	0.579681
405.618797	0.567166
406.000250	0.562917
406.381642	0.553983
406.762972	0.560157
407.144240	0.559962
407.525447	0.561397
407.906593	0.556096
408.287677	0.553691
408.668700	0.563535
409.049661	0.559860
409.430560	0.557873
409.811399	0.568487
410.192176	0.554347
410.572891	0.563766
410.953545	0.555504
411.334138	0.571719
411.714669	0.568058
412.095139	0.583372
412.475547	0.572141
412.855894	0.578519
413.236180	0.582028
413.616405	0.591151
413.996568	0.587290
414.376670	0.597961
414.756711	0.607081
415.136691	0.609203
415.516609	0.608275
415.896466	0.611223
416.276262	0.614058
416.655997	0.621985
417.035670	0.614055
417.415283	0.614665
417.794834	0.625802
418.174324	0.635211
418.553753	0.649868
418.933121	0.644194
419.312428	0.648139
419.691674	0.660666
420.070859	0.659849
420.449983	0.674064
420.829045	0.675220
421.208047	0.689776
421.586988	0.693821
421.965867	0.701597
422.344686	0.705841
422.723444	0.720089
423.102141	0.738374
423.480777	0.731957
423.859352	0.751649
424.237866	0.750129
424.616319	0.759497
424.994712	0.763557
425.373044	0.777183
425.751314	0.781048
426.129524	0.798070
426.507673	0.799045
426.885762	0.804877
427.263789	0.816774
427.641756	0.826383
428.019662	0.832107
428.397508	0.839668
428.775292	0.849812
429.153016	0.855003
429.530679	0.863510
429.908282	0.870076
430.285824	0.878352
430.663305	0.879932
431.040726	0.891629
431.418086	0.897902
431.795385	0.902465
432.172624	0.909033
432.549802	0.914309
432.926920	0.919101
433.303977	0.924345
433.680974	0.929161
434.057910	0.933725
434.434786	0.937484
434.811601	0.943208
435.188355	0.945368
435.565050	0.950504
435.941683	0.953650
436.318257	0.956339
436.694770	0.959874
437.071222	0.964253
437.447614	0.966364
437.823946	0.970214
438.200218	0.972066
438.576429	0.975577
438.952580	0.976924
439.328670	0.978336
439.704700	0.980613
440.080670	0.983032
440.456580	0.984770
440.832429	0.985882
441.208218	0.987585
441.583947	0.988038
441.959616	0.988985
442.335224	0.990882
442.710773	0.992105
443.086261	0.992683
443.461689	0.992538
443.837057	0.993870
444.212365	0.994806
444.587612	0.995408
444.962800	0.995079
445.337927	0.996444
445.712995	0.996404
446.088002	0.995674
446.462949	0.996148
446.837837	0.997549
447.212664	0.996951
447.587431	0.997993
447.962139	0.997740
448.336786	0.996140
448.711374	0.996568
449.085901	0.997148
449.460369	0.997659
449.834776	0.997337
450.209124	0.998015
450.583412	0.998646
450.957640	0.997549
451.331808	0.998492
451.705917	0.998416
452.079965	0.998567
452.453954	0.998579
452.827883	0.998272
453.201752	0.998959
453.575562	0.999053
453.949311	0.998476
454.323001	0.998557
454.696632	0.998861
455.070202	0.998099
455.443713	0.998441
455.817164	0.998367
456.190556	0.998355
456.563888	0.999558
456.937160	0.998671
457.310373	0.997966
457.683526	0.998607
458.056619	0.999094
458.429653	0.999129
458.802628	0.998510
459.175542	0.998683
459.548398	0.998691
459.921194	0.999167
460.293930	0.999278
460.666607	0.999498
461.039224	0.998611
461.411782	0.998746
461.784280	0.997893
462.156719	0.999127
462.529099	0.998830
462.901419	0.998550
463.273680	0.997996
463.645882	0.998349
464.018024	0.998951
464.390106	0.998221
464.762130	0.998840
465.134094	0.998685
465.505999	0.998172
465.877845	0.998026
466.249631	0.998127
466.621358	0.997314
466.993026	0.998243
467.364634	0.997967
467.736184	0.998256
468.107674	0.998227
468.479105	0.998221
468.850477	0.998332
469.221790	0.998478
469.593043	0.998496
469.964238	0.998464
470.335373	0.997648
470.706449	0.997769
471.077467	0.997801
471.448425	0.998396
471.819324	0.997862
472.190164	0.997921
472.560945	0.997723
472.931667	0.997486
473.302330	0.998266
473.672934	0.999125
474.043479	0.998145
474.413965	0.998154
474.784393	0.998297
475.154761	0.998546
475.525070	0.998592
475.895321	0.998755
476.265513	0.998730
476.635645	0.998722
477.005719	0.997830
477.375734	0.997433
477.745691	0.998108
478.115588	0.997719
478.485427	0.998121
478.855207	0.998160
479.224928	0.997775
479.594591	0.998173
479.964194	0.997932
480.333739	0.997706
480.703226	0.997061
481.072653	0.997376
481.442022	0.997801
481.811333	0.997814
482.180584	0.997425
482.549777	0.997591
482.918912	0.997534
483.287988	0.997786
483.657005	0.997606
484.025964	0.997874
484.394864	0.997744
484.763706	0.997120
485.132489	0.997860
485.501213	0.997853
485.869879	0.997451
486.238487	0.997489
486.607036	0.998372
486.975527	0.998243
487.343959	0.997208
487.712333	0.997961
488.080648	0.997018
488.448905	0.998694
488.817104	0.997968
489.185244	0.998318
489.553326	0.998027
489.921350	0.997953
490.289315	0.998136
490.657222	0.997631
491.025070	0.998297
491.392861	0.998318
491.760593	0.997888
492.128267	0.998040
492.495883	0.997720
492.863440	0.998753
493.230939	0.997539
493.598380	0.998606
493.965763	0.998268
494.333088	0.997875
494.700354	0.997933
495.067563	0.997980
495.434713	0.998403
495.801805	0.998407
496.168839	0.997975
496.535815	0.998373
496.902733	0.998442
497.269593	0.997922
497.636395	0.998371
498.003139	0.997969
498.369825	0.998605
498.736453	0.997937
499.103023	0.998664
499.469535	0.997860
499.835989	0.997963
500.202385	0.998028
500.568723	0.997790
500.935003	0.997866
501.301226	0.998313
501.667390	0.997679
502.033497	0.998298
502.399546	0.997797
502.765537	0.998128
503.131470	0.998320
503.497345	0.998116
503.863163	0.998412
504.228923	0.998611
504.594625	0.997386
504.960269	0.998160
505.325856	0.998662
505.691385	0.998394
506.056856	0.998483
506.422270	0.998439
506.787625	0.998420
507.152924	0.997589
507.518164	0.998297
507.883347	0.998251
508.248472	0.997768
508.613540	0.998148
508.978550	0.998213
509.343503	0.998422
509.708398	0.999431
510.073236	0.998119
510.438016	0.997864
510.802738	0.997972
511.167403	0.998301
511.532010	0.998682
511.896561	0.998176
512.261053	0.997806
512.625488	0.998043
512.989866	0.997573
513.354186	0.997057
513.718449	0.997505
514.082655	0.997948
514.446803	0.998071
514.810894	0.998850
515.174927	0.998272
515.538904	0.998033
515.902822	0.998418
516.266684	0.997482
516.630488	0.998132
516.994235	0.998172
517.357925	0.998614
517.721558	0.997913
518.085133	0.997888
518.448651	0.997761
518.812112	0.998515
519.175516	0.997999
519.538863	0.997569
519.902152	0.998404
520.265385	0.997903
520.628560	0.997865
520.991678	0.998424
521.354739	0.998385
521.717743	0.998283
522.080690	0.998031
522.443580	0.997972
522.806413	0.996996
523.169189	0.998517
523.531908	0.997081
523.894569	0.997436
524.257174	0.997912
524.619722	0.998216
524.982213	0.997826
525.344647	0.998186
525.707025	0.997366
526.069345	0.997293
526.431608	0.998224
526.793815	0.998029
527.155964	0.998435
527.518057	0.998316
527.880093	0.998008
528.242072	0.997940
528.603995	0.997392
528.965860	0.998569
529.327669	0.998444
529.689421	0.998141
530.051117	0.998394
530.412755	0.998165
530.774337	0.998169
531.135862	0.998724
531.497331	0.997586
531.858743	0.998834
532.220098	0.997687
532.581396	0.998343
532.942638	0.998114
533.303824	0.998472
533.664953	0.998559
534.026025	0.998687
534.387040	0.998184
534.747999	0.997690
535.108902	0.998168
535.469748	0.998723
535.830537	0.998197
536.191270	0.998464
536.551947	0.997344
536.912567	0.998304
537.273131	0.998913
537.633638	0.998206
537.994089	0.998780
538.354483	0.997566
538.714821	0.997895
539.075103	0.997567
539.435328	0.998799
539.795497	0.998459
540.155609	0.998006
540.515665	0.998276
540.875665	0.997254
541.235609	0.998295
541.595496	0.997175
541.955328	0.998654
542.315102	0.998725
542.674821	0.998109
543.034483	0.998166
543.394090	0.997407
543.753640	0.998089
544.113134	0.997969
544.472571	0.998617
544.831953	0.998436
545.191278	0.997978
545.550548	0.998287
545.909761	0.997392
546.268918	0.999391
546.628019	0.998811
546.987064	0.998424
547.346053	0.997478
547.704986	0.997763
548.063863	0.997291
548.422684	0.998197
548.781449	0.998899
549.140158	0.998162
549.498811	0.997656
549.857408	0.997900
550.215949	0.997150
550.574434	0.997707
550.932864	0.998249
551.291237	0.998006
551.649555	0.998344
552.007817	0.997908
552.366022	0.998235
552.724173	0.998787
553.082267	0.998637
553.440305	0.997558
553.798288	0.997652
554.156215	0.998299
554.514086	0.998302
554.871902	0.998390
555.229661	0.997706
555.587365	0.998326
555.945014	0.998550
556.302606	0.997551
556.660143	0.997953
557.017625	0.998002
557.375050	0.997781
557.732421	0.997831
558.089735	0.997928
558.446994	0.998027
558.804197	0.998155
559.161345	0.997273
559.518437	0.997262
559.875474	0.997812
560.232455	0.998818
560.589381	0.997893
560.946251	0.997691
561.303065	0.998333
561.659825	0.996845
562.016528	0.998398
562.373177	0.998827
562.729770	0.997983
563.086307	0.997648
563.442789	0.998128
563.799216	0.997592
564.155587	0.998443
564.511904	0.998991
564.868164	0.997648
565.224370	0.998641
565.580520	0.998855
565.936615	0.998283
566.292654	0.998063
566.648638	0.998661
567.004567	0.998240
567.360441	0.998738
567.716260	0.997818
568.072023	0.997471
568.427732	0.998389
568.783385	0.997805
569.138982	0.998533
569.494525	0.998424
569.850013	0.998636
570.205445	0.998436
570.560823	0.997862
570.916145	0.997987
571.271412	0.998418
571.626625	0.998539
571.981782	0.998480
572.336884	0.998439
572.691931	0.998324
573.046923	0.998665
573.401860	0.998063
573.756743	0.998282
574.111570	0.998201
574.466342	0.998667
574.821059	0.997732
575.175722	0.998763
575.530330	0.998362
575.884882	0.998340
576.239380	0.998268
576.593823	0.998195
576.948211	0.998063
577.302544	0.998838
577.656823	0.998577
578.011047	0.997615
578.365216	0.999103
578.719330	0.997943
579.073389	0.997119
579.427394	0.998008
579.781344	0.998473
580.135239	0.997584
580.489080	0.997914
580.842866	0.998341
581.196597	0.998421
581.550273	0.997765
581.903895	0.998389
582.257463	0.997890
582.610975	0.997987
582.964434	0.998745
583.317837	0.998525
583.671186	0.997901
584.024481	0.997970
584.377721	0.997072
584.730906	0.998481
585.084037	0.999392
585.437113	0.999207
585.790135	0.998427
586.143103	0.998451
586.496016	0.997817
586.848874	0.998266
587.201679	0.998193
587.554428	0.997263
587.907124	0.998450
588.259765	0.997837
588.612352	0.998576
588.964884	0.998117
589.317362	0.998458
589.669786	0.998284
590.022155	0.997916
590.374470	0.998546
590.726731	0.998255
591.078937	0.998750
591.431090	0.998840
591.783188	0.998588
592.135232	0.999047
592.487222	0.999004
592.839157	0.998438
593.191038	0.998410
593.542866	0.998316
593.894639	0.997404
594.246358	0.998779
594.598022	0.998558
594.949633	0.998317
595.301190	0.997898
595.652692	0.998216
596.004141	0.998124
596.355535	0.997987
596.706876	0.998089
597.058162	0.998315
597.409395	0.998364
597.760573	0.997580
598.111698	0.998181
598.462768	0.997542
598.813785	0.997832
599.164748	0.997705
599.515657	0.997868
599.866511	0.998699
600.217312	0.998993
600.568060	0.997770
600.918753	0.998858
601.269392	0.997981
601.619978	0.997656
601.970510	0.998816
602.320988	0.998693
602.671412	0.997908
603.021783	0.998786
603.372100	0.999109
603.722363	0.998024
604.072572	0.997930
604.422728	0.998091
604.772830	0.997386
605.122878	0.997862
605.472872	0.999216
605.822813	0.997427
606.172701	0.998512
606.522534	0.998481
606.872314	0.998272
607.222041	0.998236
607.571714	0.997659
607.921333	0.998222
608.270899	0.998232
608.620411	0.998909
608.969870	0.999324
609.319276	0.998941
609.668627	0.998445
610.017926	0.998221
610.367171	0.998328
610.716362	0.998675
611.065500	0.998063
611.414585	0.997954
611.763616	0.997322
612.112594	0.998038
612.461518	0.997292
612.810389	0.997782
613.159207	0.997963
613.507971	0.998043
613.856682	0.998788
614.205340	0.997380
614.553945	0.997948
614.902496	0.998230
615.250994	0.998698
615.599439	0.999183
615.947830	0.998186
616.296169	0.998479
616.644454	0.998269
616.992686	0.997837
617.340864	0.998600
617.688990	0.997959
618.037063	0.998903
618.385082	0.997764
618.733048	0.997703
619.080961	0.997963
619.428821	0.998851
619.776628	0.997841
620.124382	0.998413
620.472083	0.998267
620.819731	0.999513
621.167326	0.998495
621.514868	0.998600
621.862357	0.998650
622.209793	0.998408
622.557176	0.997781
622.904506	0.998112
623.251783	0.998182
623.599007	0.998353
623.946179	0.998351
624.293297	0.998301
624.640363	0.998482
624.987376	0.997394
625.334336	0.997607
625.681243	0.997780
626.028097	0.999004
626.374899	0.997737
626.721647	0.998782
627.068343	0.998247
627.414987	0.998176
627.761577	0.997377
628.108115	0.997734
628.454600	0.998695
628.801032	0.997936
629.147412	0.998379
629.493739	0.998484
629.840014	0.997987
630.186236	0.997412
630.532405	0.998152
630.878521	0.997751
631.224585	0.998112
631.570597	0.997701
631.916556	0.998154
632.262462	0.997488
632.608316	0.999031
632.954117	0.997344
633.299866	0.998535
633.645562	0.998275
633.991206	0.998255
634.336797	0.998238
634.682336	0.998942
635.027823	0.998632
635.373257	0.998705
635.718639	0.998535
636.063968	0.998352
636.409245	0.998505
636.754470	0.998526
637.099642	0.998377
637.444762	0.999035
637.789829	0.998828
638.134845	0.998853
638.479808	0.998666
638.824719	0.998780
639.169577	0.998199
639.514383	0.998245
639.859137	0.998690
640.203839	0.997814
640.548489	0.998849
640.893086	0.997755
641.237632	0.998770
641.582125	0.997891
641.926566	0.999196
642.270955	0.998524
642.615292	0.997423
642.959576	0.997889
643.303809	0.998381
643.647990	0.998307
643.992118	0.997966
644.336195	0.997744
644.680219	0.998789
645.024192	0.998536
645.368112	0.997968
645.711981	0.998480
646.055797	0.998571
646.399562	0.998011
646.743274	0.998557
647.086935	0.997561
647.430544	0.997950
647.774101	0.997561
648.117606	0.997953
648.461059	0.998700
648.804460	0.998148
649.147810	0.997503
649.491108	0.998110
649.834354	0.998317
650.177548	0.997763
650.520690	0.998394
650.863781	0.997840
651.206820	0.998803
651.549807	0.998091
651.892742	0.998384
652.235626	0.998199
652.578458	0.997958
652.921238	0.998433
653.263967	0.998477
653.606644	0.998215
653.949269	0.998995
654.291843	0.997417
654.634365	0.998673
654.976836	0.997814
655.319255	0.999065
655.661622	0.997732
656.003938	0.997757
656.346203	0.998416
656.688416	0.998282
657.030577	0.998345
657.372687	0.998017
657.714746	0.997875
658.056753	0.997459
658.398708	0.997835
658.740612	0.998462
659.082465	0.997999
659.424266	0.998362
659.766016	0.997609
660.107715	0.998582
660.449362	0.998584
660.790958	0.997482
661.132503	0.998691
661.473996	0.997683
661.815438	0.998442
662.156829	0.998685
662.498168	0.998135
662.839456	0.997287
663.180693	0.998925
663.521879	0.997682
663.863013	0.997607
664.204097	0.997729
664.545129	0.998373
664.886110	0.997840
665.227040	0.998068
665.567918	0.997363
665.908746	0.997925
666.249522	0.997885
666.590248	0.997664
666.930922	0.998092
667.271545	0.997524
667.612118	0.998042
667.952639	0.997536
668.293109	0.997909
668.633528	0.997454
668.973896	0.998200
669.314213	0.997161
669.654480	0.999009
669.994695	0.997565
670.334859	0.997604
670.674973	0.997408
671.015035	0.998296
671.355047	0.997768
671.695008	0.997173
672.034918	0.997955
672.374777	0.998890
672.714585	0.997728
673.054342	0.998756
673.394049	0.997519
673.733705	0.997758
674.073310	0.998142
674.412864	0.997891
674.752368	0.997550
675.091820	0.998404
675.431223	0.998984
675.770574	0.997689
676.109875	0.998233
676.449125	0.997800
676.788324	0.997657
677.127473	0.998860
677.466571	0.997969
677.805619	0.998625
678.144616	0.997688
678.483562	0.998892
678.822458	0.998605
679.161303	0.998199
679.500098	0.998306
679.838842	0.998920
680.177535	0.997769
680.516179	0.996543
680.854771	0.997512
681.193314	0.997647
681.531805	0.997883
681.870247	0.997651
682.208638	0.998240
682.546978	0.997193
682.885268	0.997053
683.223508	0.997329
683.561697	0.997927
683.899836	0.997791
684.237925	0.997100
684.575963	0.997460
684.913951	0.996968
685.251889	0.997752
685.589776	0.998119
685.927614	0.997549
686.265401	0.998074
686.603137	0.997417
686.940824	0.997055
687.278460	0.998399
687.616046	0.997528
687.953582	0.997984
688.291068	0.997986
688.628504	0.996984
688.965889	0.997124
689.303224	0.996121
689.640510	0.997588
689.977745	0.997171
690.314930	0.997710
690.652065	0.997244
690.989150	0.997474
691.326185	0.997823
691.663170	0.997605
692.000105	0.997969
692.336990	0.998296
692.673825	0.997997
693.010610	0.997468
693.347345	0.997818
693.684030	0.996870
694.020665	0.997802
694.357251	0.998135
694.693786	0.997774
695.030272	0.997103
695.366707	0.997267
695.703093	0.996555
696.039429	0.996771
696.375716	0.998266
696.711952	0.996923
697.048139	0.997838
697.384276	0.997900
697.720363	0.997959
698.056400	0.996979
698.392388	0.996330
698.728326	0.998094
699.064214	0.998960
699.400053	0.996857
699.735842	0.998108
700.071581	0.997923
700.407270	0.997627
700.742910	0.998110
701.078501	0.997122
701.414042	0.998783
701.749533	0.996910
702.084974	0.998371
702.420366	0.998007
702.755709	0.997727
703.091002	0.998412
703.426246	0.998854
703.761440	0.998289
704.096584	0.997088
704.431679	0.998167
704.766725	0.997592
705.101721	0.997732
705.436668	0.997913
705.771565	0.997166
706.106413	0.996696
706.441212	0.997324
706.775961	0.997904
707.110661	0.997935
707.445311	0.998348
707.779913	0.998776
708.114465	0.999790
708.448967	0.999273
708.783421	0.998276
709.117825	0.998177
709.452180	0.997816
709.786485	0.997478
710.120742	0.997412
710.454949	0.996794
710.789107	0.997710
711.123216	0.996959
711.457275	0.996895
711.791286	0.997661
712.125247	0.998413
712.459159	0.997929
712.793023	0.997743
713.126837	0.997921
713.460602	0.996797
713.794318	0.996297
714.127985	0.996156
714.461602	0.997133
714.795171	0.996783
715.128691	0.997471
715.462162	0.997800
715.795584	0.997311
716.128957	0.998446
716.462281	0.997377
716.795556	0.996949
717.128782	0.998432
717.461960	0.997155
717.795088	0.998136
718.128167	0.997817
718.461198	0.998230
718.794180	0.998668
719.127113	0.997826
719.459997	0.997496
719.792833	0.998039
720.125619	0.998224
720.458357	0.997345
720.791046	0.998331
721.123686	0.997880
721.456278	0.997687
721.788821	0.997669
722.121315	0.998799
722.453761	0.998346
722.786158	0.997654
723.118506	0.997534
723.450805	0.997141
723.783056	0.997692
724.115259	0.997386
724.447412	0.998257
724.779518	0.998655
725.111574	0.997351
725.443582	0.997510
725.775542	0.998800
726.107453	0.998807
726.439315	0.998569
726.771129	0.998160
727.102895	0.997553
727.434612	0.997390
727.766281	0.996995
728.097901	0.997325
728.429473	0.997962
728.760996	0.996619
729.092471	0.998520
729.423897	0.998039
729.755276	0.997877
730.086606	0.997500
730.417887	0.998032
730.749120	0.998920
731.080305	0.997854
731.411442	0.996961
731.742530	0.996880
732.073570	0.997521
732.404562	0.998004
732.735506	0.998074
733.066401	0.997701
733.397249	0.997454
733.728048	0.997965
734.058798	0.997456
734.389501	0.998684
734.720156	0.997474
735.050762	0.997564
735.381320	0.997814
735.711831	0.997850
736.042293	0.998069
736.372707	0.998696
736.703073	0.996376
737.033391	0.997878
737.363661	0.998340
737.693883	0.998606
738.024056	0.997777
738.354182	0.997972
738.684260	0.997710
739.014290	0.997276
739.344272	0.997991
739.674207	0.997683
740.004093	0.997397
740.333931	0.997880
740.663722	0.997528
740.993464	0.997957
741.323159	0.997017
741.652806	0.997483
741.982405	0.998329
742.311956	0.997980
742.641460	0.998649
742.970915	0.998073
743.300323	0.996963
743.629683	0.997444
743.958996	0.998221
744.288260	0.997536
744.617477	0.997607
744.946647	0.997636
745.275768	0.998021
745.604842	0.996912
745.933869	0.998142
746.262847	0.998416
746.591778	0.997251
746.920662	0.997438
747.249498	0.998741
747.578286	0.999336
747.907027	0.998000
748.235720	0.999074
748.564365	0.998848
748.892963	0.996730
749.221514	0.998019
749.550017	0.997027
749.878473	0.997404
750.206881	0.999107
750.535242	0.997675
750.863555	0.997009
751.191821	0.997791
751.520039	0.998362
751.848210	0.996771
752.176334	0.998529
752.504411	0.997381
752.832440	0.996740
753.160421	0.997063
753.488356	0.997492
753.816243	0.997884
754.144082	0.997506
754.471875	0.997353
754.799620	0.998559
755.127318	0.997463
755.454969	0.997902
755.782572	0.999041
756.110129	0.998105
756.437638	0.998340
756.765100	0.998209
757.092515	0.997223
757.419882	0.998319
757.747203	0.998028
758.074477	0.999090
758.401703	0.998629
758.728882	0.997504
759.056014	0.997760
759.383099	0.999081
759.710138	0.997983
760.037129	0.997845
760.364073	0.998329
760.690970	0.997750
761.017820	0.997430
761.344623	0.998200
761.671379	0.998821
761.998088	0.998687
762.324751	0.997385
762.651366	0.997290
762.977935	0.996505
763.304456	0.997481
763.630931	0.995811
763.957359	0.995070
764.283740	0.995605
764.610074	0.996022
764.936362	0.997516
765.262602	0.998375
765.588796	0.998442
765.914943	0.997221
766.241044	0.997466
766.567097	0.997343
766.893104	0.998012
767.219064	0.996577
767.544978	0.997563
767.870845	0.998073
768.196665	0.998065
768.522438	0.998808
768.848165	0.998008
769.173846	0.997332
769.499479	0.999684
769.825066	0.998818
770.150607	0.999035
770.476101	0.998461
770.801548	0.998620
771.126949	0.998696
771.452303	0.998455
771.777611	0.998451
772.102872	0.999057
772.428087	0.998393
772.753256	0.998645
773.078378	0.998282
773.403453	0.997871
773.728482	1.000226
774.053465	0.998265
774.378401	0.998814
774.703291	0.998704
775.028135	1.000733
775.352932	0.997711
775.677683	0.999482
776.002388	0.997549
776.327046	0.998595
776.651658	0.999310
776.976224	0.998664
777.300743	0.998728
777.625216	0.998317
777.949643	0.998469
778.274024	0.998477
778.598359	0.998667
778.922647	0.999930
779.246889	0.998840
779.571086	0.998194
779.895236	0.998269
780.219339	0.999922
780.543397	0.998629
780.867409	0.998692
781.191374	0.999052
781.515294	0.999760
781.839167	0.999214
782.162995	0.998932
782.486776	0.999075
782.810511	0.998509
783.134201	0.999189
783.457844	1.000251
783.781441	0.998913
784.104993	0.998159
784.428498	0.998526
784.751958	0.999176
785.075372	0.999717
785.398739	0.998641
785.722061	0.998789
786.045337	0.999033
786.368568	0.998038
786.691752	0.999006
787.014891	0.998650
787.337983	0.998143
787.661030	0.997986
787.984031	0.998323
788.306987	0.999218
788.629897	0.997794
788.952760	0.998347
789.275579	0.999386
789.598351	0.997560
789.921078	0.999892
790.243759	0.998307
790.566395	0.997579
790.888984	0.998373
791.211529	0.999303
791.534027	0.998135
791.856480	0.998817
792.178888	0.998392
792.501249	0.998935
792.823566	1.000432
793.145836	0.998741
793.468062	0.999410
793.790241	1.000022
794.112375	0.997674
794.434464	0.998150
794.756507	0.998922
795.078505	0.998712
795.400457	1.000633
795.722364	0.999395
796.044226	0.999095
796.366042	0.998180
796.687812	0.997991
797.009538	0.998832
797.331218	0.999112
797.652852	0.998854
797.974442	0.998009
798.295986	0.999069
798.617484	0.997802
798.938938	0.999645
799.260346	0.998101
799.581709	0.997918
799.903026	0.999969
800.224299	0.997065
800.545526	0.998185
800.866708	0.997699
801.187845	0.998423
801.508936	0.999541
801.829983	0.998701
802.150984	0.998547
802.471940	0.998542
802.792851	0.999009
803.113717	0.999330
803.434538	0.998866
803.755314	1.000249
804.076045	0.998689
804.396731	0.997605
804.717372	0.997901
805.037967	0.999319
805.358518	0.999465
805.679024	0.997648
805.999485	0.999317
806.319901	0.998579
806.640272	0.999964
806.960598	0.998988
807.280879	0.998565
807.601115	0.998827
807.921306	0.999943
808.241453	0.998606
808.561554	0.998258
808.881611	0.998899
809.201623	0.999049
809.521590	0.999538
809.841513	0.999760
810.161390	0.997467
810.481223	0.998588
810.801011	0.998864
811.120755	1.000123
811.440453	0.998307
811.760107	0.999780
812.079716	0.998407
812.399281	0.998759
812.718801	0.998961
813.038276	0.999355
813.357707	0.999200
813.677093	0.998736
813.996434	0.999849
814.315731	1.001498
814.634983	0.999347
814.954191	1.000071
815.273354	0.998596
815.592473	0.999676
815.911547	0.999100
816.230577	0.998507
816.549562	0.997761
816.868502	0.997822
817.187399	0.999684
817.506250	0.997784
817.825058	0.997809
818.143821	0.998210
818.462539	0.998723
818.781213	0.998976
819.099843	0.998036
819.418429	0.998489
819.736970	0.998894
820.055466	0.997978
820.373919	0.998452
820.692327	0.997105
821.010691	0.996512
821.329011	0.994432
821.647286	0.993155
821.965517	0.992272
822.283704	0.991033
822.601847	0.990215
822.919945	0.990015
823.237999	0.991023
823.556010	0.990854
823.873976	0.992906
824.191897	0.993637
824.509775	0.994168
824.827609	0.994850
825.145398	0.996067
825.463144	0.993914
825.780845	0.994229
826.098502	0.995621
826.416116	0.995298
826.733685	0.994635
827.051210	0.993112
827.368692	0.992893
827.686129	0.993904
828.003522	0.995636
828.320872	0.995665
828.638177	0.996363
828.955439	0.997850
829.272656	0.997451
829.589830	0.996857
829.906960	0.998193
830.224046	0.997631
830.541088	0.996932
830.858086	0.997827
831.175041	0.998396
831.491952	0.999043
831.808819	0.998913
832.125642	0.997702
832.442421	0.998358
832.759157	0.998713
833.075849	0.997750
833.392497	0.997357
833.709101	0.995652
834.025662	0.995639
834.342179	0.995303
834.658653	0.998281
834.975083	0.996876
835.291469	0.997506
835.607811	0.997496
835.924110	0.998826
836.240366	0.999293
836.556578	0.998818
836.872746	0.999264
837.188871	0.998833
837.504952	0.998848
837.820990	0.999237
838.136984	0.998373
838.452935	0.999251
838.768842	0.999355
839.084706	0.999270
839.400526	0.999420
839.716303	0.998044
840.032037	0.999341
840.347727	0.997478
840.663373	0.997687
840.978977	0.997936
841.294537	0.998794
841.610054	0.999322
841.925527	0.999294
842.240957	0.999603
842.556344	0.999224
842.871687	0.999277
843.186987	0.999013
843.502244	0.999558
843.817458	0.998863
844.132629	0.999364
844.447756	0.999250
844.762840	0.999480
845.077881	1.000307
845.392879	0.998093
845.707833	0.999333
846.022745	1.000262
846.337613	1.000170
846.652438	0.999066
846.967221	0.999229
847.281960	0.999597
847.596656	0.999708
847.911309	0.998611
848.225919	0.999104
848.540485	1.000478
848.855009	0.999791
849.169490	0.999500
849.483928	1.000452
849.798323	0.998073
850.112675	1.000490
850.426984	0.999648
850.741251	1.000253
851.055474	0.999311
851.369654	1.000189
851.683792	0.998092
851.997887	0.999508
852.311938	0.999206
852.625947	0.998951
852.939914	0.998995
853.253837	1.000852
853.567718	0.999581
853.881555	0.999792
854.195350	0.999498
854.509103	0.999750
854.822812	1.000245
855.136479	1.000230
855.450103	1.000212
855.763685	0.999717
856.077224	0.999092
856.390720	0.999777
856.704173	1.000346
857.017584	1.001531
857.330953	1.000762
857.644278	0.999244
857.957561	0.999767
858.270802	0.999221
858.584000	0.999326
858.897155	1.000502
859.210268	1.001028
859.523339	1.000628
859.836367	1.000842
860.149352	0.998510
860.462295	0.999394
860.775195	0.999838
861.088054	0.998413
861.400869	0.998844
861.713642	0.999505
862.026373	0.999390
862.339062	1.001262
862.651708	0.999443
862.964312	1.000196
863.276873	1.000053
863.589392	0.999876
863.901869	0.997935
864.214303	0.999763
864.526696	0.999685
864.839045	0.999635
865.151353	0.999270
865.463619	0.998571
865.775842	0.999391
866.088023	1.000171
866.400162	1.000502
866.712258	1.000170
867.024313	1.000155
867.336325	1.000545
867.648296	1.000006
867.960224	1.000220
868.272110	0.998899
868.583954	0.999946
868.895755	0.999611
869.207515	0.999862
869.519233	1.000640
869.830909	0.999169
870.142542	0.997684
870.454134	0.999714
870.765684	0.999747
871.077191	0.999693
871.388657	0.999909
871.700081	1.000462
872.011463	0.999691
872.322803	0.999246
872.634101	0.998341
872.945357	0.999164
873.256571	0.998990
873.567744	1.000038
873.878874	0.999473
874.189963	0.998654
874.501010	0.999458
874.812015	0.999554
875.122979	1.000064
875.433900	0.998854
875.744780	0.999010
876.055618	0.997636
876.366415	0.998168
876.677169	0.999751
876.987882	0.998995
877.298554	1.000052
877.609183	0.999234
877.919771	0.999836
878.230317	0.999134
878.540822	0.998021
878.851285	0.998259
879.161707	0.997880
879.472087	0.999189
879.782425	0.997452
880.092722	0.997353
880.402977	0.996104
880.713191	0.993643
881.023363	0.990864
881.333494	0.991097
881.643583	0.991727
881.953631	0.991363
882.263637	0.989664
882.573602	0.991513
882.883526	0.991819
883.193408	0.993922
883.503248	0.993959
883.813048	0.994655
884.122806	0.996088
884.432522	0.995293
884.742197	0.997508
885.051831	0.996259
885.361424	0.997080
885.670975	0.998594
885.980485	0.997595
886.289954	0.996970
886.599382	0.997295
886.908768	0.998850
887.218113	0.997762
887.527417	0.998851
887.836680	0.998905
888.145901	0.999275
888.455082	0.999668
888.764221	0.998967
889.073319	0.998510
889.382376	1.000197
889.691392	0.998453
890.000366	0.999312
890.309300	0.998921
890.618193	0.999259
890.927044	0.998979
891.235855	0.999067
891.544625	0.998736
891.853353	0.998788
892.162041	0.998059
892.470687	0.999494
892.779293	0.998168
893.087858	0.997231
893.396381	0.997992
893.704864	0.997605
894.013306	0.996974
894.321707	0.996981
894.630068	0.995764
894.938387	0.995625
895.246665	0.995823
895.554903	0.996464
895.863100	0.995996
896.171256	0.996817
896.479371	0.997607
896.787446	0.998034
897.095480	0.997722
897.403473	0.998777
897.711425	0.998330
898.019336	0.998713
898.327207	0.997611
898.635038	0.997939
898.942827	0.999026
899.250576	0.999267
899.558284	0.998576
899.865952	0.997934
900.173579	0.998943
900.481165	0.999049
900.788711	0.997768
901.096216	0.999457
901.403681	0.999290
901.711105	0.999048
902.018489	0.998238
902.325832	0.999360
902.633135	0.999877
902.940397	0.999584
903.247619	0.998887
903.554800	0.997614
903.861941	0.997455
904.169041	0.995365
904.476101	0.994995
904.783121	0.995064
905.090100	0.994672
905.397039	0.996293
905.703938	0.995599
906.010796	0.996402
906.317614	0.997960
906.624391	0.997906
906.931129	0.998509
907.237826	0.999129
907.544483	0.999303
907.851099	0.998974
908.157675	0.997988
908.464211	0.998650
908.770707	0.998684
909.077163	0.999107
909.383578	0.998776
909.689954	0.998448
909.996289	0.998826
910.302584	0.999957
910.608839	1.000773
910.915054	0.999659
911.221229	1.000358
911.527363	0.999732
911.833458	0.999251
912.139513	0.999277
912.445527	1.000540
912.751502	0.999514
913.057436	0.998424
913.363331	1.000896
913.669186	0.999812
913.975000	0.999626
914.280775	0.998983
914.586510	0.997238
914.892205	0.997332
915.197859	0.995979
915.503475	0.996884
915.809050	0.995329
916.114585	0.993885
916.420081	0.995315
916.725536	0.995806
917.030952	0.996757
917.336328	0.995820
917.641665	0.995931
917.946961	0.996643
918.252218	0.996437
918.557435	0.997298
918.862612	0.997839
919.167750	0.998883
919.472848	0.998135
919.777906	0.998868
920.082925	0.998814
920.387904	0.998967
920.692843	0.999065
920.997743	0.998295
921.302603	0.999662
921.607423	0.998728
921.912204	0.999286
922.216946	1.000357
922.521647	0.999746
922.826310	0.998102
923.130932	0.999797
923.435516	1.000302
923.740059	0.998238
924.044564	0.998067
924.349028	0.998888
924.653454	0.999975
924.957840	1.000423
925.262186	1.000066
925.566493	0.998608
925.870761	0.999819
926.174989	0.999340
926.479178	1.000741
926.783328	0.999233
927.087438	1.000294
927.391509	0.999014
927.695541	0.999976
927.999533	1.000837
928.303486	0.999591
928.607400	1.001092
928.911275	1.000280
929.215110	1.001164
929.518906	0.999696
929.822663	0.999477
930.126381	1.001406
930.430060	0.999915
930.733699	1.000499
931.037299	1.001596
931.340861	1.000563
931.644383	0.998658
931.947866	1.000242
932.251309	0.999803
932.554714	1.000410
932.858080	1.000785
933.161407	0.999763
933.464694	0.999817
933.767943	1.000557
934.071153	1.001402
934.374323	1.000201
934.677455	0.999826
934.980548	0.998294
935.283602	1.000109
935.586617	0.999881
935.889593	1.000007
936.192530	1.000561
936.495428	1.001325
936.798287	0.999815
937.101108	1.000325
937.403890	0.998667
937.706632	1.001745
938.009336	1.000068
938.312002	0.999301
938.614628	0.999683
938.917216	1.000308
939.219765	0.998890
939.522275	0.999357
939.824747	1.000070
940.127179	1.000269
940.429573	1.000976
940.731929	0.999066
941.034246	0.998873
941.336524	0.999214
941.638763	1.001396
941.940964	0.998981
942.243126	0.999245
942.545250	1.000036
942.847335	0.999878
943.149381	0.999477
943.451389	0.999981
943.753359	1.000307
944.055290	1.000219
944.357182	1.000110
944.659036	1.000628
944.960851	0.999995
945.262628	1.000486
945.564367	0.999391
945.866067	1.000670
946.167729	1.000343
946.469352	0.999889
946.770937	0.998187
947.072484	1.001146
947.373992	0.999360
947.675462	1.000518
947.976893	1.000377
948.278286	1.000765
948.579641	1.000288
948.880958	0.999833
949.182236	1.000721
949.483476	1.001029
949.784678	0.999862
950.085841	0.999566
950.386967	1.000846
950.688054	1.000526
950.989103	0.998164
951.290114	0.998551
951.591087	1.000955
951.892021	1.000078
952.192917	1.001216
952.493776	1.000125
952.794596	0.999714
953.095378	1.000013
953.396122	0.999134
953.696828	0.999790
953.997496	1.000690
954.298126	1.000285
954.598718	0.999873
954.899272	1.000323
955.199788	0.999580
955.500266	1.000626
955.800706	0.999808
956.101108	0.999909
956.401472	1.001058
956.701798	0.999546
957.002087	1.000295
957.302337	1.000114
957.602550	0.999472
957.902724	1.000140
958.202861	0.998890
958.502960	0.999429
958.803022	1.001512
959.103045	1.000629
959.403031	1.000927
959.702979	1.000586
960.002889	1.000127
960.302762	0.999260
960.602596	1.001256
960.902393	0.999770
961.202153	0.999952
961.501875	0.999991
961.801559	0.999443
962.101205	0.999450
962.400814	1.000597
962.700385	1.002001
962.999918	1.001023
963.299414	0.999077
963.598873	1.001260
963.898293	1.000816
964.197677	1.000378
964.497022	1.000069
964.796331	0.999703
965.095601	1.001510
965.394835	1.001143
965.694030	1.001909
965.993189	0.999553
966.292309	1.001036
966.591393	0.999938
966.890439	1.001255
967.189447	0.999693
967.488419	0.999461
967.787353	1.000284
968.086249	1.000509
968.385108	0.999685
968.683930	1.001279
968.982714	0.999964
969.281462	1.002048
969.580172	1.000431
969.878844	1.001152
970.177480	1.000511
970.476078	1.001134
970.774639	1.001241
971.073162	1.000017
971.371649	0.999894
971.670098	1.000024
971.968510	1.001332
972.266885	0.999850
972.565223	0.999820
972.863524	0.998463
973.161788	1.000800
973.460014	1.001849
973.758204	1.000102
974.056356	1.000606
974.354471	1.000250
974.652550	1.001219
974.950591	0.999475
975.248595	0.999470
975.546563	1.001153
975.844493	1.000831
976.142386	1.000038
976.440243	1.000750
976.738062	0.999828
977.035845	1.000157
977.333590	1.000970
977.631299	0.999399
977.928971	1.000218
978.226606	0.999391
978.524204	0.999314
978.821765	1.000782
979.119290	1.001424
979.416777	1.000413
979.714228	0.999272
980.011642	1.000643
980.309020	0.999635
980.606360	1.000213
980.903664	0.999724
981.200931	1.000085
981.498162	1.000130
981.795356	0.999936
982.092513	0.999965
982.389633	1.001372
982.686717	0.998437
982.983764	0.999404
983.280775	1.000968
983.577749	1.000075
983.874686	0.999419
984.171587	0.999891
984.468451	1.000330
984.765279	1.001006
985.062070	1.000426
985.358824	0.999692
985.655543	1.000983
985.952224	1.001204
986.248869	0.998968
986.545478	1.001565
986.842050	1.000824
987.138586	0.999448
987.435086	0.999581
987.731549	1.001983
988.027975	1.000843
988.324366	0.999107
988.620719	1.000118
988.917037	1.001261
989.213318	1.001784
989.509563	1.001091
989.805772	1.000997
990.101944	1.001163
990.398080	1.001180
990.694180	1.000226
990.990244	0.999671
991.286271	1.000099
991.582262	1.001017
991.878217	1.000080
992.174136	1.001178
992.470019	0.999660
992.765865	1.001961
993.061676	1.000141
993.357450	1.000660
993.653188	1.002199
993.948890	0.999346
994.244556	1.000182
994.540186	1.000097
994.835780	1.000586
995.131337	1.001261
995.426859	1.000534
995.722345	0.999511
996.017795	0.999906
996.313208	0.999531
996.608586	0.999501
996.903928	1.000405
997.199234	1.001298
997.494504	1.001669
997.789738	0.999506
998.084936	1.000999
998.380099	0.998727
998.675225	1.001509
998.970316	1.000094
999.265371	1.000796
999.560390	1.000582
999.855373	1.000204
1000.150320	0.999329
1000.445232	1.000630
1000.740108	1.000760
1001.034948	1.000092
1001.329752	1.001626
1001.624521	1.000436
1001.919254	0.999477
1002.213951	1.000366
1002.508613	1.000670
1002.803239	0.999491
1003.097829	1.000397
1003.392384	1.000109
1003.686903	1.000804
1003.981386	1.000236
1004.275834	1.001866
1004.570246	0.999988
1004.864623	1.001851
1005.158964	1.000792
1005.453270	1.000330
1005.747540	1.000359
1006.041775	1.000914
1006.335974	1.000541
1006.630138	1.000642
1006.924266	1.000776
1007.218359	0.998714
1007.512416	1.001744
1007.806438	1.000692
1008.100425	1.000042
1008.394376	1.001833
1008.688292	0.999354
1008.982172	1.000898
1009.276017	1.001128
1009.569827	1.000779
1009.863602	0.999995
1010.157341	1.001021
1010.451045	1.000208
1010.744714	1.001904
1011.038347	1.001591
1011.331945	0.999852
1011.625508	1.000320
1011.919036	0.999378
1012.212528	1.001482
1012.505986	1.000611
1012.799408	1.000829
1013.092795	1.000623
1013.386147	1.000267
1013.679464	1.001320
1013.972745	0.999657
1014.265992	1.000951
1014.559204	0.998803
1014.852380	1.001109
1015.145521	1.000992
1015.438628	1.000327
1015.731699	1.000676
1016.024736	1.000084
1016.317737	1.000427
1016.610703	1.000733
1016.903635	1.000187
1017.196531	1.000808
1017.489393	1.000856
1017.782219	1.000044
1018.075011	1.000422
1018.367768	0.999588
1018.660490	1.000373
1018.953177	1.000373
1019.245829	1.000373
