Dividing Wavelength (nm)	Counts (n)	Blue Motor Position (mm): 8.100000	Red Motor Position (mm): 0.000000	
326.493990	1.004219
326.888308	1.004219
327.282561	1.004219
327.676750	1.005996
328.070874	1.007132
328.464933	1.005931
328.858929	1.006432
329.252859	1.005127
329.646726	1.005429
330.040528	1.005572
330.434265	1.006814
330.827938	1.004862
331.221547	1.006010
331.615091	1.005629
332.008571	1.005288
332.401986	1.005377
332.795338	1.004810
333.188625	1.005379
333.581847	1.004185
333.975006	1.005001
334.368100	1.004982
334.761129	1.003267
335.154095	1.005322
335.546996	1.002606
335.939833	0.998663
336.332606	0.999297
336.725315	0.998118
337.117960	0.999890
337.510540	0.998618
337.903056	0.999801
338.295508	0.999811
338.687896	0.999257
339.080220	0.999080
339.472480	0.998314
339.864676	0.999840
340.256807	0.997608
340.648875	0.999269
341.040879	0.998837
341.432818	0.999507
341.824694	0.999065
342.216506	0.998912
342.608253	0.998821
342.999937	0.999064
343.391557	0.999293
343.783113	0.999406
344.174605	0.999057
344.566033	0.997812
344.957397	0.999346
345.348697	0.998663
345.739934	0.998960
346.131106	0.998273
346.522215	0.997514
346.913260	0.997729
347.304241	0.997982
347.695159	0.998101
348.086012	0.998235
348.476802	0.997589
348.867528	0.998150
349.258191	0.999526
349.648789	0.998079
350.039324	0.997981
350.429796	0.997612
350.820203	0.996670
351.210548	0.998524
351.600828	0.997775
351.991045	0.997462
352.381198	0.998465
352.771288	0.997718
353.161314	0.997695
353.551276	0.998268
353.941175	0.996797
354.331010	0.998700
354.720782	0.997887
355.110490	0.997901
355.500135	0.997809
355.889717	0.997781
356.279235	0.996135
356.668689	0.999131
357.058080	0.997523
357.447408	0.996563
357.836672	0.997537
358.225873	0.998304
358.615010	0.997898
359.004084	0.996263
359.393095	0.997627
359.782043	0.997547
360.170927	0.998153
360.559748	0.996578
360.948505	0.997260
361.337199	0.997742
361.725830	0.996796
362.114398	0.995567
362.502903	0.996320
362.891344	0.995612
363.279722	0.996917
363.668037	0.997416
364.056289	0.996361
364.444478	0.997932
364.832603	0.996874
365.220665	0.996270
365.608665	0.997127
365.996601	0.996125
366.384474	0.995831
366.772284	0.996412
367.160031	0.995008
367.547715	0.994853
367.935336	0.994248
368.322893	0.993488
368.710388	0.991761
369.097820	0.990249
369.485189	0.988472
369.872495	0.985996
370.259738	0.984930
370.646918	0.981734
371.034035	0.979622
371.421090	0.976086
371.808081	0.970873
372.195010	0.967730
372.581875	0.964118
372.968678	0.958598
373.355418	0.955829
373.742096	0.947984
374.128710	0.943277
374.515262	0.940246
374.901751	0.932440
375.288177	0.928688
375.674540	0.921494
376.060841	0.914888
376.447079	0.909299
376.833254	0.902008
377.219367	0.896904
377.605417	0.885973
377.991404	0.882928
378.377329	0.876438
378.763191	0.870155
379.148991	0.862104
379.534727	0.854126
379.920402	0.846321
380.306013	0.841854
380.691563	0.828731
381.077049	0.822840
381.462474	0.818586
381.847835	0.806637
382.233134	0.802406
382.618371	0.802618
383.003545	0.784951
383.388657	0.783317
383.773706	0.775296
384.158693	0.770978
384.543618	0.765189
384.928480	0.756954
385.313280	0.747195
385.698017	0.746744
386.082692	0.735497
386.467305	0.734102
386.851856	0.727684
387.236344	0.723059
387.620770	0.717054
388.005133	0.711147
388.389435	0.706533
388.773674	0.703186
389.157851	0.695606
389.541965	0.692793
389.926018	0.699208
390.310008	0.686472
390.693936	0.683065
391.077802	0.675445
391.461606	0.676617
391.845348	0.666685
392.229027	0.665022
392.612645	0.663386
392.996200	0.651148
393.379694	0.643818
393.763125	0.634123
394.146494	0.639172
394.529801	0.629345
394.913047	0.621793
395.296230	0.626953
395.679351	0.618583
396.062410	0.615824
396.445408	0.618315
396.828343	0.613411
397.211217	0.608427
397.594028	0.620554
397.976778	0.610478
398.359466	0.608213
398.742092	0.602863
399.124656	0.614503
399.507158	0.603056
399.889598	0.600050
400.271977	0.591306
400.654294	0.595251
401.036549	0.594087
401.418742	0.598883
401.800874	0.584501
402.182944	0.581178
402.564952	0.573053
402.946898	0.574814
403.328783	0.575503
403.710606	0.586115
404.092367	0.561820
404.474067	0.566742
404.855705	0.565652
405.237282	0.574251
405.618797	0.560876
406.000250	0.556161
406.381642	0.546380
406.762972	0.551525
407.144240	0.549805
407.525447	0.549920
407.906593	0.543100
408.287677	0.538278
408.668700	0.546731
409.049661	0.540925
409.430560	0.535320
409.811399	0.543781
410.192176	0.526304
410.572891	0.533817
410.953545	0.521406
411.334138	0.535346
411.714669	0.527374
412.095139	0.539644
412.475547	0.523218
412.855894	0.525262
413.236180	0.524094
413.616405	0.529645
413.996568	0.520321
414.376670	0.526719
414.756711	0.531279
415.136691	0.528573
415.516609	0.519100
415.896466	0.515773
416.276262	0.512084
416.655997	0.514668
417.035670	0.495407
417.415283	0.486637
417.794834	0.492101
418.174324	0.497041
418.553753	0.506552
418.933121	0.488092
419.312428	0.483143
419.691674	0.487915
420.070859	0.476605
420.449983	0.484826
420.829045	0.474157
421.208047	0.482921
421.586988	0.475920
421.965867	0.474131
422.344686	0.463986
422.723444	0.476011
423.102141	0.492669
423.480777	0.465632
423.859352	0.486462
424.237866	0.463333
424.616319	0.464556
424.994712	0.455249
425.373044	0.465734
425.751314	0.453580
426.129524	0.470388
426.507673	0.453572
426.885762	0.447689
427.263789	0.452875
427.641756	0.462092
428.019662	0.453438
428.397508	0.451805
428.775292	0.456493
429.153016	0.447839
429.530679	0.454391
429.908282	0.447483
430.285824	0.458173
430.663305	0.436389
431.040726	0.457203
431.418086	0.457080
431.795385	0.448704
432.172624	0.448063
432.549802	0.448339
432.926920	0.447276
433.303977	0.446455
433.680974	0.443842
434.057910	0.442557
434.434786	0.441183
434.811601	0.444444
435.188355	0.426586
435.565050	0.435917
435.941683	0.437581
436.318257	0.420963
436.694770	0.422402
437.071222	0.420780
437.447614	0.424883
437.823946	0.431162
438.200218	0.421090
438.576429	0.430282
438.952580	0.423287
439.328670	0.419831
439.704700	0.426405
440.080670	0.427811
440.456580	0.409113
440.832429	0.416914
441.208218	0.428265
441.583947	0.417142
441.959616	0.416333
442.335224	0.421878
442.710773	0.412856
443.086261	0.411146
443.461689	0.424699
443.837057	0.414462
444.212365	0.404318
444.587612	0.411856
444.962800	0.401330
445.337927	0.402816
445.712995	0.429151
446.088002	0.390750
446.462949	0.401591
446.837837	0.406260
447.212664	0.394537
447.587431	0.386695
447.962139	0.357330
448.336786	0.315537
448.711374	0.326358
449.085901	0.370498
449.460369	0.374639
449.834776	0.378534
450.209124	0.357446
450.583412	0.350399
450.957640	0.343560
451.331808	0.354836
451.705917	0.378430
452.079965	0.382835
452.453954	0.371002
452.827883	0.377688
453.201752	0.372747
453.575562	0.384005
453.949311	0.372470
454.323001	0.378755
454.696632	0.374445
455.070202	0.366887
455.443713	0.358569
455.817164	0.353514
456.190556	0.349037
456.563888	0.346283
456.937160	0.343766
457.310373	0.360955
457.683526	0.359752
458.056619	0.365854
458.429653	0.366010
458.802628	0.369963
459.175542	0.363574
459.548398	0.346279
459.921194	0.338939
460.293930	0.339392
460.666607	0.316529
461.039224	0.304717
461.411782	0.300606
461.784280	0.299325
462.156719	0.303954
462.529099	0.307921
462.901419	0.324250
463.273680	0.328745
463.645882	0.328437
464.018024	0.334396
464.390106	0.326961
464.762130	0.311119
465.134094	0.294440
465.505999	0.263444
465.877845	0.233561
466.249631	0.220508
466.621358	0.227944
466.993026	0.241981
467.364634	0.248412
467.736184	0.256964
468.107674	0.265675
468.479105	0.265052
468.850477	0.271845
469.221790	0.278681
469.593043	0.289164
469.964238	0.293235
470.335373	0.292922
470.706449	0.291114
471.077467	0.291654
471.448425	0.253746
471.819324	0.229287
472.190164	0.228735
472.560945	0.257494
472.931667	0.279958
473.302330	0.284124
473.672934	0.296044
474.043479	0.284370
474.413965	0.286310
474.784393	0.289271
475.154761	0.284509
475.525070	0.281459
475.895321	0.287965
476.265513	0.281539
476.635645	0.276614
477.005719	0.276529
477.375734	0.273114
477.745691	0.266513
478.115588	0.262678
478.485427	0.256204
478.855207	0.243338
479.224928	0.225414
479.594591	0.213632
479.964194	0.217169
480.333739	0.218094
480.703226	0.219878
481.072653	0.218210
481.442022	0.213894
481.811333	0.210673
482.180584	0.214080
482.549777	0.219534
482.918912	0.222529
483.287988	0.222590
483.657005	0.222086
484.025964	0.228464
484.394864	0.225775
484.763706	0.226543
485.132489	0.231468
485.501213	0.232270
485.869879	0.230547
486.238487	0.233681
486.607036	0.231650
486.975527	0.236377
487.343959	0.232118
487.712333	0.231203
488.080648	0.232516
488.448905	0.231893
488.817104	0.232852
489.185244	0.227553
489.553326	0.224301
489.921350	0.214173
490.289315	0.196642
490.657222	0.191606
491.025070	0.193038
491.392861	0.194938
491.760593	0.200415
492.128267	0.206362
492.495883	0.211756
492.863440	0.218335
493.230939	0.224392
493.598380	0.226059
493.965763	0.228140
494.333088	0.230245
494.700354	0.231770
495.067563	0.230867
495.434713	0.234251
495.801805	0.232131
496.168839	0.233614
496.535815	0.235006
496.902733	0.234976
497.269593	0.236410
497.636395	0.234094
498.003139	0.234625
498.369825	0.237440
498.736453	0.233938
499.103023	0.235480
499.469535	0.234732
499.835989	0.235244
500.202385	0.236224
500.568723	0.239441
500.935003	0.234241
501.301226	0.238768
501.667390	0.232815
502.033497	0.230959
502.399546	0.233839
502.765537	0.235906
503.131470	0.234682
503.497345	0.230709
503.863163	0.239207
504.228923	0.232383
504.594625	0.230945
504.960269	0.236398
505.325856	0.231941
505.691385	0.235992
506.056856	0.232755
506.422270	0.232354
506.787625	0.234711
507.152924	0.232324
507.518164	0.232548
507.883347	0.234221
508.248472	0.236087
508.613540	0.230560
508.978550	0.233750
509.343503	0.233967
509.708398	0.231600
510.073236	0.229148
510.438016	0.229068
510.802738	0.230205
511.167403	0.228906
511.532010	0.231094
511.896561	0.226467
512.261053	0.224757
512.625488	0.227403
512.989866	0.227734
513.354186	0.227925
513.718449	0.229919
514.082655	0.226164
514.446803	0.228276
514.810894	0.225843
515.174927	0.228881
515.538904	0.228008
515.902822	0.225048
516.266684	0.227571
516.630488	0.228726
516.994235	0.227693
517.357925	0.226445
517.721558	0.224553
518.085133	0.224146
518.448651	0.223991
518.812112	0.226556
519.175516	0.225948
519.538863	0.223396
519.902152	0.225202
520.265385	0.222257
520.628560	0.223955
520.991678	0.224086
521.354739	0.223301
521.717743	0.224222
522.080690	0.224577
522.443580	0.222404
522.806413	0.222952
523.169189	0.222332
523.531908	0.221217
523.894569	0.224595
524.257174	0.224678
524.619722	0.222538
524.982213	0.223397
525.344647	0.222518
525.707025	0.223539
526.069345	0.221462
526.431608	0.223129
526.793815	0.221116
527.155964	0.225592
527.518057	0.224164
527.880093	0.225454
528.242072	0.223578
528.603995	0.225931
528.965860	0.227358
529.327669	0.226373
529.689421	0.227264
530.051117	0.228080
530.412755	0.225603
530.774337	0.228138
531.135862	0.228662
531.497331	0.227687
531.858743	0.230751
532.220098	0.227508
532.581396	0.229800
532.942638	0.230269
533.303824	0.231583
533.664953	0.231025
534.026025	0.233070
534.387040	0.230910
534.747999	0.230788
535.108902	0.229720
535.469748	0.234782
535.830537	0.232504
536.191270	0.232897
536.551947	0.232527
536.912567	0.232608
537.273131	0.234370
537.633638	0.234584
537.994089	0.234942
538.354483	0.235895
538.714821	0.232924
539.075103	0.232515
539.435328	0.233525
539.795497	0.237001
540.155609	0.233908
540.515665	0.232159
540.875665	0.237473
541.235609	0.236150
541.595496	0.236209
541.955328	0.233107
542.315102	0.235251
542.674821	0.236687
543.034483	0.236737
543.394090	0.236408
543.753640	0.238085
544.113134	0.233290
544.472571	0.236485
544.831953	0.233220
545.191278	0.237796
545.550548	0.236880
545.909761	0.233992
546.268918	0.234624
546.628019	0.232929
546.987064	0.235556
547.346053	0.237400
547.704986	0.235305
548.063863	0.235483
548.422684	0.235821
548.781449	0.237700
549.140158	0.235325
549.498811	0.238134
549.857408	0.241212
550.215949	0.235922
550.574434	0.238903
550.932864	0.237022
551.291237	0.235479
551.649555	0.237231
552.007817	0.236717
552.366022	0.237795
552.724173	0.237885
553.082267	0.238412
553.440305	0.235095
553.798288	0.239616
554.156215	0.236059
554.514086	0.236880
554.871902	0.240034
555.229661	0.239063
555.587365	0.239761
555.945014	0.242608
556.302606	0.239203
556.660143	0.241899
557.017625	0.238320
557.375050	0.240358
557.732421	0.237542
558.089735	0.239222
558.446994	0.239543
558.804197	0.238918
559.161345	0.238525
559.518437	0.241913
559.875474	0.240013
560.232455	0.239634
560.589381	0.240310
560.946251	0.240909
561.303065	0.238182
561.659825	0.239541
562.016528	0.241358
562.373177	0.243713
562.729770	0.241475
563.086307	0.243111
563.442789	0.240993
563.799216	0.244020
564.155587	0.242665
564.511904	0.243649
564.868164	0.243544
565.224370	0.244019
565.580520	0.245601
565.936615	0.245078
566.292654	0.248600
566.648638	0.245575
567.004567	0.246194
567.360441	0.246619
567.716260	0.248714
568.072023	0.246705
568.427732	0.247328
568.783385	0.249641
569.138982	0.248029
569.494525	0.247862
569.850013	0.250668
570.205445	0.249025
570.560823	0.251198
570.916145	0.253345
571.271412	0.251604
571.626625	0.253457
571.981782	0.253659
572.336884	0.254393
572.691931	0.254175
573.046923	0.255790
573.401860	0.256608
573.756743	0.258367
574.111570	0.257252
574.466342	0.258047
574.821059	0.256762
575.175722	0.259984
575.530330	0.259579
575.884882	0.259603
576.239380	0.261683
576.593823	0.262212
576.948211	0.261646
577.302544	0.265168
577.656823	0.264481
578.011047	0.264757
578.365216	0.265528
578.719330	0.267255
579.073389	0.266911
579.427394	0.268337
579.781344	0.269246
580.135239	0.270677
580.489080	0.270167
580.842866	0.273193
581.196597	0.273460
581.550273	0.271785
581.903895	0.272699
582.257463	0.270904
582.610975	0.274312
582.964434	0.273559
583.317837	0.276010
583.671186	0.276179
584.024481	0.276490
584.377721	0.278980
584.730906	0.279827
585.084037	0.279078
585.437113	0.280832
585.790135	0.280229
586.143103	0.283169
586.496016	0.283806
586.848874	0.281700
587.201679	0.282002
587.554428	0.285672
587.907124	0.284569
588.259765	0.285370
588.612352	0.285874
588.964884	0.289740
589.317362	0.289368
589.669786	0.288932
590.022155	0.287178
590.374470	0.287347
590.726731	0.288945
591.078937	0.294187
591.431090	0.290256
591.783188	0.294487
592.135232	0.295020
592.487222	0.294891
592.839157	0.292507
593.191038	0.295415
593.542866	0.297044
593.894639	0.300391
594.246358	0.298948
594.598022	0.298274
594.949633	0.301789
595.301190	0.302289
595.652692	0.301858
596.004141	0.297695
596.355535	0.305765
596.706876	0.306651
597.058162	0.309091
597.409395	0.305727
597.760573	0.303515
598.111698	0.307071
598.462768	0.307439
598.813785	0.308680
599.164748	0.310291
599.515657	0.310559
599.866511	0.314073
600.217312	0.308947
600.568060	0.314553
600.918753	0.310778
601.269392	0.311867
601.619978	0.315436
601.970510	0.312492
602.320988	0.312593
602.671412	0.310752
603.021783	0.312962
603.372100	0.314124
603.722363	0.313862
604.072572	0.314971
604.422728	0.314556
604.772830	0.316779
605.122878	0.316215
605.472872	0.317126
605.822813	0.315044
606.172701	0.318515
606.522534	0.315334
606.872314	0.315661
607.222041	0.316331
607.571714	0.314205
607.921333	0.315670
608.270899	0.315753
608.620411	0.312368
608.969870	0.316649
609.319276	0.316623
609.668627	0.316273
610.017926	0.314981
610.367171	0.313270
610.716362	0.314072
611.065500	0.314163
611.414585	0.313261
611.763616	0.313200
612.112594	0.314100
612.461518	0.313256
612.810389	0.311043
613.159207	0.313361
613.507971	0.314925
613.856682	0.311457
614.205340	0.312158
614.553945	0.309615
614.902496	0.312966
615.250994	0.311778
615.599439	0.311891
615.947830	0.311399
616.296169	0.312496
616.644454	0.311976
616.992686	0.311958
617.340864	0.310237
617.688990	0.313514
618.037063	0.309944
618.385082	0.311868
618.733048	0.308498
619.080961	0.311070
619.428821	0.310615
619.776628	0.309823
620.124382	0.312197
620.472083	0.313061
620.819731	0.311627
621.167326	0.315996
621.514868	0.315520
621.862357	0.319777
622.209793	0.319298
622.557176	0.322044
622.904506	0.322732
623.251783	0.325247
623.599007	0.327601
623.946179	0.326935
624.293297	0.328916
624.640363	0.333495
624.987376	0.333321
625.334336	0.335475
625.681243	0.337847
626.028097	0.338805
626.374899	0.339631
626.721647	0.340399
627.068343	0.343099
627.414987	0.344533
627.761577	0.346797
628.108115	0.344666
628.454600	0.350102
628.801032	0.347458
629.147412	0.349366
629.493739	0.350221
629.840014	0.352903
630.186236	0.350534
630.532405	0.356195
630.878521	0.353329
631.224585	0.355591
631.570597	0.359345
631.916556	0.357926
632.262462	0.357723
632.608316	0.360220
632.954117	0.360686
633.299866	0.361564
633.645562	0.361907
633.991206	0.366757
634.336797	0.369199
634.682336	0.372068
635.027823	0.373228
635.373257	0.373620
635.718639	0.377772
636.063968	0.376972
636.409245	0.382448
636.754470	0.383206
637.099642	0.385455
637.444762	0.388836
637.789829	0.387823
638.134845	0.391549
638.479808	0.392624
638.824719	0.392111
639.169577	0.396638
639.514383	0.395043
639.859137	0.400103
640.203839	0.399781
640.548489	0.399838
640.893086	0.400807
641.237632	0.403094
641.582125	0.401758
641.926566	0.403847
642.270955	0.403257
642.615292	0.403393
642.959576	0.402984
643.303809	0.403185
643.647990	0.403019
643.992118	0.403483
644.336195	0.407226
644.680219	0.405133
645.024192	0.406080
645.368112	0.399808
645.711981	0.398316
646.055797	0.393744
646.399562	0.396253
646.743274	0.389158
647.086935	0.385514
647.430544	0.386480
647.774101	0.384794
648.117606	0.385130
648.461059	0.385607
648.804460	0.387481
649.147810	0.392979
649.491108	0.394870
649.834354	0.396142
650.177548	0.401034
650.520690	0.406405
650.863781	0.407810
651.206820	0.407303
651.549807	0.411599
651.892742	0.416034
652.235626	0.415846
652.578458	0.416666
652.921238	0.423095
653.263967	0.420695
653.606644	0.424258
653.949269	0.424666
654.291843	0.427718
654.634365	0.425546
654.976836	0.428320
655.319255	0.428920
655.661622	0.430336
656.003938	0.430976
656.346203	0.433629
656.688416	0.431265
657.030577	0.434537
657.372687	0.436875
657.714746	0.437551
658.056753	0.434581
658.398708	0.438434
658.740612	0.439359
659.082465	0.435507
659.424266	0.436215
659.766016	0.435983
660.107715	0.439594
660.449362	0.438032
660.790958	0.438155
661.132503	0.439595
661.473996	0.436494
661.815438	0.438090
662.156829	0.438624
662.498168	0.438974
662.839456	0.440481
663.180693	0.438567
663.521879	0.438061
663.863013	0.439218
664.204097	0.437271
664.545129	0.434673
664.886110	0.434940
665.227040	0.432931
665.567918	0.435457
665.908746	0.433540
666.249522	0.433372
666.590248	0.434725
666.930922	0.432081
667.271545	0.431929
667.612118	0.432041
667.952639	0.434021
668.293109	0.432441
668.633528	0.434922
668.973896	0.435102
669.314213	0.435676
669.654480	0.437656
669.994695	0.437746
670.334859	0.438246
670.674973	0.439390
671.015035	0.439395
671.355047	0.439463
671.695008	0.440746
672.034918	0.442442
672.374777	0.442217
672.714585	0.443196
673.054342	0.443381
673.394049	0.443859
673.733705	0.442023
674.073310	0.443442
674.412864	0.446516
674.752368	0.447177
675.091820	0.447417
675.431223	0.451724
675.770574	0.451652
676.109875	0.455703
676.449125	0.454712
676.788324	0.457720
677.127473	0.462912
677.466571	0.462537
677.805619	0.465237
678.144616	0.466743
678.483562	0.468382
678.822458	0.470553
679.161303	0.471235
679.500098	0.472527
679.838842	0.473702
680.177535	0.473034
680.516179	0.472001
680.854771	0.471737
681.193314	0.465639
681.531805	0.457662
681.870247	0.446953
682.208638	0.439613
682.546978	0.438398
682.885268	0.440142
683.223508	0.446995
683.561697	0.451085
683.899836	0.453615
684.237925	0.456888
684.575963	0.459901
684.913951	0.464207
685.251889	0.459331
685.589776	0.461852
685.927614	0.464563
686.265401	0.459759
686.603137	0.460615
686.940824	0.455846
687.278460	0.454679
687.616046	0.454502
687.953582	0.450129
688.291068	0.452050
688.628504	0.448124
688.965889	0.450457
689.303224	0.454383
689.640510	0.458660
689.977745	0.464511
690.314930	0.472094
690.652065	0.477022
690.989150	0.483991
691.326185	0.490425
691.663170	0.495479
692.000105	0.502462
692.336990	0.509050
692.673825	0.512262
693.010610	0.518526
693.347345	0.524106
693.684030	0.526839
694.020665	0.530797
694.357251	0.539569
694.693786	0.539174
695.030272	0.542502
695.366707	0.547289
695.703093	0.550090
696.039429	0.548940
696.375716	0.551145
696.711952	0.553680
697.048139	0.554852
697.384276	0.558308
697.720363	0.557212
698.056400	0.556545
698.392388	0.562499
698.728326	0.564714
699.064214	0.567696
699.400053	0.568577
699.735842	0.573626
700.071581	0.575303
700.407270	0.578730
700.742910	0.580765
701.078501	0.587526
701.414042	0.588810
701.749533	0.592187
702.084974	0.599393
702.420366	0.593980
702.755709	0.600971
703.091002	0.607624
703.426246	0.603381
703.761440	0.607483
704.096584	0.611375
704.431679	0.610247
704.766725	0.612990
705.101721	0.615176
705.436668	0.611971
705.771565	0.616571
706.106413	0.613471
706.441212	0.611351
706.775961	0.611015
707.110661	0.611916
707.445311	0.609381
707.779913	0.608934
708.114465	0.607459
708.448967	0.604553
708.783421	0.597541
709.117825	0.593065
709.452180	0.593365
709.786485	0.587570
710.120742	0.578220
710.454949	0.579632
710.789107	0.573507
711.123216	0.565108
711.457275	0.566322
711.791286	0.560713
712.125247	0.561563
712.459159	0.568398
712.793023	0.560826
713.126837	0.568023
713.460602	0.568738
713.794318	0.575688
714.127985	0.575373
714.461602	0.585531
714.795171	0.587524
715.128691	0.596009
715.462162	0.603313
715.795584	0.609387
716.128957	0.612596
716.462281	0.617260
716.795556	0.620195
717.128782	0.627746
717.461960	0.635867
717.795088	0.635366
718.128167	0.640964
718.461198	0.647138
718.794180	0.649193
719.127113	0.652995
719.459997	0.656220
719.792833	0.661082
720.125619	0.661324
720.458357	0.668670
720.791046	0.669235
721.123686	0.672264
721.456278	0.678769
721.788821	0.677110
722.121315	0.682091
722.453761	0.684473
722.786158	0.684672
723.118506	0.681282
723.450805	0.686472
723.783056	0.683898
724.115259	0.683071
724.447412	0.682903
724.779518	0.683401
725.111574	0.683088
725.443582	0.679293
725.775542	0.682290
726.107453	0.675549
726.439315	0.677414
726.771129	0.674624
727.102895	0.668797
727.434612	0.664101
727.766281	0.662250
728.097901	0.660770
728.429473	0.660737
728.760996	0.659907
729.092471	0.660101
729.423897	0.664337
729.755276	0.664780
730.086606	0.663802
730.417887	0.658284
730.749120	0.651468
731.080305	0.645927
731.411442	0.641533
731.742530	0.643700
732.073570	0.644328
732.404562	0.639344
732.735506	0.641057
733.066401	0.645090
733.397249	0.652297
733.728048	0.662345
734.058798	0.676286
734.389501	0.686414
734.720156	0.692447
735.050762	0.700201
735.381320	0.703420
735.711831	0.708436
736.042293	0.714040
736.372707	0.713301
736.703073	0.715680
737.033391	0.716425
737.363661	0.714851
737.693883	0.712416
738.024056	0.711042
738.354182	0.710348
738.684260	0.702480
739.014290	0.698990
739.344272	0.698902
739.674207	0.694288
740.004093	0.694132
740.333931	0.694689
740.663722	0.695205
740.993464	0.696719
741.323159	0.699680
741.652806	0.704086
741.982405	0.709045
742.311956	0.714162
742.641460	0.715441
742.970915	0.718498
743.300323	0.725177
743.629683	0.729848
743.958996	0.733382
744.288260	0.737222
744.617477	0.742729
744.946647	0.744322
745.275768	0.749812
745.604842	0.750748
745.933869	0.757043
746.262847	0.758426
746.591778	0.754846
746.920662	0.759667
747.249498	0.764009
747.578286	0.759136
747.907027	0.754714
748.235720	0.752501
748.564365	0.752474
748.892963	0.753072
749.221514	0.755360
749.550017	0.758140
749.878473	0.760002
750.206881	0.765544
750.535242	0.766187
750.863555	0.765509
751.191821	0.766968
751.520039	0.768897
751.848210	0.771037
752.176334	0.768826
752.504411	0.768527
752.832440	0.774563
753.160421	0.776896
753.488356	0.776776
753.816243	0.776734
754.144082	0.781825
754.471875	0.783836
754.799620	0.783474
755.127318	0.782366
755.454969	0.783422
755.782572	0.785366
756.110129	0.785752
756.437638	0.789801
756.765100	0.788515
757.092515	0.786844
757.419882	0.786672
757.747203	0.789389
758.074477	0.789360
758.401703	0.787420
758.728882	0.784769
759.056014	0.782929
759.383099	0.782098
759.710138	0.781348
760.037129	0.777954
760.364073	0.776114
760.690970	0.778491
761.017820	0.780353
761.344623	0.779027
761.671379	0.771839
761.998088	0.763734
762.324751	0.746360
762.651366	0.708564
762.977935	0.651723
763.304456	0.612712
763.630931	0.608764
763.957359	0.639212
764.283740	0.675620
764.610074	0.701225
764.936362	0.728714
765.262602	0.748806
765.588796	0.766271
765.914943	0.779786
766.241044	0.792678
766.567097	0.798830
766.893104	0.807530
767.219064	0.812452
767.544978	0.818896
767.870845	0.827239
768.196665	0.829099
768.522438	0.831270
768.848165	0.832731
769.173846	0.840166
769.499479	0.843108
769.825066	0.846067
770.150607	0.849423
770.476101	0.847296
770.801548	0.849693
771.126949	0.856738
771.452303	0.858933
771.777611	0.860030
772.102872	0.859586
772.428087	0.864197
772.753256	0.867528
773.078378	0.868043
773.403453	0.875030
773.728482	0.878589
774.053465	0.874116
774.378401	0.877337
774.703291	0.882583
775.028135	0.884646
775.352932	0.882919
775.677683	0.887078
776.002388	0.888846
776.327046	0.887917
776.651658	0.890754
776.976224	0.891757
777.300743	0.892802
777.625216	0.893958
777.949643	0.896323
778.274024	0.895318
778.598359	0.897379
778.922647	0.896541
779.246889	0.897297
779.571086	0.899734
779.895236	0.901297
780.219339	0.900236
780.543397	0.897801
780.867409	0.896843
781.191374	0.899028
781.515294	0.900651
781.839167	0.899238
782.162995	0.900166
782.486776	0.899036
782.810511	0.900300
783.134201	0.903537
783.457844	0.903082
783.781441	0.904685
784.104993	0.906755
784.428498	0.907632
784.751958	0.906720
785.075372	0.907462
785.398739	0.909809
785.722061	0.907273
786.045337	0.906396
786.368568	0.907030
786.691752	0.909086
787.014891	0.901249
787.337983	0.893660
787.661030	0.884892
787.984031	0.872375
788.306987	0.863988
788.629897	0.863787
788.952760	0.869129
789.275579	0.873661
789.598351	0.885266
789.921078	0.894139
790.243759	0.897419
790.566395	0.901267
790.888984	0.906246
791.211529	0.909583
791.534027	0.911759
791.856480	0.914914
792.178888	0.917254
792.501249	0.918381
792.823566	0.921479
793.145836	0.921230
793.468062	0.922327
793.790241	0.922995
794.112375	0.920852
794.434464	0.919053
794.756507	0.916964
795.078505	0.916914
795.400457	0.912436
795.722364	0.904686
796.044226	0.900231
796.366042	0.897462
796.687812	0.899079
797.009538	0.898011
797.331218	0.902375
797.652852	0.904622
797.974442	0.907552
798.295986	0.909465
798.617484	0.910745
798.938938	0.915549
799.260346	0.916419
799.581709	0.918954
799.903026	0.921513
800.224299	0.920912
800.545526	0.924223
800.866708	0.926578
801.187845	0.928910
801.508936	0.929481
801.829983	0.928564
802.150984	0.931290
802.471940	0.932391
802.792851	0.932519
803.113717	0.933646
803.434538	0.933143
803.755314	0.934380
804.076045	0.934001
804.396731	0.934924
804.717372	0.933648
805.037967	0.936624
805.358518	0.934704
805.679024	0.932067
805.999485	0.933926
806.319901	0.931864
806.640272	0.934346
806.960598	0.932832
807.280879	0.930746
807.601115	0.931137
807.921306	0.933413
808.241453	0.931818
808.561554	0.932158
808.881611	0.930963
809.201623	0.932678
809.521590	0.933555
809.841513	0.934640
810.161390	0.933853
810.481223	0.934114
810.801011	0.937407
811.120755	0.938664
811.440453	0.937711
811.760107	0.939055
812.079716	0.938192
812.399281	0.940421
812.718801	0.941234
813.038276	0.942127
813.357707	0.942239
813.677093	0.942971
813.996434	0.942903
814.315731	0.945323
814.634983	0.945197
814.954191	0.944632
815.273354	0.942513
815.592473	0.941023
815.911547	0.941290
816.230577	0.938618
816.549562	0.936932
816.868502	0.936264
817.187399	0.935574
817.506250	0.932906
817.825058	0.932638
818.143821	0.932054
818.462539	0.928823
818.781213	0.923712
819.099843	0.916264
819.418429	0.904020
819.736970	0.892684
820.055466	0.879457
820.373919	0.863839
820.692327	0.844354
821.010691	0.819089
821.329011	0.757687
821.647286	0.661759
821.965517	0.571173
822.283704	0.536880
822.601847	0.540920
822.919945	0.577711
823.237999	0.618851
823.556010	0.659931
823.873976	0.703027
824.191897	0.740465
824.509775	0.772144
824.827609	0.800167
825.145398	0.816435
825.463144	0.816105
825.780845	0.807048
826.098502	0.791085
826.416116	0.758782
826.733685	0.722931
827.051210	0.716138
827.368692	0.732190
827.686129	0.763960
828.003522	0.801532
828.320872	0.832393
828.638177	0.859777
828.955439	0.879902
829.272656	0.894734
829.589830	0.906007
829.906960	0.916510
830.224046	0.923915
830.541088	0.929977
830.858086	0.932932
831.175041	0.937227
831.491952	0.936324
831.808819	0.934488
832.125642	0.930292
832.442421	0.922931
832.759157	0.906323
833.075849	0.874142
833.392497	0.832428
833.709101	0.808733
834.025662	0.815530
834.342179	0.837408
834.658653	0.864926
834.975083	0.888064
835.291469	0.905469
835.607811	0.919157
835.924110	0.928519
836.240366	0.940152
836.556578	0.946535
836.872746	0.950848
837.188871	0.955571
837.504952	0.958496
837.820990	0.960593
838.136984	0.961776
838.452935	0.963930
838.768842	0.964259
839.084706	0.961240
839.400526	0.945031
839.716303	0.915510
840.032037	0.902612
840.347727	0.907264
840.663373	0.920046
840.978977	0.935424
841.294537	0.949175
841.610054	0.957988
841.925527	0.963003
842.240957	0.965947
842.556344	0.970397
842.871687	0.974447
843.186987	0.975754
843.502244	0.977138
843.817458	0.976896
844.132629	0.979534
844.447756	0.980433
844.762840	0.982072
845.077881	0.982763
845.392879	0.981144
845.707833	0.982243
846.022745	0.983484
846.337613	0.984175
846.652438	0.984971
846.967221	0.984680
847.281960	0.984559
847.596656	0.985651
847.911309	0.985508
848.225919	0.984035
848.540485	0.987541
848.855009	0.987516
849.169490	0.986100
849.483928	0.987001
849.798323	0.986375
850.112675	0.988214
850.426984	0.988073
850.741251	0.987767
851.055474	0.987209
851.369654	0.986838
851.683792	0.985830
851.997887	0.987263
852.311938	0.987292
852.625947	0.987314
852.939914	0.985524
853.253837	0.987222
853.567718	0.988288
853.881555	0.986680
854.195350	0.987711
854.509103	0.987422
854.822812	0.988063
855.136479	0.989180
855.450103	0.987630
855.763685	0.987488
856.077224	0.986648
856.390720	0.987719
856.704173	0.988195
857.017584	0.987130
857.330953	0.987508
857.644278	0.985705
857.957561	0.986940
858.270802	0.986583
858.584000	0.986675
858.897155	0.986692
859.210268	0.986344
859.523339	0.988314
859.836367	0.987653
860.149352	0.988680
860.462295	0.988325
860.775195	0.988447
861.088054	0.987214
861.400869	0.988326
861.713642	0.987374
862.026373	0.989279
862.339062	0.989232
862.651708	0.987641
862.964312	0.987649
863.276873	0.987358
863.589392	0.986206
863.901869	0.986283
864.214303	0.985478
864.526696	0.984491
864.839045	0.985294
865.151353	0.984043
865.463619	0.983855
865.775842	0.984447
866.088023	0.985357
866.400162	0.985026
866.712258	0.985865
867.024313	0.984420
867.336325	0.985176
867.648296	0.985583
867.960224	0.985053
868.272110	0.985099
868.583954	0.984467
868.895755	0.987201
869.207515	0.985136
869.519233	0.984626
869.830909	0.984529
870.142542	0.984698
870.454134	0.983719
870.765684	0.983787
871.077191	0.983574
871.388657	0.983257
871.700081	0.982741
872.011463	0.983916
872.322803	0.982162
872.634101	0.981365
872.945357	0.979997
873.256571	0.978492
873.567744	0.980308
873.878874	0.981355
874.189963	0.979696
874.501010	0.981290
874.812015	0.980056
875.122979	0.978617
875.433900	0.980633
875.744780	0.981737
876.055618	0.979618
876.366415	0.979351
876.677169	0.978871
876.987882	0.980131
877.298554	0.980152
877.609183	0.978838
877.919771	0.978762
878.230317	0.977753
878.540822	0.974955
878.851285	0.973454
879.161707	0.968934
879.472087	0.966585
879.782425	0.954788
880.092722	0.936988
880.402977	0.906866
880.713191	0.861821
881.023363	0.813639
881.333494	0.784680
881.643583	0.772680
881.953631	0.780592
882.263637	0.802624
882.573602	0.829854
882.883526	0.849150
883.193408	0.867938
883.503248	0.883815
883.813048	0.899430
884.122806	0.915140
884.432522	0.927792
884.742197	0.939180
885.051831	0.945344
885.361424	0.951480
885.670975	0.958141
885.980485	0.961130
886.289954	0.964968
886.599382	0.967068
886.908768	0.970376
887.218113	0.972003
887.527417	0.974680
887.836680	0.976781
888.145901	0.977683
888.455082	0.979136
888.764221	0.982264
889.073319	0.981760
889.382376	0.982228
889.691392	0.981192
890.000366	0.982004
890.309300	0.981636
890.618193	0.981545
890.927044	0.981242
891.235855	0.981473
891.544625	0.980729
891.853353	0.980503
892.162041	0.978979
892.470687	0.977885
892.779293	0.973860
893.087858	0.971260
893.396381	0.967616
893.704864	0.961199
894.013306	0.948226
894.321707	0.934565
894.630068	0.924653
894.938387	0.921706
895.246665	0.925922
895.554903	0.933902
895.863100	0.941816
896.171256	0.951047
896.479371	0.959471
896.787446	0.964552
897.095480	0.969473
897.403473	0.971185
897.711425	0.973088
898.019336	0.977154
898.327207	0.978105
898.635038	0.977413
898.942827	0.978481
899.250576	0.980173
899.558284	0.982052
899.865952	0.981864
900.173579	0.982687
900.481165	0.983199
900.788711	0.983718
901.096216	0.984736
901.403681	0.986233
901.711105	0.985943
902.018489	0.986499
902.325832	0.984954
902.633135	0.985125
902.940397	0.983213
903.247619	0.977087
903.554800	0.964498
903.861941	0.943004
904.169041	0.921646
904.476101	0.911740
904.783121	0.914355
905.090100	0.925044
905.397039	0.936866
905.703938	0.949690
906.010796	0.959314
906.317614	0.967091
906.624391	0.973134
906.931129	0.977656
907.237826	0.981364
907.544483	0.984517
907.851099	0.985858
908.157675	0.987806
908.464211	0.989441
908.770707	0.989567
909.077163	0.991619
909.383578	0.992158
909.689954	0.990074
909.996289	0.992491
910.302584	0.993298
910.608839	0.994978
910.915054	0.993780
911.221229	0.993195
911.527363	0.991360
911.833458	0.992468
912.139513	0.992284
912.445527	0.992712
912.751502	0.991542
913.057436	0.990628
913.363331	0.990927
913.669186	0.988946
913.975000	0.986317
914.280775	0.982367
914.586510	0.977941
914.892205	0.971610
915.197859	0.961128
915.503475	0.948145
915.809050	0.937101
916.114585	0.931568
916.420081	0.930421
916.725536	0.931187
917.030952	0.936162
917.336328	0.944046
917.641665	0.951058
917.946961	0.958350
918.252218	0.964080
918.557435	0.968696
918.862612	0.972651
919.167750	0.976314
919.472848	0.979349
919.777906	0.981987
920.082925	0.984761
920.387904	0.985474
920.692843	0.985334
920.997743	0.985972
921.302603	0.988675
921.607423	0.988242
921.912204	0.990261
922.216946	0.991970
922.521647	0.991622
922.826310	0.990476
923.130932	0.992755
923.435516	0.993168
923.740059	0.991921
924.044564	0.994177
924.349028	0.994039
924.653454	0.995465
924.957840	0.995426
925.262186	0.995457
925.566493	0.995160
925.870761	0.996039
926.174989	0.996045
926.479178	0.997907
926.783328	0.997119
927.087438	0.997387
927.391509	0.995539
927.695541	0.997641
927.999533	0.998823
928.303486	0.997104
928.607400	0.999542
928.911275	0.998355
929.215110	0.998517
929.518906	0.998986
929.822663	0.999954
930.126381	1.000097
930.430060	0.998845
930.733699	0.998476
931.037299	0.998550
931.340861	0.998843
931.644383	0.998168
931.947866	0.998688
932.251309	0.999143
932.554714	0.998501
932.858080	0.997771
933.161407	0.997691
933.464694	0.998957
933.767943	1.000081
934.071153	0.999961
934.374323	0.999415
934.677455	0.999286
934.980548	0.998542
935.283602	0.999993
935.586617	0.999588
935.889593	0.999794
936.192530	0.999080
936.495428	0.998747
936.798287	0.997734
937.101108	0.997896
937.403890	0.997532
937.706632	0.997881
938.009336	0.996938
938.312002	0.995917
938.614628	0.995765
938.917216	0.995192
939.219765	0.995240
939.522275	0.995567
939.824747	0.994973
940.127179	0.994938
940.429573	0.995518
940.731929	0.995840
941.034246	0.995811
941.336524	0.996001
941.638763	0.996368
941.940964	0.996841
942.243126	0.996111
942.545250	0.997470
942.847335	0.996945
943.149381	0.997659
943.451389	0.996393
943.753359	0.996784
944.055290	0.999397
944.357182	0.998183
944.659036	0.997871
944.960851	0.997900
945.262628	0.999259
945.564367	0.999001
945.866067	0.999035
946.167729	0.998469
946.469352	0.998614
946.770937	0.996361
947.072484	0.998878
947.373992	0.998978
947.675462	0.998121
947.976893	0.998339
948.278286	1.000322
948.579641	0.999974
948.880958	0.998619
949.182236	0.998985
949.483476	0.998909
949.784678	0.999841
950.085841	0.998630
950.386967	0.998457
950.688054	0.999028
950.989103	0.998037
951.290114	0.998271
951.591087	0.999719
951.892021	0.998192
952.192917	0.999424
952.493776	0.997382
952.794596	0.997091
953.095378	0.997276
953.396122	0.998552
953.696828	0.997958
953.997496	0.998626
954.298126	0.998332
954.598718	0.998612
954.899272	0.998726
955.199788	0.999051
955.500266	1.000474
955.800706	0.999842
956.101108	0.999322
956.401472	1.001679
956.701798	1.000266
957.002087	1.000411
957.302337	1.000861
957.602550	1.000905
957.902724	1.001228
958.202861	1.001229
958.502960	1.001140
958.803022	1.002218
959.103045	1.001553
959.403031	1.002299
959.702979	1.002211
960.002889	1.001085
960.302762	1.000873
960.602596	1.002320
960.902393	1.001270
961.202153	1.002776
961.501875	1.002529
961.801559	1.002201
962.101205	1.000135
962.400814	1.002747
962.700385	1.002569
962.999918	1.001476
963.299414	1.001135
963.598873	1.002436
963.898293	1.001855
964.197677	1.001146
964.497022	1.002098
964.796331	1.002012
965.095601	1.002032
965.394835	1.001780
965.694030	1.003327
965.993189	1.001475
966.292309	1.003035
966.591393	1.001286
966.890439	1.002503
967.189447	1.002399
967.488419	1.001792
967.787353	1.002774
968.086249	1.003678
968.385108	1.001860
968.683930	1.002772
968.982714	1.001471
969.281462	1.001487
969.580172	1.002374
969.878844	1.003397
970.177480	1.001096
970.476078	1.003091
970.774639	1.003365
971.073162	1.001162
971.371649	1.003101
971.670098	1.001819
971.968510	1.001954
972.266885	1.001402
972.565223	1.001386
972.863524	1.000387
973.161788	1.002942
973.460014	1.002195
973.758204	1.001813
974.056356	1.002054
974.354471	1.002171
974.652550	1.002785
974.950591	1.001143
975.248595	1.002346
975.546563	1.002345
975.844493	1.003352
976.142386	1.001308
976.440243	1.001499
976.738062	1.003086
977.035845	1.002498
977.333590	1.002884
977.631299	1.001902
977.928971	1.001228
978.226606	1.001286
978.524204	1.001157
978.821765	1.002200
979.119290	1.003156
979.416777	1.002208
979.714228	1.002251
980.011642	1.003512
980.309020	1.002067
980.606360	1.002715
980.903664	1.002487
981.200931	1.002039
981.498162	1.002416
981.795356	1.001959
982.092513	1.001319
982.389633	1.001683
982.686717	0.998720
982.983764	1.000245
983.280775	0.999617
983.577749	1.000986
983.874686	0.999237
984.171587	0.999612
984.468451	1.001667
984.765279	1.002113
985.062070	1.000833
985.358824	0.999859
985.655543	1.002178
985.952224	1.002817
986.248869	1.002694
986.545478	1.003231
986.842050	1.002253
987.138586	1.001217
987.435086	1.002171
987.731549	1.004533
988.027975	1.003344
988.324366	1.002737
988.620719	1.003137
988.917037	1.002936
989.213318	1.002626
989.509563	1.003138
989.805772	1.003907
990.101944	1.004558
990.398080	1.003094
990.694180	1.004164
990.990244	1.003407
991.286271	1.002641
991.582262	1.003519
991.878217	1.003098
992.174136	1.004322
992.470019	1.003059
992.765865	1.004529
993.061676	1.002835
993.357450	1.003479
993.653188	1.003905
993.948890	1.003064
994.244556	1.002804
994.540186	1.003034
994.835780	1.002440
995.131337	1.002716
995.426859	1.002594
995.722345	1.001515
996.017795	1.002054
996.313208	1.002126
996.608586	1.002827
996.903928	1.002836
997.199234	1.002836
997.494504	1.002356
997.789738	1.000883
998.084936	1.003205
998.380099	1.001975
998.675225	1.003678
998.970316	1.003730
999.265371	1.003485
999.560390	1.004577
999.855373	1.002713
1000.150320	1.003165
1000.445232	1.003165
1000.740108	1.002322
1001.034948	1.002853
1001.329752	1.003860
1001.624521	1.003321
1001.919254	1.002422
1002.213951	1.003725
1002.508613	1.003177
1002.803239	1.003324
1003.097829	1.003323
1003.392384	1.002921
1003.686903	1.003872
1003.981386	1.003686
1004.275834	1.005444
1004.570246	1.001681
1004.864623	1.003912
1005.158964	1.003245
1005.453270	1.002468
1005.747540	1.002323
1006.041775	1.004425
1006.335974	1.003977
1006.630138	1.004375
1006.924266	1.002001
1007.218359	1.001976
1007.512416	1.003846
1007.806438	1.003417
1008.100425	1.004271
1008.394376	1.004130
1008.688292	1.003787
1008.982172	1.002731
1009.276017	1.004172
1009.569827	1.004131
1009.863602	1.001953
1010.157341	1.003919
1010.451045	1.003927
1010.744714	1.003424
1011.038347	1.003704
1011.331945	1.003279
1011.625508	1.003603
1011.919036	1.002920
1012.212528	1.003798
1012.505986	1.003072
1012.799408	1.002901
1013.092795	1.003248
1013.386147	1.003878
1013.679464	1.005370
1013.972745	1.003377
1014.265992	1.004013
1014.559204	1.002623
1014.852380	1.003559
1015.145521	1.003314
1015.438628	1.003353
1015.731699	1.002706
1016.024736	1.003938
1016.317737	1.003537
1016.610703	1.003907
1016.903635	1.003614
1017.196531	1.003809
1017.489393	1.003159
1017.782219	1.003669
1018.075011	1.003578
1018.367768	1.003235
1018.660490	1.004820
1018.953177	1.004820
1019.245829	1.004820
