Dividing Wavelength (nm)	Counts (n)	Blue Motor Position (mm): 37.900000	Red Motor Position (mm): 0.000000	
326.493990	0.998625
326.888308	0.998625
327.282561	0.998625
327.676750	0.999930
328.070874	1.001385
328.464933	1.000546
328.858929	1.000714
329.252859	0.999291
329.646726	0.999273
330.040528	0.999762
330.434265	1.000044
330.827938	1.000633
331.221547	1.000875
331.615091	1.000680
332.008571	1.000978
332.401986	0.999895
332.795338	1.000060
333.188625	1.001561
333.581847	0.999442
333.975006	1.001170
334.368100	0.999699
334.761129	0.998970
335.154095	1.000588
335.546996	1.000255
335.939833	0.999954
336.332606	1.000032
336.725315	0.998683
337.117960	1.000845
337.510540	0.998946
337.903056	0.999705
338.295508	1.000233
338.687896	1.000984
339.080220	0.998790
339.472480	0.998405
339.864676	0.999267
340.256807	0.998865
340.648875	1.001353
341.040879	0.999929
341.432818	0.999980
341.824694	0.998695
342.216506	1.000781
342.608253	0.998947
342.999937	0.998735
343.391557	0.998792
343.783113	1.000729
344.174605	1.000320
344.566033	0.998474
344.957397	1.000364
345.348697	1.000516
345.739934	0.999815
346.131106	0.999811
346.522215	0.999097
346.913260	0.999133
347.304241	0.998237
347.695159	0.998785
348.086012	0.999191
348.476802	0.998890
348.867528	0.999533
349.258191	0.999984
349.648789	0.998847
350.039324	0.999299
350.429796	0.998294
350.820203	0.997572
351.210548	0.999606
351.600828	0.999641
351.991045	0.999264
352.381198	0.999410
352.771288	0.998543
353.161314	0.999367
353.551276	0.998532
353.941175	0.996713
354.331010	1.000088
354.720782	0.998641
355.110490	0.998125
355.500135	0.999316
355.889717	0.998707
356.279235	0.997714
356.668689	0.998077
357.058080	0.999372
357.447408	0.998258
357.836672	0.998637
358.225873	0.998823
358.615010	0.997999
359.004084	0.999179
359.393095	0.999176
359.782043	0.997819
360.170927	0.999384
360.559748	0.998855
360.948505	0.998035
361.337199	0.997500
361.725830	0.997339
362.114398	0.998114
362.502903	0.996742
362.891344	0.996275
363.279722	0.997637
363.668037	0.998913
364.056289	0.996674
364.444478	0.999287
364.832603	0.997956
365.220665	0.998207
365.608665	0.997132
365.996601	0.996643
366.384474	0.996201
366.772284	0.996831
367.160031	0.995753
367.547715	0.996148
367.935336	0.995316
368.322893	0.993842
368.710388	0.993240
369.097820	0.990519
369.485189	0.988847
369.872495	0.987219
370.259738	0.984847
370.646918	0.982582
371.034035	0.980349
371.421090	0.977887
371.808081	0.972201
372.195010	0.969776
372.581875	0.964434
372.968678	0.960303
373.355418	0.956578
373.742096	0.949727
374.128710	0.946005
374.515262	0.941428
374.901751	0.934531
375.288177	0.929749
375.674540	0.923965
376.060841	0.917267
376.447079	0.910473
376.833254	0.904611
377.219367	0.899906
377.605417	0.887185
377.991404	0.884675
378.377329	0.878206
378.763191	0.871422
379.148991	0.863000
379.534727	0.855626
379.920402	0.847840
380.306013	0.843989
380.691563	0.831687
381.077049	0.824509
381.462474	0.820863
381.847835	0.809125
382.233134	0.804123
382.618371	0.805237
383.003545	0.787185
383.388657	0.785532
383.773706	0.777288
384.158693	0.773140
384.543618	0.768434
384.928480	0.759700
385.313280	0.749544
385.698017	0.749102
386.082692	0.737535
386.467305	0.736392
386.851856	0.731793
387.236344	0.726079
387.620770	0.720381
388.005133	0.714737
388.389435	0.708591
388.773674	0.706777
389.157851	0.698639
389.541965	0.696222
389.926018	0.702490
390.310008	0.689347
390.693936	0.686651
391.077802	0.678251
391.461606	0.680031
391.845348	0.669793
392.229027	0.669578
392.612645	0.667813
392.996200	0.654571
393.379694	0.648213
393.763125	0.639031
394.146494	0.645411
394.529801	0.636040
394.913047	0.629111
395.296230	0.636724
395.679351	0.629499
396.062410	0.628309
396.445408	0.633095
396.828343	0.631120
397.211217	0.628746
397.594028	0.643228
397.976778	0.637856
398.359466	0.637006
398.742092	0.637400
399.124656	0.652302
399.507158	0.645464
399.889598	0.647119
400.271977	0.643931
400.654294	0.652467
401.036549	0.657375
401.418742	0.666291
401.800874	0.659612
402.182944	0.662969
402.564952	0.662810
402.946898	0.670970
403.328783	0.678552
403.710606	0.693737
404.092367	0.682605
404.474067	0.693400
404.855705	0.700166
405.237282	0.713519
405.618797	0.712367
406.000250	0.717908
406.381642	0.719735
406.762972	0.732328
407.144240	0.738947
407.525447	0.747603
407.906593	0.751544
408.287677	0.758447
408.668700	0.771575
409.049661	0.777127
409.430560	0.784198
409.811399	0.797050
410.192176	0.798151
410.572891	0.808742
410.953545	0.812561
411.334138	0.826862
411.714669	0.831972
412.095139	0.845351
412.475547	0.847759
412.855894	0.856368
413.236180	0.863973
413.616405	0.873941
413.996568	0.878911
414.376670	0.886907
414.756711	0.895136
415.136691	0.901569
415.516609	0.905431
415.896466	0.911768
416.276262	0.916277
416.655997	0.923164
417.035670	0.925283
417.415283	0.930001
417.794834	0.936423
418.174324	0.941399
418.553753	0.946367
418.933121	0.949229
419.312428	0.953833
419.691674	0.959065
420.070859	0.960929
420.449983	0.965977
420.829045	0.966779
421.208047	0.971188
421.586988	0.972689
421.965867	0.975239
422.344686	0.977189
422.723444	0.980141
423.102141	0.983603
423.480777	0.983169
423.859352	0.986751
424.237866	0.987711
424.616319	0.989310
424.994712	0.990006
425.373044	0.990571
425.751314	0.992182
426.129524	0.993917
426.507673	0.993496
426.885762	0.994415
427.263789	0.994028
427.641756	0.995503
428.019662	0.996626
428.397508	0.996511
428.775292	0.996804
429.153016	0.997087
429.530679	0.997210
429.908282	0.998478
430.285824	0.997189
430.663305	0.998001
431.040726	0.998081
431.418086	0.997947
431.795385	0.999189
432.172624	0.998946
432.549802	0.998615
432.926920	0.998341
433.303977	0.998654
433.680974	0.999686
434.057910	0.998783
434.434786	0.998462
434.811601	0.998471
435.188355	0.998996
435.565050	0.999620
435.941683	0.998292
436.318257	0.997799
436.694770	0.998923
437.071222	0.999914
437.447614	0.999146
437.823946	0.999502
438.200218	0.999243
438.576429	0.998904
438.952580	0.999985
439.328670	0.998577
439.704700	0.998727
440.080670	0.999224
440.456580	0.998586
440.832429	0.998882
441.208218	0.999485
441.583947	0.999320
441.959616	0.998332
442.335224	1.000285
442.710773	1.001138
443.086261	0.999432
443.461689	0.998869
443.837057	0.999331
444.212365	0.999201
444.587612	1.000073
444.962800	0.999197
445.337927	0.999102
445.712995	1.000038
446.088002	0.998893
446.462949	0.999658
446.837837	1.000735
447.212664	0.998874
447.587431	0.999854
447.962139	0.999144
448.336786	0.998719
448.711374	0.999704
449.085901	0.999736
449.460369	0.999502
449.834776	0.999723
450.209124	0.999118
450.583412	0.999072
450.957640	0.998820
451.331808	1.000135
451.705917	0.998581
452.079965	0.999392
452.453954	0.999426
452.827883	0.999543
453.201752	1.000013
453.575562	0.999203
453.949311	0.999364
454.323001	0.999946
454.696632	0.999443
455.070202	0.998639
455.443713	0.999503
455.817164	0.998403
456.190556	0.999326
456.563888	0.999784
456.937160	0.998479
457.310373	0.999254
457.683526	0.999171
458.056619	0.999340
458.429653	0.998471
458.802628	0.999032
459.175542	0.999503
459.548398	0.998976
459.921194	0.999446
460.293930	0.999927
460.666607	0.999853
461.039224	0.999306
461.411782	0.999444
461.784280	0.999579
462.156719	1.000098
462.529099	0.999852
462.901419	1.000057
463.273680	0.998954
463.645882	0.999067
464.018024	0.999455
464.390106	0.999524
464.762130	0.998534
465.134094	0.999421
465.505999	0.999055
465.877845	0.997820
466.249631	0.998237
466.621358	0.997867
466.993026	0.999183
467.364634	0.999289
467.736184	0.998747
468.107674	0.998906
468.479105	0.999367
468.850477	0.999668
469.221790	0.999353
469.593043	0.998770
469.964238	0.999602
470.335373	0.999307
470.706449	0.998789
471.077467	0.998963
471.448425	0.998728
471.819324	0.998853
472.190164	0.998965
472.560945	0.998926
472.931667	0.998954
473.302330	0.999405
473.672934	0.999220
474.043479	0.998753
474.413965	0.998416
474.784393	0.999336
475.154761	0.998531
475.525070	0.998796
475.895321	0.998947
476.265513	0.998573
476.635645	0.999851
477.005719	0.999257
477.375734	0.998690
477.745691	0.997716
478.115588	0.998787
478.485427	0.999074
478.855207	0.998864
479.224928	0.998418
479.594591	0.998212
479.964194	0.998626
480.333739	0.998700
480.703226	0.998547
481.072653	0.998225
481.442022	0.998847
481.811333	0.998653
482.180584	0.999101
482.549777	0.999122
482.918912	0.998658
483.287988	0.998807
483.657005	0.998276
484.025964	0.998898
484.394864	0.998551
484.763706	0.998934
485.132489	0.999749
485.501213	0.998885
485.869879	0.999054
486.238487	0.998163
486.607036	0.999377
486.975527	0.998975
487.343959	0.998584
487.712333	0.998897
488.080648	0.998123
488.448905	0.999256
488.817104	0.999017
489.185244	0.998448
489.553326	0.998404
489.921350	0.999010
490.289315	0.998716
490.657222	0.998016
491.025070	0.999659
491.392861	0.998691
491.760593	0.998939
492.128267	0.998714
492.495883	0.998340
492.863440	0.999439
493.230939	0.999055
493.598380	0.999040
493.965763	0.998909
494.333088	0.998114
494.700354	0.998633
495.067563	0.998432
495.434713	0.999434
495.801805	0.998913
496.168839	0.999027
496.535815	0.998654
496.902733	0.998606
497.269593	0.998154
497.636395	0.998121
498.003139	0.998564
498.369825	0.999869
498.736453	0.998718
499.103023	0.999140
499.469535	0.999075
499.835989	0.999581
500.202385	0.999211
500.568723	0.998391
500.935003	0.999041
501.301226	0.999476
501.667390	0.999081
502.033497	0.999170
502.399546	0.998822
502.765537	0.998992
503.131470	0.998971
503.497345	0.999175
503.863163	0.998803
504.228923	0.998425
504.594625	0.999018
504.960269	0.998954
505.325856	0.999284
505.691385	0.999009
506.056856	0.999034
506.422270	0.998692
506.787625	0.998599
507.152924	0.998734
507.518164	0.998792
507.883347	0.999057
508.248472	0.998896
508.613540	0.999141
508.978550	0.999653
509.343503	0.998312
509.708398	0.999287
510.073236	0.999221
510.438016	0.998618
510.802738	0.998944
511.167403	0.998928
511.532010	0.999297
511.896561	0.999215
512.261053	0.999364
512.625488	0.998636
512.989866	0.998384
513.354186	0.998466
513.718449	0.998512
514.082655	0.998375
514.446803	0.998949
514.810894	0.998479
515.174927	0.998814
515.538904	0.999774
515.902822	0.999295
516.266684	0.998983
516.630488	0.999779
516.994235	0.999228
517.357925	0.999571
517.721558	0.999265
518.085133	0.998763
518.448651	0.998958
518.812112	0.999846
519.175516	0.999270
519.538863	0.998214
519.902152	0.999478
520.265385	0.998660
520.628560	0.998620
520.991678	0.998866
521.354739	0.999631
521.717743	0.999783
522.080690	0.999023
522.443580	0.999137
522.806413	0.998571
523.169189	0.999615
523.531908	0.998435
523.894569	0.999294
524.257174	0.999413
524.619722	0.998719
524.982213	0.998367
525.344647	0.998901
525.707025	0.998306
526.069345	0.998698
526.431608	0.998851
526.793815	0.999197
527.155964	0.999217
527.518057	0.999261
527.880093	0.999375
528.242072	0.999005
528.603995	0.998795
528.965860	0.999326
529.327669	0.999210
529.689421	0.998203
530.051117	0.999611
530.412755	0.999203
530.774337	0.999145
531.135862	0.999193
531.497331	0.999030
531.858743	0.999503
532.220098	0.998721
532.581396	0.999485
532.942638	0.999984
533.303824	1.000007
533.664953	0.999091
534.026025	1.000222
534.387040	0.999410
534.747999	0.999038
535.108902	0.999556
535.469748	0.999844
535.830537	0.999839
536.191270	0.999236
536.551947	0.999260
536.912567	0.999115
537.273131	0.999719
537.633638	0.998832
537.994089	0.999829
538.354483	0.999470
538.714821	0.998682
539.075103	0.999087
539.435328	0.999082
539.795497	0.999975
540.155609	0.999868
540.515665	0.999403
540.875665	0.998835
541.235609	0.999453
541.595496	0.999159
541.955328	0.999312
542.315102	0.999332
542.674821	0.999611
543.034483	0.999565
543.394090	0.998717
543.753640	0.999389
544.113134	0.999020
544.472571	0.999484
544.831953	0.999995
545.191278	0.999360
545.550548	0.999067
545.909761	0.998820
546.268918	0.999536
546.628019	1.000398
546.987064	0.999102
547.346053	0.999143
547.704986	0.998772
548.063863	0.999342
548.422684	0.999196
548.781449	0.999290
549.140158	0.999948
549.498811	0.999024
549.857408	0.998528
550.215949	0.998504
550.574434	0.999137
550.932864	0.999308
551.291237	0.999038
551.649555	1.000502
552.007817	0.999791
552.366022	0.999005
552.724173	0.999603
553.082267	0.999389
553.440305	0.998584
553.798288	0.998353
554.156215	0.999096
554.514086	0.999428
554.871902	0.998899
555.229661	0.998444
555.587365	0.999192
555.945014	0.999718
556.302606	0.999207
556.660143	0.999851
557.017625	0.999505
557.375050	0.999096
557.732421	0.999759
558.089735	0.998748
558.446994	0.999005
558.804197	0.999242
559.161345	0.999214
559.518437	0.999703
559.875474	0.999550
560.232455	0.999424
560.589381	0.999802
560.946251	0.999276
561.303065	0.999294
561.659825	0.999373
562.016528	0.999524
562.373177	0.999936
562.729770	0.999121
563.086307	0.998459
563.442789	0.999105
563.799216	0.998718
564.155587	0.999265
564.511904	1.000153
564.868164	0.998576
565.224370	0.999265
565.580520	0.998951
565.936615	0.999273
566.292654	0.999407
566.648638	1.000174
567.004567	0.998811
567.360441	1.000106
567.716260	0.999179
568.072023	0.999110
568.427732	0.999235
568.783385	0.999928
569.138982	0.999240
569.494525	0.999382
569.850013	0.999834
570.205445	1.000006
570.560823	0.999556
570.916145	0.999404
571.271412	0.998964
571.626625	0.999057
571.981782	0.999275
572.336884	0.999540
572.691931	0.999109
573.046923	0.999851
573.401860	0.999096
573.756743	0.999540
574.111570	0.999645
574.466342	1.000427
574.821059	0.999552
575.175722	0.999804
575.530330	0.999738
575.884882	0.998910
576.239380	0.999713
576.593823	0.999588
576.948211	0.999739
577.302544	0.999401
577.656823	0.999645
578.011047	0.998184
578.365216	1.000156
578.719330	0.999415
579.073389	0.998253
579.427394	0.998638
579.781344	0.999702
580.135239	0.998823
580.489080	0.998846
580.842866	0.999582
581.196597	0.999130
581.550273	0.998846
581.903895	0.999844
582.257463	0.998715
582.610975	0.999125
582.964434	0.999252
583.317837	0.999465
583.671186	1.000262
584.024481	0.999258
584.377721	0.998883
584.730906	0.999969
585.084037	1.000018
585.437113	1.000337
585.790135	0.999136
586.143103	0.999279
586.496016	0.999530
586.848874	0.999291
587.201679	0.999305
587.554428	0.998955
587.907124	0.999483
588.259765	0.999400
588.612352	1.000219
588.964884	0.999563
589.317362	0.999337
589.669786	0.998919
590.022155	0.998933
590.374470	0.998570
590.726731	0.998924
591.078937	0.999737
591.431090	0.999303
591.783188	0.998268
592.135232	0.999485
592.487222	0.999581
592.839157	0.999253
593.191038	0.999311
593.542866	0.999413
593.894639	0.998712
594.246358	0.999217
594.598022	1.000029
594.949633	0.999496
595.301190	0.999529
595.652692	0.999296
596.004141	0.999324
596.355535	0.999297
596.706876	0.998885
597.058162	0.999560
597.409395	0.999204
597.760573	0.999065
598.111698	0.999786
598.462768	0.998676
598.813785	0.999131
599.164748	0.999267
599.515657	0.998707
599.866511	0.999487
600.217312	0.999498
600.568060	0.999055
600.918753	1.000097
601.269392	0.999382
601.619978	0.999449
601.970510	0.998856
602.320988	0.998498
602.671412	0.998736
603.021783	0.999406
603.372100	0.999863
603.722363	1.000520
604.072572	0.999032
604.422728	0.999159
604.772830	0.999421
605.122878	0.999506
605.472872	1.000148
605.822813	0.999023
606.172701	0.999272
606.522534	0.999441
606.872314	1.000012
607.222041	0.998915
607.571714	0.999449
607.921333	0.999150
608.270899	0.998645
608.620411	0.999502
608.969870	0.999884
609.319276	0.999647
609.668627	0.999692
610.017926	0.999145
610.367171	0.999438
610.716362	0.999174
611.065500	0.999387
611.414585	0.999426
611.763616	0.998602
612.112594	0.998978
612.461518	0.998741
612.810389	0.999208
613.159207	0.999481
613.507971	0.998547
613.856682	0.999419
614.205340	0.998697
614.553945	0.999512
614.902496	0.998555
615.250994	0.999670
615.599439	0.999028
615.947830	0.998919
616.296169	0.998883
616.644454	0.999530
616.992686	0.999031
617.340864	0.999740
617.688990	0.999230
618.037063	0.999055
618.385082	0.998914
618.733048	0.998103
619.080961	0.998903
619.428821	0.999393
619.776628	0.998983
620.124382	1.000058
620.472083	0.999095
620.819731	1.000100
621.167326	0.999085
621.514868	0.999253
621.862357	0.999225
622.209793	0.998993
622.557176	0.998833
622.904506	0.998676
623.251783	0.999376
623.599007	0.999092
623.946179	0.998458
624.293297	0.999580
624.640363	0.999389
624.987376	0.998383
625.334336	0.998921
625.681243	0.999447
626.028097	0.999865
626.374899	0.998559
626.721647	0.999802
627.068343	0.999940
627.414987	0.998944
627.761577	0.998797
628.108115	0.998682
628.454600	0.999262
628.801032	0.999759
629.147412	0.999212
629.493739	1.000040
629.840014	0.998791
630.186236	0.999509
630.532405	0.999092
630.878521	0.998623
631.224585	0.999646
631.570597	0.998606
631.916556	0.999785
632.262462	0.998189
632.608316	0.999475
632.954117	0.998162
633.299866	0.999064
633.645562	0.999434
633.991206	1.000049
634.336797	0.999459
634.682336	0.999629
635.027823	0.998998
635.373257	0.999170
635.718639	0.999596
636.063968	0.998815
636.409245	0.998147
636.754470	0.999412
637.099642	0.999350
637.444762	0.999413
637.789829	0.999058
638.134845	0.998370
638.479808	0.999395
638.824719	0.999560
639.169577	0.998988
639.514383	0.999328
639.859137	0.999250
640.203839	0.998931
640.548489	0.998847
640.893086	0.999004
641.237632	0.999473
641.582125	0.998479
641.926566	0.998900
642.270955	0.999171
642.615292	0.998575
642.959576	0.999272
643.303809	0.999431
643.647990	0.999015
643.992118	0.999132
644.336195	0.998764
644.680219	0.999407
645.024192	0.998756
645.368112	0.997865
645.711981	0.999109
646.055797	0.999373
646.399562	0.998720
646.743274	0.999163
647.086935	0.998420
647.430544	0.998366
647.774101	0.998239
648.117606	0.999313
648.461059	0.999338
648.804460	0.999185
649.147810	0.998572
649.491108	0.999254
649.834354	0.998884
650.177548	0.998773
650.520690	0.999203
650.863781	0.998914
651.206820	0.999177
651.549807	0.999352
651.892742	0.999754
652.235626	0.999675
652.578458	0.999570
652.921238	0.999420
653.263967	0.998910
653.606644	0.998818
653.949269	0.999411
654.291843	0.997996
654.634365	0.999223
654.976836	0.998831
655.319255	1.000173
655.661622	0.999385
656.003938	0.998843
656.346203	0.998257
656.688416	0.999406
657.030577	0.998461
657.372687	0.998080
657.714746	0.998269
658.056753	0.998679
658.398708	0.998327
658.740612	0.999783
659.082465	0.998832
659.424266	0.999338
659.766016	0.998638
660.107715	0.999763
660.449362	0.998814
660.790958	0.999140
661.132503	0.999446
661.473996	0.998735
661.815438	0.999274
662.156829	0.999171
662.498168	0.999917
662.839456	0.997995
663.180693	0.998993
663.521879	0.999376
663.863013	0.999311
664.204097	0.998745
664.545129	0.998825
664.886110	0.998432
665.227040	0.999099
665.567918	0.999043
665.908746	0.997342
666.249522	0.998644
666.590248	0.998677
666.930922	0.998847
667.271545	0.998987
667.612118	0.999039
667.952639	0.998868
668.293109	0.997986
668.633528	0.998296
668.973896	0.999288
669.314213	0.998543
669.654480	0.998582
669.994695	0.998005
670.334859	0.998578
670.674973	0.998600
671.015035	0.998493
671.355047	0.999117
671.695008	0.998370
672.034918	0.998547
672.374777	0.998101
672.714585	0.997966
673.054342	0.998758
673.394049	0.999060
673.733705	0.998393
674.073310	0.998362
674.412864	0.998616
674.752368	0.997958
675.091820	0.999271
675.431223	0.999448
675.770574	0.998208
676.109875	0.998722
676.449125	0.998500
676.788324	0.998487
677.127473	0.999063
677.466571	0.998953
677.805619	0.998181
678.144616	0.999205
678.483562	0.998854
678.822458	0.998558
679.161303	0.998026
679.500098	0.998713
679.838842	0.999304
680.177535	0.998821
680.516179	0.998799
680.854771	0.998380
681.193314	0.998742
681.531805	0.998226
681.870247	0.998690
682.208638	0.997651
682.546978	0.998494
682.885268	0.998368
683.223508	0.997969
683.561697	0.999187
683.899836	0.998477
684.237925	0.997817
684.575963	0.998015
684.913951	0.998183
685.251889	0.998392
685.589776	0.999188
685.927614	0.997691
686.265401	0.998171
686.603137	0.997761
686.940824	0.997732
687.278460	0.998636
687.616046	0.997216
687.953582	0.998190
688.291068	0.998181
688.628504	0.997889
688.965889	0.997645
689.303224	0.997130
689.640510	0.998369
689.977745	0.997621
690.314930	0.998069
690.652065	0.997973
690.989150	0.998078
691.326185	0.997711
691.663170	0.998408
692.000105	0.997613
692.336990	0.997694
692.673825	0.998321
693.010610	0.998288
693.347345	0.998421
693.684030	0.998388
694.020665	0.998105
694.357251	0.998322
694.693786	0.998425
695.030272	0.997360
695.366707	0.997737
695.703093	0.997133
696.039429	0.997289
696.375716	0.998782
696.711952	0.998059
697.048139	0.997789
697.384276	0.998661
697.720363	0.997956
698.056400	0.997176
698.392388	0.997408
698.728326	0.997732
699.064214	0.998630
699.400053	0.997855
699.735842	0.998427
700.071581	0.998109
700.407270	0.998025
700.742910	0.998492
701.078501	0.998471
701.414042	0.998601
701.749533	0.996732
702.084974	0.998164
702.420366	0.998543
702.755709	0.997998
703.091002	0.998849
703.426246	0.998297
703.761440	0.997994
704.096584	0.997858
704.431679	0.997592
704.766725	0.998141
705.101721	0.998067
705.436668	0.998563
705.771565	0.998667
706.106413	0.997521
706.441212	0.998305
706.775961	0.998523
707.110661	0.998286
707.445311	0.997814
707.779913	0.998460
708.114465	0.999106
708.448967	0.998445
708.783421	0.998798
709.117825	0.997680
709.452180	0.998002
709.786485	0.997684
710.120742	0.997528
710.454949	0.997225
710.789107	0.997469
711.123216	0.996346
711.457275	0.997234
711.791286	0.997307
712.125247	0.998985
712.459159	0.997235
712.793023	0.997477
713.126837	0.998607
713.460602	0.997856
713.794318	0.997243
714.127985	0.997264
714.461602	0.997525
714.795171	0.998285
715.128691	0.997494
715.462162	0.998335
715.795584	0.997146
716.128957	0.998260
716.462281	0.998133
716.795556	0.997721
717.128782	0.998235
717.461960	0.998058
717.795088	0.998358
718.128167	0.999111
718.461198	0.997579
718.794180	0.997884
719.127113	0.997975
719.459997	0.997790
719.792833	0.998026
720.125619	0.997827
720.458357	0.997894
720.791046	0.998743
721.123686	0.998104
721.456278	0.998351
721.788821	0.998695
722.121315	0.998945
722.453761	0.998927
722.786158	0.997596
723.118506	0.998771
723.450805	0.997117
723.783056	0.998535
724.115259	0.997598
724.447412	0.998543
724.779518	0.998264
725.111574	0.997395
725.443582	0.997886
725.775542	0.998601
726.107453	0.997947
726.439315	0.998197
726.771129	0.998385
727.102895	0.998314
727.434612	0.998040
727.766281	0.997984
728.097901	0.996483
728.429473	0.998432
728.760996	0.997290
729.092471	0.997618
729.423897	0.998057
729.755276	0.997928
730.086606	0.997379
730.417887	0.998217
730.749120	0.997477
731.080305	0.998807
731.411442	0.997477
731.742530	0.997229
732.073570	0.997730
732.404562	0.997392
732.735506	0.997890
733.066401	0.997414
733.397249	0.997648
733.728048	0.997739
734.058798	0.998419
734.389501	0.999737
734.720156	0.998464
735.050762	0.998411
735.381320	0.998227
735.711831	0.997203
736.042293	0.997242
736.372707	0.999005
736.703073	0.996326
737.033391	0.997790
737.363661	0.998006
737.693883	0.997707
738.024056	0.997018
738.354182	0.997649
738.684260	0.997438
739.014290	0.998036
739.344272	0.997101
739.674207	0.997288
740.004093	0.997824
740.333931	0.997629
740.663722	0.998317
740.993464	0.999245
741.323159	0.996865
741.652806	0.997594
741.982405	0.998393
742.311956	0.998079
742.641460	0.997997
742.970915	0.997895
743.300323	0.996898
743.629683	0.996522
743.958996	0.998652
744.288260	0.997184
744.617477	0.998193
744.946647	0.997650
745.275768	0.997881
745.604842	0.997790
745.933869	0.998223
746.262847	0.998416
746.591778	0.997161
746.920662	0.998796
747.249498	0.998348
747.578286	0.998940
747.907027	0.998020
748.235720	0.998042
748.564365	0.998077
748.892963	0.997362
749.221514	0.997276
749.550017	0.997385
749.878473	0.998896
750.206881	0.999561
750.535242	0.998145
750.863555	0.997894
751.191821	0.998361
751.520039	0.998468
751.848210	0.996089
752.176334	0.997927
752.504411	0.996909
752.832440	0.997268
753.160421	0.997843
753.488356	0.998407
753.816243	0.997243
754.144082	0.998242
754.471875	0.997660
754.799620	0.997622
755.127318	0.997896
755.454969	0.998048
755.782572	0.999164
756.110129	0.997605
756.437638	0.998926
756.765100	0.999171
757.092515	0.997984
757.419882	0.998764
757.747203	0.997195
758.074477	0.998383
758.401703	0.998087
758.728882	0.998205
759.056014	0.998093
759.383099	0.998338
759.710138	0.998125
760.037129	0.997702
760.364073	0.997961
760.690970	0.997355
761.017820	0.997654
761.344623	0.998635
761.671379	0.998472
761.998088	0.997436
762.324751	0.997772
762.651366	0.997100
762.977935	0.995736
763.304456	0.996108
763.630931	0.995501
763.957359	0.995200
764.283740	0.996147
764.610074	0.996969
764.936362	0.996532
765.262602	0.997800
765.588796	0.997520
765.914943	0.998228
766.241044	0.997833
766.567097	0.997047
766.893104	0.997749
767.219064	0.997848
767.544978	0.998416
767.870845	0.999214
768.196665	0.997849
768.522438	0.998592
768.848165	0.998620
769.173846	0.998652
769.499479	0.998590
769.825066	0.999292
770.150607	0.998656
770.476101	0.999013
770.801548	0.998329
771.126949	0.999287
771.452303	0.998296
771.777611	0.998192
772.102872	0.998400
772.428087	0.998131
772.753256	0.998611
773.078378	0.998657
773.403453	0.998097
773.728482	0.998850
774.053465	0.998529
774.378401	0.998458
774.703291	0.999346
775.028135	0.999199
775.352932	0.996985
775.677683	0.998752
776.002388	0.999034
776.327046	0.998421
776.651658	0.999730
776.976224	0.998880
777.300743	0.998462
777.625216	0.998280
777.949643	0.998140
778.274024	0.998294
778.598359	0.998409
778.922647	0.998263
779.246889	0.998364
779.571086	0.998117
779.895236	0.998371
780.219339	0.999260
780.543397	0.997724
780.867409	0.997933
781.191374	0.997902
781.515294	0.999205
781.839167	0.999561
782.162995	0.998696
782.486776	0.997946
782.810511	0.998497
783.134201	0.999387
783.457844	0.998784
783.781441	0.998741
784.104993	0.998697
784.428498	0.999024
784.751958	0.999768
785.075372	0.999475
785.398739	0.997557
785.722061	0.997910
786.045337	0.999071
786.368568	0.997736
786.691752	0.997117
787.014891	0.998225
787.337983	0.996743
787.661030	0.997068
787.984031	0.998803
788.306987	0.998576
788.629897	0.996932
788.952760	0.997943
789.275579	0.999165
789.598351	0.997870
789.921078	0.999047
790.243759	0.998126
790.566395	0.996808
790.888984	0.999677
791.211529	0.998614
791.534027	0.997805
791.856480	0.998749
792.178888	0.997679
792.501249	0.998096
792.823566	0.999944
793.145836	0.999525
793.468062	0.999072
793.790241	0.999248
794.112375	0.997487
794.434464	0.998781
794.756507	0.999044
795.078505	0.998707
795.400457	0.999362
795.722364	0.998946
796.044226	0.998248
796.366042	0.997799
796.687812	0.996621
797.009538	0.997796
797.331218	0.999844
797.652852	0.999645
797.974442	0.996872
798.295986	0.998778
798.617484	0.997981
798.938938	0.998569
799.260346	0.997645
799.581709	0.998616
799.903026	0.999328
800.224299	0.998383
800.545526	0.997949
800.866708	0.997616
801.187845	0.998463
801.508936	0.998625
801.829983	0.997772
802.150984	0.998268
802.471940	0.998113
802.792851	0.998825
803.113717	0.999702
803.434538	0.999317
803.755314	0.999218
804.076045	0.998742
804.396731	0.998170
804.717372	0.997585
805.037967	0.998779
805.358518	0.998251
805.679024	0.997318
805.999485	0.998914
806.319901	0.998823
806.640272	0.999656
806.960598	1.000085
807.280879	0.998842
807.601115	0.998931
807.921306	0.999765
808.241453	0.998462
808.561554	0.998360
808.881611	0.998288
809.201623	0.998641
809.521590	0.998623
809.841513	0.999190
810.161390	0.998166
810.481223	0.998118
810.801011	0.998848
811.120755	0.999580
811.440453	0.997978
811.760107	0.998574
812.079716	0.999354
812.399281	0.998198
812.718801	0.998854
813.038276	0.998317
813.357707	0.998345
813.677093	0.999018
813.996434	0.999027
814.315731	0.999533
814.634983	0.998708
814.954191	0.999362
815.273354	0.997749
815.592473	0.998345
815.911547	0.998946
816.230577	0.998292
816.549562	0.998281
816.868502	0.997725
817.187399	0.998483
817.506250	0.999390
817.825058	0.997207
818.143821	0.998439
818.462539	0.998002
818.781213	0.999031
819.099843	0.998116
819.418429	0.997771
819.736970	0.997509
820.055466	0.997015
820.373919	0.996827
820.692327	0.996278
821.010691	0.995563
821.329011	0.993209
821.647286	0.992673
821.965517	0.991296
822.283704	0.989944
822.601847	0.989689
822.919945	0.990138
823.237999	0.991579
823.556010	0.992501
823.873976	0.993837
824.191897	0.993200
824.509775	0.994705
824.827609	0.994206
825.145398	0.995843
825.463144	0.994027
825.780845	0.994122
826.098502	0.995249
826.416116	0.994667
826.733685	0.994448
827.051210	0.992417
827.368692	0.993790
827.686129	0.993434
828.003522	0.995913
828.320872	0.996141
828.638177	0.996236
828.955439	0.997001
829.272656	0.997429
829.589830	0.997352
829.906960	0.998347
830.224046	0.997599
830.541088	0.998234
830.858086	0.997491
831.175041	0.999452
831.491952	0.997202
831.808819	0.997567
832.125642	0.997540
832.442421	0.998596
832.759157	0.998870
833.075849	0.996479
833.392497	0.996483
833.709101	0.994908
834.025662	0.995105
834.342179	0.996131
834.658653	0.997561
834.975083	0.997482
835.291469	0.996929
835.607811	0.996936
835.924110	0.998179
836.240366	0.998034
836.556578	0.998750
836.872746	0.998807
837.188871	0.997615
837.504952	0.998808
837.820990	0.998677
838.136984	0.997908
838.452935	0.998785
838.768842	0.998750
839.084706	0.998416
839.400526	0.998488
839.716303	0.997001
840.032037	0.997275
840.347727	0.997001
840.663373	0.997512
840.978977	0.997711
841.294537	0.998288
841.610054	0.998788
841.925527	0.998560
842.240957	0.999400
842.556344	0.998630
842.871687	0.999390
843.186987	0.998258
843.502244	0.999471
843.817458	0.998894
844.132629	0.998624
844.447756	0.999773
844.762840	0.998757
845.077881	0.999820
845.392879	0.997635
845.707833	0.998465
846.022745	0.999432
846.337613	0.997627
846.652438	0.998697
846.967221	0.999083
847.281960	0.998714
847.596656	1.000082
847.911309	0.998120
848.225919	0.998014
848.540485	0.999114
848.855009	0.999355
849.169490	0.998921
849.483928	0.999945
849.798323	0.998511
850.112675	1.000308
850.426984	0.999430
850.741251	0.999969
851.055474	0.998982
851.369654	0.999825
851.683792	0.997856
851.997887	1.000150
852.311938	0.999285
852.625947	0.997962
852.939914	0.998648
853.253837	1.000288
853.567718	0.999450
853.881555	0.999100
854.195350	1.000165
854.509103	1.000296
854.822812	1.000192
855.136479	0.999650
855.450103	0.998175
855.763685	0.999150
856.077224	0.999464
856.390720	0.999155
856.704173	1.000782
857.017584	0.999930
857.330953	0.998679
857.644278	0.999178
857.957561	0.999696
858.270802	0.998517
858.584000	0.999858
858.897155	0.999334
859.210268	0.999482
859.523339	0.999764
859.836367	0.999592
860.149352	0.998027
860.462295	1.000114
860.775195	0.999745
861.088054	0.998717
861.400869	0.998649
861.713642	0.999237
862.026373	0.999938
862.339062	0.999507
862.651708	0.999803
862.964312	0.999870
863.276873	0.999318
863.589392	0.998219
863.901869	0.998241
864.214303	0.999397
864.526696	0.998853
864.839045	0.999829
865.151353	0.999335
865.463619	0.998204
865.775842	0.998142
866.088023	1.000094
866.400162	1.000015
866.712258	1.000238
867.024313	0.999315
867.336325	1.000014
867.648296	0.998443
867.960224	0.999176
868.272110	0.999601
868.583954	0.999601
868.895755	1.000000
869.207515	0.998710
869.519233	1.000203
869.830909	0.997818
870.142542	0.997217
870.454134	0.998630
870.765684	0.998187
871.077191	0.999167
871.388657	0.998483
871.700081	0.998772
872.011463	0.999388
872.322803	0.998303
872.634101	0.998846
872.945357	0.998905
873.256571	0.999553
873.567744	0.999957
873.878874	0.998780
874.189963	0.998360
874.501010	1.001858
874.812015	0.999049
875.122979	0.998420
875.433900	0.998737
875.744780	0.999706
876.055618	0.999378
876.366415	0.998061
876.677169	0.998355
876.987882	0.999467
877.298554	0.999826
877.609183	0.998467
877.919771	0.999292
878.230317	1.000259
878.540822	0.998070
878.851285	0.998511
879.161707	0.998577
879.472087	0.999651
879.782425	0.995376
880.092722	0.996869
880.402977	0.994887
880.713191	0.993119
881.023363	0.991482
881.333494	0.990235
881.643583	0.990798
881.953631	0.991292
882.263637	0.990304
882.573602	0.991296
882.883526	0.991228
883.193408	0.993129
883.503248	0.993330
883.813048	0.993993
884.122806	0.995790
884.432522	0.995603
884.742197	0.997320
885.051831	0.996806
885.361424	0.997082
885.670975	0.998525
885.980485	0.997444
886.289954	0.998227
886.599382	0.996658
886.908768	0.997836
887.218113	0.998144
887.527417	0.998421
887.836680	0.997499
888.145901	0.999016
888.455082	0.999198
888.764221	0.998800
889.073319	0.998262
889.382376	1.000151
889.691392	0.998280
890.000366	0.999483
890.309300	0.998899
890.618193	0.999794
890.927044	0.998524
891.235855	0.998259
891.544625	0.999234
891.853353	0.998550
892.162041	0.997613
892.470687	0.998589
892.779293	0.997818
893.087858	0.997958
893.396381	0.997804
893.704864	0.997031
894.013306	0.996604
894.321707	0.996504
894.630068	0.995664
894.938387	0.995284
895.246665	0.994916
895.554903	0.995568
895.863100	0.996376
896.171256	0.996141
896.479371	0.996878
896.787446	0.997779
897.095480	0.997980
897.403473	0.997238
897.711425	0.998007
898.019336	0.999013
898.327207	0.998249
898.635038	0.996804
898.942827	0.999588
899.250576	0.997854
899.558284	0.998802
899.865952	0.998250
900.173579	0.998359
900.481165	0.998463
900.788711	0.998104
901.096216	0.998128
901.403681	0.998924
901.711105	0.997545
902.018489	0.998979
902.325832	0.998708
902.633135	0.999512
902.940397	0.998662
903.247619	0.998109
903.554800	0.996558
903.861941	0.997074
904.169041	0.995786
904.476101	0.994255
904.783121	0.993794
905.090100	0.994671
905.397039	0.994966
905.703938	0.996630
906.010796	0.996631
906.317614	0.996734
906.624391	0.997560
906.931129	0.998286
907.237826	0.998431
907.544483	0.998693
907.851099	0.997779
908.157675	0.999118
908.464211	0.999904
908.770707	0.998300
909.077163	0.999081
909.383578	0.999786
909.689954	0.998941
909.996289	0.999802
910.302584	0.999352
910.608839	1.000649
910.915054	0.998444
911.221229	0.999905
911.527363	0.997772
911.833458	0.999943
912.139513	0.999510
912.445527	0.998990
912.751502	0.998905
913.057436	0.998625
913.363331	0.999547
913.669186	0.999975
913.975000	0.998932
914.280775	0.997985
914.586510	0.997528
914.892205	0.996299
915.197859	0.997103
915.503475	0.996030
915.809050	0.995352
916.114585	0.993839
916.420081	0.994696
916.725536	0.994662
917.030952	0.995181
917.336328	0.995269
917.641665	0.995374
917.946961	0.995866
918.252218	0.995596
918.557435	0.997038
918.862612	0.997183
919.167750	0.998086
919.472848	0.998183
919.777906	0.998483
920.082925	0.998680
920.387904	0.998615
920.692843	0.998234
920.997743	0.998023
921.302603	0.998811
921.607423	0.998708
921.912204	0.999019
922.216946	1.001139
922.521647	0.999989
922.826310	0.998227
923.130932	0.999682
923.435516	0.999732
923.740059	0.998660
924.044564	0.999605
924.349028	0.998055
924.653454	0.999491
924.957840	0.998920
925.262186	0.999024
925.566493	0.999214
925.870761	0.998500
926.174989	0.997988
926.479178	0.999833
926.783328	1.000542
927.087438	0.998884
927.391509	0.999010
927.695541	1.000294
927.999533	0.999502
928.303486	0.999979
928.607400	0.999369
928.911275	1.000160
929.215110	0.999658
929.518906	1.000305
929.822663	1.000181
930.126381	1.000415
930.430060	1.000216
930.733699	0.999720
931.037299	1.000294
931.340861	0.999934
931.644383	1.000058
931.947866	0.998651
932.251309	0.998789
932.554714	0.999311
932.858080	0.999783
933.161407	0.998847
933.464694	0.999882
933.767943	0.998916
934.071153	0.999663
934.374323	0.999370
934.677455	0.999278
934.980548	0.999666
935.283602	1.000181
935.586617	0.998169
935.889593	1.000498
936.192530	0.999655
936.495428	0.999128
936.798287	0.999206
937.101108	0.999499
937.403890	0.999164
937.706632	1.000463
938.009336	0.999857
938.312002	0.999520
938.614628	0.999590
938.917216	0.998595
939.219765	0.999282
939.522275	0.999554
939.824747	0.998832
940.127179	0.999470
940.429573	1.001304
940.731929	0.998693
941.034246	0.999185
941.336524	0.997643
941.638763	0.998437
941.940964	0.998366
942.243126	0.998581
942.545250	0.999377
942.847335	1.000118
943.149381	0.999638
943.451389	0.998051
943.753359	0.999908
944.055290	1.000971
944.357182	0.998767
944.659036	0.999160
944.960851	0.999253
945.262628	0.999872
945.564367	0.999193
945.866067	0.998519
946.167729	0.998922
946.469352	0.999526
946.770937	0.998568
947.072484	1.000255
947.373992	0.999323
947.675462	0.998120
947.976893	0.998776
948.278286	1.000745
948.579641	1.000347
948.880958	0.999271
949.182236	0.999946
949.483476	0.999483
949.784678	0.999971
950.085841	0.999638
950.386967	0.999403
950.688054	0.999980
950.989103	0.999511
951.290114	0.997871
951.591087	1.000276
951.892021	0.998124
952.192917	1.000440
952.493776	0.999834
952.794596	0.999575
953.095378	1.000106
953.396122	0.999060
953.696828	0.999057
953.997496	1.000022
954.298126	1.000855
954.598718	0.998238
954.899272	0.999038
955.199788	0.999223
955.500266	1.000175
955.800706	0.999152
956.101108	0.998113
956.401472	1.000728
956.701798	0.999796
957.002087	1.000012
957.302337	0.999338
957.602550	1.000395
957.902724	0.999671
958.202861	0.998605
958.502960	0.999131
958.803022	1.001427
959.103045	0.999735
959.403031	1.000882
959.702979	1.001117
960.002889	0.999696
960.302762	0.998826
960.602596	1.000477
960.902393	0.999339
961.202153	1.000147
961.501875	0.999411
961.801559	0.999583
962.101205	1.000106
962.400814	1.000209
962.700385	1.000858
962.999918	1.000561
963.299414	0.998064
963.598873	0.999495
963.898293	0.999792
964.197677	0.998790
964.497022	0.999978
964.796331	1.000291
965.095601	1.001261
965.394835	0.999110
965.694030	1.000283
965.993189	0.998831
966.292309	0.999361
966.591393	0.999262
966.890439	0.999490
967.189447	0.999228
967.488419	0.999297
967.787353	0.998796
968.086249	0.999391
968.385108	0.999251
968.683930	1.000299
968.982714	1.000237
969.281462	0.999827
969.580172	0.998887
969.878844	0.999917
970.177480	1.000048
970.476078	1.000817
970.774639	1.000258
971.073162	0.999750
971.371649	0.999670
971.670098	1.000136
971.968510	0.999630
972.266885	0.999447
972.565223	0.999255
972.863524	0.998649
973.161788	1.000283
973.460014	1.000621
973.758204	0.998775
974.056356	1.000744
974.354471	0.998891
974.652550	0.999807
974.950591	0.999271
975.248595	0.999977
975.546563	1.001034
975.844493	0.999968
976.142386	0.999818
976.440243	1.000169
976.738062	1.000294
977.035845	0.999055
977.333590	0.999746
977.631299	0.999201
977.928971	0.999410
978.226606	0.999439
978.524204	0.999349
978.821765	0.999829
979.119290	1.000315
979.416777	1.000387
979.714228	0.999735
980.011642	1.000689
980.309020	0.999898
980.606360	0.998834
980.903664	0.998979
981.200931	0.998916
981.498162	1.000334
981.795356	0.999917
982.092513	0.998981
982.389633	1.000023
982.686717	0.999117
982.983764	0.999172
983.280775	0.999244
983.577749	1.000465
983.874686	0.998108
984.171587	0.998778
984.468451	0.999608
984.765279	1.000831
985.062070	0.999913
985.358824	0.999415
985.655543	1.000381
985.952224	1.000150
986.248869	0.999284
986.545478	1.000761
986.842050	0.999765
987.138586	0.999010
987.435086	0.999511
987.731549	1.000183
988.027975	1.000547
988.324366	0.999457
988.620719	1.001035
988.917037	0.999273
989.213318	0.999889
989.509563	1.000096
989.805772	1.000799
990.101944	1.001162
990.398080	1.001305
990.694180	1.000122
990.990244	0.999518
991.286271	0.999583
991.582262	0.999793
991.878217	0.998490
992.174136	1.000470
992.470019	1.000455
992.765865	1.000684
993.061676	0.999206
993.357450	1.000706
993.653188	1.000384
993.948890	0.999806
994.244556	0.998831
994.540186	0.999896
994.835780	0.999035
995.131337	1.000023
995.426859	0.999655
995.722345	0.999662
996.017795	0.998880
996.313208	0.999444
996.608586	1.000031
996.903928	1.001784
997.199234	0.999735
997.494504	1.000362
997.789738	0.999867
998.084936	0.999531
998.380099	0.999045
998.675225	1.000246
998.970316	1.000558
999.265371	1.000025
999.560390	1.000169
999.855373	1.000006
1000.150320	1.001440
1000.445232	0.999808
1000.740108	1.000221
1001.034948	0.998845
1001.329752	1.000060
1001.624521	1.000048
1001.919254	0.999516
1002.213951	0.999792
1002.508613	0.999594
1002.803239	0.999575
1003.097829	0.999598
1003.392384	0.998739
1003.686903	0.999545
1003.981386	0.999436
1004.275834	1.001413
1004.570246	0.999550
1004.864623	1.000677
1005.158964	0.999666
1005.453270	0.999702
1005.747540	0.999457
1006.041775	0.998929
1006.335974	0.999832
1006.630138	1.000287
1006.924266	0.998177
1007.218359	0.998272
1007.512416	1.000538
1007.806438	0.999563
1008.100425	0.999829
1008.394376	1.000202
1008.688292	1.000218
1008.982172	0.999667
1009.276017	1.000310
1009.569827	1.000560
1009.863602	0.999735
1010.157341	1.001206
1010.451045	0.999671
1010.744714	1.000788
1011.038347	1.000339
1011.331945	0.999098
1011.625508	1.000068
1011.919036	0.999934
1012.212528	0.999688
1012.505986	0.999108
1012.799408	1.000233
1013.092795	1.000341
1013.386147	1.000197
1013.679464	1.001155
1013.972745	1.000610
1014.265992	1.000054
1014.559204	1.000334
1014.852380	0.999792
1015.145521	0.999785
1015.438628	0.999688
1015.731699	1.000350
1016.024736	0.999682
1016.317737	0.999808
1016.610703	0.999433
1016.903635	0.999729
1017.196531	1.000553
1017.489393	0.998726
1017.782219	0.999808
1018.075011	0.999592
1018.367768	1.000104
1018.660490	0.999696
1018.953177	0.999696
1019.245829	0.999696
