Dividing Wavelength (nm)	Counts (n)	Blue Motor Position (mm): 0.400000	Red Motor Position (mm): 0.000000	
326.493990	1.006172
326.888308	1.006172
327.282561	1.006172
327.676750	1.007791
328.070874	1.006648
328.464933	1.008405
328.858929	1.007384
329.252859	1.006689
329.646726	1.006393
330.040528	1.006487
330.434265	1.007284
330.827938	1.007580
331.221547	1.007529
331.615091	1.006115
332.008571	1.006828
332.401986	1.006753
332.795338	1.006595
333.188625	1.007152
333.581847	1.006296
333.975006	1.006869
334.368100	1.006649
334.761129	1.007156
335.154095	1.007018
335.546996	1.004729
335.939833	1.000522
336.332606	0.999513
336.725315	0.997581
337.117960	1.001746
337.510540	0.998547
337.903056	1.000256
338.295508	1.000381
338.687896	1.000582
339.080220	1.000015
339.472480	1.000692
339.864676	1.000030
340.256807	0.999542
340.648875	0.999352
341.040879	0.998982
341.432818	0.998991
341.824694	0.998945
342.216506	0.999228
342.608253	0.999200
342.999937	0.999333
343.391557	0.999508
343.783113	1.001219
344.174605	0.999454
344.566033	0.999146
344.957397	1.000342
345.348697	1.000894
345.739934	1.000301
346.131106	0.998898
346.522215	0.998500
346.913260	0.999515
347.304241	0.999042
347.695159	0.999212
348.086012	0.998920
348.476802	0.999829
348.867528	0.998664
349.258191	1.000392
349.648789	0.998696
350.039324	1.000097
350.429796	0.998782
350.820203	0.998569
351.210548	0.999480
351.600828	0.999523
351.991045	0.999506
352.381198	1.000684
352.771288	0.999723
353.161314	0.999540
353.551276	0.999307
353.941175	0.997974
354.331010	0.999214
354.720782	1.000315
355.110490	0.999294
355.500135	0.999181
355.889717	0.998378
356.279235	0.998193
356.668689	0.999837
357.058080	0.999047
357.447408	0.997222
357.836672	0.998928
358.225873	0.999076
358.615010	0.998480
359.004084	0.997399
359.393095	0.998364
359.782043	0.998307
360.170927	0.998507
360.559748	0.998889
360.948505	0.997737
361.337199	0.998215
361.725830	0.998775
362.114398	0.998168
362.502903	0.996923
362.891344	0.996203
363.279722	0.997766
363.668037	0.998361
364.056289	0.997643
364.444478	0.998044
364.832603	0.996459
365.220665	0.997715
365.608665	0.997665
365.996601	0.996787
366.384474	0.996204
366.772284	0.996784
367.160031	0.996100
367.547715	0.996175
367.935336	0.995720
368.322893	0.994173
368.710388	0.991539
369.097820	0.990911
369.485189	0.988987
369.872495	0.987636
370.259738	0.984867
370.646918	0.982586
371.034035	0.980619
371.421090	0.977514
371.808081	0.971708
372.195010	0.970153
372.581875	0.964474
372.968678	0.960301
373.355418	0.957343
373.742096	0.949235
374.128710	0.944981
374.515262	0.940185
374.901751	0.934057
375.288177	0.929824
375.674540	0.923186
376.060841	0.916512
376.447079	0.909856
376.833254	0.903255
377.219367	0.897285
377.605417	0.886569
377.991404	0.884016
378.377329	0.877958
378.763191	0.871743
379.148991	0.861364
379.534727	0.854027
379.920402	0.846174
380.306013	0.842997
380.691563	0.829724
381.077049	0.823061
381.462474	0.819711
381.847835	0.808512
382.233134	0.802472
382.618371	0.803520
383.003545	0.785467
383.388657	0.783440
383.773706	0.775202
384.158693	0.771199
384.543618	0.767746
384.928480	0.757148
385.313280	0.748749
385.698017	0.747113
386.082692	0.736076
386.467305	0.733275
386.851856	0.728993
387.236344	0.722966
387.620770	0.718429
388.005133	0.711175
388.389435	0.706191
388.773674	0.704469
389.157851	0.696200
389.541965	0.693927
389.926018	0.700156
390.310008	0.687015
390.693936	0.684298
391.077802	0.675958
391.461606	0.677164
391.845348	0.667021
392.229027	0.665897
392.612645	0.664254
392.996200	0.651412
393.379694	0.644338
393.763125	0.634470
394.146494	0.639160
394.529801	0.629741
394.913047	0.622049
395.296230	0.628115
395.679351	0.618824
396.062410	0.615909
396.445408	0.618562
396.828343	0.613600
397.211217	0.609070
397.594028	0.621403
397.976778	0.610708
398.359466	0.608165
398.742092	0.602942
399.124656	0.615456
399.507158	0.603365
399.889598	0.600709
400.271977	0.592033
400.654294	0.596391
401.036549	0.594906
401.418742	0.599121
401.800874	0.585088
402.182944	0.581867
402.564952	0.573293
402.946898	0.575650
403.328783	0.576222
403.710606	0.587424
404.092367	0.562124
404.474067	0.567333
404.855705	0.566180
405.237282	0.574853
405.618797	0.561431
406.000250	0.556615
406.381642	0.546939
406.762972	0.552122
407.144240	0.551000
407.525447	0.549813
407.906593	0.543279
408.287677	0.538499
408.668700	0.547726
409.049661	0.541049
409.430560	0.535881
409.811399	0.544932
410.192176	0.526815
410.572891	0.533388
410.953545	0.522001
411.334138	0.535248
411.714669	0.528334
412.095139	0.539931
412.475547	0.524294
412.855894	0.526038
413.236180	0.524937
413.616405	0.530296
413.996568	0.520740
414.376670	0.526624
414.756711	0.531684
415.136691	0.528729
415.516609	0.520288
415.896466	0.516471
416.276262	0.512757
416.655997	0.514643
417.035670	0.495785
417.415283	0.487496
417.794834	0.492598
418.174324	0.497666
418.553753	0.506582
418.933121	0.489568
419.312428	0.483217
419.691674	0.488240
420.070859	0.477068
420.449983	0.484399
420.829045	0.473912
421.208047	0.482800
421.586988	0.476122
421.965867	0.475063
422.344686	0.463500
422.723444	0.476439
423.102141	0.492978
423.480777	0.466179
423.859352	0.487276
424.237866	0.464262
424.616319	0.465398
424.994712	0.455171
425.373044	0.466012
425.751314	0.454533
426.129524	0.470625
426.507673	0.454250
426.885762	0.447596
427.263789	0.453083
427.641756	0.463022
428.019662	0.452667
428.397508	0.452542
428.775292	0.456816
429.153016	0.449040
429.530679	0.454393
429.908282	0.448202
430.285824	0.457928
430.663305	0.437095
431.040726	0.457782
431.418086	0.457472
431.795385	0.449252
432.172624	0.448212
432.549802	0.449045
432.926920	0.447894
433.303977	0.446897
433.680974	0.444006
434.057910	0.442955
434.434786	0.442260
434.811601	0.445159
435.188355	0.427401
435.565050	0.436397
435.941683	0.437921
436.318257	0.421980
436.694770	0.422488
437.071222	0.421063
437.447614	0.425573
437.823946	0.431856
438.200218	0.421168
438.576429	0.430710
438.952580	0.424090
439.328670	0.420616
439.704700	0.426550
440.080670	0.428363
440.456580	0.409431
440.832429	0.417362
441.208218	0.428471
441.583947	0.417553
441.959616	0.416706
442.335224	0.422459
442.710773	0.412756
443.086261	0.411177
443.461689	0.425270
443.837057	0.414945
444.212365	0.404949
444.587612	0.412133
444.962800	0.401799
445.337927	0.403614
445.712995	0.429336
446.088002	0.391072
446.462949	0.401689
446.837837	0.407180
447.212664	0.395186
447.587431	0.387260
447.962139	0.357544
448.336786	0.316274
448.711374	0.326466
449.085901	0.371064
449.460369	0.375546
449.834776	0.379051
450.209124	0.357967
450.583412	0.350772
450.957640	0.343744
451.331808	0.355162
451.705917	0.378823
452.079965	0.383332
452.453954	0.371178
452.827883	0.377968
453.201752	0.372812
453.575562	0.384185
453.949311	0.373154
454.323001	0.378528
454.696632	0.374881
455.070202	0.367334
455.443713	0.358931
455.817164	0.354029
456.190556	0.349721
456.563888	0.346419
456.937160	0.344293
457.310373	0.361609
457.683526	0.360408
458.056619	0.366067
458.429653	0.366686
458.802628	0.370114
459.175542	0.364632
459.548398	0.346931
459.921194	0.339154
460.293930	0.339489
460.666607	0.317161
461.039224	0.305332
461.411782	0.300463
461.784280	0.300083
462.156719	0.304201
462.529099	0.308665
462.901419	0.324630
463.273680	0.328959
463.645882	0.328523
464.018024	0.333975
464.390106	0.327030
464.762130	0.311961
465.134094	0.294655
465.505999	0.263653
465.877845	0.233876
466.249631	0.220624
466.621358	0.228281
466.993026	0.242182
467.364634	0.248748
467.736184	0.257353
468.107674	0.266238
468.479105	0.265420
468.850477	0.272152
469.221790	0.279085
469.593043	0.288968
469.964238	0.293856
470.335373	0.293293
470.706449	0.291336
471.077467	0.291858
471.448425	0.254048
471.819324	0.229469
472.190164	0.228914
472.560945	0.258207
472.931667	0.280522
473.302330	0.284443
473.672934	0.296232
474.043479	0.284442
474.413965	0.286497
474.784393	0.289641
475.154761	0.284839
475.525070	0.281788
475.895321	0.287523
476.265513	0.281635
476.635645	0.277556
477.005719	0.277146
477.375734	0.273368
477.745691	0.266726
478.115588	0.263038
478.485427	0.256459
478.855207	0.243725
479.224928	0.225756
479.594591	0.213929
479.964194	0.217632
480.333739	0.218421
480.703226	0.220123
481.072653	0.218524
481.442022	0.213928
481.811333	0.210712
482.180584	0.214318
482.549777	0.219461
482.918912	0.222879
483.287988	0.222495
483.657005	0.222296
484.025964	0.228726
484.394864	0.225798
484.763706	0.226676
485.132489	0.231660
485.501213	0.232350
485.869879	0.230628
486.238487	0.233915
486.607036	0.231980
486.975527	0.236570
487.343959	0.232359
487.712333	0.231336
488.080648	0.232764
488.448905	0.232097
488.817104	0.233003
489.185244	0.227597
489.553326	0.224598
489.921350	0.214580
490.289315	0.196772
490.657222	0.191992
491.025070	0.193213
491.392861	0.195234
491.760593	0.201017
492.128267	0.206524
492.495883	0.211998
492.863440	0.218272
493.230939	0.224769
493.598380	0.226492
493.965763	0.228535
494.333088	0.230698
494.700354	0.232401
495.067563	0.231180
495.434713	0.234521
495.801805	0.232494
496.168839	0.233741
496.535815	0.235622
496.902733	0.235290
497.269593	0.236820
497.636395	0.233979
498.003139	0.234875
498.369825	0.237738
498.736453	0.234394
499.103023	0.235952
499.469535	0.235406
499.835989	0.235394
500.202385	0.236309
500.568723	0.239494
500.935003	0.234655
501.301226	0.238937
501.667390	0.233282
502.033497	0.231214
502.399546	0.234400
502.765537	0.236211
503.131470	0.234924
503.497345	0.231206
503.863163	0.239509
504.228923	0.232673
504.594625	0.231419
504.960269	0.236829
505.325856	0.231977
505.691385	0.236460
506.056856	0.233221
506.422270	0.232402
506.787625	0.234889
507.152924	0.232723
507.518164	0.232547
507.883347	0.234465
508.248472	0.236112
508.613540	0.231344
508.978550	0.233730
509.343503	0.234401
509.708398	0.232180
510.073236	0.229619
510.438016	0.229038
510.802738	0.230191
511.167403	0.229336
511.532010	0.231424
511.896561	0.226625
512.261053	0.225001
512.625488	0.227486
512.989866	0.227493
513.354186	0.228081
513.718449	0.230166
514.082655	0.226340
514.446803	0.228454
514.810894	0.226245
515.174927	0.228823
515.538904	0.228218
515.902822	0.225382
516.266684	0.227786
516.630488	0.228849
516.994235	0.227624
517.357925	0.226634
517.721558	0.224831
518.085133	0.224449
518.448651	0.224066
518.812112	0.226897
519.175516	0.226259
519.538863	0.223663
519.902152	0.225459
520.265385	0.222273
520.628560	0.224111
520.991678	0.224744
521.354739	0.223421
521.717743	0.224687
522.080690	0.224937
522.443580	0.222345
522.806413	0.223038
523.169189	0.222813
523.531908	0.221480
523.894569	0.224871
524.257174	0.224895
524.619722	0.222534
524.982213	0.223920
525.344647	0.222484
525.707025	0.223509
526.069345	0.221845
526.431608	0.223537
526.793815	0.221317
527.155964	0.225367
527.518057	0.224465
527.880093	0.225337
528.242072	0.224008
528.603995	0.226049
528.965860	0.227594
529.327669	0.226521
529.689421	0.227410
530.051117	0.227886
530.412755	0.225808
530.774337	0.228208
531.135862	0.228573
531.497331	0.228032
531.858743	0.230858
532.220098	0.227458
532.581396	0.230073
532.942638	0.230381
533.303824	0.231783
533.664953	0.231236
534.026025	0.233381
534.387040	0.230885
534.747999	0.230834
535.108902	0.229657
535.469748	0.235063
535.830537	0.232965
536.191270	0.233011
536.551947	0.232577
536.912567	0.232376
537.273131	0.234381
537.633638	0.234640
537.994089	0.235010
538.354483	0.235862
538.714821	0.233072
539.075103	0.232775
539.435328	0.233583
539.795497	0.237443
540.155609	0.234093
540.515665	0.232024
540.875665	0.237848
541.235609	0.236288
541.595496	0.236254
541.955328	0.232780
542.315102	0.235692
542.674821	0.236796
543.034483	0.236897
543.394090	0.236303
543.753640	0.238160
544.113134	0.233067
544.472571	0.236423
544.831953	0.233109
545.191278	0.237591
545.550548	0.236872
545.909761	0.233659
546.268918	0.234582
546.628019	0.232749
546.987064	0.235698
547.346053	0.237311
547.704986	0.235118
548.063863	0.235442
548.422684	0.235475
548.781449	0.237278
549.140158	0.235013
549.498811	0.237928
549.857408	0.240717
550.215949	0.235617
550.574434	0.238858
550.932864	0.236942
551.291237	0.235370
551.649555	0.236945
552.007817	0.236611
552.366022	0.237562
552.724173	0.237762
553.082267	0.238154
553.440305	0.234818
553.798288	0.239199
554.156215	0.235744
554.514086	0.236279
554.871902	0.239858
555.229661	0.238753
555.587365	0.239324
555.945014	0.242076
556.302606	0.238884
556.660143	0.241538
557.017625	0.237842
557.375050	0.240253
557.732421	0.237175
558.089735	0.239376
558.446994	0.239311
558.804197	0.238399
559.161345	0.238284
559.518437	0.241668
559.875474	0.239753
560.232455	0.239244
560.589381	0.240474
560.946251	0.240723
561.303065	0.237605
561.659825	0.239273
562.016528	0.240921
562.373177	0.243847
562.729770	0.241023
563.086307	0.243002
563.442789	0.240748
563.799216	0.243435
564.155587	0.242171
564.511904	0.243743
564.868164	0.243328
565.224370	0.243335
565.580520	0.245429
565.936615	0.245084
566.292654	0.248049
566.648638	0.245306
567.004567	0.245920
567.360441	0.246419
567.716260	0.248446
568.072023	0.246310
568.427732	0.246921
568.783385	0.249556
569.138982	0.247502
569.494525	0.247241
569.850013	0.250128
570.205445	0.248750
570.560823	0.250957
570.916145	0.253208
571.271412	0.251725
571.626625	0.252852
571.981782	0.253388
572.336884	0.254426
572.691931	0.253966
573.046923	0.255398
573.401860	0.256411
573.756743	0.258028
574.111570	0.256755
574.466342	0.257521
574.821059	0.256589
575.175722	0.259710
575.530330	0.259549
575.884882	0.259609
576.239380	0.261593
576.593823	0.262362
576.948211	0.261594
577.302544	0.264751
577.656823	0.264555
578.011047	0.264408
578.365216	0.265319
578.719330	0.266970
579.073389	0.267141
579.427394	0.268076
579.781344	0.268997
580.135239	0.270333
580.489080	0.270407
580.842866	0.273144
581.196597	0.273118
581.550273	0.271461
581.903895	0.272576
582.257463	0.270600
582.610975	0.274294
582.964434	0.273727
583.317837	0.276211
583.671186	0.276373
584.024481	0.276619
584.377721	0.278998
584.730906	0.279679
585.084037	0.278769
585.437113	0.281069
585.790135	0.280166
586.143103	0.283191
586.496016	0.283970
586.848874	0.281781
587.201679	0.282599
587.554428	0.285988
587.907124	0.284643
588.259765	0.285339
588.612352	0.285551
588.964884	0.290074
589.317362	0.289221
589.669786	0.289191
590.022155	0.287590
590.374470	0.286863
590.726731	0.289163
591.078937	0.294115
591.431090	0.290351
591.783188	0.294227
592.135232	0.294961
592.487222	0.294772
592.839157	0.293219
593.191038	0.295319
593.542866	0.296931
593.894639	0.300343
594.246358	0.299411
594.598022	0.298172
594.949633	0.301824
595.301190	0.302673
595.652692	0.301639
596.004141	0.297701
596.355535	0.305724
596.706876	0.306574
597.058162	0.309189
597.409395	0.306346
597.760573	0.303471
598.111698	0.307098
598.462768	0.307342
598.813785	0.308827
599.164748	0.310486
599.515657	0.310361
599.866511	0.314045
600.217312	0.309436
600.568060	0.314418
600.918753	0.311254
601.269392	0.312085
601.619978	0.315072
601.970510	0.312906
602.320988	0.312711
602.671412	0.310670
603.021783	0.313134
603.372100	0.314324
603.722363	0.314011
604.072572	0.315248
604.422728	0.314685
604.772830	0.316759
605.122878	0.316493
605.472872	0.317016
605.822813	0.315424
606.172701	0.318064
606.522534	0.315173
606.872314	0.315553
607.222041	0.316277
607.571714	0.314524
607.921333	0.316058
608.270899	0.315611
608.620411	0.312546
608.969870	0.316470
609.319276	0.316566
609.668627	0.316716
610.017926	0.315102
610.367171	0.313766
610.716362	0.313890
611.065500	0.314127
611.414585	0.313008
611.763616	0.312999
612.112594	0.313994
612.461518	0.313277
612.810389	0.311083
613.159207	0.313563
613.507971	0.315055
613.856682	0.311227
614.205340	0.312430
614.553945	0.310098
614.902496	0.313221
615.250994	0.311368
615.599439	0.311903
615.947830	0.311261
616.296169	0.312212
616.644454	0.312230
616.992686	0.312165
617.340864	0.309868
617.688990	0.313256
618.037063	0.310190
618.385082	0.311611
618.733048	0.308804
619.080961	0.310875
619.428821	0.310632
619.776628	0.310194
620.124382	0.312437
620.472083	0.312903
620.819731	0.311874
621.167326	0.315709
621.514868	0.315337
621.862357	0.319769
622.209793	0.318739
622.557176	0.322014
622.904506	0.322933
623.251783	0.325547
623.599007	0.327553
623.946179	0.326639
624.293297	0.329038
624.640363	0.332967
624.987376	0.333109
625.334336	0.336084
625.681243	0.338338
626.028097	0.338788
626.374899	0.339753
626.721647	0.340153
627.068343	0.343206
627.414987	0.344429
627.761577	0.346101
628.108115	0.344670
628.454600	0.349704
628.801032	0.347329
629.147412	0.349565
629.493739	0.350821
629.840014	0.352979
630.186236	0.350194
630.532405	0.355811
630.878521	0.352850
631.224585	0.355064
631.570597	0.359182
631.916556	0.357696
632.262462	0.357430
632.608316	0.359763
632.954117	0.360497
633.299866	0.361517
633.645562	0.361946
633.991206	0.366153
634.336797	0.369004
634.682336	0.371737
635.027823	0.373162
635.373257	0.373608
635.718639	0.377296
636.063968	0.376377
636.409245	0.382438
636.754470	0.383083
637.099642	0.385381
637.444762	0.388491
637.789829	0.387606
638.134845	0.391521
638.479808	0.391876
638.824719	0.392193
639.169577	0.396315
639.514383	0.394571
639.859137	0.399402
640.203839	0.398965
640.548489	0.399708
640.893086	0.400731
641.237632	0.402513
641.582125	0.401531
641.926566	0.403171
642.270955	0.403196
642.615292	0.402967
642.959576	0.402080
643.303809	0.402876
643.647990	0.402155
643.992118	0.402815
644.336195	0.406191
644.680219	0.404966
645.024192	0.405517
645.368112	0.399266
645.711981	0.397805
646.055797	0.393288
646.399562	0.395929
646.743274	0.388533
647.086935	0.385040
647.430544	0.385227
647.774101	0.384404
648.117606	0.384195
648.461059	0.384223
648.804460	0.386512
649.147810	0.391622
649.491108	0.393996
649.834354	0.395511
650.177548	0.400708
650.520690	0.405843
650.863781	0.407061
651.206820	0.405916
651.549807	0.410828
651.892742	0.415383
652.235626	0.415248
652.578458	0.415556
652.921238	0.422502
653.263967	0.419559
653.606644	0.423421
653.949269	0.423703
654.291843	0.427252
654.634365	0.424154
654.976836	0.426862
655.319255	0.427480
655.661622	0.428960
656.003938	0.429261
656.346203	0.431869
656.688416	0.429669
657.030577	0.433248
657.372687	0.435237
657.714746	0.436122
658.056753	0.432960
658.398708	0.436598
658.740612	0.437972
659.082465	0.433971
659.424266	0.434891
659.766016	0.434185
660.107715	0.437190
660.449362	0.435998
660.790958	0.436336
661.132503	0.437668
661.473996	0.434724
661.815438	0.435787
662.156829	0.435441
662.498168	0.436804
662.839456	0.437734
663.180693	0.435816
663.521879	0.435553
663.863013	0.436765
664.204097	0.434141
664.545129	0.431529
664.886110	0.432632
665.227040	0.430053
665.567918	0.432009
665.908746	0.429682
666.249522	0.430181
666.590248	0.430306
666.930922	0.429254
667.271545	0.427928
667.612118	0.427411
667.952639	0.429838
668.293109	0.428187
668.633528	0.431250
668.973896	0.430901
669.314213	0.431147
669.654480	0.432892
669.994695	0.432920
670.334859	0.434184
670.674973	0.434718
671.015035	0.434173
671.355047	0.434584
671.695008	0.435070
672.034918	0.437642
672.374777	0.436648
672.714585	0.437632
673.054342	0.437516
673.394049	0.438131
673.733705	0.435865
674.073310	0.437005
674.412864	0.439524
674.752368	0.440200
675.091820	0.440206
675.431223	0.445538
675.770574	0.444653
676.109875	0.447867
676.449125	0.447679
676.788324	0.449823
677.127473	0.455579
677.466571	0.455419
677.805619	0.456755
678.144616	0.457898
678.483562	0.459348
678.822458	0.462239
679.161303	0.462940
679.500098	0.463448
679.838842	0.465341
680.177535	0.464591
680.516179	0.463051
680.854771	0.462362
681.193314	0.455653
681.531805	0.446552
681.870247	0.435410
682.208638	0.427727
682.546978	0.426982
682.885268	0.428578
683.223508	0.435212
683.561697	0.439411
683.899836	0.441577
684.237925	0.444574
684.575963	0.447639
684.913951	0.450078
685.251889	0.445948
685.589776	0.448675
685.927614	0.450632
686.265401	0.444786
686.603137	0.445922
686.940824	0.440044
687.278460	0.438665
687.616046	0.437862
687.953582	0.432685
688.291068	0.434370
688.628504	0.429150
688.965889	0.431708
689.303224	0.435412
689.640510	0.440011
689.977745	0.445674
690.314930	0.453243
690.652065	0.458347
690.989150	0.465546
691.326185	0.472796
691.663170	0.476718
692.000105	0.483988
692.336990	0.491673
692.673825	0.494038
693.010610	0.500394
693.347345	0.506301
693.684030	0.508211
694.020665	0.512490
694.357251	0.521201
694.693786	0.521092
695.030272	0.523883
695.366707	0.528360
695.703093	0.532461
696.039429	0.529693
696.375716	0.531781
696.711952	0.534508
697.048139	0.536020
697.384276	0.538465
697.720363	0.537154
698.056400	0.535039
698.392388	0.540902
698.728326	0.543762
699.064214	0.547315
699.400053	0.547396
699.735842	0.551378
700.071581	0.553228
700.407270	0.556836
700.742910	0.559482
701.078501	0.566364
701.414042	0.567051
701.749533	0.569428
702.084974	0.578502
702.420366	0.571331
702.755709	0.578750
703.091002	0.585872
703.426246	0.580293
703.761440	0.585447
704.096584	0.590660
704.431679	0.587097
704.766725	0.589420
705.101721	0.591583
705.436668	0.587301
705.771565	0.594328
706.106413	0.591137
706.441212	0.586210
706.775961	0.585575
707.110661	0.587791
707.445311	0.584716
707.779913	0.581385
708.114465	0.580120
708.448967	0.577171
708.783421	0.569475
709.117825	0.563811
709.452180	0.563503
709.786485	0.557702
710.120742	0.546694
710.454949	0.549055
710.789107	0.540343
711.123216	0.530996
711.457275	0.533065
711.791286	0.524656
712.125247	0.523876
712.459159	0.534055
712.793023	0.525722
713.126837	0.530584
713.460602	0.530683
713.794318	0.539954
714.127985	0.539015
714.461602	0.549669
714.795171	0.552057
715.128691	0.560406
715.462162	0.568316
715.795584	0.573481
716.128957	0.576526
716.462281	0.583157
716.795556	0.586640
717.128782	0.592052
717.461960	0.601287
717.795088	0.600274
718.128167	0.606599
718.461198	0.615189
718.794180	0.615331
719.127113	0.618035
719.459997	0.621557
719.792833	0.628579
720.125619	0.629985
720.458357	0.634973
720.791046	0.635089
721.123686	0.637852
721.456278	0.645821
721.788821	0.641438
722.121315	0.648112
722.453761	0.651419
722.786158	0.648832
723.118506	0.644822
723.450805	0.652570
723.783056	0.649709
724.115259	0.646134
724.447412	0.646269
724.779518	0.647689
725.111574	0.646263
725.443582	0.641591
725.775542	0.644249
726.107453	0.635617
726.439315	0.636384
726.771129	0.634133
727.102895	0.627120
727.434612	0.620552
727.766281	0.618821
728.097901	0.617817
728.429473	0.617396
728.760996	0.615735
729.092471	0.616489
729.423897	0.620334
729.755276	0.618689
730.086606	0.618269
730.417887	0.613765
730.749120	0.604065
731.080305	0.595387
731.411442	0.590889
731.742530	0.594680
732.073570	0.595002
732.404562	0.587067
732.735506	0.588650
733.066401	0.593782
733.397249	0.602446
733.728048	0.614431
734.058798	0.626983
734.389501	0.638628
734.720156	0.648196
735.050762	0.655426
735.381320	0.655870
735.711831	0.664695
736.042293	0.670027
736.372707	0.666866
736.703073	0.670729
737.033391	0.673535
737.363661	0.669969
737.693883	0.665174
738.024056	0.664000
738.354182	0.664986
738.684260	0.653443
739.014290	0.650492
739.344272	0.650994
739.674207	0.644350
740.004093	0.643777
740.333931	0.644220
740.663722	0.643596
740.993464	0.643751
741.323159	0.648368
741.652806	0.653217
741.982405	0.657223
742.311956	0.662714
742.641460	0.665127
742.970915	0.670128
743.300323	0.675308
743.629683	0.682289
743.958996	0.685230
744.288260	0.689199
744.617477	0.695651
744.946647	0.697526
745.275768	0.702713
745.604842	0.702191
745.933869	0.712184
746.262847	0.714037
746.591778	0.706213
746.920662	0.712921
747.249498	0.720157
747.578286	0.710380
747.907027	0.706570
748.235720	0.706688
748.564365	0.702092
748.892963	0.701400
749.221514	0.705480
749.550017	0.709963
749.878473	0.710157
750.206881	0.717498
750.535242	0.717215
750.863555	0.716386
751.191821	0.717029
751.520039	0.721096
751.848210	0.724943
752.176334	0.717738
752.504411	0.718224
752.832440	0.725647
753.160421	0.729059
753.488356	0.727141
753.816243	0.724488
754.144082	0.733528
754.471875	0.737021
754.799620	0.732877
755.127318	0.734287
755.454969	0.734722
755.782572	0.734871
756.110129	0.738891
756.437638	0.742057
756.765100	0.738170
757.092515	0.735583
757.419882	0.734656
757.747203	0.739969
758.074477	0.739761
758.401703	0.736658
758.728882	0.731872
759.056014	0.730883
759.383099	0.730167
759.710138	0.729524
760.037129	0.726048
760.364073	0.721203
760.690970	0.722811
761.017820	0.727033
761.344623	0.724310
761.671379	0.715704
761.998088	0.704881
762.324751	0.680568
762.651366	0.636857
762.977935	0.569707
763.304456	0.518049
763.630931	0.507940
763.957359	0.547544
764.283740	0.591792
764.610074	0.619699
764.936362	0.651091
765.262602	0.679509
765.588796	0.700284
765.914943	0.717330
766.241044	0.736545
766.567097	0.741584
766.893104	0.752510
767.219064	0.758966
767.544978	0.765885
767.870845	0.779218
768.196665	0.783111
768.522438	0.781612
768.848165	0.782650
769.173846	0.792181
769.499479	0.797324
769.825066	0.800232
770.150607	0.805467
770.476101	0.800297
770.801548	0.801626
771.126949	0.814032
771.452303	0.818839
771.777611	0.816437
772.102872	0.814656
772.428087	0.820622
772.753256	0.823728
773.078378	0.825811
773.403453	0.834879
773.728482	0.838945
774.053465	0.831843
774.378401	0.835812
774.703291	0.846010
775.028135	0.844601
775.352932	0.844525
775.677683	0.849861
776.002388	0.850184
776.327046	0.848857
776.651658	0.853413
776.976224	0.856133
777.300743	0.855689
777.625216	0.857357
777.949643	0.860135
778.274024	0.859591
778.598359	0.861332
778.922647	0.859664
779.246889	0.861078
779.571086	0.864201
779.895236	0.867124
780.219339	0.865385
780.543397	0.860439
780.867409	0.860140
781.191374	0.861822
781.515294	0.863719
781.839167	0.863035
782.162995	0.864912
782.486776	0.862530
782.810511	0.863416
783.134201	0.867929
783.457844	0.865271
783.781441	0.869374
784.104993	0.873248
784.428498	0.875132
784.751958	0.870656
785.075372	0.871303
785.398739	0.875458
785.722061	0.870412
786.045337	0.866687
786.368568	0.872401
786.691752	0.874964
787.014891	0.860886
787.337983	0.850750
787.661030	0.844587
787.984031	0.825631
788.306987	0.813932
788.629897	0.813771
788.952760	0.819822
789.275579	0.824122
789.598351	0.840421
789.921078	0.853329
790.243759	0.854263
790.566395	0.859733
790.888984	0.867298
791.211529	0.871550
791.534027	0.875150
791.856480	0.878557
792.178888	0.882884
792.501249	0.884607
792.823566	0.886829
793.145836	0.886434
793.468062	0.888993
793.790241	0.889991
794.112375	0.885242
794.434464	0.882698
794.756507	0.881846
795.078505	0.879257
795.400457	0.876506
795.722364	0.863022
796.044226	0.856913
796.366042	0.854520
796.687812	0.857387
797.009538	0.853082
797.331218	0.857939
797.652852	0.862278
797.974442	0.867255
798.295986	0.867886
798.617484	0.869370
798.938938	0.873564
799.260346	0.878277
799.581709	0.879858
799.903026	0.883361
800.224299	0.884600
800.545526	0.885813
800.866708	0.891681
801.187845	0.895632
801.508936	0.894451
801.829983	0.891090
802.150984	0.896754
802.471940	0.900891
802.792851	0.900939
803.113717	0.901634
803.434538	0.899528
803.755314	0.903704
804.076045	0.903889
804.396731	0.903438
804.717372	0.902109
805.037967	0.906443
805.358518	0.903120
805.679024	0.899358
805.999485	0.900882
806.319901	0.899198
806.640272	0.902397
806.960598	0.900071
807.280879	0.896521
807.601115	0.896231
807.921306	0.899711
808.241453	0.900499
808.561554	0.898757
808.881611	0.898293
809.201623	0.899317
809.521590	0.899288
809.841513	0.901446
810.161390	0.899016
810.481223	0.902613
810.801011	0.904665
811.120755	0.906763
811.440453	0.905437
811.760107	0.905254
812.079716	0.903989
812.399281	0.907153
812.718801	0.909474
813.038276	0.910518
813.357707	0.911093
813.677093	0.909214
813.996434	0.909706
814.315731	0.912457
814.634983	0.913753
814.954191	0.912407
815.273354	0.907291
815.592473	0.905254
815.911547	0.904842
816.230577	0.901690
816.549562	0.899508
816.868502	0.898107
817.187399	0.896471
817.506250	0.891143
817.825058	0.892398
818.143821	0.888702
818.462539	0.884463
818.781213	0.876259
819.099843	0.865616
819.418429	0.848035
819.736970	0.831584
820.055466	0.811293
820.373919	0.783836
820.692327	0.752021
821.010691	0.715951
821.329011	0.634634
821.647286	0.517519
821.965517	0.402789
822.283704	0.359058
822.601847	0.360487
822.919945	0.396077
823.237999	0.430876
823.556010	0.479173
823.873976	0.535160
824.191897	0.587039
824.509775	0.631052
824.827609	0.676942
825.145398	0.699980
825.463144	0.701504
825.780845	0.684054
826.098502	0.665718
826.416116	0.619729
826.733685	0.574865
827.051210	0.564989
827.368692	0.581163
827.686129	0.618797
828.003522	0.674341
828.320872	0.722418
828.638177	0.766376
828.955439	0.800170
829.272656	0.822570
829.589830	0.839875
829.906960	0.856942
830.224046	0.869726
830.541088	0.878725
830.858086	0.884284
831.175041	0.891226
831.491952	0.889625
831.808819	0.886061
832.125642	0.878253
832.442421	0.863898
832.759157	0.842566
833.075849	0.794087
833.392497	0.729128
833.709101	0.688372
834.025662	0.697250
834.342179	0.730475
834.658653	0.769546
834.975083	0.806269
835.291469	0.833904
835.607811	0.856855
835.924110	0.873261
836.240366	0.889656
836.556578	0.904161
836.872746	0.911811
837.188871	0.919237
837.504952	0.924348
837.820990	0.927752
838.136984	0.931243
838.452935	0.934342
838.768842	0.935951
839.084706	0.929370
839.400526	0.902337
839.716303	0.860541
840.032037	0.837837
840.347727	0.842068
840.663373	0.859688
840.978977	0.882172
841.294537	0.906221
841.610054	0.921342
841.925527	0.929663
842.240957	0.936527
842.556344	0.944634
842.871687	0.949738
843.186987	0.953707
843.502244	0.954418
843.817458	0.956800
844.132629	0.960448
844.447756	0.964343
844.762840	0.964731
845.077881	0.965273
845.392879	0.964390
845.707833	0.966693
846.022745	0.968784
846.337613	0.968867
846.652438	0.969456
846.967221	0.969937
847.281960	0.969721
847.596656	0.971673
847.911309	0.970638
848.225919	0.972292
848.540485	0.973715
848.855009	0.974204
849.169490	0.974085
849.483928	0.973165
849.798323	0.972215
850.112675	0.975426
850.426984	0.975166
850.741251	0.975735
851.055474	0.975093
851.369654	0.973629
851.683792	0.973490
851.997887	0.974898
852.311938	0.976069
852.625947	0.974008
852.939914	0.972564
853.253837	0.974257
853.567718	0.975047
853.881555	0.975506
854.195350	0.973021
854.509103	0.975532
854.822812	0.974620
855.136479	0.976885
855.450103	0.974305
855.763685	0.974211
856.077224	0.975394
856.390720	0.976076
856.704173	0.974601
857.017584	0.974452
857.330953	0.972508
857.644278	0.972599
857.957561	0.973983
858.270802	0.973953
858.584000	0.974520
858.897155	0.971493
859.210268	0.971338
859.523339	0.974850
859.836367	0.975599
860.149352	0.975055
860.462295	0.973736
860.775195	0.975296
861.088054	0.973521
861.400869	0.975887
861.713642	0.975942
862.026373	0.978565
862.339062	0.975009
862.651708	0.974594
862.964312	0.973546
863.276873	0.973154
863.589392	0.973058
863.901869	0.971098
864.214303	0.970307
864.526696	0.968735
864.839045	0.967855
865.151353	0.966771
865.463619	0.965841
865.775842	0.967186
866.088023	0.967640
866.400162	0.967710
866.712258	0.967981
867.024313	0.967412
867.336325	0.968988
867.648296	0.967992
867.960224	0.966487
868.272110	0.966295
868.583954	0.969835
868.895755	0.969587
869.207515	0.966925
869.519233	0.965526
869.830909	0.965045
870.142542	0.966494
870.454134	0.965854
870.765684	0.964594
871.077191	0.964382
871.388657	0.962431
871.700081	0.964123
872.011463	0.963730
872.322803	0.963137
872.634101	0.959233
872.945357	0.958506
873.256571	0.956348
873.567744	0.957756
873.878874	0.958114
874.189963	0.956882
874.501010	0.956822
874.812015	0.954171
875.122979	0.954316
875.433900	0.956750
875.744780	0.958921
876.055618	0.953627
876.366415	0.953235
876.677169	0.954487
876.987882	0.955352
877.298554	0.956691
877.609183	0.951404
877.919771	0.948216
878.230317	0.946911
878.540822	0.943497
878.851285	0.939221
879.161707	0.930057
879.472087	0.918522
879.782425	0.900061
880.092722	0.865173
880.402977	0.811248
880.713191	0.748142
881.023363	0.686700
881.333494	0.651853
881.643583	0.623762
881.953631	0.624438
882.263637	0.652658
882.573602	0.692293
882.883526	0.718884
883.193408	0.744937
883.503248	0.768153
883.813048	0.795610
884.122806	0.827755
884.432522	0.851405
884.742197	0.872067
885.051831	0.882432
885.361424	0.892894
885.670975	0.906704
885.980485	0.914938
886.289954	0.921743
886.599382	0.925412
886.908768	0.931596
887.218113	0.936760
887.527417	0.943164
887.836680	0.945725
888.145901	0.948302
888.455082	0.951585
888.764221	0.955288
889.073319	0.956505
889.382376	0.958224
889.691392	0.956679
890.000366	0.956936
890.309300	0.957787
890.618193	0.958074
890.927044	0.956347
891.235855	0.955812
891.544625	0.956211
891.853353	0.955509
892.162041	0.952723
892.470687	0.947051
892.779293	0.940673
893.087858	0.936875
893.396381	0.928133
893.704864	0.914718
894.013306	0.890087
894.321707	0.864094
894.630068	0.848019
894.938387	0.842110
895.246665	0.844230
895.554903	0.856747
895.863100	0.870693
896.171256	0.887235
896.479371	0.908317
896.787446	0.921852
897.095480	0.927518
897.403473	0.930237
897.711425	0.935722
898.019336	0.942985
898.327207	0.948435
898.635038	0.947219
898.942827	0.949976
899.250576	0.952542
899.558284	0.956725
899.865952	0.958487
900.173579	0.958918
900.481165	0.960379
900.788711	0.962332
901.096216	0.965121
901.403681	0.965948
901.711105	0.966994
902.018489	0.967074
902.325832	0.966921
902.633135	0.965066
902.940397	0.959362
903.247619	0.945745
903.554800	0.920856
903.861941	0.879797
904.169041	0.841619
904.476101	0.823759
904.783121	0.825212
905.090100	0.841661
905.397039	0.863602
905.703938	0.885665
906.010796	0.906316
906.317614	0.923364
906.624391	0.938584
906.931129	0.946811
907.237826	0.956986
907.544483	0.962222
907.851099	0.967929
908.157675	0.970536
908.464211	0.974687
908.770707	0.975646
909.077163	0.979403
909.383578	0.979807
909.689954	0.979955
909.996289	0.981367
910.302584	0.982996
910.608839	0.985316
910.915054	0.983551
911.221229	0.984528
911.527363	0.982038
911.833458	0.983285
912.139513	0.981477
912.445527	0.982623
912.751502	0.979819
913.057436	0.976807
913.363331	0.974991
913.669186	0.970556
913.975000	0.966027
914.280775	0.958515
914.586510	0.951054
914.892205	0.937788
915.197859	0.914479
915.503475	0.887687
915.809050	0.866694
916.114585	0.860301
916.420081	0.856539
916.725536	0.855270
917.030952	0.862584
917.336328	0.876841
917.641665	0.891781
917.946961	0.909151
918.252218	0.919639
918.557435	0.929859
918.862612	0.938661
919.167750	0.944821
919.472848	0.950823
919.777906	0.956700
920.082925	0.962651
920.387904	0.965686
920.692843	0.966854
920.997743	0.968357
921.302603	0.971619
921.607423	0.973682
921.912204	0.975071
922.216946	0.977092
922.521647	0.978723
922.826310	0.979039
923.130932	0.981434
923.435516	0.983672
923.740059	0.984680
924.044564	0.984161
924.349028	0.985797
924.653454	0.988409
924.957840	0.988715
925.262186	0.989600
925.566493	0.988733
925.870761	0.989782
926.174989	0.991145
926.479178	0.993758
926.783328	0.993419
927.087438	0.993562
927.391509	0.992641
927.695541	0.994563
927.999533	0.994835
928.303486	0.994604
928.607400	0.995743
928.911275	0.995668
929.215110	0.996707
929.518906	0.996504
929.822663	0.996662
930.126381	0.995643
930.430060	0.997113
930.733699	0.997336
931.037299	0.996460
931.340861	0.995061
931.644383	0.993403
931.947866	0.995457
932.251309	0.996238
932.554714	0.994846
932.858080	0.995874
933.161407	0.995384
933.464694	0.995258
933.767943	0.996978
934.071153	0.996254
934.374323	0.996769
934.677455	0.997318
934.980548	0.997258
935.283602	0.997227
935.586617	0.997536
935.889593	0.997964
936.192530	0.997230
936.495428	0.996651
936.798287	0.995653
937.101108	0.996034
937.403890	0.994393
937.706632	0.994254
938.009336	0.992362
938.312002	0.990586
938.614628	0.990681
938.917216	0.986973
939.219765	0.987154
939.522275	0.989060
939.824747	0.987685
940.127179	0.988241
940.429573	0.989867
940.731929	0.988833
941.034246	0.990386
941.336524	0.989467
941.638763	0.991635
941.940964	0.991059
942.243126	0.992039
942.545250	0.992749
942.847335	0.992323
943.149381	0.994014
943.451389	0.992244
943.753359	0.994007
944.055290	0.995478
944.357182	0.995278
944.659036	0.995314
944.960851	0.994360
945.262628	0.996035
945.564367	0.995710
945.866067	0.994826
946.167729	0.995587
946.469352	0.995617
946.770937	0.993480
947.072484	0.995905
947.373992	0.995639
947.675462	0.995200
947.976893	0.995841
948.278286	0.996658
948.579641	0.996948
948.880958	0.996695
949.182236	0.997004
949.483476	0.996791
949.784678	0.996542
950.085841	0.996940
950.386967	0.997124
950.688054	0.995955
950.989103	0.994199
951.290114	0.994652
951.591087	0.995931
951.892021	0.993739
952.192917	0.994797
952.493776	0.993985
952.794596	0.994312
953.095378	0.993459
953.396122	0.993241
953.696828	0.993925
953.997496	0.994560
954.298126	0.996830
954.598718	0.996053
954.899272	0.996095
955.199788	0.995312
955.500266	0.997822
955.800706	0.997681
956.101108	0.997973
956.401472	0.998806
956.701798	0.997876
957.002087	0.998778
957.302337	1.000137
957.602550	0.999941
957.902724	0.999903
958.202861	1.001263
958.502960	1.000075
958.803022	1.002009
959.103045	1.000350
959.403031	1.002491
959.702979	1.001912
960.002889	1.001942
960.302762	1.002327
960.602596	1.003118
960.902393	1.002511
961.202153	1.002996
961.501875	1.001921
961.801559	1.003258
962.101205	1.002436
962.400814	1.003134
962.700385	1.002951
962.999918	1.002826
963.299414	1.001295
963.598873	1.003171
963.898293	1.002883
964.197677	1.002571
964.497022	1.003077
964.796331	1.002311
965.095601	1.003754
965.394835	1.002507
965.694030	1.003598
965.993189	1.002762
966.292309	1.003101
966.591393	1.002038
966.890439	1.002320
967.189447	1.002930
967.488419	1.002110
967.787353	1.001645
968.086249	1.003136
968.385108	1.002469
968.683930	1.003768
968.982714	1.002575
969.281462	1.002741
969.580172	1.004109
969.878844	1.002876
970.177480	1.002323
970.476078	1.004055
970.774639	1.002577
971.073162	1.002720
971.371649	1.002309
971.670098	1.001253
971.968510	1.002837
972.266885	1.000884
972.565223	1.002740
972.863524	1.000897
973.161788	1.002498
973.460014	1.003336
973.758204	1.001279
974.056356	1.002647
974.354471	1.002733
974.652550	1.003160
974.950591	1.001799
975.248595	1.002254
975.546563	1.003973
975.844493	1.002917
976.142386	1.002513
976.440243	1.003539
976.738062	1.002409
977.035845	1.002130
977.333590	1.003317
977.631299	1.002081
977.928971	1.003375
978.226606	1.003018
978.524204	1.002839
978.821765	1.003530
979.119290	1.004904
979.416777	1.002652
979.714228	1.002834
980.011642	1.003530
980.309020	1.002381
980.606360	1.002055
980.903664	1.003087
981.200931	1.001415
981.498162	1.001810
981.795356	1.000557
982.092513	1.000208
982.389633	0.999568
982.686717	0.996453
982.983764	0.996601
983.280775	0.996069
983.577749	0.997955
983.874686	0.996680
984.171587	0.997610
984.468451	0.998313
984.765279	1.000413
985.062070	1.001301
985.358824	1.000370
985.655543	1.001637
985.952224	1.003377
986.248869	1.003264
986.545478	1.003633
986.842050	1.002853
987.138586	1.002644
987.435086	1.003072
987.731549	1.005028
988.027975	1.003596
988.324366	1.003720
988.620719	1.005000
988.917037	1.003759
989.213318	1.003794
989.509563	1.002720
989.805772	1.004566
990.101944	1.005361
990.398080	1.003688
990.694180	1.004468
990.990244	1.004215
991.286271	1.003427
991.582262	1.005314
991.878217	1.003734
992.174136	1.004262
992.470019	1.004770
992.765865	1.005572
993.061676	1.005845
993.357450	1.004617
993.653188	1.004929
993.948890	1.003810
994.244556	1.003539
994.540186	1.003113
994.835780	1.002306
995.131337	1.003846
995.426859	1.003670
995.722345	1.003167
996.017795	1.001979
996.313208	1.002969
996.608586	1.001559
996.903928	1.003399
997.199234	1.002235
997.494504	1.003952
997.789738	1.001853
998.084936	1.003883
998.380099	1.003001
998.675225	1.004694
998.970316	1.004500
999.265371	1.002421
999.560390	1.004444
999.855373	1.003215
1000.150320	1.003835
1000.445232	1.004069
1000.740108	1.004064
1001.034948	1.004227
1001.329752	1.005676
1001.624521	1.004088
1001.919254	1.004363
1002.213951	1.004554
1002.508613	1.005565
1002.803239	1.004713
1003.097829	1.004302
1003.392384	1.005148
1003.686903	1.004154
1003.981386	1.005644
1004.275834	1.005538
1004.570246	1.003568
1004.864623	1.006481
1005.158964	1.003994
1005.453270	1.004178
1005.747540	1.004684
1006.041775	1.005091
1006.335974	1.005215
1006.630138	1.005474
1006.924266	1.003243
1007.218359	1.003409
1007.512416	1.005934
1007.806438	1.004540
1008.100425	1.006730
1008.394376	1.006383
1008.688292	1.004940
1008.982172	1.003933
1009.276017	1.006372
1009.569827	1.005137
1009.863602	1.004750
1010.157341	1.006587
1010.451045	1.004008
1010.744714	1.007100
1011.038347	1.005995
1011.331945	1.004474
1011.625508	1.004928
1011.919036	1.003391
1012.212528	1.005977
1012.505986	1.004407
1012.799408	1.005640
1013.092795	1.003711
1013.386147	1.005111
1013.679464	1.005268
1013.972745	1.004749
1014.265992	1.004428
1014.559204	1.005547
1014.852380	1.005474
1015.145521	1.004642
1015.438628	1.004872
1015.731699	1.004110
1016.024736	1.004374
1016.317737	1.005185
1016.610703	1.006010
1016.903635	1.003846
1017.196531	1.005019
1017.489393	1.005067
1017.782219	1.004668
1018.075011	1.003996
1018.367768	1.005216
1018.660490	1.004741
1018.953177	1.004741
1019.245829	1.004741
