Dividing Wavelength (nm)	Counts (n)	Blue Motor Position (mm): 1.800000	Red Motor Position (mm): 0.000000	
326.493990	1.006077
326.888308	1.006077
327.282561	1.006077
327.676750	1.007134
328.070874	1.007749
328.464933	1.007878
328.858929	1.008455
329.252859	1.006254
329.646726	1.005714
330.040528	1.006981
330.434265	1.007062
330.827938	1.005487
331.221547	1.006442
331.615091	1.006415
332.008571	1.007380
332.401986	1.006140
332.795338	1.005916
333.188625	1.006279
333.581847	1.005616
333.975006	1.007221
334.368100	1.006268
334.761129	1.005524
335.154095	1.006152
335.546996	1.003053
335.939833	0.999629
336.332606	1.000143
336.725315	0.998349
337.117960	1.000366
337.510540	0.998896
337.903056	0.999504
338.295508	1.000526
338.687896	0.999908
339.080220	0.999958
339.472480	1.000801
339.864676	1.000323
340.256807	0.998580
340.648875	1.000660
341.040879	1.000362
341.432818	0.999843
341.824694	0.999712
342.216506	1.000778
342.608253	0.999395
342.999937	0.998707
343.391557	1.000323
343.783113	1.000278
344.174605	0.999672
344.566033	0.999041
344.957397	1.001165
345.348697	0.999766
345.739934	0.999952
346.131106	0.999759
346.522215	0.999428
346.913260	0.999980
347.304241	0.998758
347.695159	0.999803
348.086012	1.000118
348.476802	0.998314
348.867528	0.998552
349.258191	1.000683
349.648789	0.999802
350.039324	0.999842
350.429796	0.998546
350.820203	0.997891
351.210548	0.998851
351.600828	0.999053
351.991045	0.998921
352.381198	0.999114
352.771288	0.998698
353.161314	0.998884
353.551276	0.998670
353.941175	0.998492
354.331010	0.999485
354.720782	0.999151
355.110490	0.998043
355.500135	0.998220
355.889717	0.997376
356.279235	0.998405
356.668689	0.998965
357.058080	0.998150
357.447408	0.997836
357.836672	0.998463
358.225873	0.997495
358.615010	0.997331
359.004084	0.997853
359.393095	0.998118
359.782043	0.998644
360.170927	0.998818
360.559748	0.998711
360.948505	0.997104
361.337199	0.997509
361.725830	0.998910
362.114398	0.998039
362.502903	0.998530
362.891344	0.996802
363.279722	0.997897
363.668037	0.998050
364.056289	0.998225
364.444478	0.998061
364.832603	0.997311
365.220665	0.997015
365.608665	0.997350
365.996601	0.997104
366.384474	0.995009
366.772284	0.997051
367.160031	0.995595
367.547715	0.995617
367.935336	0.994673
368.322893	0.993163
368.710388	0.993633
369.097820	0.990210
369.485189	0.988735
369.872495	0.987222
370.259738	0.984886
370.646918	0.982130
371.034035	0.979307
371.421090	0.977023
371.808081	0.971867
372.195010	0.969604
372.581875	0.964619
372.968678	0.959942
373.355418	0.956760
373.742096	0.949495
374.128710	0.943050
374.515262	0.939935
374.901751	0.933694
375.288177	0.928976
375.674540	0.921907
376.060841	0.916000
376.447079	0.909233
376.833254	0.903092
377.219367	0.898296
377.605417	0.886016
377.991404	0.882560
378.377329	0.876601
378.763191	0.871376
379.148991	0.862047
379.534727	0.854121
379.920402	0.846510
380.306013	0.842081
380.691563	0.829564
381.077049	0.822756
381.462474	0.819173
381.847835	0.807393
382.233134	0.803936
382.618371	0.803388
383.003545	0.785352
383.388657	0.783616
383.773706	0.775710
384.158693	0.772034
384.543618	0.766321
384.928480	0.756841
385.313280	0.747495
385.698017	0.747500
386.082692	0.735271
386.467305	0.734252
386.851856	0.728634
387.236344	0.723553
387.620770	0.718267
388.005133	0.712778
388.389435	0.706594
388.773674	0.704082
389.157851	0.695835
389.541965	0.693368
389.926018	0.700386
390.310008	0.686769
390.693936	0.683410
391.077802	0.676234
391.461606	0.677753
391.845348	0.667350
392.229027	0.665568
392.612645	0.664588
392.996200	0.651606
393.379694	0.643903
393.763125	0.634442
394.146494	0.639579
394.529801	0.629468
394.913047	0.621969
395.296230	0.627193
395.679351	0.618819
396.062410	0.616161
396.445408	0.618574
396.828343	0.614194
397.211217	0.608744
397.594028	0.621785
397.976778	0.611426
398.359466	0.607901
398.742092	0.603139
399.124656	0.615186
399.507158	0.603274
399.889598	0.600618
400.271977	0.591501
400.654294	0.595738
401.036549	0.594654
401.418742	0.598604
401.800874	0.584982
402.182944	0.581396
402.564952	0.573854
402.946898	0.575292
403.328783	0.576518
403.710606	0.587158
404.092367	0.562237
404.474067	0.567607
404.855705	0.565993
405.237282	0.575151
405.618797	0.560885
406.000250	0.556760
406.381642	0.546579
406.762972	0.551517
407.144240	0.550561
407.525447	0.550492
407.906593	0.543156
408.287677	0.539364
408.668700	0.546732
409.049661	0.541724
409.430560	0.537037
409.811399	0.545173
410.192176	0.526417
410.572891	0.534320
410.953545	0.521771
411.334138	0.535324
411.714669	0.528022
412.095139	0.540027
412.475547	0.523800
412.855894	0.526666
413.236180	0.525258
413.616405	0.530648
413.996568	0.520288
414.376670	0.527060
414.756711	0.532065
415.136691	0.528361
415.516609	0.519907
415.896466	0.516489
416.276262	0.512689
416.655997	0.513653
417.035670	0.496308
417.415283	0.487199
417.794834	0.492028
418.174324	0.497648
418.553753	0.506877
418.933121	0.489165
419.312428	0.483369
419.691674	0.489026
420.070859	0.476771
420.449983	0.484673
420.829045	0.474496
421.208047	0.483018
421.586988	0.476184
421.965867	0.474464
422.344686	0.463960
422.723444	0.476359
423.102141	0.493324
423.480777	0.466080
423.859352	0.486977
424.237866	0.464595
424.616319	0.464811
424.994712	0.455548
425.373044	0.465645
425.751314	0.454019
426.129524	0.470723
426.507673	0.453441
426.885762	0.447608
427.263789	0.452734
427.641756	0.462658
428.019662	0.452397
428.397508	0.452467
428.775292	0.456853
429.153016	0.448852
429.530679	0.454802
429.908282	0.448193
430.285824	0.458007
430.663305	0.436869
431.040726	0.457715
431.418086	0.457892
431.795385	0.449159
432.172624	0.448735
432.549802	0.448849
432.926920	0.448050
433.303977	0.447027
433.680974	0.444551
434.057910	0.442290
434.434786	0.442247
434.811601	0.445381
435.188355	0.427509
435.565050	0.436511
435.941683	0.438020
436.318257	0.421625
436.694770	0.422853
437.071222	0.420842
437.447614	0.425186
437.823946	0.431930
438.200218	0.420970
438.576429	0.430625
438.952580	0.423446
439.328670	0.420452
439.704700	0.427066
440.080670	0.428302
440.456580	0.409242
440.832429	0.417622
441.208218	0.428208
441.583947	0.417122
441.959616	0.416457
442.335224	0.422247
442.710773	0.412800
443.086261	0.410895
443.461689	0.424997
443.837057	0.414591
444.212365	0.404905
444.587612	0.412274
444.962800	0.401514
445.337927	0.403361
445.712995	0.429687
446.088002	0.391208
446.462949	0.401850
446.837837	0.407051
447.212664	0.395227
447.587431	0.387202
447.962139	0.357216
448.336786	0.316019
448.711374	0.326845
449.085901	0.371182
449.460369	0.375588
449.834776	0.378856
450.209124	0.358098
450.583412	0.350574
450.957640	0.343708
451.331808	0.355066
451.705917	0.378521
452.079965	0.383007
452.453954	0.371565
452.827883	0.378115
453.201752	0.373011
453.575562	0.384119
453.949311	0.372754
454.323001	0.378928
454.696632	0.374739
455.070202	0.367130
455.443713	0.359385
455.817164	0.354041
456.190556	0.349491
456.563888	0.346431
456.937160	0.344042
457.310373	0.361118
457.683526	0.360102
458.056619	0.366149
458.429653	0.366471
458.802628	0.369857
459.175542	0.364395
459.548398	0.346503
459.921194	0.339648
460.293930	0.339405
460.666607	0.316704
461.039224	0.305195
461.411782	0.300335
461.784280	0.300115
462.156719	0.303879
462.529099	0.308708
462.901419	0.324752
463.273680	0.328662
463.645882	0.328542
464.018024	0.334261
464.390106	0.326683
464.762130	0.311700
465.134094	0.294816
465.505999	0.263505
465.877845	0.233656
466.249631	0.220419
466.621358	0.228161
466.993026	0.242190
467.364634	0.248652
467.736184	0.257217
468.107674	0.265981
468.479105	0.265255
468.850477	0.272246
469.221790	0.278727
469.593043	0.289194
469.964238	0.293693
470.335373	0.293450
470.706449	0.291221
471.077467	0.291943
471.448425	0.253962
471.819324	0.229433
472.190164	0.228897
472.560945	0.257582
472.931667	0.280237
473.302330	0.284264
473.672934	0.296423
474.043479	0.284206
474.413965	0.286495
474.784393	0.289638
475.154761	0.284728
475.525070	0.281716
475.895321	0.287664
476.265513	0.281911
476.635645	0.277110
477.005719	0.277254
477.375734	0.273786
477.745691	0.266748
478.115588	0.263221
478.485427	0.256446
478.855207	0.243259
479.224928	0.225815
479.594591	0.214054
479.964194	0.217437
480.333739	0.218548
480.703226	0.220077
481.072653	0.218268
481.442022	0.214104
481.811333	0.210814
482.180584	0.214281
482.549777	0.219730
482.918912	0.223063
483.287988	0.222692
483.657005	0.222303
484.025964	0.228607
484.394864	0.225874
484.763706	0.226803
485.132489	0.231732
485.501213	0.232457
485.869879	0.230822
486.238487	0.233890
486.607036	0.231793
486.975527	0.236664
487.343959	0.232217
487.712333	0.231274
488.080648	0.232691
488.448905	0.231961
488.817104	0.233262
489.185244	0.227562
489.553326	0.224597
489.921350	0.214587
490.289315	0.196973
490.657222	0.191732
491.025070	0.193326
491.392861	0.194975
491.760593	0.200659
492.128267	0.206616
492.495883	0.212162
492.863440	0.218534
493.230939	0.224788
493.598380	0.226161
493.965763	0.228298
494.333088	0.230768
494.700354	0.232431
495.067563	0.231184
495.434713	0.234528
495.801805	0.232131
496.168839	0.234017
496.535815	0.235425
496.902733	0.235489
497.269593	0.236387
497.636395	0.234188
498.003139	0.234704
498.369825	0.237816
498.736453	0.234189
499.103023	0.235867
499.469535	0.235252
499.835989	0.235517
500.202385	0.236127
500.568723	0.239324
500.935003	0.234485
501.301226	0.238869
501.667390	0.233237
502.033497	0.231350
502.399546	0.234190
502.765537	0.236352
503.131470	0.234696
503.497345	0.230887
503.863163	0.239773
504.228923	0.232308
504.594625	0.231197
504.960269	0.236792
505.325856	0.231988
505.691385	0.236320
506.056856	0.233146
506.422270	0.232576
506.787625	0.235279
507.152924	0.232355
507.518164	0.232774
507.883347	0.234407
508.248472	0.236300
508.613540	0.230992
508.978550	0.233797
509.343503	0.234304
509.708398	0.231839
510.073236	0.229340
510.438016	0.229224
510.802738	0.230191
511.167403	0.229208
511.532010	0.231188
511.896561	0.226591
512.261053	0.225283
512.625488	0.227488
512.989866	0.227867
513.354186	0.228256
513.718449	0.230001
514.082655	0.226421
514.446803	0.228821
514.810894	0.226363
515.174927	0.229067
515.538904	0.228203
515.902822	0.225434
516.266684	0.227572
516.630488	0.229006
516.994235	0.227863
517.357925	0.226488
517.721558	0.224621
518.085133	0.224291
518.448651	0.224254
518.812112	0.226548
519.175516	0.226281
519.538863	0.223711
519.902152	0.225620
520.265385	0.222318
520.628560	0.224144
520.991678	0.224316
521.354739	0.223060
521.717743	0.224441
522.080690	0.224966
522.443580	0.222244
522.806413	0.223246
523.169189	0.222749
523.531908	0.221457
523.894569	0.224889
524.257174	0.224824
524.619722	0.222583
524.982213	0.223754
525.344647	0.222403
525.707025	0.223704
526.069345	0.221581
526.431608	0.223369
526.793815	0.221081
527.155964	0.225334
527.518057	0.224382
527.880093	0.225300
528.242072	0.224106
528.603995	0.225970
528.965860	0.227495
529.327669	0.226425
529.689421	0.227367
530.051117	0.228116
530.412755	0.226158
530.774337	0.228062
531.135862	0.228935
531.497331	0.228118
531.858743	0.230972
532.220098	0.227488
532.581396	0.230183
532.942638	0.230688
533.303824	0.231605
533.664953	0.231295
534.026025	0.233250
534.387040	0.231228
534.747999	0.230759
535.108902	0.229569
535.469748	0.235175
535.830537	0.232753
536.191270	0.233050
536.551947	0.232440
536.912567	0.232671
537.273131	0.234486
537.633638	0.234610
537.994089	0.235107
538.354483	0.235470
538.714821	0.232768
539.075103	0.232681
539.435328	0.233426
539.795497	0.237394
540.155609	0.234055
540.515665	0.232020
540.875665	0.237487
541.235609	0.236386
541.595496	0.236052
541.955328	0.232850
542.315102	0.235542
542.674821	0.236588
543.034483	0.236881
543.394090	0.236245
543.753640	0.238151
544.113134	0.232917
544.472571	0.236618
544.831953	0.233229
545.191278	0.237527
545.550548	0.236961
545.909761	0.233851
546.268918	0.234722
546.628019	0.232749
546.987064	0.235742
547.346053	0.237396
547.704986	0.235113
548.063863	0.235401
548.422684	0.235530
548.781449	0.237396
549.140158	0.235400
549.498811	0.237927
549.857408	0.241141
550.215949	0.235372
550.574434	0.238770
550.932864	0.236865
551.291237	0.235191
551.649555	0.236755
552.007817	0.236556
552.366022	0.237460
552.724173	0.237450
553.082267	0.237904
553.440305	0.234549
553.798288	0.238944
554.156215	0.235694
554.514086	0.236407
554.871902	0.239712
555.229661	0.238591
555.587365	0.239433
555.945014	0.242053
556.302606	0.238842
556.660143	0.241678
557.017625	0.238038
557.375050	0.240211
557.732421	0.237265
558.089735	0.239050
558.446994	0.238977
558.804197	0.238646
559.161345	0.238147
559.518437	0.241700
559.875474	0.239812
560.232455	0.239519
560.589381	0.239995
560.946251	0.240436
561.303065	0.237998
561.659825	0.239255
562.016528	0.241145
562.373177	0.243756
562.729770	0.240953
563.086307	0.242730
563.442789	0.240917
563.799216	0.243796
564.155587	0.242600
564.511904	0.243721
564.868164	0.243876
565.224370	0.243294
565.580520	0.245210
565.936615	0.245149
566.292654	0.247916
566.648638	0.245033
567.004567	0.246013
567.360441	0.246673
567.716260	0.248422
568.072023	0.246249
568.427732	0.247033
568.783385	0.249496
569.138982	0.247482
569.494525	0.247184
569.850013	0.250160
570.205445	0.248603
570.560823	0.251059
570.916145	0.253335
571.271412	0.251461
571.626625	0.253106
571.981782	0.253325
572.336884	0.254231
572.691931	0.253952
573.046923	0.255490
573.401860	0.256502
573.756743	0.258160
574.111570	0.256919
574.466342	0.257627
574.821059	0.256753
575.175722	0.259722
575.530330	0.259212
575.884882	0.259635
576.239380	0.261164
576.593823	0.262137
576.948211	0.261518
577.302544	0.264670
577.656823	0.264429
578.011047	0.264267
578.365216	0.265470
578.719330	0.267326
579.073389	0.267010
579.427394	0.268485
579.781344	0.268699
580.135239	0.270208
580.489080	0.270085
580.842866	0.273142
581.196597	0.273250
581.550273	0.271776
581.903895	0.272670
582.257463	0.270688
582.610975	0.274314
582.964434	0.273556
583.317837	0.275901
583.671186	0.276462
584.024481	0.276714
584.377721	0.278868
584.730906	0.279855
585.084037	0.278872
585.437113	0.280795
585.790135	0.280143
586.143103	0.283351
586.496016	0.284286
586.848874	0.281758
587.201679	0.282425
587.554428	0.285872
587.907124	0.284824
588.259765	0.285408
588.612352	0.285499
588.964884	0.289640
589.317362	0.289139
589.669786	0.288920
590.022155	0.287659
590.374470	0.286922
590.726731	0.289048
591.078937	0.293977
591.431090	0.290593
591.783188	0.294315
592.135232	0.294754
592.487222	0.294765
592.839157	0.292848
593.191038	0.295099
593.542866	0.297204
593.894639	0.300264
594.246358	0.298932
594.598022	0.298050
594.949633	0.301884
595.301190	0.302469
595.652692	0.301481
596.004141	0.297719
596.355535	0.305618
596.706876	0.306615
597.058162	0.308649
597.409395	0.306362
597.760573	0.303830
598.111698	0.307024
598.462768	0.307633
598.813785	0.308727
599.164748	0.310461
599.515657	0.310195
599.866511	0.313916
600.217312	0.309147
600.568060	0.314518
600.918753	0.310799
601.269392	0.311807
601.619978	0.314980
601.970510	0.312844
602.320988	0.312663
602.671412	0.310552
603.021783	0.312844
603.372100	0.314313
603.722363	0.314104
604.072572	0.314675
604.422728	0.314630
604.772830	0.316808
605.122878	0.316654
605.472872	0.316866
605.822813	0.315460
606.172701	0.317999
606.522534	0.315404
606.872314	0.315457
607.222041	0.316531
607.571714	0.314595
607.921333	0.316021
608.270899	0.315861
608.620411	0.312382
608.969870	0.316670
609.319276	0.316150
609.668627	0.316174
610.017926	0.314834
610.367171	0.312886
610.716362	0.314155
611.065500	0.314270
611.414585	0.313399
611.763616	0.313427
612.112594	0.314040
612.461518	0.313108
612.810389	0.311181
613.159207	0.313302
613.507971	0.314587
613.856682	0.310927
614.205340	0.312143
614.553945	0.309482
614.902496	0.313158
615.250994	0.311163
615.599439	0.311761
615.947830	0.311147
616.296169	0.312447
616.644454	0.312042
616.992686	0.312027
617.340864	0.310127
617.688990	0.313373
618.037063	0.309866
618.385082	0.311887
618.733048	0.308810
619.080961	0.310901
619.428821	0.310471
619.776628	0.310154
620.124382	0.312147
620.472083	0.312661
620.819731	0.312297
621.167326	0.315729
621.514868	0.315538
621.862357	0.319567
622.209793	0.318882
622.557176	0.321869
622.904506	0.322732
623.251783	0.325357
623.599007	0.327108
623.946179	0.326744
624.293297	0.329080
624.640363	0.333035
624.987376	0.333499
625.334336	0.335789
625.681243	0.338735
626.028097	0.338790
626.374899	0.339777
626.721647	0.340195
627.068343	0.343250
627.414987	0.344258
627.761577	0.346698
628.108115	0.344626
628.454600	0.349877
628.801032	0.347314
629.147412	0.349009
629.493739	0.349939
629.840014	0.352666
630.186236	0.349823
630.532405	0.356083
630.878521	0.353163
631.224585	0.355468
631.570597	0.358997
631.916556	0.357179
632.262462	0.356961
632.608316	0.359981
632.954117	0.360529
633.299866	0.361264
633.645562	0.362194
633.991206	0.365793
634.336797	0.369075
634.682336	0.371438
635.027823	0.372970
635.373257	0.373535
635.718639	0.377165
636.063968	0.376602
636.409245	0.382388
636.754470	0.382715
637.099642	0.385056
637.444762	0.388433
637.789829	0.387867
638.134845	0.391389
638.479808	0.391766
638.824719	0.392065
639.169577	0.396059
639.514383	0.394974
639.859137	0.399463
640.203839	0.398409
640.548489	0.399844
640.893086	0.400567
641.237632	0.402611
641.582125	0.401226
641.926566	0.403026
642.270955	0.402930
642.615292	0.402843
642.959576	0.402203
643.303809	0.402818
643.647990	0.402254
643.992118	0.403057
644.336195	0.406156
644.680219	0.405209
645.024192	0.404995
645.368112	0.399308
645.711981	0.397907
646.055797	0.392947
646.399562	0.395422
646.743274	0.388087
647.086935	0.384888
647.430544	0.385069
647.774101	0.383760
648.117606	0.384208
648.461059	0.384467
648.804460	0.386676
649.147810	0.391768
649.491108	0.393777
649.834354	0.395275
650.177548	0.400290
650.520690	0.406056
650.863781	0.407058
651.206820	0.406295
651.549807	0.410925
651.892742	0.415062
652.235626	0.414585
652.578458	0.415388
652.921238	0.422129
653.263967	0.419308
653.606644	0.423240
653.949269	0.422949
654.291843	0.426772
654.634365	0.424170
654.976836	0.426845
655.319255	0.427885
655.661622	0.429142
656.003938	0.429088
656.346203	0.431728
656.688416	0.429547
657.030577	0.432663
657.372687	0.435098
657.714746	0.436123
658.056753	0.433113
658.398708	0.436280
658.740612	0.438158
659.082465	0.434241
659.424266	0.434553
659.766016	0.434589
660.107715	0.437100
660.449362	0.436029
660.790958	0.435962
661.132503	0.437073
661.473996	0.434455
661.815438	0.435582
662.156829	0.436070
662.498168	0.436135
662.839456	0.437831
663.180693	0.435563
663.521879	0.435102
663.863013	0.436403
664.204097	0.434529
664.545129	0.431844
664.886110	0.431984
665.227040	0.429621
665.567918	0.431663
665.908746	0.429678
666.249522	0.429478
666.590248	0.431004
666.930922	0.429196
667.271545	0.427501
667.612118	0.427454
667.952639	0.429782
668.293109	0.427975
668.633528	0.430592
668.973896	0.430159
669.314213	0.431468
669.654480	0.433247
669.994695	0.432789
670.334859	0.433913
670.674973	0.434918
671.015035	0.433713
671.355047	0.434599
671.695008	0.434843
672.034918	0.437010
672.374777	0.436244
672.714585	0.437556
673.054342	0.437799
673.394049	0.437610
673.733705	0.435138
674.073310	0.436246
674.412864	0.439343
674.752368	0.440046
675.091820	0.440447
675.431223	0.445380
675.770574	0.444729
676.109875	0.447939
676.449125	0.447828
676.788324	0.450263
677.127473	0.455289
677.466571	0.455185
677.805619	0.456818
678.144616	0.458378
678.483562	0.460069
678.822458	0.462443
679.161303	0.462962
679.500098	0.463381
679.838842	0.464942
680.177535	0.464619
680.516179	0.463246
680.854771	0.461647
681.193314	0.454971
681.531805	0.447006
681.870247	0.435857
682.208638	0.428433
682.546978	0.426985
682.885268	0.428470
683.223508	0.434667
683.561697	0.439157
683.899836	0.441176
684.237925	0.444509
684.575963	0.447290
684.913951	0.450524
685.251889	0.445591
685.589776	0.447966
685.927614	0.449866
686.265401	0.444676
686.603137	0.446008
686.940824	0.440569
687.278460	0.438421
687.616046	0.437474
687.953582	0.432611
688.291068	0.434448
688.628504	0.429320
688.965889	0.432052
689.303224	0.436335
689.640510	0.439588
689.977745	0.445538
690.314930	0.453577
690.652065	0.458500
690.989150	0.465094
691.326185	0.472448
691.663170	0.476892
692.000105	0.484394
692.336990	0.491241
692.673825	0.493697
693.010610	0.500803
693.347345	0.506505
693.684030	0.508069
694.020665	0.512025
694.357251	0.521025
694.693786	0.521206
695.030272	0.524003
695.366707	0.528630
695.703093	0.532434
696.039429	0.529011
696.375716	0.532025
696.711952	0.534384
697.048139	0.536389
697.384276	0.538708
697.720363	0.536482
698.056400	0.535356
698.392388	0.541337
698.728326	0.543968
699.064214	0.546422
699.400053	0.546992
699.735842	0.551511
700.071581	0.554120
700.407270	0.557095
700.742910	0.560172
701.078501	0.565848
701.414042	0.566305
701.749533	0.570042
702.084974	0.578318
702.420366	0.571212
702.755709	0.578709
703.091002	0.586484
703.426246	0.579862
703.761440	0.584437
704.096584	0.590848
704.431679	0.587136
704.766725	0.589621
705.101721	0.591536
705.436668	0.588384
705.771565	0.594482
706.106413	0.590921
706.441212	0.586744
706.775961	0.585375
707.110661	0.587333
707.445311	0.585060
707.779913	0.581675
708.114465	0.580187
708.448967	0.576361
708.783421	0.568959
709.117825	0.563186
709.452180	0.563022
709.786485	0.557461
710.120742	0.546599
710.454949	0.548613
710.789107	0.540606
711.123216	0.531064
711.457275	0.532505
711.791286	0.524469
712.125247	0.524078
712.459159	0.533909
712.793023	0.525988
713.126837	0.530559
713.460602	0.530895
713.794318	0.540150
714.127985	0.539203
714.461602	0.549821
714.795171	0.552642
715.128691	0.560384
715.462162	0.568389
715.795584	0.574138
716.128957	0.576962
716.462281	0.583488
716.795556	0.586593
717.128782	0.591976
717.461960	0.601640
717.795088	0.600546
718.128167	0.606273
718.461198	0.614453
718.794180	0.616072
719.127113	0.618421
719.459997	0.621539
719.792833	0.627750
720.125619	0.629327
720.458357	0.634559
720.791046	0.634861
721.123686	0.638197
721.456278	0.645037
721.788821	0.642697
722.121315	0.647492
722.453761	0.651778
722.786158	0.648575
723.118506	0.644860
723.450805	0.653571
723.783056	0.649442
724.115259	0.646460
724.447412	0.647090
724.779518	0.647565
725.111574	0.646504
725.443582	0.642045
725.775542	0.644683
726.107453	0.636346
726.439315	0.636546
726.771129	0.634265
727.102895	0.627408
727.434612	0.620278
727.766281	0.618880
728.097901	0.617700
728.429473	0.618091
728.760996	0.616539
729.092471	0.616140
729.423897	0.620030
729.755276	0.618502
730.086606	0.619293
730.417887	0.614014
730.749120	0.604964
731.080305	0.594922
731.411442	0.590641
731.742530	0.594641
732.073570	0.595229
732.404562	0.587134
732.735506	0.588845
733.066401	0.593892
733.397249	0.602265
733.728048	0.613580
734.058798	0.626990
734.389501	0.638129
734.720156	0.647061
735.050762	0.655005
735.381320	0.656638
735.711831	0.664947
736.042293	0.670334
736.372707	0.667183
736.703073	0.671366
737.033391	0.672403
737.363661	0.669522
737.693883	0.664894
738.024056	0.664054
738.354182	0.664426
738.684260	0.653667
739.014290	0.650000
739.344272	0.650491
739.674207	0.643749
740.004093	0.643625
740.333931	0.644682
740.663722	0.643948
740.993464	0.644385
741.323159	0.648235
741.652806	0.652807
741.982405	0.657998
742.311956	0.663283
742.641460	0.664712
742.970915	0.668642
743.300323	0.675683
743.629683	0.682235
743.958996	0.684572
744.288260	0.688954
744.617477	0.695199
744.946647	0.697310
745.275768	0.702580
745.604842	0.701752
745.933869	0.711740
746.262847	0.713679
746.591778	0.705948
746.920662	0.712998
747.249498	0.719667
747.578286	0.711230
747.907027	0.706752
748.235720	0.706834
748.564365	0.702673
748.892963	0.701642
749.221514	0.704848
749.550017	0.708895
749.878473	0.709592
750.206881	0.716833
750.535242	0.716763
750.863555	0.715698
751.191821	0.717861
751.520039	0.720820
751.848210	0.725376
752.176334	0.718790
752.504411	0.717546
752.832440	0.725801
753.160421	0.729605
753.488356	0.727843
753.816243	0.724684
754.144082	0.733709
754.471875	0.736928
754.799620	0.732932
755.127318	0.734213
755.454969	0.733906
755.782572	0.734797
756.110129	0.738196
756.437638	0.741419
756.765100	0.737765
757.092515	0.734820
757.419882	0.734590
757.747203	0.740496
758.074477	0.740075
758.401703	0.736195
758.728882	0.731635
759.056014	0.730698
759.383099	0.729371
759.710138	0.730364
760.037129	0.725196
760.364073	0.721007
760.690970	0.722931
761.017820	0.728098
761.344623	0.724758
761.671379	0.715775
761.998088	0.703795
762.324751	0.679893
762.651366	0.636767
762.977935	0.569709
763.304456	0.517947
763.630931	0.508508
763.957359	0.547778
764.283740	0.591677
764.610074	0.619253
764.936362	0.651260
765.262602	0.679948
765.588796	0.700599
765.914943	0.718160
766.241044	0.735818
766.567097	0.742226
766.893104	0.753175
767.219064	0.759240
767.544978	0.766009
767.870845	0.779215
768.196665	0.783464
768.522438	0.781374
768.848165	0.782641
769.173846	0.792306
769.499479	0.796520
769.825066	0.800909
770.150607	0.804534
770.476101	0.799697
770.801548	0.800646
771.126949	0.813186
771.452303	0.817224
771.777611	0.815622
772.102872	0.814532
772.428087	0.820607
772.753256	0.824292
773.078378	0.825767
773.403453	0.834794
773.728482	0.839526
774.053465	0.832025
774.378401	0.835959
774.703291	0.845149
775.028135	0.845184
775.352932	0.844688
775.677683	0.850241
776.002388	0.850170
776.327046	0.849236
776.651658	0.853467
776.976224	0.856346
777.300743	0.854971
777.625216	0.858187
777.949643	0.861368
778.274024	0.858619
778.598359	0.861680
778.922647	0.859182
779.246889	0.860909
779.571086	0.864660
779.895236	0.866807
780.219339	0.864403
780.543397	0.859699
780.867409	0.859329
781.191374	0.861508
781.515294	0.862832
781.839167	0.861938
782.162995	0.865125
782.486776	0.861682
782.810511	0.863010
783.134201	0.867247
783.457844	0.864705
783.781441	0.867475
784.104993	0.872755
784.428498	0.874320
784.751958	0.870862
785.075372	0.871679
785.398739	0.876083
785.722061	0.869888
786.045337	0.867447
786.368568	0.872321
786.691752	0.873865
787.014891	0.859695
787.337983	0.850809
787.661030	0.844283
787.984031	0.825621
788.306987	0.813584
788.629897	0.815261
788.952760	0.819859
789.275579	0.823868
789.598351	0.839787
789.921078	0.853152
790.243759	0.854181
790.566395	0.858202
790.888984	0.866508
791.211529	0.871423
791.534027	0.874901
791.856480	0.877294
792.178888	0.881333
792.501249	0.883738
792.823566	0.886342
793.145836	0.886816
793.468062	0.887898
793.790241	0.889260
794.112375	0.885594
794.434464	0.883217
794.756507	0.881940
795.078505	0.879448
795.400457	0.875293
795.722364	0.862789
796.044226	0.856613
796.366042	0.855266
796.687812	0.857636
797.009538	0.853592
797.331218	0.857853
797.652852	0.861668
797.974442	0.866804
798.295986	0.867154
798.617484	0.867512
798.938938	0.874949
799.260346	0.879949
799.581709	0.880596
799.903026	0.883545
800.224299	0.884175
800.545526	0.887771
800.866708	0.892049
801.187845	0.895901
801.508936	0.895195
801.829983	0.892311
802.150984	0.897022
802.471940	0.900860
802.792851	0.900615
803.113717	0.902069
803.434538	0.898614
803.755314	0.902808
804.076045	0.903848
804.396731	0.904244
804.717372	0.901408
805.037967	0.905636
805.358518	0.902926
805.679024	0.898615
805.999485	0.899904
806.319901	0.900010
806.640272	0.901953
806.960598	0.900536
807.280879	0.897277
807.601115	0.894930
807.921306	0.899842
808.241453	0.899270
808.561554	0.898498
808.881611	0.896841
809.201623	0.899310
809.521590	0.899299
809.841513	0.901048
810.161390	0.899394
810.481223	0.900452
810.801011	0.905165
811.120755	0.905656
811.440453	0.904118
811.760107	0.904767
812.079716	0.903255
812.399281	0.907701
812.718801	0.909348
813.038276	0.910518
813.357707	0.910433
813.677093	0.908550
813.996434	0.910536
814.315731	0.912006
814.634983	0.912187
814.954191	0.912825
815.273354	0.907300
815.592473	0.904881
815.911547	0.905289
816.230577	0.902745
816.549562	0.898320
816.868502	0.898641
817.187399	0.896998
817.506250	0.891290
817.825058	0.892729
818.143821	0.888438
818.462539	0.883529
818.781213	0.876006
819.099843	0.864938
819.418429	0.849037
819.736970	0.832004
820.055466	0.811075
820.373919	0.785112
820.692327	0.750329
821.010691	0.715546
821.329011	0.634377
821.647286	0.517389
821.965517	0.402658
822.283704	0.359290
822.601847	0.359995
822.919945	0.395401
823.237999	0.430387
823.556010	0.478776
823.873976	0.535513
824.191897	0.586399
824.509775	0.631554
824.827609	0.676845
825.145398	0.699892
825.463144	0.701613
825.780845	0.684063
826.098502	0.666394
826.416116	0.619848
826.733685	0.575195
827.051210	0.565369
827.368692	0.580875
827.686129	0.619004
828.003522	0.674126
828.320872	0.722859
828.638177	0.766700
828.955439	0.799971
829.272656	0.822067
829.589830	0.839888
829.906960	0.856632
830.224046	0.868125
830.541088	0.879896
830.858086	0.885136
831.175041	0.891895
831.491952	0.889200
831.808819	0.886065
832.125642	0.878245
832.442421	0.864754
832.759157	0.842200
833.075849	0.792841
833.392497	0.728810
833.709101	0.687357
834.025662	0.697272
834.342179	0.729927
834.658653	0.770402
834.975083	0.806455
835.291469	0.833891
835.607811	0.856906
835.924110	0.873312
836.240366	0.890330
836.556578	0.904490
836.872746	0.911036
837.188871	0.918358
837.504952	0.923452
837.820990	0.927626
838.136984	0.929027
838.452935	0.934209
838.768842	0.935903
839.084706	0.929236
839.400526	0.903330
839.716303	0.859937
840.032037	0.838959
840.347727	0.842036
840.663373	0.859605
840.978977	0.882052
841.294537	0.905876
841.610054	0.921539
841.925527	0.929856
842.240957	0.936597
842.556344	0.945128
842.871687	0.948905
843.186987	0.953234
843.502244	0.954449
843.817458	0.956320
844.132629	0.961661
844.447756	0.963814
844.762840	0.965378
845.077881	0.966162
845.392879	0.963656
845.707833	0.967444
846.022745	0.968669
846.337613	0.969393
846.652438	0.969655
846.967221	0.970128
847.281960	0.970822
847.596656	0.972434
847.911309	0.971462
848.225919	0.971501
848.540485	0.974633
848.855009	0.974750
849.169490	0.973744
849.483928	0.973211
849.798323	0.973198
850.112675	0.976437
850.426984	0.973788
850.741251	0.975469
851.055474	0.975216
851.369654	0.974139
851.683792	0.973151
851.997887	0.974890
852.311938	0.976104
852.625947	0.974036
852.939914	0.972392
853.253837	0.975088
853.567718	0.974349
853.881555	0.974828
854.195350	0.973678
854.509103	0.975354
854.822812	0.974564
855.136479	0.975857
855.450103	0.974535
855.763685	0.974929
856.077224	0.974566
856.390720	0.975425
856.704173	0.975585
857.017584	0.973052
857.330953	0.972583
857.644278	0.972239
857.957561	0.972238
858.270802	0.973648
858.584000	0.973883
858.897155	0.972177
859.210268	0.971369
859.523339	0.974375
859.836367	0.974239
860.149352	0.975040
860.462295	0.974607
860.775195	0.975437
861.088054	0.972923
861.400869	0.975518
861.713642	0.975294
862.026373	0.975824
862.339062	0.976075
862.651708	0.975189
862.964312	0.973190
863.276873	0.973675
863.589392	0.973106
863.901869	0.970618
864.214303	0.969333
864.526696	0.968047
864.839045	0.968055
865.151353	0.967421
865.463619	0.965339
865.775842	0.967055
866.088023	0.968603
866.400162	0.966513
866.712258	0.968441
867.024313	0.967336
867.336325	0.969577
867.648296	0.968838
867.960224	0.966946
868.272110	0.966372
868.583954	0.969213
868.895755	0.968984
869.207515	0.966986
869.519233	0.965623
869.830909	0.964123
870.142542	0.966096
870.454134	0.965876
870.765684	0.964630
871.077191	0.963779
871.388657	0.962913
871.700081	0.963128
872.011463	0.963530
872.322803	0.962692
872.634101	0.960650
872.945357	0.957908
873.256571	0.957234
873.567744	0.957528
873.878874	0.957857
874.189963	0.957398
874.501010	0.957469
874.812015	0.954745
875.122979	0.954809
875.433900	0.957307
875.744780	0.958200
876.055618	0.954467
876.366415	0.953767
876.677169	0.953894
876.987882	0.955661
877.298554	0.955417
877.609183	0.951049
877.919771	0.949166
878.230317	0.947182
878.540822	0.944366
878.851285	0.938747
879.161707	0.929675
879.472087	0.918141
879.782425	0.899639
880.092722	0.865662
880.402977	0.812217
880.713191	0.747044
881.023363	0.686620
881.333494	0.650557
881.643583	0.623777
881.953631	0.624065
882.263637	0.652624
882.573602	0.692785
882.883526	0.718475
883.193408	0.744205
883.503248	0.768034
883.813048	0.796267
884.122806	0.826618
884.432522	0.851148
884.742197	0.870945
885.051831	0.882860
885.361424	0.894274
885.670975	0.907142
885.980485	0.915527
886.289954	0.921626
886.599382	0.926298
886.908768	0.931524
887.218113	0.936009
887.527417	0.941563
887.836680	0.945459
888.145901	0.947350
888.455082	0.950250
888.764221	0.954620
889.073319	0.956917
889.382376	0.957418
889.691392	0.955170
890.000366	0.958118
890.309300	0.958210
890.618193	0.956951
890.927044	0.956095
891.235855	0.956448
891.544625	0.956276
891.853353	0.956372
892.162041	0.953173
892.470687	0.947314
892.779293	0.941051
893.087858	0.936254
893.396381	0.927831
893.704864	0.914010
894.013306	0.889638
894.321707	0.862636
894.630068	0.847520
894.938387	0.842321
895.246665	0.844069
895.554903	0.856744
895.863100	0.871008
896.171256	0.888114
896.479371	0.907653
896.787446	0.920811
897.095480	0.927807
897.403473	0.930428
897.711425	0.935743
898.019336	0.942252
898.327207	0.947278
898.635038	0.946610
898.942827	0.949291
899.250576	0.952269
899.558284	0.956661
899.865952	0.956804
900.173579	0.959329
900.481165	0.959334
900.788711	0.963185
901.096216	0.966164
901.403681	0.967511
901.711105	0.965671
902.018489	0.967104
902.325832	0.966744
902.633135	0.964176
902.940397	0.959758
903.247619	0.945748
903.554800	0.921242
903.861941	0.878554
904.169041	0.841543
904.476101	0.823586
904.783121	0.824071
905.090100	0.841271
905.397039	0.863508
905.703938	0.885704
906.010796	0.906524
906.317614	0.924557
906.624391	0.938100
906.931129	0.946690
907.237826	0.956019
907.544483	0.962353
907.851099	0.967473
908.157675	0.971266
908.464211	0.974782
908.770707	0.975109
909.077163	0.978704
909.383578	0.979591
909.689954	0.979465
909.996289	0.981076
910.302584	0.982599
910.608839	0.984765
910.915054	0.983140
911.221229	0.984159
911.527363	0.980900
911.833458	0.982352
912.139513	0.981520
912.445527	0.981448
912.751502	0.980202
913.057436	0.977369
913.363331	0.975492
913.669186	0.971374
913.975000	0.966022
914.280775	0.960489
914.586510	0.951539
914.892205	0.938194
915.197859	0.914908
915.503475	0.886438
915.809050	0.866949
916.114585	0.860610
916.420081	0.857581
916.725536	0.854687
917.030952	0.863130
917.336328	0.876169
917.641665	0.891832
917.946961	0.908049
918.252218	0.919852
918.557435	0.929154
918.862612	0.937596
919.167750	0.944543
919.472848	0.951126
919.777906	0.958177
920.082925	0.961559
920.387904	0.965579
920.692843	0.966169
920.997743	0.968234
921.302603	0.970788
921.607423	0.973073
921.912204	0.976110
922.216946	0.977079
922.521647	0.978433
922.826310	0.979051
923.130932	0.981837
923.435516	0.984469
923.740059	0.985161
924.044564	0.983220
924.349028	0.985090
924.653454	0.987908
924.957840	0.989782
925.262186	0.989788
925.566493	0.989629
925.870761	0.989998
926.174989	0.990876
926.479178	0.994035
926.783328	0.994061
927.087438	0.992436
927.391509	0.993549
927.695541	0.994358
927.999533	0.995123
928.303486	0.995201
928.607400	0.994573
928.911275	0.996130
929.215110	0.996107
929.518906	0.996438
929.822663	0.995902
930.126381	0.996008
930.430060	0.995640
930.733699	0.996212
931.037299	0.996563
931.340861	0.995570
931.644383	0.993853
931.947866	0.995065
932.251309	0.995890
932.554714	0.995440
932.858080	0.996028
933.161407	0.993626
933.464694	0.996665
933.767943	0.996778
934.071153	0.996310
934.374323	0.996804
934.677455	0.997595
934.980548	0.996754
935.283602	0.996963
935.586617	0.995722
935.889593	0.997721
936.192530	0.998444
936.495428	0.995980
936.798287	0.995918
937.101108	0.995953
937.403890	0.993757
937.706632	0.995557
938.009336	0.992665
938.312002	0.989944
938.614628	0.988874
938.917216	0.988650
939.219765	0.987623
939.522275	0.987754
939.824747	0.987459
940.127179	0.987663
940.429573	0.990387
940.731929	0.988977
941.034246	0.989475
941.336524	0.989782
941.638763	0.989451
941.940964	0.990992
942.243126	0.992105
942.545250	0.992044
942.847335	0.992559
943.149381	0.993864
943.451389	0.993242
943.753359	0.993830
944.055290	0.995436
944.357182	0.995208
944.659036	0.995295
944.960851	0.995501
945.262628	0.996740
945.564367	0.993599
945.866067	0.994962
946.167729	0.995170
946.469352	0.995729
946.770937	0.993791
947.072484	0.996130
947.373992	0.995328
947.675462	0.994668
947.976893	0.995481
948.278286	0.997485
948.579641	0.997877
948.880958	0.996699
949.182236	0.997396
949.483476	0.996832
949.784678	0.998055
950.085841	0.998070
950.386967	0.996032
950.688054	0.997942
950.989103	0.995233
951.290114	0.994121
951.591087	0.995180
951.892021	0.993095
952.192917	0.995204
952.493776	0.993423
952.794596	0.992978
953.095378	0.992417
953.396122	0.992634
953.696828	0.994066
953.997496	0.994819
954.298126	0.996157
954.598718	0.995358
954.899272	0.996428
955.199788	0.995489
955.500266	0.997336
955.800706	0.998662
956.101108	0.997803
956.401472	0.999803
956.701798	0.998508
957.002087	0.998452
957.302337	0.999723
957.602550	1.000026
957.902724	1.000888
958.202861	1.000583
958.502960	1.001549
958.803022	1.002439
959.103045	1.001614
959.403031	1.001280
959.702979	1.001416
960.002889	1.000778
960.302762	1.001356
960.602596	1.002320
960.902393	1.002520
961.202153	1.001930
961.501875	1.003084
961.801559	1.002283
962.101205	1.000946
962.400814	1.002745
962.700385	1.003241
962.999918	1.002769
963.299414	1.001075
963.598873	1.002560
963.898293	1.002409
964.197677	1.002791
964.497022	1.003066
964.796331	1.002338
965.095601	1.003684
965.394835	1.002231
965.694030	1.003400
965.993189	1.002235
966.292309	1.003753
966.591393	1.002184
966.890439	1.003642
967.189447	1.002277
967.488419	1.003220
967.787353	1.003434
968.086249	1.003276
968.385108	1.003778
968.683930	1.003740
968.982714	1.002672
969.281462	1.002795
969.580172	1.002975
969.878844	1.003758
970.177480	1.002628
970.476078	1.003981
970.774639	1.003563
971.073162	1.001876
971.371649	1.002410
971.670098	1.002419
971.968510	1.002812
972.266885	1.001142
972.565223	1.001914
972.863524	1.001082
973.161788	1.002146
973.460014	1.002310
973.758204	1.002336
974.056356	1.002786
974.354471	1.001820
974.652550	1.002732
974.950591	1.001881
975.248595	1.001899
975.546563	1.002932
975.844493	1.003136
976.142386	1.002479
976.440243	1.002825
976.738062	1.002993
977.035845	1.002649
977.333590	1.004195
977.631299	1.002461
977.928971	1.002989
978.226606	1.003205
978.524204	1.003643
978.821765	1.004274
979.119290	1.003467
979.416777	1.002573
979.714228	1.002717
980.011642	1.003558
980.309020	1.003948
980.606360	1.002692
980.903664	1.001695
981.200931	1.001923
981.498162	1.001135
981.795356	1.001782
982.092513	1.000913
982.389633	1.001936
982.686717	0.996813
982.983764	0.997515
983.280775	0.996362
983.577749	0.996197
983.874686	0.997551
984.171587	0.996971
984.468451	0.999109
984.765279	0.999769
985.062070	1.001708
985.358824	1.001148
985.655543	1.001282
985.952224	1.002085
986.248869	1.002591
986.545478	1.003122
986.842050	1.002284
987.138586	1.002423
987.435086	1.002764
987.731549	1.003691
988.027975	1.004153
988.324366	1.004390
988.620719	1.005742
988.917037	1.003515
989.213318	1.004120
989.509563	1.004141
989.805772	1.003546
990.101944	1.004666
990.398080	1.004091
990.694180	1.005226
990.990244	1.003809
991.286271	1.003922
991.582262	1.004965
991.878217	1.003850
992.174136	1.004953
992.470019	1.004141
992.765865	1.004865
993.061676	1.004352
993.357450	1.004558
993.653188	1.004420
993.948890	1.003676
994.244556	1.003712
994.540186	1.003488
994.835780	1.002862
995.131337	1.004224
995.426859	1.002404
995.722345	1.002768
996.017795	1.002367
996.313208	1.001412
996.608586	1.001617
996.903928	1.002816
997.199234	1.002130
997.494504	1.003114
997.789738	1.002509
998.084936	1.002496
998.380099	1.002897
998.675225	1.004073
998.970316	1.004017
999.265371	1.003178
999.560390	1.003058
999.855373	1.003005
1000.150320	1.003667
1000.445232	1.004686
1000.740108	1.004548
1001.034948	1.004514
1001.329752	1.004734
1001.624521	1.003615
1001.919254	1.004022
1002.213951	1.005052
1002.508613	1.003647
1002.803239	1.006186
1003.097829	1.004630
1003.392384	1.004630
1003.686903	1.004281
1003.981386	1.004260
1004.275834	1.005711
1004.570246	1.002749
1004.864623	1.005322
1005.158964	1.004363
1005.453270	1.004956
1005.747540	1.004197
1006.041775	1.004208
1006.335974	1.005655
1006.630138	1.004719
1006.924266	1.004028
1007.218359	1.003080
1007.512416	1.005329
1007.806438	1.004869
1008.100425	1.004302
1008.394376	1.005757
1008.688292	1.004528
1008.982172	1.004668
1009.276017	1.005296
1009.569827	1.005967
1009.863602	1.004198
1010.157341	1.006367
1010.451045	1.004024
1010.744714	1.006368
1011.038347	1.004812
1011.331945	1.003791
1011.625508	1.004853
1011.919036	1.004526
1012.212528	1.005969
1012.505986	1.004577
1012.799408	1.005693
1013.092795	1.004643
1013.386147	1.005043
1013.679464	1.005518
1013.972745	1.005457
1014.265992	1.005073
1014.559204	1.004684
1014.852380	1.005184
1015.145521	1.005005
1015.438628	1.004314
1015.731699	1.003596
1016.024736	1.004385
1016.317737	1.004646
1016.610703	1.005336
1016.903635	1.003979
1017.196531	1.005508
1017.489393	1.003396
1017.782219	1.004199
1018.075011	1.003885
1018.367768	1.004162
1018.660490	1.003884
1018.953177	1.003884
1019.245829	1.003884
