Dividing Wavelength (nm)	Counts (n)	Blue Motor Position (mm): 31.800000	Red Motor Position (mm): 0.000000	
326.493990	1.000591
326.888308	1.000591
327.282561	1.000591
327.676750	1.000828
328.070874	1.001169
328.464933	1.002033
328.858929	1.001226
329.252859	1.001305
329.646726	1.001043
330.040528	1.000873
330.434265	1.001232
330.827938	1.000283
331.221547	1.001372
331.615091	1.000965
332.008571	1.000943
332.401986	0.999493
332.795338	0.999671
333.188625	0.999996
333.581847	1.000965
333.975006	1.000661
334.368100	1.000635
334.761129	0.999219
335.154095	1.000766
335.546996	1.000416
335.939833	0.998380
336.332606	0.999782
336.725315	0.998574
337.117960	1.000084
337.510540	0.999349
337.903056	1.001172
338.295508	1.000792
338.687896	1.000174
339.080220	0.999647
339.472480	0.999833
339.864676	1.000569
340.256807	0.998915
340.648875	1.000926
341.040879	0.999691
341.432818	0.999814
341.824694	1.000734
342.216506	0.999717
342.608253	0.999141
342.999937	0.999367
343.391557	0.999339
343.783113	1.002401
344.174605	0.999292
344.566033	0.998911
344.957397	1.000329
345.348697	0.999353
345.739934	1.000730
346.131106	0.999407
346.522215	0.999471
346.913260	0.998753
347.304241	0.998908
347.695159	0.999750
348.086012	0.999509
348.476802	0.999610
348.867528	0.998995
349.258191	1.000240
349.648789	0.999531
350.039324	0.999523
350.429796	0.999181
350.820203	0.999444
351.210548	0.997984
351.600828	0.999459
351.991045	0.998946
352.381198	1.000361
352.771288	1.000244
353.161314	0.998976
353.551276	0.999299
353.941175	0.998353
354.331010	1.000030
354.720782	0.999023
355.110490	0.999776
355.500135	0.999462
355.889717	0.999048
356.279235	0.997788
356.668689	0.999066
357.058080	0.998356
357.447408	0.998216
357.836672	0.999205
358.225873	0.997971
358.615010	0.999135
359.004084	0.997767
359.393095	0.999059
359.782043	0.998042
360.170927	0.998980
360.559748	0.999264
360.948505	0.997868
361.337199	0.998330
361.725830	0.999825
362.114398	0.998765
362.502903	0.997846
362.891344	0.996797
363.279722	0.997713
363.668037	0.999350
364.056289	0.997463
364.444478	0.999121
364.832603	0.997598
365.220665	0.998588
365.608665	0.996509
365.996601	0.997650
366.384474	0.996877
366.772284	0.997234
367.160031	0.995143
367.547715	0.997527
367.935336	0.994789
368.322893	0.994640
368.710388	0.994623
369.097820	0.990661
369.485189	0.989517
369.872495	0.987664
370.259738	0.985292
370.646918	0.983152
371.034035	0.980793
371.421090	0.976751
371.808081	0.972289
372.195010	0.969887
372.581875	0.965116
372.968678	0.961192
373.355418	0.956265
373.742096	0.949493
374.128710	0.944857
374.515262	0.940837
374.901751	0.934756
375.288177	0.929612
375.674540	0.922893
376.060841	0.917640
376.447079	0.911083
376.833254	0.904063
377.219367	0.898686
377.605417	0.886940
377.991404	0.884017
378.377329	0.877543
378.763191	0.871766
379.148991	0.861302
379.534727	0.855472
379.920402	0.846777
380.306013	0.842797
380.691563	0.830415
381.077049	0.823152
381.462474	0.819888
381.847835	0.807428
382.233134	0.803307
382.618371	0.803759
383.003545	0.786300
383.388657	0.784734
383.773706	0.776794
384.158693	0.772909
384.543618	0.767500
384.928480	0.759245
385.313280	0.748674
385.698017	0.747582
386.082692	0.736525
386.467305	0.735611
386.851856	0.730043
387.236344	0.724067
387.620770	0.718306
388.005133	0.713384
388.389435	0.708454
388.773674	0.704428
389.157851	0.696491
389.541965	0.694085
389.926018	0.701068
390.310008	0.687433
390.693936	0.684457
391.077802	0.677005
391.461606	0.678417
391.845348	0.667268
392.229027	0.667111
392.612645	0.664521
392.996200	0.651968
393.379694	0.645149
393.763125	0.635691
394.146494	0.640307
394.529801	0.630871
394.913047	0.622509
395.296230	0.629236
395.679351	0.619875
396.062410	0.616985
396.445408	0.619770
396.828343	0.614398
397.211217	0.609650
397.594028	0.621926
397.976778	0.612594
398.359466	0.609499
398.742092	0.605292
399.124656	0.616765
399.507158	0.604877
399.889598	0.601596
400.271977	0.593195
400.654294	0.597225
401.036549	0.596003
401.418742	0.600259
401.800874	0.585829
402.182944	0.582980
402.564952	0.574319
402.946898	0.576764
403.328783	0.577429
403.710606	0.588514
404.092367	0.563917
404.474067	0.568899
404.855705	0.567639
405.237282	0.577064
405.618797	0.562671
406.000250	0.558508
406.381642	0.548626
406.762972	0.553963
407.144240	0.552514
407.525447	0.552264
407.906593	0.544900
408.287677	0.540514
408.668700	0.549117
409.049661	0.543585
409.430560	0.538341
409.811399	0.547269
410.192176	0.528667
410.572891	0.536107
410.953545	0.524118
411.334138	0.537546
411.714669	0.530250
412.095139	0.542328
412.475547	0.526617
412.855894	0.528764
413.236180	0.527775
413.616405	0.533198
413.996568	0.524149
414.376670	0.530100
414.756711	0.535438
415.136691	0.532657
415.516609	0.524469
415.896466	0.521974
416.276262	0.518035
416.655997	0.520138
417.035670	0.503345
417.415283	0.495118
417.794834	0.501823
418.174324	0.507857
418.553753	0.518299
418.933121	0.501831
419.312428	0.497935
419.691674	0.505015
420.070859	0.495644
420.449983	0.505848
420.829045	0.496838
421.208047	0.508012
421.586988	0.504085
421.965867	0.504921
422.344686	0.497001
422.723444	0.511687
423.102141	0.531082
423.480777	0.507911
423.859352	0.531594
424.237866	0.513636
424.616319	0.517627
424.994712	0.513790
425.373044	0.527003
425.751314	0.520864
426.129524	0.540239
426.507673	0.530720
426.885762	0.528810
427.263789	0.539476
427.641756	0.552372
428.019662	0.549649
428.397508	0.554909
428.775292	0.565417
429.153016	0.564316
429.530679	0.575425
429.908282	0.576508
430.285824	0.589976
430.663305	0.580956
431.040726	0.604621
431.418086	0.610301
431.795385	0.612726
432.172624	0.619583
432.549802	0.626884
432.926920	0.634056
433.303977	0.641528
433.680974	0.647824
434.057910	0.655307
434.434786	0.663668
434.811601	0.672855
435.188355	0.670256
435.565050	0.685034
435.941683	0.693149
436.318257	0.693863
436.694770	0.703514
437.071222	0.711507
437.447614	0.722016
437.823946	0.733561
438.200218	0.737216
438.576429	0.751211
438.952580	0.756833
439.328670	0.762813
439.704700	0.774216
440.080670	0.782763
440.456580	0.784673
440.832429	0.796376
441.208218	0.807566
441.583947	0.810947
441.959616	0.818735
442.335224	0.828955
442.710773	0.833689
443.086261	0.841178
443.461689	0.851318
443.837057	0.856331
444.212365	0.860541
444.587612	0.868962
444.962800	0.873198
445.337927	0.880016
445.712995	0.892011
446.088002	0.889756
446.462949	0.897891
446.837837	0.905617
447.212664	0.907635
447.587431	0.912765
447.962139	0.913167
448.336786	0.909995
448.711374	0.917251
449.085901	0.929480
449.460369	0.935172
449.834776	0.940130
450.209124	0.941341
450.583412	0.944997
450.957640	0.946998
451.331808	0.952840
451.705917	0.957910
452.079965	0.961279
452.453954	0.963663
452.827883	0.966136
453.201752	0.968432
453.575562	0.971290
453.949311	0.973547
454.323001	0.975457
454.696632	0.977487
455.070202	0.978252
455.443713	0.979618
455.817164	0.981860
456.190556	0.982896
456.563888	0.984899
456.937160	0.985077
457.310373	0.987324
457.683526	0.987788
458.056619	0.988895
458.429653	0.989915
458.802628	0.990560
459.175542	0.991499
459.548398	0.992107
459.921194	0.991726
460.293930	0.993054
460.666607	0.993078
461.039224	0.992277
461.411782	0.993616
461.784280	0.994242
462.156719	0.994702
462.529099	0.995346
462.901419	0.994521
463.273680	0.994305
463.645882	0.994628
464.018024	0.995880
464.390106	0.995554
464.762130	0.996268
465.134094	0.996253
465.505999	0.996476
465.877845	0.995660
466.249631	0.994997
466.621358	0.995070
466.993026	0.996127
467.364634	0.996116
467.736184	0.995963
468.107674	0.996071
468.479105	0.996479
468.850477	0.996474
469.221790	0.996834
469.593043	0.996688
469.964238	0.996446
470.335373	0.995994
470.706449	0.996770
471.077467	0.997020
471.448425	0.997483
471.819324	0.997688
472.190164	0.995869
472.560945	0.996541
472.931667	0.996211
473.302330	0.996944
473.672934	0.997420
474.043479	0.996800
474.413965	0.997378
474.784393	0.997137
475.154761	0.996421
475.525070	0.997379
475.895321	0.997300
476.265513	0.997266
476.635645	0.997304
477.005719	0.996290
477.375734	0.996922
477.745691	0.996996
478.115588	0.997134
478.485427	0.996137
478.855207	0.997569
479.224928	0.996376
479.594591	0.997016
479.964194	0.997175
480.333739	0.996761
480.703226	0.996041
481.072653	0.996661
481.442022	0.996738
481.811333	0.996202
482.180584	0.996720
482.549777	0.996688
482.918912	0.996521
483.287988	0.996459
483.657005	0.996722
484.025964	0.996814
484.394864	0.996306
484.763706	0.996576
485.132489	0.996845
485.501213	0.997022
485.869879	0.996694
486.238487	0.995931
486.607036	0.996879
486.975527	0.997149
487.343959	0.995923
487.712333	0.996614
488.080648	0.996070
488.448905	0.996846
488.817104	0.996266
489.185244	0.996384
489.553326	0.997253
489.921350	0.997255
490.289315	0.996474
490.657222	0.996210
491.025070	0.996619
491.392861	0.996473
491.760593	0.996629
492.128267	0.996533
492.495883	0.995862
492.863440	0.996791
493.230939	0.996952
493.598380	0.996704
493.965763	0.996742
494.333088	0.995959
494.700354	0.996523
495.067563	0.996644
495.434713	0.997427
495.801805	0.996301
496.168839	0.996908
496.535815	0.997127
496.902733	0.996740
497.269593	0.997117
497.636395	0.996093
498.003139	0.996428
498.369825	0.997322
498.736453	0.996772
499.103023	0.997562
499.469535	0.996976
499.835989	0.997528
500.202385	0.997098
500.568723	0.997726
500.935003	0.997216
501.301226	0.997158
501.667390	0.996604
502.033497	0.997184
502.399546	0.996444
502.765537	0.996869
503.131470	0.997456
503.497345	0.997773
503.863163	0.997433
504.228923	0.997532
504.594625	0.996848
504.960269	0.997087
505.325856	0.997612
505.691385	0.997609
506.056856	0.997060
506.422270	0.996783
506.787625	0.997230
507.152924	0.997933
507.518164	0.997359
507.883347	0.996950
508.248472	0.997098
508.613540	0.996564
508.978550	0.997355
509.343503	0.997431
509.708398	0.998072
510.073236	0.997286
510.438016	0.997232
510.802738	0.996724
511.167403	0.996812
511.532010	0.998015
511.896561	0.997082
512.261053	0.996889
512.625488	0.997267
512.989866	0.997210
513.354186	0.996228
513.718449	0.997477
514.082655	0.996419
514.446803	0.997559
514.810894	0.997518
515.174927	0.996991
515.538904	0.997762
515.902822	0.997575
516.266684	0.997705
516.630488	0.997716
516.994235	0.997038
517.357925	0.997966
517.721558	0.997348
518.085133	0.997170
518.448651	0.997195
518.812112	0.997691
519.175516	0.997496
519.538863	0.996678
519.902152	0.997413
520.265385	0.997479
520.628560	0.997090
520.991678	0.997044
521.354739	0.997710
521.717743	0.997044
522.080690	0.996485
522.443580	0.997083
522.806413	0.996258
523.169189	0.998017
523.531908	0.996719
523.894569	0.997132
524.257174	0.997082
524.619722	0.997336
524.982213	0.996599
525.344647	0.997559
525.707025	0.996569
526.069345	0.996260
526.431608	0.997437
526.793815	0.997483
527.155964	0.997212
527.518057	0.997283
527.880093	0.996731
528.242072	0.997053
528.603995	0.996905
528.965860	0.996462
529.327669	0.997705
529.689421	0.996845
530.051117	0.997279
530.412755	0.997365
530.774337	0.996658
531.135862	0.997358
531.497331	0.996745
531.858743	0.997323
532.220098	0.997219
532.581396	0.996949
532.942638	0.996712
533.303824	0.997916
533.664953	0.996818
534.026025	0.997821
534.387040	0.996889
534.747999	0.996413
535.108902	0.996537
535.469748	0.997773
535.830537	0.997361
536.191270	0.997055
536.551947	0.996339
536.912567	0.996674
537.273131	0.997383
537.633638	0.996606
537.994089	0.997550
538.354483	0.997528
538.714821	0.997269
539.075103	0.997115
539.435328	0.997195
539.795497	0.997573
540.155609	0.997321
540.515665	0.997234
540.875665	0.997092
541.235609	0.997754
541.595496	0.996767
541.955328	0.996961
542.315102	0.996954
542.674821	0.996769
543.034483	0.997505
543.394090	0.996663
543.753640	0.996929
544.113134	0.997441
544.472571	0.997225
544.831953	0.996953
545.191278	0.997342
545.550548	0.996967
545.909761	0.996849
546.268918	0.997794
546.628019	0.997478
546.987064	0.997220
547.346053	0.996958
547.704986	0.997289
548.063863	0.997015
548.422684	0.997209
548.781449	0.996859
549.140158	0.997006
549.498811	0.996554
549.857408	0.996963
550.215949	0.996492
550.574434	0.996624
550.932864	0.997072
551.291237	0.996620
551.649555	0.997572
552.007817	0.997225
552.366022	0.997850
552.724173	0.997220
553.082267	0.996992
553.440305	0.996971
553.798288	0.996338
554.156215	0.997033
554.514086	0.996802
554.871902	0.996944
555.229661	0.996368
555.587365	0.996814
555.945014	0.997898
556.302606	0.996497
556.660143	0.997846
557.017625	0.997541
557.375050	0.996695
557.732421	0.996643
558.089735	0.996472
558.446994	0.996750
558.804197	0.997099
559.161345	0.996497
559.518437	0.996810
559.875474	0.997193
560.232455	0.997378
560.589381	0.997367
560.946251	0.997106
561.303065	0.997003
561.659825	0.996556
562.016528	0.996925
562.373177	0.996866
562.729770	0.997131
563.086307	0.995917
563.442789	0.997320
563.799216	0.996696
564.155587	0.997288
564.511904	0.998080
564.868164	0.996884
565.224370	0.996807
565.580520	0.997161
565.936615	0.996864
566.292654	0.996881
566.648638	0.997171
567.004567	0.996608
567.360441	0.997526
567.716260	0.997243
568.072023	0.996661
568.427732	0.997033
568.783385	0.997445
569.138982	0.997341
569.494525	0.997080
569.850013	0.997299
570.205445	0.997112
570.560823	0.997171
570.916145	0.996807
571.271412	0.997656
571.626625	0.996694
571.981782	0.997370
572.336884	0.997586
572.691931	0.996642
573.046923	0.997625
573.401860	0.997029
573.756743	0.997611
574.111570	0.997265
574.466342	0.998078
574.821059	0.997261
575.175722	0.997788
575.530330	0.997062
575.884882	0.996984
576.239380	0.997565
576.593823	0.997070
576.948211	0.997570
577.302544	0.997301
577.656823	0.997335
578.011047	0.996906
578.365216	0.997564
578.719330	0.997138
579.073389	0.996211
579.427394	0.996738
579.781344	0.997893
580.135239	0.996371
580.489080	0.997419
580.842866	0.997388
581.196597	0.997481
581.550273	0.996967
581.903895	0.997930
582.257463	0.996999
582.610975	0.996094
582.964434	0.997297
583.317837	0.997891
583.671186	0.997187
584.024481	0.996838
584.377721	0.996685
584.730906	0.997595
585.084037	0.998083
585.437113	0.998214
585.790135	0.997154
586.143103	0.996855
586.496016	0.997481
586.848874	0.997489
587.201679	0.996551
587.554428	0.997001
587.907124	0.997984
588.259765	0.997568
588.612352	0.997862
588.964884	0.997589
589.317362	0.997433
589.669786	0.997299
590.022155	0.997391
590.374470	0.996850
590.726731	0.996646
591.078937	0.997322
591.431090	0.997654
591.783188	0.997203
592.135232	0.997591
592.487222	0.997551
592.839157	0.997665
593.191038	0.997440
593.542866	0.997393
593.894639	0.996513
594.246358	0.997701
594.598022	0.998011
594.949633	0.997548
595.301190	0.997530
595.652692	0.996493
596.004141	0.997560
596.355535	0.997291
596.706876	0.997777
597.058162	0.997101
597.409395	0.997017
597.760573	0.996586
598.111698	0.997252
598.462768	0.996522
598.813785	0.995822
599.164748	0.997470
599.515657	0.997171
599.866511	0.997973
600.217312	0.997706
600.568060	0.997062
600.918753	0.997632
601.269392	0.997230
601.619978	0.997411
601.970510	0.996552
602.320988	0.997518
602.671412	0.996908
603.021783	0.997751
603.372100	0.998178
603.722363	0.997920
604.072572	0.997211
604.422728	0.996797
604.772830	0.997154
605.122878	0.997718
605.472872	0.997663
605.822813	0.996593
606.172701	0.997544
606.522534	0.997850
606.872314	0.997959
607.222041	0.997456
607.571714	0.997323
607.921333	0.997012
608.270899	0.996716
608.620411	0.997599
608.969870	0.999144
609.319276	0.997469
609.668627	0.998253
610.017926	0.997202
610.367171	0.997708
610.716362	0.997199
611.065500	0.997213
611.414585	0.997574
611.763616	0.997016
612.112594	0.998215
612.461518	0.996784
612.810389	0.997686
613.159207	0.996898
613.507971	0.997096
613.856682	0.998637
614.205340	0.996707
614.553945	0.997470
614.902496	0.996806
615.250994	0.997450
615.599439	0.997938
615.947830	0.997107
616.296169	0.996999
616.644454	0.997267
616.992686	0.997314
617.340864	0.998054
617.688990	0.997056
618.037063	0.997623
618.385082	0.997447
618.733048	0.996865
619.080961	0.997166
619.428821	0.997725
619.776628	0.996981
620.124382	0.997872
620.472083	0.997910
620.819731	0.998294
621.167326	0.997580
621.514868	0.998053
621.862357	0.997839
622.209793	0.997808
622.557176	0.996912
622.904506	0.997391
623.251783	0.997915
623.599007	0.997682
623.946179	0.997016
624.293297	0.998114
624.640363	0.998464
624.987376	0.997190
625.334336	0.997156
625.681243	0.997621
626.028097	0.998023
626.374899	0.997741
626.721647	0.998058
627.068343	0.997632
627.414987	0.997946
627.761577	0.997244
628.108115	0.997061
628.454600	0.998046
628.801032	0.997337
629.147412	0.998058
629.493739	0.998499
629.840014	0.997447
630.186236	0.997031
630.532405	0.997610
630.878521	0.997196
631.224585	0.997472
631.570597	0.996789
631.916556	0.997761
632.262462	0.996520
632.608316	0.997915
632.954117	0.997635
633.299866	0.997832
633.645562	0.997725
633.991206	0.997944
634.336797	0.997455
634.682336	0.998387
635.027823	0.997570
635.373257	0.997600
635.718639	0.998066
636.063968	0.997492
636.409245	0.997391
636.754470	0.998504
637.099642	0.998073
637.444762	0.998192
637.789829	0.996826
638.134845	0.997493
638.479808	0.997466
638.824719	0.998251
639.169577	0.997475
639.514383	0.997841
639.859137	0.998534
640.203839	0.997555
640.548489	0.997041
640.893086	0.996995
641.237632	0.998327
641.582125	0.997882
641.926566	0.998485
642.270955	0.997836
642.615292	0.997865
642.959576	0.998539
643.303809	0.998087
643.647990	0.997777
643.992118	0.998159
644.336195	0.997809
644.680219	0.998039
645.024192	0.997828
645.368112	0.997229
645.711981	0.997850
646.055797	0.997887
646.399562	0.997063
646.743274	0.997601
647.086935	0.997061
647.430544	0.997980
647.774101	0.997402
648.117606	0.999017
648.461059	0.998618
648.804460	0.997368
649.147810	0.998246
649.491108	0.997876
649.834354	0.998000
650.177548	0.998252
650.520690	0.997218
650.863781	0.997156
651.206820	0.997501
651.549807	0.997070
651.892742	0.998262
652.235626	0.997606
652.578458	0.997748
652.921238	0.998815
653.263967	0.998362
653.606644	0.997803
653.949269	0.999172
654.291843	0.997118
654.634365	0.998584
654.976836	0.997709
655.319255	0.998802
655.661622	0.998034
656.003938	0.997393
656.346203	0.997329
656.688416	0.998283
657.030577	0.997731
657.372687	0.998135
657.714746	0.997314
658.056753	0.997425
658.398708	0.997915
658.740612	0.997942
659.082465	0.997350
659.424266	0.998496
659.766016	0.997324
660.107715	0.998536
660.449362	0.997256
660.790958	0.997326
661.132503	0.998761
661.473996	0.997213
661.815438	0.998332
662.156829	0.998123
662.498168	0.998413
662.839456	0.996737
663.180693	0.998008
663.521879	0.997959
663.863013	0.998581
664.204097	0.997271
664.545129	0.997616
664.886110	0.997970
665.227040	0.998474
665.567918	0.997584
665.908746	0.997431
666.249522	0.996897
666.590248	0.997786
666.930922	0.996775
667.271545	0.997055
667.612118	0.997556
667.952639	0.997704
668.293109	0.997944
668.633528	0.997244
668.973896	0.998457
669.314213	0.997628
669.654480	0.998335
669.994695	0.997353
670.334859	0.998207
670.674973	0.997235
671.015035	0.997339
671.355047	0.997316
671.695008	0.997072
672.034918	0.997358
672.374777	0.997106
672.714585	0.997153
673.054342	0.997836
673.394049	0.997389
673.733705	0.997261
674.073310	0.998085
674.412864	0.996876
674.752368	0.996821
675.091820	0.998236
675.431223	0.998464
675.770574	0.997102
676.109875	0.997855
676.449125	0.997200
676.788324	0.997277
677.127473	0.997585
677.466571	0.997203
677.805619	0.997992
678.144616	0.998222
678.483562	0.997649
678.822458	0.998744
679.161303	0.997747
679.500098	0.998016
679.838842	0.998420
680.177535	0.996970
680.516179	0.997566
680.854771	0.997502
681.193314	0.997661
681.531805	0.997071
681.870247	0.997725
682.208638	0.997578
682.546978	0.996554
682.885268	0.996251
683.223508	0.996668
683.561697	0.997052
683.899836	0.997357
684.237925	0.997331
684.575963	0.997503
684.913951	0.997295
685.251889	0.996570
685.589776	0.997583
685.927614	0.997026
686.265401	0.997229
686.603137	0.997352
686.940824	0.998294
687.278460	0.997823
687.616046	0.997433
687.953582	0.997382
688.291068	0.997276
688.628504	0.997476
688.965889	0.996658
689.303224	0.996366
689.640510	0.997532
689.977745	0.997577
690.314930	0.996806
690.652065	0.996866
690.989150	0.997352
691.326185	0.996984
691.663170	0.997083
692.000105	0.998014
692.336990	0.997816
692.673825	0.997219
693.010610	0.997313
693.347345	0.998083
693.684030	0.997981
694.020665	0.997827
694.357251	0.996911
694.693786	0.997454
695.030272	0.996156
695.366707	0.997681
695.703093	0.996840
696.039429	0.996877
696.375716	0.997401
696.711952	0.997190
697.048139	0.997415
697.384276	0.997161
697.720363	0.997145
698.056400	0.996112
698.392388	0.996893
698.728326	0.997382
699.064214	0.998111
699.400053	0.997498
699.735842	0.997754
700.071581	0.997862
700.407270	0.997072
700.742910	0.997600
701.078501	0.997480
701.414042	0.997809
701.749533	0.996726
702.084974	0.997190
702.420366	0.997886
702.755709	0.997220
703.091002	0.997270
703.426246	0.998075
703.761440	0.996878
704.096584	0.996207
704.431679	0.997018
704.766725	0.996875
705.101721	0.998455
705.436668	0.997110
705.771565	0.997757
706.106413	0.996761
706.441212	0.997395
706.775961	0.997858
707.110661	0.997301
707.445311	0.996342
707.779913	0.997859
708.114465	0.997844
708.448967	0.997536
708.783421	0.997563
709.117825	0.997396
709.452180	0.997492
709.786485	0.997101
710.120742	0.997103
710.454949	0.997504
710.789107	0.997733
711.123216	0.997250
711.457275	0.996516
711.791286	0.997902
712.125247	0.998223
712.459159	0.996798
712.793023	0.996635
713.126837	0.997055
713.460602	0.996496
713.794318	0.996211
714.127985	0.996210
714.461602	0.996700
714.795171	0.996666
715.128691	0.996790
715.462162	0.997810
715.795584	0.997048
716.128957	0.998054
716.462281	0.997361
716.795556	0.997093
717.128782	0.997188
717.461960	0.997637
717.795088	0.997446
718.128167	0.997681
718.461198	0.997358
718.794180	0.997908
719.127113	0.997136
719.459997	0.996830
719.792833	0.996570
720.125619	0.995521
720.458357	0.997525
720.791046	0.998378
721.123686	0.998121
721.456278	0.997147
721.788821	0.997361
722.121315	0.998559
722.453761	0.997085
722.786158	0.997621
723.118506	0.997330
723.450805	0.996967
723.783056	0.998016
724.115259	0.996993
724.447412	0.998298
724.779518	0.996970
725.111574	0.996934
725.443582	0.996567
725.775542	0.998021
726.107453	0.998050
726.439315	0.998398
726.771129	0.997437
727.102895	0.997762
727.434612	0.997604
727.766281	0.996818
728.097901	0.997139
728.429473	0.998176
728.760996	0.996679
729.092471	0.997597
729.423897	0.998061
729.755276	0.997404
730.086606	0.996816
730.417887	0.998466
730.749120	0.997868
731.080305	0.997488
731.411442	0.996083
731.742530	0.997095
732.073570	0.997017
732.404562	0.997104
732.735506	0.997264
733.066401	0.996827
733.397249	0.996530
733.728048	0.997223
734.058798	0.997513
734.389501	0.997767
734.720156	0.996714
735.050762	0.998359
735.381320	0.997474
735.711831	0.997465
736.042293	0.996421
736.372707	0.998319
736.703073	0.996987
737.033391	0.996586
737.363661	0.997364
737.693883	0.997637
738.024056	0.996293
738.354182	0.997358
738.684260	0.996744
739.014290	0.997359
739.344272	0.997486
739.674207	0.997132
740.004093	0.997947
740.333931	0.996792
740.663722	0.996887
740.993464	0.997571
741.323159	0.996594
741.652806	0.997981
741.982405	0.997367
742.311956	0.999053
742.641460	0.997142
742.970915	0.996048
743.300323	0.996812
743.629683	0.996811
743.958996	0.998239
744.288260	0.996305
744.617477	0.997620
744.946647	0.997989
745.275768	0.998385
745.604842	0.996306
745.933869	0.997756
746.262847	0.998403
746.591778	0.996818
746.920662	0.997587
747.249498	0.997659
747.578286	0.998699
747.907027	0.997904
748.235720	0.998173
748.564365	0.997879
748.892963	0.997470
749.221514	0.998196
749.550017	0.996961
749.878473	0.997766
750.206881	0.998657
750.535242	0.998000
750.863555	0.998478
751.191821	0.996723
751.520039	0.997410
751.848210	0.995822
752.176334	0.998307
752.504411	0.997428
752.832440	0.997373
753.160421	0.996739
753.488356	0.997625
753.816243	0.997463
754.144082	0.996305
754.471875	0.997244
754.799620	0.998602
755.127318	0.996962
755.454969	0.998271
755.782572	0.998544
756.110129	0.996660
756.437638	0.998869
756.765100	0.998350
757.092515	0.997847
757.419882	0.998445
757.747203	0.998066
758.074477	0.998203
758.401703	0.997794
758.728882	0.997118
759.056014	0.998636
759.383099	0.998139
759.710138	0.998151
760.037129	0.996849
760.364073	0.998223
760.690970	0.998166
761.017820	0.996247
761.344623	0.998402
761.671379	0.998243
761.998088	0.997267
762.324751	0.997915
762.651366	0.995794
762.977935	0.996169
763.304456	0.996297
763.630931	0.994692
763.957359	0.993635
764.283740	0.995852
764.610074	0.996041
764.936362	0.995963
765.262602	0.997687
765.588796	0.997583
765.914943	0.996666
766.241044	0.996512
766.567097	0.997420
766.893104	0.997167
767.219064	0.997223
767.544978	0.996999
767.870845	0.997644
768.196665	0.996802
768.522438	0.997937
768.848165	0.997936
769.173846	0.998303
769.499479	0.998395
769.825066	0.998217
770.150607	0.999271
770.476101	0.997729
770.801548	0.998404
771.126949	0.999850
771.452303	0.998262
771.777611	0.998046
772.102872	0.998387
772.428087	0.998274
772.753256	0.999542
773.078378	0.998314
773.403453	0.998435
773.728482	0.998942
774.053465	0.998170
774.378401	0.998235
774.703291	0.998184
775.028135	1.000256
775.352932	0.997307
775.677683	0.998936
776.002388	0.998901
776.327046	0.997522
776.651658	0.999586
776.976224	0.998874
777.300743	0.998336
777.625216	0.998230
777.949643	0.999125
778.274024	0.998221
778.598359	0.998413
778.922647	0.998261
779.246889	0.998613
779.571086	0.998723
779.895236	0.997875
780.219339	0.998736
780.543397	0.997871
780.867409	0.998553
781.191374	0.998398
781.515294	0.998920
781.839167	0.998680
782.162995	0.998077
782.486776	0.998012
782.810511	0.999192
783.134201	0.998739
783.457844	0.998320
783.781441	0.998492
784.104993	0.997733
784.428498	0.998179
784.751958	0.999257
785.075372	0.999732
785.398739	0.998146
785.722061	0.997911
786.045337	0.999362
786.368568	0.998332
786.691752	0.998803
787.014891	0.998130
787.337983	0.997341
787.661030	0.997883
787.984031	0.998292
788.306987	0.998397
788.629897	0.996631
788.952760	0.998267
789.275579	0.998248
789.598351	0.997978
789.921078	0.998792
790.243759	0.997897
790.566395	0.999436
790.888984	0.999024
791.211529	0.999023
791.534027	0.998597
791.856480	0.999232
792.178888	0.997634
792.501249	0.998065
792.823566	0.999660
793.145836	0.998185
793.468062	0.998655
793.790241	0.999473
794.112375	0.998377
794.434464	0.999247
794.756507	0.999260
795.078505	0.999924
795.400457	0.998498
795.722364	0.998123
796.044226	0.998579
796.366042	0.997868
796.687812	0.996755
797.009538	0.998183
797.331218	0.999135
797.652852	0.998516
797.974442	0.998236
798.295986	0.998011
798.617484	0.998226
798.938938	0.998783
799.260346	0.998346
799.581709	0.997921
799.903026	0.997918
800.224299	0.997461
800.545526	0.998559
800.866708	0.998568
801.187845	0.999656
801.508936	0.999488
801.829983	0.998459
802.150984	0.999135
802.471940	0.998516
802.792851	0.997903
803.113717	0.999996
803.434538	0.999184
803.755314	0.999428
804.076045	0.999017
804.396731	0.998755
804.717372	0.997492
805.037967	0.998807
805.358518	0.998812
805.679024	0.997921
805.999485	0.999052
806.319901	0.998974
806.640272	0.999640
806.960598	0.998897
807.280879	0.998207
807.601115	0.999673
807.921306	1.000216
808.241453	0.997953
808.561554	0.999282
808.881611	0.999021
809.201623	0.997902
809.521590	0.999540
809.841513	0.998920
810.161390	0.998350
810.481223	0.998238
810.801011	0.999200
811.120755	1.000056
811.440453	0.998306
811.760107	0.998577
812.079716	0.998584
812.399281	0.998481
812.718801	0.998954
813.038276	0.998805
813.357707	0.999024
813.677093	0.999537
813.996434	0.999105
814.315731	1.000046
814.634983	0.998465
814.954191	0.998801
815.273354	0.998594
815.592473	0.998623
815.911547	0.999501
816.230577	0.998821
816.549562	0.999640
816.868502	0.997886
817.187399	0.999283
817.506250	0.998716
817.825058	0.997395
818.143821	0.998222
818.462539	0.998830
818.781213	0.998084
819.099843	0.997674
819.418429	0.996852
819.736970	0.997278
820.055466	0.996110
820.373919	0.996325
820.692327	0.996647
821.010691	0.995434
821.329011	0.993096
821.647286	0.991063
821.965517	0.990382
822.283704	0.988572
822.601847	0.987211
822.919945	0.987109
823.237999	0.988922
823.556010	0.989271
823.873976	0.990928
824.191897	0.991551
824.509775	0.993914
824.827609	0.993688
825.145398	0.995355
825.463144	0.992911
825.780845	0.992827
826.098502	0.993282
826.416116	0.993978
826.733685	0.992169
827.051210	0.991380
827.368692	0.991595
827.686129	0.992322
828.003522	0.994804
828.320872	0.995319
828.638177	0.995084
828.955439	0.996592
829.272656	0.996598
829.589830	0.996789
829.906960	0.997451
830.224046	0.997508
830.541088	0.996920
830.858086	0.998565
831.175041	0.998841
831.491952	0.998763
831.808819	0.996750
832.125642	0.996483
832.442421	0.997793
832.759157	0.998126
833.075849	0.996186
833.392497	0.995636
833.709101	0.993911
834.025662	0.995422
834.342179	0.994236
834.658653	0.996652
834.975083	0.996149
835.291469	0.997377
835.607811	0.997893
835.924110	0.997421
836.240366	0.999149
836.556578	0.998688
836.872746	0.997940
837.188871	0.998259
837.504952	0.997758
837.820990	0.999166
838.136984	0.998115
838.452935	0.999217
838.768842	0.999659
839.084706	0.998720
839.400526	0.999237
839.716303	0.998126
840.032037	0.997875
840.347727	0.997230
840.663373	0.997575
840.978977	0.998236
841.294537	0.998606
841.610054	0.998316
841.925527	0.999218
842.240957	0.998991
842.556344	0.999021
842.871687	0.998162
843.186987	0.999286
843.502244	0.999760
843.817458	0.998837
844.132629	0.997698
844.447756	0.999200
844.762840	0.999384
845.077881	1.001023
845.392879	0.999057
845.707833	0.999565
846.022745	0.999744
846.337613	0.999371
846.652438	0.999446
846.967221	0.999700
847.281960	0.999836
847.596656	1.000197
847.911309	0.998822
848.225919	0.999503
848.540485	1.000143
848.855009	1.000699
849.169490	0.999879
849.483928	0.999458
849.798323	0.997980
850.112675	1.000307
850.426984	0.998906
850.741251	0.999494
851.055474	1.000028
851.369654	0.999575
851.683792	0.999863
851.997887	0.998974
852.311938	0.999949
852.625947	0.998736
852.939914	0.998604
853.253837	0.999933
853.567718	1.000864
853.881555	0.999664
854.195350	0.999550
854.509103	0.999942
854.822812	0.999066
855.136479	0.999747
855.450103	0.999955
855.763685	1.000276
856.077224	0.999750
856.390720	0.999283
856.704173	1.000358
857.017584	1.000069
857.330953	1.000829
857.644278	0.999256
857.957561	0.998424
858.270802	1.000119
858.584000	1.000385
858.897155	0.999113
859.210268	0.999604
859.523339	0.999884
859.836367	1.000634
860.149352	0.999287
860.462295	1.000209
860.775195	1.000183
861.088054	0.998706
861.400869	0.999201
861.713642	0.999876
862.026373	0.999985
862.339062	0.999723
862.651708	0.999665
862.964312	1.000729
863.276873	1.000896
863.589392	0.999202
863.901869	0.998539
864.214303	1.000000
864.526696	0.999336
864.839045	0.999823
865.151353	0.999550
865.463619	0.998784
865.775842	0.999786
866.088023	1.000949
866.400162	0.999036
866.712258	1.000527
867.024313	1.000405
867.336325	1.000208
867.648296	0.999950
867.960224	0.999690
868.272110	1.000281
868.583954	0.999658
868.895755	1.001013
869.207515	0.999520
869.519233	0.999966
869.830909	0.999664
870.142542	0.999104
870.454134	0.999408
870.765684	0.999233
871.077191	0.999080
871.388657	0.999465
871.700081	0.999209
872.011463	1.000410
872.322803	0.998789
872.634101	0.999229
872.945357	0.998339
873.256571	0.998995
873.567744	0.999725
873.878874	0.998843
874.189963	0.998559
874.501010	0.999905
874.812015	0.999321
875.122979	0.999132
875.433900	0.998188
875.744780	0.999044
876.055618	0.998114
876.366415	0.997795
876.677169	0.998099
876.987882	0.998766
877.298554	0.999256
877.609183	0.999382
877.919771	0.999749
878.230317	0.999866
878.540822	0.998574
878.851285	0.997986
879.161707	0.997941
879.472087	0.999134
879.782425	0.996462
880.092722	0.996172
880.402977	0.993811
880.713191	0.991458
881.023363	0.989817
881.333494	0.987633
881.643583	0.989186
881.953631	0.988732
882.263637	0.987930
882.573602	0.989716
882.883526	0.988848
883.193408	0.992163
883.503248	0.992708
883.813048	0.992148
884.122806	0.993488
884.432522	0.993988
884.742197	0.996216
885.051831	0.995693
885.361424	0.997051
885.670975	0.997658
885.980485	0.996486
886.289954	0.997607
886.599382	0.997451
886.908768	0.998390
887.218113	0.996251
887.527417	0.997900
887.836680	0.997621
888.145901	0.999009
888.455082	0.998855
888.764221	0.999638
889.073319	0.998325
889.382376	0.999012
889.691392	0.997991
890.000366	0.998582
890.309300	0.998615
890.618193	0.999667
890.927044	0.999056
891.235855	0.998625
891.544625	0.998542
891.853353	0.998613
892.162041	0.998825
892.470687	0.999180
892.779293	0.997622
893.087858	0.996600
893.396381	0.997215
893.704864	0.997686
894.013306	0.995479
894.321707	0.996235
894.630068	0.994709
894.938387	0.994525
895.246665	0.994863
895.554903	0.994358
895.863100	0.996330
896.171256	0.995708
896.479371	0.996390
896.787446	0.996347
897.095480	0.996921
897.403473	0.997268
897.711425	0.997894
898.019336	0.998004
898.327207	0.998640
898.635038	0.997354
898.942827	0.998277
899.250576	0.997902
899.558284	0.998431
899.865952	0.997796
900.173579	0.998579
900.481165	0.997556
900.788711	0.997103
901.096216	0.998961
901.403681	0.999830
901.711105	0.998607
902.018489	0.997922
902.325832	0.998160
902.633135	0.999187
902.940397	0.999272
903.247619	0.998548
903.554800	0.997103
903.861941	0.997532
904.169041	0.993537
904.476101	0.992427
904.783121	0.993190
905.090100	0.993983
905.397039	0.995143
905.703938	0.995026
906.010796	0.995769
906.317614	0.996517
906.624391	0.997762
906.931129	0.998374
907.237826	0.998370
907.544483	0.999404
907.851099	0.997797
908.157675	0.998816
908.464211	1.000048
908.770707	0.998717
909.077163	0.999462
909.383578	1.000720
909.689954	0.998801
909.996289	0.999611
910.302584	0.999232
910.608839	1.001530
910.915054	0.998578
911.221229	1.000511
911.527363	0.999160
911.833458	0.998890
912.139513	0.999992
912.445527	0.999394
912.751502	1.000247
913.057436	0.998005
913.363331	0.999562
913.669186	0.999140
913.975000	0.998602
914.280775	0.998522
914.586510	0.996809
914.892205	0.996757
915.197859	0.996605
915.503475	0.995231
915.809050	0.994386
916.114585	0.992056
916.420081	0.991871
916.725536	0.993811
917.030952	0.993424
917.336328	0.994463
917.641665	0.993539
917.946961	0.994103
918.252218	0.995906
918.557435	0.995580
918.862612	0.997121
919.167750	0.997262
919.472848	0.998477
919.777906	0.999004
920.082925	1.000148
920.387904	0.998255
920.692843	0.998153
920.997743	0.998315
921.302603	0.999816
921.607423	0.998254
921.912204	0.998880
922.216946	1.000106
922.521647	0.999145
922.826310	0.999304
923.130932	0.999355
923.435516	0.999238
923.740059	0.998493
924.044564	0.998360
924.349028	0.998805
924.653454	1.000684
924.957840	0.998303
925.262186	0.999432
925.566493	0.998901
925.870761	0.999613
926.174989	0.999132
926.479178	1.001959
926.783328	0.999444
927.087438	1.000219
927.391509	0.998950
927.695541	1.001179
927.999533	1.000755
928.303486	0.998379
928.607400	1.001271
928.911275	1.000925
929.215110	1.000147
929.518906	1.000279
929.822663	1.000967
930.126381	1.000376
930.430060	0.998873
930.733699	1.000884
931.037299	1.000685
931.340861	1.000415
931.644383	0.999503
931.947866	1.000367
932.251309	1.000514
932.554714	0.999166
932.858080	1.000032
933.161407	1.000259
933.464694	1.001589
933.767943	1.000063
934.071153	1.000345
934.374323	1.001351
934.677455	0.999871
934.980548	1.000068
935.283602	1.000691
935.586617	1.000205
935.889593	1.000879
936.192530	1.000806
936.495428	0.999086
936.798287	1.000168
937.101108	0.999176
937.403890	0.999397
937.706632	1.000061
938.009336	1.000849
938.312002	0.999564
938.614628	0.999581
938.917216	0.998369
939.219765	0.999258
939.522275	0.999842
939.824747	0.999550
940.127179	0.999572
940.429573	1.000963
940.731929	0.999893
941.034246	0.998927
941.336524	0.997618
941.638763	0.998425
941.940964	0.999755
942.243126	0.999355
942.545250	0.999962
942.847335	0.999839
943.149381	0.999963
943.451389	0.999624
943.753359	0.999403
944.055290	1.000937
944.357182	0.999852
944.659036	1.000495
944.960851	0.999865
945.262628	1.000307
945.564367	1.000229
945.866067	0.999616
946.167729	1.000003
946.469352	1.000219
946.770937	0.998258
947.072484	1.001040
947.373992	0.999516
947.675462	0.999799
947.976893	0.998185
948.278286	1.001411
948.579641	1.001160
948.880958	1.001143
949.182236	0.999911
949.483476	1.001598
949.784678	0.999105
950.085841	0.999452
950.386967	1.000083
950.688054	1.000158
950.989103	0.998721
951.290114	0.999161
951.591087	1.000113
951.892021	0.998689
952.192917	0.999472
952.493776	1.000099
952.794596	0.998648
953.095378	0.999453
953.396122	0.999689
953.696828	1.000184
953.997496	1.000068
954.298126	1.000744
954.598718	0.999029
954.899272	1.000814
955.199788	1.000461
955.500266	1.001007
955.800706	0.999994
956.101108	1.000534
956.401472	1.000639
956.701798	1.000110
957.002087	1.000143
957.302337	1.000730
957.602550	0.999191
957.902724	1.000973
958.202861	1.000049
958.502960	0.999553
958.803022	1.001117
959.103045	1.001260
959.403031	1.000533
959.702979	1.001535
960.002889	1.000072
960.302762	0.999204
960.602596	1.000885
960.902393	0.999984
961.202153	1.000052
961.501875	1.000810
961.801559	1.000740
962.101205	0.998714
962.400814	1.000444
962.700385	1.000463
962.999918	1.000318
963.299414	1.000579
963.598873	1.000216
963.898293	1.000950
964.197677	1.000203
964.497022	1.000809
964.796331	1.001269
965.095601	1.001587
965.394835	1.000580
965.694030	1.001554
965.993189	1.000345
966.292309	1.001058
966.591393	0.999255
966.890439	1.001845
967.189447	0.999564
967.488419	1.000311
967.787353	1.000198
968.086249	1.001180
968.385108	0.999570
968.683930	1.001563
968.982714	0.999004
969.281462	0.999951
969.580172	0.998931
969.878844	1.000964
970.177480	1.000518
970.476078	1.001651
970.774639	1.001666
971.073162	0.999955
971.371649	1.000298
971.670098	1.000030
971.968510	0.999622
972.266885	1.000824
972.565223	1.001207
972.863524	0.998309
973.161788	1.000365
973.460014	1.001692
973.758204	0.998423
974.056356	1.000163
974.354471	1.000166
974.652550	1.001697
974.950591	1.000435
975.248595	0.999173
975.546563	1.001948
975.844493	1.001737
976.142386	0.998809
976.440243	1.001216
976.738062	1.000614
977.035845	0.999587
977.333590	1.000781
977.631299	1.000002
977.928971	0.999871
978.226606	1.000911
978.524204	1.000847
978.821765	1.000954
979.119290	1.000557
979.416777	0.999944
979.714228	1.000528
980.011642	1.001034
980.309020	1.000529
980.606360	1.000119
980.903664	1.000875
981.200931	0.999608
981.498162	1.000401
981.795356	1.000341
982.092513	1.000075
982.389633	0.999917
982.686717	0.999282
982.983764	0.998626
983.280775	1.000707
983.577749	1.001324
983.874686	0.999358
984.171587	0.998150
984.468451	0.999689
984.765279	1.001794
985.062070	1.000689
985.358824	0.999866
985.655543	1.000801
985.952224	1.001378
986.248869	1.000266
986.545478	1.001206
986.842050	0.999484
987.138586	1.000327
987.435086	0.999525
987.731549	1.001332
988.027975	1.000575
988.324366	0.999446
988.620719	1.000853
988.917037	1.000352
989.213318	1.000841
989.509563	1.000403
989.805772	1.001350
990.101944	1.001246
990.398080	1.001070
990.694180	1.001842
990.990244	0.999543
991.286271	0.999576
991.582262	1.000471
991.878217	1.000518
992.174136	1.001142
992.470019	1.000989
992.765865	1.000953
993.061676	1.001377
993.357450	1.001105
993.653188	0.999772
993.948890	1.000980
994.244556	1.000315
994.540186	1.001435
994.835780	0.999905
995.131337	1.001312
995.426859	1.000372
995.722345	1.000682
996.017795	0.999627
996.313208	0.999211
996.608586	1.000173
996.903928	1.001441
997.199234	1.000109
997.494504	1.000870
997.789738	0.998945
998.084936	1.000504
998.380099	0.999035
998.675225	0.999828
998.970316	1.000735
999.265371	1.000857
999.560390	0.999932
999.855373	1.000762
1000.150320	0.999178
1000.445232	1.000058
1000.740108	1.001016
1001.034948	1.000575
1001.329752	1.001701
1001.624521	0.999855
1001.919254	1.000447
1002.213951	1.000556
1002.508613	1.000168
1002.803239	1.000564
1003.097829	1.001688
1003.392384	1.000559
1003.686903	1.000926
1003.981386	1.000791
1004.275834	1.001080
1004.570246	1.000015
1004.864623	1.001206
1005.158964	1.000145
1005.453270	0.999976
1005.747540	0.999219
1006.041775	0.999951
1006.335974	1.001403
1006.630138	1.001710
1006.924266	0.999339
1007.218359	0.999822
1007.512416	1.001587
1007.806438	1.000359
1008.100425	1.000212
1008.394376	1.001173
1008.688292	1.001267
1008.982172	0.999726
1009.276017	1.001629
1009.569827	1.002201
1009.863602	1.000295
1010.157341	1.001003
1010.451045	0.999941
1010.744714	1.001296
1011.038347	1.000557
1011.331945	0.999822
1011.625508	1.000218
1011.919036	1.000515
1012.212528	1.001820
1012.505986	1.001047
1012.799408	1.001129
1013.092795	1.000722
1013.386147	1.001123
1013.679464	1.000437
1013.972745	1.001080
1014.265992	1.000077
1014.559204	0.999184
1014.852380	1.002331
1015.145521	1.001004
1015.438628	1.001174
1015.731699	1.000201
1016.024736	1.001141
1016.317737	1.000377
1016.610703	1.001258
1016.903635	1.000869
1017.196531	1.000018
1017.489393	0.999720
1017.782219	0.999727
1018.075011	1.001203
1018.367768	1.000293
1018.660490	1.001763
1018.953177	1.001763
1019.245829	1.001763
