Dividing Wavelength (nm)	Counts (n)	Blue Motor Position (mm): 41.700000	Red Motor Position (mm): 0.000000	
326.493990	0.999700
326.888308	0.999700
327.282561	0.999700
327.676750	1.000410
328.070874	1.001531
328.464933	1.000042
328.858929	1.002873
329.252859	0.999840
329.646726	0.999340
330.040528	1.000180
330.434265	1.000265
330.827938	0.999227
331.221547	0.999990
331.615091	1.001277
332.008571	1.001526
332.401986	0.999484
332.795338	0.999920
333.188625	0.999778
333.581847	0.999018
333.975006	1.001834
334.368100	1.000826
334.761129	0.999358
335.154095	0.999920
335.546996	0.999139
335.939833	0.999001
336.332606	1.000402
336.725315	0.998241
337.117960	1.000450
337.510540	1.000107
337.903056	0.999992
338.295508	1.001458
338.687896	0.999631
339.080220	1.000148
339.472480	1.000227
339.864676	0.999898
340.256807	0.999013
340.648875	1.000502
341.040879	1.001432
341.432818	1.000069
341.824694	1.000351
342.216506	0.999819
342.608253	0.999738
342.999937	0.999565
343.391557	1.000085
343.783113	1.001824
344.174605	1.000882
344.566033	0.999414
344.957397	0.999586
345.348697	1.001070
345.739934	1.000037
346.131106	1.000204
346.522215	0.998397
346.913260	0.999767
347.304241	0.998602
347.695159	1.000077
348.086012	0.999149
348.476802	0.999445
348.867528	0.999075
349.258191	0.999847
349.648789	1.001036
350.039324	0.999568
350.429796	0.999467
350.820203	0.998126
351.210548	1.000002
351.600828	0.999739
351.991045	0.999122
352.381198	1.000132
352.771288	0.999426
353.161314	1.000049
353.551276	0.999357
353.941175	0.998800
354.331010	1.000344
354.720782	1.000192
355.110490	1.000063
355.500135	1.000388
355.889717	0.998406
356.279235	0.998655
356.668689	1.000437
357.058080	0.998827
357.447408	0.998982
357.836672	0.998692
358.225873	0.999430
358.615010	0.999445
359.004084	0.998905
359.393095	0.999528
359.782043	0.998960
360.170927	0.998674
360.559748	0.999085
360.948505	0.999231
361.337199	0.999041
361.725830	0.999897
362.114398	0.998447
362.502903	0.998789
362.891344	0.997714
363.279722	0.998689
363.668037	0.998918
364.056289	0.998559
364.444478	1.000020
364.832603	0.998764
365.220665	1.000091
365.608665	0.998168
365.996601	0.998338
366.384474	0.997189
366.772284	0.998028
367.160031	0.997342
367.547715	0.998545
367.935336	0.997297
368.322893	0.996543
368.710388	0.995013
369.097820	0.992858
369.485189	0.990362
369.872495	0.990505
370.259738	0.987699
370.646918	0.983832
371.034035	0.982330
371.421090	0.978759
371.808081	0.974223
372.195010	0.972064
372.581875	0.965605
372.968678	0.963369
373.355418	0.960433
373.742096	0.951810
374.128710	0.947195
374.515262	0.942404
374.901751	0.936898
375.288177	0.931686
375.674540	0.924628
376.060841	0.919478
376.447079	0.911953
376.833254	0.906676
377.219367	0.900046
377.605417	0.889326
377.991404	0.886410
378.377329	0.880375
378.763191	0.873254
379.148991	0.865538
379.534727	0.857413
379.920402	0.849233
380.306013	0.846258
380.691563	0.833002
381.077049	0.826249
381.462474	0.822243
381.847835	0.811842
382.233134	0.806617
382.618371	0.808388
383.003545	0.792708
383.388657	0.789985
383.773706	0.783466
384.158693	0.781555
384.543618	0.778003
384.928480	0.771921
385.313280	0.764115
385.698017	0.766935
386.082692	0.758609
386.467305	0.761167
386.851856	0.759944
387.236344	0.757949
387.620770	0.757116
388.005133	0.757464
388.389435	0.755460
388.773674	0.758822
389.157851	0.757351
389.541965	0.759885
389.926018	0.771262
390.310008	0.765466
390.693936	0.769522
391.077802	0.769109
391.461606	0.777400
391.845348	0.776305
392.229027	0.782494
392.612645	0.788440
392.996200	0.787202
393.379694	0.790204
393.763125	0.792667
394.146494	0.803476
394.529801	0.805935
394.913047	0.809737
395.296230	0.821329
395.679351	0.825036
396.062410	0.833305
396.445408	0.841246
396.828343	0.848323
397.211217	0.854111
397.594028	0.866396
397.976778	0.871939
398.359466	0.878290
398.742092	0.884829
399.124656	0.894493
399.507158	0.897204
399.889598	0.904288
400.271977	0.910116
400.654294	0.916456
401.036549	0.923404
401.418742	0.929167
401.800874	0.933552
402.182944	0.937043
402.564952	0.941510
402.946898	0.947114
403.328783	0.952366
403.710606	0.957701
404.092367	0.959815
404.474067	0.964958
404.855705	0.967315
405.237282	0.971114
405.618797	0.973394
406.000250	0.975561
406.381642	0.977155
406.762972	0.981323
407.144240	0.982970
407.525447	0.984120
407.906593	0.985266
408.287677	0.987778
408.668700	0.989257
409.049661	0.990819
409.430560	0.991327
409.811399	0.992614
410.192176	0.993812
410.572891	0.995451
410.953545	0.994592
411.334138	0.995791
411.714669	0.995520
412.095139	0.997436
412.475547	0.996893
412.855894	0.998100
413.236180	0.996585
413.616405	0.997566
413.996568	0.997628
414.376670	0.997916
414.756711	0.998342
415.136691	0.998551
415.516609	0.997770
415.896466	0.998252
416.276262	0.998765
416.655997	0.998817
417.035670	0.999227
417.415283	0.999281
417.794834	0.999626
418.174324	0.999801
418.553753	0.998400
418.933121	0.998957
419.312428	0.999533
419.691674	0.999938
420.070859	0.998807
420.449983	0.999893
420.829045	0.998467
421.208047	1.000094
421.586988	0.998773
421.965867	0.998336
422.344686	0.998403
422.723444	0.998075
423.102141	1.000086
423.480777	0.997711
423.859352	0.998797
424.237866	0.999771
424.616319	0.999782
424.994712	1.000347
425.373044	0.999008
425.751314	0.999593
426.129524	1.000785
426.507673	0.998443
426.885762	0.999007
427.263789	0.999398
427.641756	0.999704
428.019662	0.999706
428.397508	0.999780
428.775292	0.998559
429.153016	0.998809
429.530679	0.999780
429.908282	0.999952
430.285824	1.000040
430.663305	0.999642
431.040726	0.999252
431.418086	1.000330
431.795385	0.999117
432.172624	1.000309
432.549802	0.999429
432.926920	0.999463
433.303977	0.999586
433.680974	1.000628
434.057910	0.999788
434.434786	0.999139
434.811601	0.999929
435.188355	1.000550
435.565050	1.000051
435.941683	0.999174
436.318257	0.999081
436.694770	0.999529
437.071222	1.000400
437.447614	0.999283
437.823946	0.999672
438.200218	0.999827
438.576429	0.999439
438.952580	1.000392
439.328670	0.998676
439.704700	0.999265
440.080670	0.999294
440.456580	0.999848
440.832429	1.000075
441.208218	1.000190
441.583947	1.000370
441.959616	0.998469
442.335224	0.999710
442.710773	1.000312
443.086261	1.000010
443.461689	0.998928
443.837057	0.999535
444.212365	1.000534
444.587612	1.000317
444.962800	0.999849
445.337927	1.000193
445.712995	0.999270
446.088002	0.998999
446.462949	0.999994
446.837837	1.000601
447.212664	0.999655
447.587431	0.999664
447.962139	0.999734
448.336786	0.999108
448.711374	0.998707
449.085901	0.999961
449.460369	0.999739
449.834776	0.998859
450.209124	0.999946
450.583412	0.999574
450.957640	0.998994
451.331808	1.000255
451.705917	0.999725
452.079965	1.000236
452.453954	0.999664
452.827883	0.998831
453.201752	0.999739
453.575562	0.999612
453.949311	0.999334
454.323001	0.999909
454.696632	1.000196
455.070202	0.999901
455.443713	0.999606
455.817164	0.999479
456.190556	0.999544
456.563888	1.000660
456.937160	0.999316
457.310373	0.999561
457.683526	1.000151
458.056619	0.999919
458.429653	0.999813
458.802628	1.000187
459.175542	0.999543
459.548398	0.999418
459.921194	0.999915
460.293930	1.000699
460.666607	0.999760
461.039224	0.999558
461.411782	0.999958
461.784280	1.000090
462.156719	1.000121
462.529099	0.999555
462.901419	1.000478
463.273680	1.000246
463.645882	0.999237
464.018024	1.000941
464.390106	0.999120
464.762130	0.999695
465.134094	1.000252
465.505999	0.999567
465.877845	0.999739
466.249631	0.999559
466.621358	0.998831
466.993026	0.999642
467.364634	0.999591
467.736184	0.999801
468.107674	0.999768
468.479105	0.999488
468.850477	0.999543
469.221790	0.999475
469.593043	0.999775
469.964238	0.999089
470.335373	1.000377
470.706449	0.999307
471.077467	0.999680
471.448425	0.999908
471.819324	0.999443
472.190164	1.000000
472.560945	0.999866
472.931667	1.000603
473.302330	0.999738
473.672934	0.999901
474.043479	0.999309
474.413965	0.999274
474.784393	0.999551
475.154761	0.998921
475.525070	0.999416
475.895321	0.999697
476.265513	0.999962
476.635645	0.999758
477.005719	0.999756
477.375734	0.999794
477.745691	0.999569
478.115588	0.999769
478.485427	0.999551
478.855207	1.000570
479.224928	0.999777
479.594591	1.000030
479.964194	0.999805
480.333739	0.999837
480.703226	0.999292
481.072653	0.999459
481.442022	0.999486
481.811333	0.999554
482.180584	0.999879
482.549777	0.999895
482.918912	0.999945
483.287988	0.999463
483.657005	0.999321
484.025964	0.999200
484.394864	0.999529
484.763706	0.999415
485.132489	1.000047
485.501213	0.999401
485.869879	0.999570
486.238487	0.998600
486.607036	0.999942
486.975527	0.999611
487.343959	0.999276
487.712333	0.999740
488.080648	0.999522
488.448905	0.999713
488.817104	0.999274
489.185244	0.999891
489.553326	0.999839
489.921350	0.999691
490.289315	0.999423
490.657222	0.999417
491.025070	1.000200
491.392861	0.999644
491.760593	0.999678
492.128267	0.999560
492.495883	0.998905
492.863440	0.999044
493.230939	0.999764
493.598380	0.999666
493.965763	0.999483
494.333088	0.998489
494.700354	0.999763
495.067563	0.999092
495.434713	1.000081
495.801805	0.999257
496.168839	0.999280
496.535815	0.999628
496.902733	0.999249
497.269593	0.999235
497.636395	0.998935
498.003139	0.998827
498.369825	1.000448
498.736453	0.999234
499.103023	1.000022
499.469535	0.999922
499.835989	0.999604
500.202385	0.999259
500.568723	0.999029
500.935003	0.999114
501.301226	0.999103
501.667390	0.999509
502.033497	0.999161
502.399546	0.999748
502.765537	0.999301
503.131470	0.999108
503.497345	0.999928
503.863163	1.000027
504.228923	0.999220
504.594625	0.999222
504.960269	1.000008
505.325856	0.999765
505.691385	0.999079
506.056856	0.999593
506.422270	0.999645
506.787625	0.999629
507.152924	0.999951
507.518164	0.999311
507.883347	0.999679
508.248472	0.999523
508.613540	0.999038
508.978550	1.000395
509.343503	0.999565
509.708398	0.999980
510.073236	1.000106
510.438016	0.999043
510.802738	0.999588
511.167403	0.999146
511.532010	0.999218
511.896561	1.000428
512.261053	0.999030
512.625488	0.999734
512.989866	0.999503
513.354186	0.999161
513.718449	0.999544
514.082655	0.999176
514.446803	0.999185
514.810894	0.999731
515.174927	0.999576
515.538904	0.999500
515.902822	0.999315
516.266684	0.999191
516.630488	0.999196
516.994235	0.999410
517.357925	0.999665
517.721558	0.999516
518.085133	0.998794
518.448651	0.998740
518.812112	0.999656
519.175516	0.999861
519.538863	0.999144
519.902152	0.999776
520.265385	0.998849
520.628560	0.999163
520.991678	0.999060
521.354739	0.999821
521.717743	0.999856
522.080690	0.998875
522.443580	0.999667
522.806413	0.999206
523.169189	0.999558
523.531908	0.999361
523.894569	0.999495
524.257174	0.999502
524.619722	1.000054
524.982213	0.999712
525.344647	1.000132
525.707025	0.998765
526.069345	0.999143
526.431608	0.999612
526.793815	0.999877
527.155964	0.999419
527.518057	1.000080
527.880093	0.998917
528.242072	0.999370
528.603995	0.999418
528.965860	1.000045
529.327669	0.999798
529.689421	0.998844
530.051117	0.999987
530.412755	0.999812
530.774337	0.999717
531.135862	0.999996
531.497331	0.999437
531.858743	1.000067
532.220098	0.999226
532.581396	0.999920
532.942638	0.999907
533.303824	0.999964
533.664953	0.999076
534.026025	0.999689
534.387040	1.000232
534.747999	0.999137
535.108902	0.999334
535.469748	1.000137
535.830537	0.999943
536.191270	0.999766
536.551947	0.999228
536.912567	0.999691
537.273131	0.999933
537.633638	0.999898
537.994089	0.999939
538.354483	0.999477
538.714821	1.000097
539.075103	0.999852
539.435328	0.999887
539.795497	0.999837
540.155609	0.999374
540.515665	0.999460
540.875665	0.999426
541.235609	0.999634
541.595496	0.999290
541.955328	0.999571
542.315102	0.999851
542.674821	1.000139
543.034483	1.000253
543.394090	0.999198
543.753640	0.999725
544.113134	0.999310
544.472571	0.999797
544.831953	0.999534
545.191278	0.999894
545.550548	0.999658
545.909761	0.999491
546.268918	0.999888
546.628019	1.000116
546.987064	0.999434
547.346053	0.999479
547.704986	0.999573
548.063863	0.999043
548.422684	1.000202
548.781449	0.999439
549.140158	1.000053
549.498811	0.999511
549.857408	0.999044
550.215949	0.999140
550.574434	0.999485
550.932864	1.000295
551.291237	0.999369
551.649555	1.000227
552.007817	1.000245
552.366022	0.999674
552.724173	0.999954
553.082267	0.999483
553.440305	0.999313
553.798288	0.999450
554.156215	0.999507
554.514086	0.998743
554.871902	1.000332
555.229661	0.998931
555.587365	0.999668
555.945014	1.000090
556.302606	0.999813
556.660143	1.000387
557.017625	1.000247
557.375050	0.998981
557.732421	0.999326
558.089735	0.999221
558.446994	0.999192
558.804197	0.999861
559.161345	0.999511
559.518437	0.999977
559.875474	0.999893
560.232455	1.000049
560.589381	0.999923
560.946251	0.999540
561.303065	1.000066
561.659825	0.999033
562.016528	0.999933
562.373177	0.999944
562.729770	1.000005
563.086307	0.998689
563.442789	0.999775
563.799216	0.999133
564.155587	0.999766
564.511904	0.999830
564.868164	0.998887
565.224370	0.999960
565.580520	0.999651
565.936615	0.999529
566.292654	0.999463
566.648638	1.000411
567.004567	0.999502
567.360441	0.999897
567.716260	0.999161
568.072023	0.999449
568.427732	1.000016
568.783385	1.000407
569.138982	1.000684
569.494525	0.999474
569.850013	0.999754
570.205445	0.999675
570.560823	0.999295
570.916145	0.999371
571.271412	0.999459
571.626625	1.000196
571.981782	0.999182
572.336884	0.999944
572.691931	0.999738
573.046923	0.999865
573.401860	0.999651
573.756743	1.000018
574.111570	0.999950
574.466342	1.000070
574.821059	0.999828
575.175722	1.000314
575.530330	0.999374
575.884882	0.999516
576.239380	0.999870
576.593823	0.999523
576.948211	1.000175
577.302544	0.999548
577.656823	0.999783
578.011047	0.998854
578.365216	1.000887
578.719330	0.999939
579.073389	0.999381
579.427394	0.999690
579.781344	1.000251
580.135239	0.998994
580.489080	1.000114
580.842866	0.999817
581.196597	0.998810
581.550273	0.999531
581.903895	1.000182
582.257463	0.999891
582.610975	1.000120
582.964434	1.000064
583.317837	1.000230
583.671186	1.000200
584.024481	0.999482
584.377721	0.999909
584.730906	0.999772
585.084037	1.000983
585.437113	1.000401
585.790135	1.000407
586.143103	1.000457
586.496016	0.999666
586.848874	1.000004
587.201679	0.999558
587.554428	0.999363
587.907124	1.000003
588.259765	1.000808
588.612352	1.001050
588.964884	1.000577
589.317362	0.999696
589.669786	0.999793
590.022155	0.999196
590.374470	0.999701
590.726731	1.000325
591.078937	0.999357
591.431090	0.999824
591.783188	0.999316
592.135232	1.000569
592.487222	0.999532
592.839157	1.000040
593.191038	0.999772
593.542866	1.000540
593.894639	0.999026
594.246358	1.000069
594.598022	1.000233
594.949633	1.000025
595.301190	0.999902
595.652692	0.999148
596.004141	0.999633
596.355535	0.999867
596.706876	1.000573
597.058162	0.999803
597.409395	0.999792
597.760573	0.999754
598.111698	0.999571
598.462768	0.999377
598.813785	0.999555
599.164748	0.999484
599.515657	0.999693
599.866511	1.000037
600.217312	1.000611
600.568060	0.999424
600.918753	1.000351
601.269392	1.000027
601.619978	0.999872
601.970510	0.999759
602.320988	0.999363
602.671412	0.999792
603.021783	0.999914
603.372100	1.000417
603.722363	1.000650
604.072572	0.999897
604.422728	0.999699
604.772830	0.999367
605.122878	1.000544
605.472872	1.001249
605.822813	0.999895
606.172701	0.999734
606.522534	1.000404
606.872314	1.000468
607.222041	0.999905
607.571714	1.000340
607.921333	1.000056
608.270899	0.999272
608.620411	0.999296
608.969870	1.000382
609.319276	0.999828
609.668627	1.000776
610.017926	0.999902
610.367171	1.000361
610.716362	1.000312
611.065500	0.999384
611.414585	0.999787
611.763616	0.999551
612.112594	1.000241
612.461518	0.999561
612.810389	0.999962
613.159207	0.999940
613.507971	1.000002
613.856682	1.000233
614.205340	0.999852
614.553945	0.999951
614.902496	0.999667
615.250994	1.000154
615.599439	1.000612
615.947830	0.999491
616.296169	1.000013
616.644454	1.000265
616.992686	0.999936
617.340864	1.000595
617.688990	0.999819
618.037063	1.000397
618.385082	0.999592
618.733048	0.999014
619.080961	0.999833
619.428821	1.000392
619.776628	0.999664
620.124382	1.001183
620.472083	1.001064
620.819731	1.000887
621.167326	1.000533
621.514868	1.000620
621.862357	1.000225
622.209793	1.000183
622.557176	0.999533
622.904506	0.999756
623.251783	1.000606
623.599007	1.000145
623.946179	0.999842
624.293297	1.000570
624.640363	1.001229
624.987376	0.999559
625.334336	0.999735
625.681243	1.000518
626.028097	1.000733
626.374899	0.999865
626.721647	1.001048
627.068343	0.999571
627.414987	1.000244
627.761577	0.999835
628.108115	0.999717
628.454600	1.000851
628.801032	1.000660
629.147412	1.000280
629.493739	1.000425
629.840014	0.999897
630.186236	1.000084
630.532405	1.000051
630.878521	0.999876
631.224585	1.000075
631.570597	0.999946
631.916556	1.000247
632.262462	0.998860
632.608316	1.000968
632.954117	0.998748
633.299866	1.000347
633.645562	0.999525
633.991206	1.000068
634.336797	1.000217
634.682336	1.000967
635.027823	1.000005
635.373257	1.000654
635.718639	1.000475
636.063968	1.000232
636.409245	1.000043
636.754470	1.000614
637.099642	1.000394
637.444762	1.000078
637.789829	1.000228
638.134845	0.998998
638.479808	1.000228
638.824719	1.000469
639.169577	0.999757
639.514383	1.000016
639.859137	1.000035
640.203839	1.000011
640.548489	1.000339
640.893086	0.999517
641.237632	1.000198
641.582125	0.999569
641.926566	1.000836
642.270955	0.999916
642.615292	0.999025
642.959576	1.000637
643.303809	1.000339
643.647990	1.000427
643.992118	1.000714
644.336195	0.998993
644.680219	0.999450
645.024192	0.999715
645.368112	0.999430
645.711981	1.000115
646.055797	0.999640
646.399562	0.999492
646.743274	1.000507
647.086935	0.999567
647.430544	0.999002
647.774101	0.999429
648.117606	1.000802
648.461059	1.000185
648.804460	1.000034
649.147810	0.999129
649.491108	0.999841
649.834354	0.999717
650.177548	0.999600
650.520690	1.000168
650.863781	0.998837
651.206820	1.000124
651.549807	1.000008
651.892742	1.000134
652.235626	1.000076
652.578458	1.000397
652.921238	1.000213
653.263967	0.999900
653.606644	0.999563
653.949269	0.999846
654.291843	0.999368
654.634365	1.000489
654.976836	0.999001
655.319255	1.000715
655.661622	1.000086
656.003938	0.999339
656.346203	0.999683
656.688416	1.000472
657.030577	0.998625
657.372687	1.000813
657.714746	0.999672
658.056753	1.000707
658.398708	0.998961
658.740612	1.000452
659.082465	0.999913
659.424266	1.000185
659.766016	0.998921
660.107715	0.999883
660.449362	0.999318
660.790958	0.999885
661.132503	0.999761
661.473996	0.998725
661.815438	1.000110
662.156829	1.000354
662.498168	1.000669
662.839456	0.999565
663.180693	0.999908
663.521879	0.998799
663.863013	0.999794
664.204097	0.998926
664.545129	0.999396
664.886110	1.000646
665.227040	1.000671
665.567918	0.999716
665.908746	0.999134
666.249522	0.998964
666.590248	0.999667
666.930922	0.999380
667.271545	0.999174
667.612118	0.999926
667.952639	0.999379
668.293109	0.999380
668.633528	0.998610
668.973896	1.000299
669.314213	0.998871
669.654480	0.998982
669.994695	0.998732
670.334859	0.999108
670.674973	0.999583
671.015035	1.000116
671.355047	0.999200
671.695008	0.998166
672.034918	0.998334
672.374777	0.999994
672.714585	0.999459
673.054342	0.999597
673.394049	0.998973
673.733705	0.999283
674.073310	1.000042
674.412864	0.999124
674.752368	0.998912
675.091820	0.999985
675.431223	0.999070
675.770574	0.999185
676.109875	0.999145
676.449125	0.998669
676.788324	0.998938
677.127473	0.999928
677.466571	1.000044
677.805619	0.999473
678.144616	0.999294
678.483562	1.000014
678.822458	1.000016
679.161303	0.999139
679.500098	0.999424
679.838842	1.000053
680.177535	0.998664
680.516179	0.998378
680.854771	0.998609
681.193314	1.000798
681.531805	0.999735
681.870247	0.998938
682.208638	1.000528
682.546978	0.999198
682.885268	0.999097
683.223508	0.998253
683.561697	0.998782
683.899836	0.998785
684.237925	0.998617
684.575963	0.998777
684.913951	0.998744
685.251889	0.999175
685.589776	0.998779
685.927614	0.999130
686.265401	0.998720
686.603137	0.998692
686.940824	0.999108
687.278460	0.999424
687.616046	0.999056
687.953582	0.999270
688.291068	1.000055
688.628504	0.999342
688.965889	0.998602
689.303224	0.997529
689.640510	0.999245
689.977745	0.998541
690.314930	0.997785
690.652065	0.999289
690.989150	0.999379
691.326185	0.999344
691.663170	1.000120
692.000105	0.999303
692.336990	0.998514
692.673825	0.999095
693.010610	0.999751
693.347345	0.998811
693.684030	0.999014
694.020665	0.999401
694.357251	0.998284
694.693786	0.999083
695.030272	0.997786
695.366707	0.998109
695.703093	0.998747
696.039429	0.998135
696.375716	0.998913
696.711952	0.998178
697.048139	0.998993
697.384276	0.998657
697.720363	0.998501
698.056400	0.997674
698.392388	0.997864
698.728326	0.998832
699.064214	0.999328
699.400053	0.998810
699.735842	0.999053
700.071581	0.998593
700.407270	0.998917
700.742910	0.998555
701.078501	0.998656
701.414042	0.999130
701.749533	0.997205
702.084974	0.999209
702.420366	0.998615
702.755709	0.998508
703.091002	0.998776
703.426246	0.999518
703.761440	0.998245
704.096584	0.998987
704.431679	0.997956
704.766725	0.999192
705.101721	0.998925
705.436668	0.998166
705.771565	0.998290
706.106413	0.996964
706.441212	0.998878
706.775961	0.999701
707.110661	0.997917
707.445311	0.999390
707.779913	0.998893
708.114465	0.998790
708.448967	0.998640
708.783421	0.999540
709.117825	0.999194
709.452180	0.998949
709.786485	0.999652
710.120742	0.998077
710.454949	0.997582
710.789107	0.998566
711.123216	0.997761
711.457275	0.998531
711.791286	0.998154
712.125247	1.000158
712.459159	0.998627
712.793023	0.998238
713.126837	0.998366
713.460602	0.998184
713.794318	0.997775
714.127985	0.997187
714.461602	0.997453
714.795171	0.998406
715.128691	0.997890
715.462162	0.998293
715.795584	0.998657
716.128957	0.998565
716.462281	0.999026
716.795556	0.998432
717.128782	0.998312
717.461960	0.997701
717.795088	0.998938
718.128167	0.999099
718.461198	0.998139
718.794180	0.998251
719.127113	0.998253
719.459997	0.998240
719.792833	0.998121
720.125619	0.997748
720.458357	0.998431
720.791046	0.999083
721.123686	0.998415
721.456278	0.998286
721.788821	0.997857
722.121315	0.999063
722.453761	0.998092
722.786158	0.997746
723.118506	0.997724
723.450805	0.998675
723.783056	0.999587
724.115259	0.997895
724.447412	0.999271
724.779518	0.998676
725.111574	0.997647
725.443582	0.998016
725.775542	0.998968
726.107453	0.998451
726.439315	0.999633
726.771129	0.999013
727.102895	0.998486
727.434612	0.998775
727.766281	0.998181
728.097901	0.998060
728.429473	0.998454
728.760996	0.998220
729.092471	0.997603
729.423897	0.998391
729.755276	0.997971
730.086606	0.998261
730.417887	0.998875
730.749120	0.997196
731.080305	0.998036
731.411442	0.998991
731.742530	0.997099
732.073570	0.998106
732.404562	0.998513
732.735506	0.998191
733.066401	0.998661
733.397249	0.997890
733.728048	0.997712
734.058798	0.998313
734.389501	0.998250
734.720156	0.998270
735.050762	0.999136
735.381320	0.998806
735.711831	0.997980
736.042293	0.997687
736.372707	0.999081
736.703073	0.997222
737.033391	0.998805
737.363661	0.998456
737.693883	0.998458
738.024056	0.996995
738.354182	0.998690
738.684260	0.998642
739.014290	0.998178
739.344272	0.998584
739.674207	0.997514
740.004093	0.998625
740.333931	0.999203
740.663722	0.997343
740.993464	0.998767
741.323159	0.998143
741.652806	0.998017
741.982405	0.998246
742.311956	0.998711
742.641460	0.998756
742.970915	0.998216
743.300323	0.997646
743.629683	0.997812
743.958996	0.999296
744.288260	0.997354
744.617477	0.998004
744.946647	0.998267
745.275768	0.998415
745.604842	0.997799
745.933869	0.998143
746.262847	0.999021
746.591778	0.996892
746.920662	0.998851
747.249498	0.998868
747.578286	0.999523
747.907027	0.999489
748.235720	0.999522
748.564365	0.998304
748.892963	0.998501
749.221514	0.998216
749.550017	0.997317
749.878473	0.998597
750.206881	0.999778
750.535242	0.998628
750.863555	0.997696
751.191821	0.997737
751.520039	0.997860
751.848210	0.996567
752.176334	0.997550
752.504411	0.997451
752.832440	0.997469
753.160421	0.998103
753.488356	0.998739
753.816243	0.997906
754.144082	0.997929
754.471875	0.999060
754.799620	0.998683
755.127318	0.998142
755.454969	0.997973
755.782572	0.999819
756.110129	0.997221
756.437638	0.999129
756.765100	0.998968
757.092515	0.998481
757.419882	0.999265
757.747203	0.998249
758.074477	0.999323
758.401703	0.999007
758.728882	0.998132
759.056014	0.997726
759.383099	0.998508
759.710138	0.998082
760.037129	0.998380
760.364073	0.998238
760.690970	0.998057
761.017820	0.997329
761.344623	0.999137
761.671379	0.998858
761.998088	0.998208
762.324751	0.998499
762.651366	0.997307
762.977935	0.996640
763.304456	0.997836
763.630931	0.996712
763.957359	0.996438
764.283740	0.997026
764.610074	0.997304
764.936362	0.997865
765.262602	0.997791
765.588796	0.998450
765.914943	0.997927
766.241044	0.997951
766.567097	0.998126
766.893104	0.997606
767.219064	0.997060
767.544978	0.998027
767.870845	0.998348
768.196665	0.998502
768.522438	0.998418
768.848165	0.999583
769.173846	0.999120
769.499479	0.999964
769.825066	0.999973
770.150607	0.999580
770.476101	0.999023
770.801548	0.998925
771.126949	0.999814
771.452303	0.997722
771.777611	0.998426
772.102872	0.997734
772.428087	0.998000
772.753256	0.999361
773.078378	0.999085
773.403453	0.998016
773.728482	1.000827
774.053465	0.998681
774.378401	0.998300
774.703291	0.999517
775.028135	1.000097
775.352932	0.998586
775.677683	0.998567
776.002388	0.998857
776.327046	0.998741
776.651658	0.999786
776.976224	0.999188
777.300743	0.998531
777.625216	0.997931
777.949643	0.999870
778.274024	0.998325
778.598359	1.000012
778.922647	0.999925
779.246889	0.999770
779.571086	0.999827
779.895236	0.998537
780.219339	0.998567
780.543397	0.997465
780.867409	0.999871
781.191374	0.998268
781.515294	0.999742
781.839167	0.998493
782.162995	0.998562
782.486776	0.999846
782.810511	0.999822
783.134201	0.999540
783.457844	0.999575
783.781441	0.998586
784.104993	0.998234
784.428498	0.998771
784.751958	1.000541
785.075372	0.999464
785.398739	0.997545
785.722061	0.997538
786.045337	0.999503
786.368568	0.998398
786.691752	0.998155
787.014891	0.999218
787.337983	0.998102
787.661030	0.999195
787.984031	0.999603
788.306987	0.999145
788.629897	0.996934
788.952760	0.998714
789.275579	0.999231
789.598351	0.999465
789.921078	1.000352
790.243759	0.998829
790.566395	0.997788
790.888984	0.998759
791.211529	0.998184
791.534027	0.999078
791.856480	0.999115
792.178888	0.998642
792.501249	0.998063
792.823566	1.000231
793.145836	0.998415
793.468062	0.999839
793.790241	1.000094
794.112375	0.998029
794.434464	0.999519
794.756507	0.999499
795.078505	0.998972
795.400457	0.999206
795.722364	0.998757
796.044226	1.000455
796.366042	0.998502
796.687812	0.996951
797.009538	0.998149
797.331218	1.000023
797.652852	0.999104
797.974442	0.997927
798.295986	0.998257
798.617484	0.998650
798.938938	0.999775
799.260346	0.998557
799.581709	0.998252
799.903026	0.998404
800.224299	0.998681
800.545526	0.997945
800.866708	0.998319
801.187845	0.999357
801.508936	0.998887
801.829983	0.999160
802.150984	0.999024
802.471940	0.998975
802.792851	0.998450
803.113717	1.000081
803.434538	0.999460
803.755314	1.001114
804.076045	0.999448
804.396731	0.998490
804.717372	0.998015
805.037967	1.000241
805.358518	0.999066
805.679024	0.999162
805.999485	0.999368
806.319901	0.999690
806.640272	1.000469
806.960598	0.999744
807.280879	0.999940
807.601115	1.000162
807.921306	0.999876
808.241453	0.998190
808.561554	0.998911
808.881611	0.998966
809.201623	0.999398
809.521590	0.999888
809.841513	1.000463
810.161390	0.998261
810.481223	0.998928
810.801011	0.998802
811.120755	0.999771
811.440453	0.998796
811.760107	0.999048
812.079716	0.998479
812.399281	0.999375
812.718801	0.998929
813.038276	0.999517
813.357707	0.999156
813.677093	0.999633
813.996434	0.999604
814.315731	1.000160
814.634983	0.998985
814.954191	0.999042
815.273354	0.999172
815.592473	0.998657
815.911547	0.999939
816.230577	0.998635
816.549562	0.998917
816.868502	0.999531
817.187399	1.000015
817.506250	0.999368
817.825058	0.998002
818.143821	1.000041
818.462539	0.998901
818.781213	0.998642
819.099843	0.999113
819.418429	0.999273
819.736970	0.999075
820.055466	0.997694
820.373919	0.998619
820.692327	0.997520
821.010691	0.997124
821.329011	0.995820
821.647286	0.994727
821.965517	0.994318
822.283704	0.993809
822.601847	0.993089
822.919945	0.993119
823.237999	0.993546
823.556010	0.993691
823.873976	0.994035
824.191897	0.994623
824.509775	0.996322
824.827609	0.996861
825.145398	0.996775
825.463144	0.995549
825.780845	0.995533
826.098502	0.996345
826.416116	0.996399
826.733685	0.995878
827.051210	0.995470
827.368692	0.994521
827.686129	0.995108
828.003522	0.997265
828.320872	0.996551
828.638177	0.997452
828.955439	0.999066
829.272656	0.998754
829.589830	0.997859
829.906960	0.997888
830.224046	0.997789
830.541088	0.998906
830.858086	0.999618
831.175041	1.000022
831.491952	0.997811
831.808819	0.999170
832.125642	0.998523
832.442421	0.998368
832.759157	0.998846
833.075849	0.997811
833.392497	0.997762
833.709101	0.996784
834.025662	0.996661
834.342179	0.997147
834.658653	0.997901
834.975083	0.999214
835.291469	0.999495
835.607811	0.998729
835.924110	0.997907
836.240366	0.999668
836.556578	0.998803
836.872746	1.000283
837.188871	0.999554
837.504952	0.998363
837.820990	0.998834
838.136984	0.998452
838.452935	0.998976
838.768842	0.999305
839.084706	0.999288
839.400526	1.000106
839.716303	0.997750
840.032037	0.998569
840.347727	0.998017
840.663373	0.998366
840.978977	0.997783
841.294537	1.000225
841.610054	0.999773
841.925527	1.000158
842.240957	0.998927
842.556344	0.999498
842.871687	0.999690
843.186987	0.999602
843.502244	0.999817
843.817458	0.998488
844.132629	0.999945
844.447756	0.998731
844.762840	0.999150
845.077881	1.000247
845.392879	0.999102
845.707833	0.999215
846.022745	0.999341
846.337613	0.999826
846.652438	0.999782
846.967221	0.999555
847.281960	0.998849
847.596656	1.000803
847.911309	0.999818
848.225919	0.999048
848.540485	0.999821
848.855009	0.999907
849.169490	1.000277
849.483928	1.000077
849.798323	0.999130
850.112675	1.000984
850.426984	0.999513
850.741251	1.000530
851.055474	0.999749
851.369654	1.000343
851.683792	0.998565
851.997887	1.000077
852.311938	1.000522
852.625947	0.999334
852.939914	0.999763
853.253837	1.000646
853.567718	1.000395
853.881555	0.999219
854.195350	1.000417
854.509103	0.999370
854.822812	1.000101
855.136479	0.999622
855.450103	1.000585
855.763685	0.999587
856.077224	0.999077
856.390720	0.999985
856.704173	1.000737
857.017584	0.999417
857.330953	0.999040
857.644278	0.999136
857.957561	0.999411
858.270802	1.000733
858.584000	1.000217
858.897155	0.998752
859.210268	0.999407
859.523339	1.000450
859.836367	0.999988
860.149352	0.998680
860.462295	0.999522
860.775195	1.000363
861.088054	0.999233
861.400869	0.999273
861.713642	0.999352
862.026373	1.000347
862.339062	1.001013
862.651708	1.001085
862.964312	1.000099
863.276873	0.999681
863.589392	0.999947
863.901869	0.999737
864.214303	1.000170
864.526696	0.999698
864.839045	0.998796
865.151353	0.998726
865.463619	0.998960
865.775842	0.999927
866.088023	1.001234
866.400162	0.999627
866.712258	1.000630
867.024313	1.000147
867.336325	1.000011
867.648296	1.000684
867.960224	1.000623
868.272110	1.000548
868.583954	0.999349
868.895755	0.999983
869.207515	0.999134
869.519233	0.999863
869.830909	0.999217
870.142542	0.998608
870.454134	0.999534
870.765684	0.998953
871.077191	0.998989
871.388657	0.999187
871.700081	0.999299
872.011463	1.000913
872.322803	0.999212
872.634101	0.999790
872.945357	0.999907
873.256571	0.999673
873.567744	0.999911
873.878874	0.999852
874.189963	0.999048
874.501010	1.000489
874.812015	0.999498
875.122979	0.999701
875.433900	0.999925
875.744780	0.998972
876.055618	0.998092
876.366415	0.998592
876.677169	0.998741
876.987882	0.998935
877.298554	1.000229
877.609183	0.998994
877.919771	0.999515
878.230317	0.999734
878.540822	0.998772
878.851285	0.998907
879.161707	0.999215
879.472087	1.000769
879.782425	0.998750
880.092722	0.998746
880.402977	0.997199
880.713191	0.996647
881.023363	0.995457
881.333494	0.994109
881.643583	0.995389
881.953631	0.994116
882.263637	0.994868
882.573602	0.994516
882.883526	0.995044
883.193408	0.996297
883.503248	0.996685
883.813048	0.996652
884.122806	0.996607
884.432522	0.997062
884.742197	0.998803
885.051831	0.998385
885.361424	0.998267
885.670975	0.999795
885.980485	0.998684
886.289954	0.998382
886.599382	0.996962
886.908768	0.999222
887.218113	0.998792
887.527417	0.998430
887.836680	0.999189
888.145901	0.999509
888.455082	1.000115
888.764221	0.999996
889.073319	0.999270
889.382376	1.000245
889.691392	0.998707
890.000366	0.999670
890.309300	0.999426
890.618193	1.000889
890.927044	0.999089
891.235855	0.999477
891.544625	0.999412
891.853353	0.999821
892.162041	0.998783
892.470687	0.998953
892.779293	0.998107
893.087858	0.998320
893.396381	0.997709
893.704864	0.998376
894.013306	0.998455
894.321707	0.998022
894.630068	0.997776
894.938387	0.996959
895.246665	0.996863
895.554903	0.997662
895.863100	0.998978
896.171256	0.997901
896.479371	0.997488
896.787446	0.999266
897.095480	0.999313
897.403473	0.999362
897.711425	0.998893
898.019336	0.999538
898.327207	0.998529
898.635038	0.998487
898.942827	0.999550
899.250576	0.998735
899.558284	0.999951
899.865952	0.999597
900.173579	0.999962
900.481165	0.998864
900.788711	0.998615
901.096216	0.999278
901.403681	1.000814
901.711105	0.999441
902.018489	0.999360
902.325832	0.998432
902.633135	0.999547
902.940397	0.999414
903.247619	0.999215
903.554800	0.999180
903.861941	0.998280
904.169041	0.997404
904.476101	0.997866
904.783121	0.996878
905.090100	0.997951
905.397039	0.998026
905.703938	0.998080
906.010796	0.997627
906.317614	0.997864
906.624391	0.999131
906.931129	0.999953
907.237826	0.999778
907.544483	0.999319
907.851099	1.000013
908.157675	0.999916
908.464211	0.999922
908.770707	0.998761
909.077163	0.999884
909.383578	0.999251
909.689954	0.998888
909.996289	1.000570
910.302584	1.000630
910.608839	0.999978
910.915054	1.000391
911.221229	1.001347
911.527363	0.999406
911.833458	0.999260
912.139513	0.999103
912.445527	1.000145
912.751502	1.000217
913.057436	0.998715
913.363331	1.001790
913.669186	1.000984
913.975000	1.000030
914.280775	0.999737
914.586510	0.998310
914.892205	0.998265
915.197859	0.998939
915.503475	0.998353
915.809050	0.997876
916.114585	0.996517
916.420081	0.998363
916.725536	0.998468
917.030952	0.997925
917.336328	0.997627
917.641665	0.996691
917.946961	0.997129
918.252218	0.997653
918.557435	0.998552
918.862612	0.998469
919.167750	0.998429
919.472848	1.000148
919.777906	0.999659
920.082925	0.999904
920.387904	1.000339
920.692843	0.999359
920.997743	0.998268
921.302603	0.999747
921.607423	0.998989
921.912204	0.998984
922.216946	1.000808
922.521647	0.999333
922.826310	0.999372
923.130932	1.000193
923.435516	0.999703
923.740059	0.999528
924.044564	0.999100
924.349028	0.999809
924.653454	1.000746
924.957840	0.999692
925.262186	0.999742
925.566493	0.999583
925.870761	0.999796
926.174989	0.999814
926.479178	1.000889
926.783328	1.000626
927.087438	1.000112
927.391509	0.999174
927.695541	0.999583
927.999533	1.000562
928.303486	0.999303
928.607400	1.000292
928.911275	1.000155
929.215110	1.000590
929.518906	1.000362
929.822663	1.000597
930.126381	1.001048
930.430060	0.999998
930.733699	1.000057
931.037299	1.000721
931.340861	1.001101
931.644383	0.999761
931.947866	0.999687
932.251309	1.000339
932.554714	0.998805
932.858080	0.998897
933.161407	0.999462
933.464694	0.999504
933.767943	1.000624
934.071153	0.999970
934.374323	1.000979
934.677455	1.000247
934.980548	0.999811
935.283602	1.000646
935.586617	1.000319
935.889593	1.001098
936.192530	1.000738
936.495428	1.000105
936.798287	0.999177
937.101108	0.999954
937.403890	0.999916
937.706632	1.002179
938.009336	1.000377
938.312002	0.999760
938.614628	1.000935
938.917216	1.000190
939.219765	0.999360
939.522275	1.000728
939.824747	1.000340
940.127179	1.000777
940.429573	1.001160
940.731929	0.999780
941.034246	0.999175
941.336524	0.997847
941.638763	1.000144
941.940964	0.999548
942.243126	0.999973
942.545250	1.001194
942.847335	1.001114
943.149381	1.000720
943.451389	0.999875
943.753359	0.999628
944.055290	1.002096
944.357182	0.999768
944.659036	1.002117
944.960851	0.999631
945.262628	1.000569
945.564367	1.001230
945.866067	0.998717
946.167729	0.999980
946.469352	0.999063
946.770937	0.998390
947.072484	1.000413
947.373992	1.000321
947.675462	0.999827
947.976893	0.999965
948.278286	1.000388
948.579641	1.001390
948.880958	0.998497
949.182236	1.000360
949.483476	1.000658
949.784678	1.000928
950.085841	0.999934
950.386967	1.000056
950.688054	1.000750
950.989103	0.999070
951.290114	0.998017
951.591087	0.999934
951.892021	0.999287
952.192917	1.000336
952.493776	1.000289
952.794596	0.999928
953.095378	0.999089
953.396122	0.999335
953.696828	1.000503
953.997496	1.000410
954.298126	1.000958
954.598718	1.000246
954.899272	1.000611
955.199788	0.999805
955.500266	1.000812
955.800706	0.999638
956.101108	0.999874
956.401472	1.001072
956.701798	0.999937
957.002087	0.999165
957.302337	0.999636
957.602550	1.000235
957.902724	0.999598
958.202861	1.000056
958.502960	1.000430
958.803022	1.001111
959.103045	1.000110
959.403031	1.000519
959.702979	1.001262
960.002889	1.000034
960.302762	0.998836
960.602596	1.000075
960.902393	0.999993
961.202153	1.001578
961.501875	1.000057
961.801559	1.000758
962.101205	0.999524
962.400814	1.001487
962.700385	0.999880
962.999918	1.000940
963.299414	0.998785
963.598873	1.000789
963.898293	0.999206
964.197677	1.000239
964.497022	1.001507
964.796331	1.000786
965.095601	1.000882
965.394835	0.999960
965.694030	1.000996
965.993189	1.000192
966.292309	1.000512
966.591393	0.998643
966.890439	1.000818
967.189447	0.999663
967.488419	0.999961
967.787353	1.001141
968.086249	1.000069
968.385108	0.999470
968.683930	1.000731
968.982714	1.000560
969.281462	1.000254
969.580172	1.000702
969.878844	1.000790
970.177480	1.000545
970.476078	1.000827
970.774639	1.000661
971.073162	1.000408
971.371649	0.999358
971.670098	0.999433
971.968510	1.000349
972.266885	0.999679
972.565223	1.000469
972.863524	0.999420
973.161788	0.999862
973.460014	1.000561
973.758204	1.000008
974.056356	1.000352
974.354471	0.999274
974.652550	1.000658
974.950591	0.999616
975.248595	1.000163
975.546563	1.001303
975.844493	1.000837
976.142386	1.000516
976.440243	1.002051
976.738062	1.000307
977.035845	0.999129
977.333590	1.001193
977.631299	0.999925
977.928971	1.000159
978.226606	0.999872
978.524204	0.999382
978.821765	1.000606
979.119290	1.001341
979.416777	0.999996
979.714228	0.999283
980.011642	1.000109
980.309020	0.999479
980.606360	1.000184
980.903664	1.001309
981.200931	0.999333
981.498162	0.999596
981.795356	1.000282
982.092513	1.000237
982.389633	1.000590
982.686717	0.998975
982.983764	1.000506
983.280775	0.999853
983.577749	1.001213
983.874686	1.000262
984.171587	0.998963
984.468451	1.000433
984.765279	1.000802
985.062070	0.999643
985.358824	0.998930
985.655543	1.000515
985.952224	1.000360
986.248869	1.000059
986.545478	1.001240
986.842050	1.000588
987.138586	0.998932
987.435086	0.999596
987.731549	1.000897
988.027975	1.000969
988.324366	0.999371
988.620719	1.000411
988.917037	1.000893
989.213318	0.999683
989.509563	1.000984
989.805772	1.001021
990.101944	1.002777
990.398080	1.000423
990.694180	1.001464
990.990244	0.999551
991.286271	0.998987
991.582262	1.000268
991.878217	1.000257
992.174136	1.001157
992.470019	1.000217
992.765865	1.001476
993.061676	0.999659
993.357450	1.001293
993.653188	1.001046
993.948890	0.999897
994.244556	0.999125
994.540186	1.000196
994.835780	1.000264
995.131337	1.000848
995.426859	1.001090
995.722345	1.000451
996.017795	1.000117
996.313208	0.999835
996.608586	1.000269
996.903928	0.999928
997.199234	1.001440
997.494504	1.000427
997.789738	0.997986
998.084936	1.001095
998.380099	0.999322
998.675225	1.002273
998.970316	0.999500
999.265371	0.999891
999.560390	1.000815
999.855373	1.000242
1000.150320	1.000181
1000.445232	1.000716
1000.740108	0.999468
1001.034948	0.999830
1001.329752	1.000335
1001.624521	1.000219
1001.919254	1.000326
1002.213951	1.001961
1002.508613	0.999950
1002.803239	1.000683
1003.097829	1.000676
1003.392384	1.000048
1003.686903	1.000080
1003.981386	1.000155
1004.275834	1.001640
1004.570246	0.997837
1004.864623	1.000914
1005.158964	1.000083
1005.453270	1.000382
1005.747540	0.999668
1006.041775	0.999569
1006.335974	1.001281
1006.630138	1.000016
1006.924266	0.999487
1007.218359	0.998248
1007.512416	1.001803
1007.806438	0.999121
1008.100425	1.001148
1008.394376	1.000646
1008.688292	0.999962
1008.982172	1.000060
1009.276017	1.001175
1009.569827	1.001947
1009.863602	0.999002
1010.157341	1.000474
1010.451045	1.000421
1010.744714	1.001886
1011.038347	0.999971
1011.331945	1.000077
1011.625508	0.999060
1011.919036	0.999127
1012.212528	1.001302
1012.505986	0.998934
1012.799408	1.000516
1013.092795	1.000957
1013.386147	1.000427
1013.679464	1.001769
1013.972745	1.001391
1014.265992	1.000626
1014.559204	0.999784
1014.852380	1.000699
1015.145521	1.000097
1015.438628	0.999598
1015.731699	1.000573
1016.024736	1.001109
1016.317737	0.999516
1016.610703	1.000947
1016.903635	0.999840
1017.196531	0.999718
1017.489393	0.999901
1017.782219	0.999639
1018.075011	0.999481
1018.367768	1.000058
1018.660490	1.001881
1018.953177	1.001881
1019.245829	1.001881
