Dividing Wavelength (nm)	Counts (n)	Blue Motor Position (mm): 35.300000	Red Motor Position (mm): 0.000000	
326.493990	0.999948
326.888308	0.999948
327.282561	0.999948
327.676750	1.001354
328.070874	1.001183
328.464933	1.001216
328.858929	1.000758
329.252859	0.999973
329.646726	1.000441
330.040528	1.000590
330.434265	1.000054
330.827938	1.000496
331.221547	0.999816
331.615091	1.001198
332.008571	1.000678
332.401986	1.000230
332.795338	1.000482
333.188625	1.001405
333.581847	1.000681
333.975006	1.000633
334.368100	1.000112
334.761129	0.999226
335.154095	1.000141
335.546996	0.999845
335.939833	0.999860
336.332606	1.000345
336.725315	0.999624
337.117960	1.001117
337.510540	0.998198
337.903056	1.000693
338.295508	1.000667
338.687896	1.001254
339.080220	0.999164
339.472480	0.999842
339.864676	1.001115
340.256807	0.999421
340.648875	0.999901
341.040879	0.998199
341.432818	0.999555
341.824694	0.998749
342.216506	1.001037
342.608253	0.998327
342.999937	1.000324
343.391557	0.999425
343.783113	1.000628
344.174605	0.999795
344.566033	0.999297
344.957397	1.000866
345.348697	0.999846
345.739934	0.999837
346.131106	0.999767
346.522215	0.999458
346.913260	0.998996
347.304241	1.000165
347.695159	0.999269
348.086012	0.998786
348.476802	0.998864
348.867528	0.998493
349.258191	1.000625
349.648789	0.999887
350.039324	1.000423
350.429796	0.999303
350.820203	0.997899
351.210548	0.998940
351.600828	1.000509
351.991045	0.998473
352.381198	1.000409
352.771288	0.999218
353.161314	0.999413
353.551276	0.999064
353.941175	0.998471
354.331010	0.999271
354.720782	0.998224
355.110490	0.998959
355.500135	0.999771
355.889717	0.998139
356.279235	0.998727
356.668689	0.999621
357.058080	0.998439
357.447408	0.998214
357.836672	0.998840
358.225873	0.998313
358.615010	0.999091
359.004084	0.998555
359.393095	0.999159
359.782043	0.998911
360.170927	0.998044
360.559748	0.999271
360.948505	0.999086
361.337199	0.997081
361.725830	0.998703
362.114398	0.997812
362.502903	0.997173
362.891344	0.996833
363.279722	0.997096
363.668037	0.998499
364.056289	0.997305
364.444478	0.999638
364.832603	0.997270
365.220665	0.998877
365.608665	0.997705
365.996601	0.996634
366.384474	0.997739
366.772284	0.997636
367.160031	0.995925
367.547715	0.996283
367.935336	0.995357
368.322893	0.993447
368.710388	0.993862
369.097820	0.992691
369.485189	0.989878
369.872495	0.987089
370.259738	0.985128
370.646918	0.982273
371.034035	0.981197
371.421090	0.978089
371.808081	0.971158
372.195010	0.970377
372.581875	0.965555
372.968678	0.959414
373.355418	0.957501
373.742096	0.949461
374.128710	0.944038
374.515262	0.940361
374.901751	0.935149
375.288177	0.929643
375.674540	0.923555
376.060841	0.916875
376.447079	0.909402
376.833254	0.904255
377.219367	0.899074
377.605417	0.887181
377.991404	0.883794
378.377329	0.877928
378.763191	0.872397
379.148991	0.862647
379.534727	0.854738
379.920402	0.846306
380.306013	0.843373
380.691563	0.829997
381.077049	0.823490
381.462474	0.820100
381.847835	0.808755
382.233134	0.803378
382.618371	0.804711
383.003545	0.787347
383.388657	0.785507
383.773706	0.777086
384.158693	0.773179
384.543618	0.767879
384.928480	0.758709
385.313280	0.748913
385.698017	0.748374
386.082692	0.737588
386.467305	0.735578
386.851856	0.731207
387.236344	0.725648
387.620770	0.719186
388.005133	0.714047
388.389435	0.708132
388.773674	0.705779
389.157851	0.697419
389.541965	0.694971
389.926018	0.702235
390.310008	0.688163
390.693936	0.685388
391.077802	0.678059
391.461606	0.679318
391.845348	0.668268
392.229027	0.667525
392.612645	0.666018
392.996200	0.652760
393.379694	0.645809
393.763125	0.636089
394.146494	0.641511
394.529801	0.631383
394.913047	0.623529
395.296230	0.629367
395.679351	0.620703
396.062410	0.618721
396.445408	0.621011
396.828343	0.616418
397.211217	0.612257
397.594028	0.623857
397.976778	0.614453
398.359466	0.611209
398.742092	0.605623
399.124656	0.618114
399.507158	0.605815
399.889598	0.603556
400.271977	0.594690
400.654294	0.599481
401.036549	0.598200
401.418742	0.603132
401.800874	0.589319
402.182944	0.585836
402.564952	0.578673
402.946898	0.581125
403.328783	0.582456
403.710606	0.595286
404.092367	0.571621
404.474067	0.577643
404.855705	0.578255
405.237282	0.588844
405.618797	0.577091
406.000250	0.576076
406.381642	0.568633
406.762972	0.576488
407.144240	0.577174
407.525447	0.580378
407.906593	0.577360
408.287677	0.576132
408.668700	0.588501
409.049661	0.586195
409.430560	0.585962
409.811399	0.598178
410.192176	0.586793
410.572891	0.598069
410.953545	0.592769
411.334138	0.609740
411.714669	0.608520
412.095139	0.624655
412.475547	0.616864
412.855894	0.624808
413.236180	0.630616
413.616405	0.641272
413.996568	0.641000
414.376670	0.651927
414.756711	0.662190
415.136691	0.667841
415.516609	0.669204
415.896466	0.674238
416.276262	0.679497
416.655997	0.688694
417.035670	0.685164
417.415283	0.688004
417.794834	0.700443
418.174324	0.711227
418.553753	0.724767
418.933121	0.723540
419.312428	0.729592
419.691674	0.742800
420.070859	0.745067
420.449983	0.757984
420.829045	0.761444
421.208047	0.774646
421.586988	0.781124
421.965867	0.788167
422.344686	0.794317
422.723444	0.806987
423.102141	0.821868
423.480777	0.819816
423.859352	0.835857
424.237866	0.837169
424.616319	0.844952
424.994712	0.850136
425.373044	0.860627
425.751314	0.865691
426.129524	0.877862
426.507673	0.879911
426.885762	0.885062
427.263789	0.893874
427.641756	0.901528
428.019662	0.905764
428.397508	0.911099
428.775292	0.918574
429.153016	0.922506
429.530679	0.929819
429.908282	0.933211
430.285824	0.938371
430.663305	0.941065
431.040726	0.948485
431.418086	0.951821
431.795385	0.955566
432.172624	0.959336
432.549802	0.962526
432.926920	0.965733
433.303977	0.968037
433.680974	0.971023
434.057910	0.974301
434.434786	0.976035
434.811601	0.978287
435.188355	0.980540
435.565050	0.982385
435.941683	0.983362
436.318257	0.983968
436.694770	0.985961
437.071222	0.987599
437.447614	0.988884
437.823946	0.990387
438.200218	0.990723
438.576429	0.991405
438.952580	0.992718
439.328670	0.992581
439.704700	0.993320
440.080670	0.994941
440.456580	0.994607
440.832429	0.995665
441.208218	0.996562
441.583947	0.996156
441.959616	0.995763
442.335224	0.997693
442.710773	0.997561
443.086261	0.997443
443.461689	0.997292
443.837057	0.997071
444.212365	0.997616
444.587612	0.997617
444.962800	0.997470
445.337927	0.998450
445.712995	0.998222
446.088002	0.997788
446.462949	0.998108
446.837837	0.999790
447.212664	0.997821
447.587431	0.998692
447.962139	0.998687
448.336786	0.997268
448.711374	0.997716
449.085901	0.997552
449.460369	0.999175
449.834776	0.997902
450.209124	0.998209
450.583412	0.998883
450.957640	0.998390
451.331808	0.998636
451.705917	0.998363
452.079965	0.998871
452.453954	0.999933
452.827883	0.998875
453.201752	0.999208
453.575562	0.998349
453.949311	0.999449
454.323001	0.999053
454.696632	0.998905
455.070202	0.998550
455.443713	0.998427
455.817164	0.998843
456.190556	0.998276
456.563888	0.999409
456.937160	0.999244
457.310373	0.998163
457.683526	0.998395
458.056619	0.999609
458.429653	0.998866
458.802628	0.998468
459.175542	0.999135
459.548398	0.998796
459.921194	0.998718
460.293930	0.999439
460.666607	0.998471
461.039224	0.998868
461.411782	0.998102
461.784280	0.998337
462.156719	0.999271
462.529099	0.999890
462.901419	0.998961
463.273680	0.998614
463.645882	0.998613
464.018024	0.999003
464.390106	0.997962
464.762130	0.997942
465.134094	0.998495
465.505999	0.998275
465.877845	0.997716
466.249631	0.997956
466.621358	0.997466
466.993026	0.998708
467.364634	0.998512
467.736184	0.998088
468.107674	0.997974
468.479105	0.997728
468.850477	0.998171
469.221790	0.998721
469.593043	0.997957
469.964238	0.998079
470.335373	0.998211
470.706449	0.998694
471.077467	0.998929
471.448425	0.997791
471.819324	0.997874
472.190164	0.997661
472.560945	0.997556
472.931667	0.998323
473.302330	0.998376
473.672934	0.998296
474.043479	0.998202
474.413965	0.998238
474.784393	0.997760
475.154761	0.998093
475.525070	0.998482
475.895321	0.998592
476.265513	0.998048
476.635645	0.998721
477.005719	0.997985
477.375734	0.997128
477.745691	0.997487
478.115588	0.997057
478.485427	0.997843
478.855207	0.997630
479.224928	0.997600
479.594591	0.997674
479.964194	0.996896
480.333739	0.997956
480.703226	0.996919
481.072653	0.998044
481.442022	0.998067
481.811333	0.997348
482.180584	0.997277
482.549777	0.997497
482.918912	0.997658
483.287988	0.997942
483.657005	0.997456
484.025964	0.997639
484.394864	0.997652
484.763706	0.997279
485.132489	0.997916
485.501213	0.998065
485.869879	0.997748
486.238487	0.997424
486.607036	0.997742
486.975527	0.997780
487.343959	0.997214
487.712333	0.997299
488.080648	0.997734
488.448905	0.997393
488.817104	0.997520
489.185244	0.997655
489.553326	0.997255
489.921350	0.997942
490.289315	0.997202
490.657222	0.997650
491.025070	0.997193
491.392861	0.997618
491.760593	0.997463
492.128267	0.998086
492.495883	0.997542
492.863440	0.997645
493.230939	0.997646
493.598380	0.998578
493.965763	0.998057
494.333088	0.997304
494.700354	0.997417
495.067563	0.997521
495.434713	0.998428
495.801805	0.998060
496.168839	0.998196
496.535815	0.998333
496.902733	0.998007
497.269593	0.997393
497.636395	0.997174
498.003139	0.997561
498.369825	0.998452
498.736453	0.997717
499.103023	0.998130
499.469535	0.997932
499.835989	0.997823
500.202385	0.998164
500.568723	0.998095
500.935003	0.998065
501.301226	0.998040
501.667390	0.997672
502.033497	0.997593
502.399546	0.998080
502.765537	0.998209
503.131470	0.998323
503.497345	0.998248
503.863163	0.997878
504.228923	0.997664
504.594625	0.997878
504.960269	0.998190
505.325856	0.998529
505.691385	0.997939
506.056856	0.998508
506.422270	0.997730
506.787625	0.998220
507.152924	0.998738
507.518164	0.998202
507.883347	0.997558
508.248472	0.997948
508.613540	0.997644
508.978550	0.998125
509.343503	0.998428
509.708398	0.998158
510.073236	0.997772
510.438016	0.997703
510.802738	0.997461
511.167403	0.997756
511.532010	0.998137
511.896561	0.998050
512.261053	0.997262
512.625488	0.997935
512.989866	0.997351
513.354186	0.997196
513.718449	0.998220
514.082655	0.997683
514.446803	0.997515
514.810894	0.998147
515.174927	0.997778
515.538904	0.998045
515.902822	0.997191
516.266684	0.998023
516.630488	0.998078
516.994235	0.997991
517.357925	0.998262
517.721558	0.997812
518.085133	0.997245
518.448651	0.997933
518.812112	0.998080
519.175516	0.997839
519.538863	0.996965
519.902152	0.997920
520.265385	0.998165
520.628560	0.997481
520.991678	0.997619
521.354739	0.997957
521.717743	0.997562
522.080690	0.997250
522.443580	0.998145
522.806413	0.997196
523.169189	0.997969
523.531908	0.997593
523.894569	0.997839
524.257174	0.997767
524.619722	0.997633
524.982213	0.997871
525.344647	0.997633
525.707025	0.997726
526.069345	0.997295
526.431608	0.998068
526.793815	0.998198
527.155964	0.997907
527.518057	0.998420
527.880093	0.997707
528.242072	0.997981
528.603995	0.997374
528.965860	0.998473
529.327669	0.997701
529.689421	0.998080
530.051117	0.998181
530.412755	0.998359
530.774337	0.997428
531.135862	0.998408
531.497331	0.997590
531.858743	0.997865
532.220098	0.997939
532.581396	0.998270
532.942638	0.997529
533.303824	0.997804
533.664953	0.998029
534.026025	0.999052
534.387040	0.998201
534.747999	0.997460
535.108902	0.998052
535.469748	0.998915
535.830537	0.998272
536.191270	0.997531
536.551947	0.997865
536.912567	0.998249
537.273131	0.998280
537.633638	0.998189
537.994089	0.998111
538.354483	0.998146
538.714821	0.997973
539.075103	0.997992
539.435328	0.998445
539.795497	0.998388
540.155609	0.997764
540.515665	0.998419
540.875665	0.997715
541.235609	0.998584
541.595496	0.997610
541.955328	0.997339
542.315102	0.998555
542.674821	0.998744
543.034483	0.998730
543.394090	0.997626
543.753640	0.997973
544.113134	0.998059
544.472571	0.998474
544.831953	0.998383
545.191278	0.998469
545.550548	0.998357
545.909761	0.997826
546.268918	0.999216
546.628019	0.998781
546.987064	0.998439
547.346053	0.998481
547.704986	0.998855
548.063863	0.998187
548.422684	0.998871
548.781449	0.998655
549.140158	0.998487
549.498811	0.998015
549.857408	0.997981
550.215949	0.997560
550.574434	0.997553
550.932864	0.998101
551.291237	0.998545
551.649555	0.998413
552.007817	0.998385
552.366022	0.998486
552.724173	0.998577
553.082267	0.998376
553.440305	0.998129
553.798288	0.997686
554.156215	0.998206
554.514086	0.998359
554.871902	0.997927
555.229661	0.997919
555.587365	0.998385
555.945014	0.998489
556.302606	0.997848
556.660143	0.998512
557.017625	0.998175
557.375050	0.998106
557.732421	0.998255
558.089735	0.998298
558.446994	0.998386
558.804197	0.998480
559.161345	0.997223
559.518437	0.998175
559.875474	0.998237
560.232455	0.998893
560.589381	0.998724
560.946251	0.998489
561.303065	0.998538
561.659825	0.997604
562.016528	0.998495
562.373177	0.998323
562.729770	0.998092
563.086307	0.997370
563.442789	0.998845
563.799216	0.998161
564.155587	0.998196
564.511904	0.998243
564.868164	0.998027
565.224370	0.997713
565.580520	0.997938
565.936615	0.998031
566.292654	0.997873
566.648638	0.999155
567.004567	0.998601
567.360441	0.998391
567.716260	0.998343
568.072023	0.997651
568.427732	0.998881
568.783385	0.998658
569.138982	0.998457
569.494525	0.998395
569.850013	0.998352
570.205445	0.998183
570.560823	0.997666
570.916145	0.998113
571.271412	0.998587
571.626625	0.998627
571.981782	0.997970
572.336884	0.998595
572.691931	0.998328
573.046923	0.998767
573.401860	0.998416
573.756743	0.998175
574.111570	0.998003
574.466342	0.998835
574.821059	0.998332
575.175722	0.998954
575.530330	0.998878
575.884882	0.998765
576.239380	0.998185
576.593823	0.998385
576.948211	0.998571
577.302544	0.998658
577.656823	0.998739
578.011047	0.997427
578.365216	0.999328
578.719330	0.998245
579.073389	0.997639
579.427394	0.998107
579.781344	0.998493
580.135239	0.998258
580.489080	0.997935
580.842866	0.998625
581.196597	0.998374
581.550273	0.997868
581.903895	0.998083
582.257463	0.998279
582.610975	0.998265
582.964434	0.998589
583.317837	0.998549
583.671186	0.998432
584.024481	0.998233
584.377721	0.998005
584.730906	0.998682
585.084037	0.999174
585.437113	0.998741
585.790135	0.998878
586.143103	0.998846
586.496016	0.998372
586.848874	0.998740
587.201679	0.998317
587.554428	0.998118
587.907124	0.999469
588.259765	0.998986
588.612352	0.999626
588.964884	0.999207
589.317362	0.998479
589.669786	0.998378
590.022155	0.998814
590.374470	0.998573
590.726731	0.997066
591.078937	0.998345
591.431090	0.998114
591.783188	0.998099
592.135232	0.999149
592.487222	0.997883
592.839157	0.998138
593.191038	0.998443
593.542866	0.998736
593.894639	0.998024
594.246358	0.998827
594.598022	0.998426
594.949633	0.998881
595.301190	0.999218
595.652692	0.998309
596.004141	0.998276
596.355535	0.998462
596.706876	0.998406
597.058162	0.998507
597.409395	0.998488
597.760573	0.998163
598.111698	0.998109
598.462768	0.997849
598.813785	0.998128
599.164748	0.997971
599.515657	0.998533
599.866511	0.998772
600.217312	0.998903
600.568060	0.998471
600.918753	0.998902
601.269392	0.998093
601.619978	0.998426
601.970510	0.998216
602.320988	0.998704
602.671412	0.998268
603.021783	0.998283
603.372100	0.999175
603.722363	0.999135
604.072572	0.997937
604.422728	0.998830
604.772830	0.997699
605.122878	0.998811
605.472872	0.998894
605.822813	0.997606
606.172701	0.998605
606.522534	0.998081
606.872314	0.998870
607.222041	0.998127
607.571714	0.998198
607.921333	0.997614
608.270899	0.998291
608.620411	0.998434
608.969870	0.999013
609.319276	0.998339
609.668627	0.998867
610.017926	0.997782
610.367171	0.998734
610.716362	0.998368
611.065500	0.998358
611.414585	0.997971
611.763616	0.998096
612.112594	0.998200
612.461518	0.997576
612.810389	0.998893
613.159207	0.998022
613.507971	0.997564
613.856682	0.999643
614.205340	0.997280
614.553945	0.998921
614.902496	0.998169
615.250994	0.998538
615.599439	0.998628
615.947830	0.997627
616.296169	0.998358
616.644454	0.998536
616.992686	0.997602
617.340864	0.998093
617.688990	0.998327
618.037063	0.998332
618.385082	0.998478
618.733048	0.997776
619.080961	0.997783
619.428821	0.998419
619.776628	0.998090
620.124382	0.998551
620.472083	0.998183
620.819731	0.999340
621.167326	0.999087
621.514868	0.999377
621.862357	0.998229
622.209793	0.998753
622.557176	0.998261
622.904506	0.998504
623.251783	0.998396
623.599007	0.998101
623.946179	0.997911
624.293297	0.999142
624.640363	0.998561
624.987376	0.997394
625.334336	0.998071
625.681243	0.997859
626.028097	0.998707
626.374899	0.997896
626.721647	0.999099
627.068343	0.997937
627.414987	0.998205
627.761577	0.997986
628.108115	0.998088
628.454600	0.998615
628.801032	0.998396
629.147412	0.998890
629.493739	0.999098
629.840014	0.998313
630.186236	0.997750
630.532405	0.998064
630.878521	0.997342
631.224585	0.997960
631.570597	0.998044
631.916556	0.998974
632.262462	0.997761
632.608316	0.998319
632.954117	0.998408
633.299866	0.997916
633.645562	0.997834
633.991206	0.998454
634.336797	0.997668
634.682336	0.998848
635.027823	0.997809
635.373257	0.998354
635.718639	0.998943
636.063968	0.998499
636.409245	0.997949
636.754470	0.998401
637.099642	0.998027
637.444762	0.998628
637.789829	0.998664
638.134845	0.998250
638.479808	0.998286
638.824719	0.998712
639.169577	0.997925
639.514383	0.998702
639.859137	0.998171
640.203839	0.997851
640.548489	0.997653
640.893086	0.997375
641.237632	0.999057
641.582125	0.997952
641.926566	0.999148
642.270955	0.998819
642.615292	0.997833
642.959576	0.998269
643.303809	0.999148
643.647990	0.997911
643.992118	0.999017
644.336195	0.997758
644.680219	0.998116
645.024192	0.998758
645.368112	0.997307
645.711981	0.997918
646.055797	0.998088
646.399562	0.997176
646.743274	0.999467
647.086935	0.998107
647.430544	0.998171
647.774101	0.997861
648.117606	0.998644
648.461059	0.998623
648.804460	0.998429
649.147810	0.997245
649.491108	0.998184
649.834354	0.997924
650.177548	0.998207
650.520690	0.998630
650.863781	0.997554
651.206820	0.998133
651.549807	0.998411
651.892742	0.998769
652.235626	0.997634
652.578458	0.998072
652.921238	0.999110
653.263967	0.998739
653.606644	0.997940
653.949269	0.998097
654.291843	0.997084
654.634365	0.998829
654.976836	0.997647
655.319255	0.999386
655.661622	0.998428
656.003938	0.998472
656.346203	0.997478
656.688416	0.998495
657.030577	0.998038
657.372687	0.998191
657.714746	0.997787
658.056753	0.997440
658.398708	0.997250
658.740612	0.998154
659.082465	0.998118
659.424266	0.998153
659.766016	0.997195
660.107715	0.998587
660.449362	0.998126
660.790958	0.997744
661.132503	0.998917
661.473996	0.997478
661.815438	0.998615
662.156829	0.997715
662.498168	0.998896
662.839456	0.997548
663.180693	0.997595
663.521879	0.997633
663.863013	0.998036
664.204097	0.997346
664.545129	0.998471
664.886110	0.998226
665.227040	0.997924
665.567918	0.997894
665.908746	0.996578
666.249522	0.997604
666.590248	0.997279
666.930922	0.997015
667.271545	0.997322
667.612118	0.997506
667.952639	0.997952
668.293109	0.997685
668.633528	0.997500
668.973896	0.997225
669.314213	0.997699
669.654480	0.997342
669.994695	0.996457
670.334859	0.997303
670.674973	0.997378
671.015035	0.997525
671.355047	0.998044
671.695008	0.997213
672.034918	0.997566
672.374777	0.997378
672.714585	0.998062
673.054342	0.998127
673.394049	0.997999
673.733705	0.997246
674.073310	0.997874
674.412864	0.998424
674.752368	0.997336
675.091820	0.998645
675.431223	0.998571
675.770574	0.997127
676.109875	0.997788
676.449125	0.997234
676.788324	0.997021
677.127473	0.998585
677.466571	0.997775
677.805619	0.997126
678.144616	0.997619
678.483562	0.998115
678.822458	0.997588
679.161303	0.997341
679.500098	0.997812
679.838842	0.997544
680.177535	0.997560
680.516179	0.996737
680.854771	0.996762
681.193314	0.997853
681.531805	0.997428
681.870247	0.997122
682.208638	0.997707
682.546978	0.996716
682.885268	0.997334
683.223508	0.996535
683.561697	0.997548
683.899836	0.997681
684.237925	0.997121
684.575963	0.997580
684.913951	0.997249
685.251889	0.996910
685.589776	0.997362
685.927614	0.996698
686.265401	0.997282
686.603137	0.996943
686.940824	0.996923
687.278460	0.997280
687.616046	0.997111
687.953582	0.996904
688.291068	0.997774
688.628504	0.997533
688.965889	0.996311
689.303224	0.996753
689.640510	0.997114
689.977745	0.997048
690.314930	0.996842
690.652065	0.996457
690.989150	0.996756
691.326185	0.996320
691.663170	0.996910
692.000105	0.997903
692.336990	0.997239
692.673825	0.997147
693.010610	0.998053
693.347345	0.997524
693.684030	0.997309
694.020665	0.997213
694.357251	0.996294
694.693786	0.997778
695.030272	0.995848
695.366707	0.997207
695.703093	0.997021
696.039429	0.996577
696.375716	0.998207
696.711952	0.996411
697.048139	0.997835
697.384276	0.996823
697.720363	0.997208
698.056400	0.996211
698.392388	0.996818
698.728326	0.997334
699.064214	0.998420
699.400053	0.996445
699.735842	0.997323
700.071581	0.997859
700.407270	0.996286
700.742910	0.997797
701.078501	0.996259
701.414042	0.997968
701.749533	0.996217
702.084974	0.997264
702.420366	0.997372
702.755709	0.997333
703.091002	0.997969
703.426246	0.997589
703.761440	0.996868
704.096584	0.997151
704.431679	0.997756
704.766725	0.997675
705.101721	0.998342
705.436668	0.997116
705.771565	0.996885
706.106413	0.996403
706.441212	0.996291
706.775961	0.997216
707.110661	0.996971
707.445311	0.997774
707.779913	0.997597
708.114465	0.997633
708.448967	0.998260
708.783421	0.998411
709.117825	0.997410
709.452180	0.997021
709.786485	0.997582
710.120742	0.997008
710.454949	0.996216
710.789107	0.997517
711.123216	0.995693
711.457275	0.996180
711.791286	0.997076
712.125247	0.998442
712.459159	0.996043
712.793023	0.996494
713.126837	0.996627
713.460602	0.996076
713.794318	0.996379
714.127985	0.995962
714.461602	0.996779
714.795171	0.996425
715.128691	0.996544
715.462162	0.997095
715.795584	0.996884
716.128957	0.997870
716.462281	0.997328
716.795556	0.996999
717.128782	0.997653
717.461960	0.997096
717.795088	0.996422
718.128167	0.998356
718.461198	0.997409
718.794180	0.997022
719.127113	0.997294
719.459997	0.996856
719.792833	0.996445
720.125619	0.996854
720.458357	0.996719
720.791046	0.997175
721.123686	0.996657
721.456278	0.997324
721.788821	0.997456
722.121315	0.998380
722.453761	0.997231
722.786158	0.996509
723.118506	0.997912
723.450805	0.995652
723.783056	0.997602
724.115259	0.996900
724.447412	0.998242
724.779518	0.997889
725.111574	0.996649
725.443582	0.997657
725.775542	0.996671
726.107453	0.997401
726.439315	0.997977
726.771129	0.997011
727.102895	0.997339
727.434612	0.997436
727.766281	0.996614
728.097901	0.996703
728.429473	0.997653
728.760996	0.996302
729.092471	0.996681
729.423897	0.997371
729.755276	0.996432
730.086606	0.996555
730.417887	0.996941
730.749120	0.997290
731.080305	0.996075
731.411442	0.995409
731.742530	0.996088
732.073570	0.997057
732.404562	0.996861
732.735506	0.996701
733.066401	0.996073
733.397249	0.996613
733.728048	0.996963
734.058798	0.996797
734.389501	0.996888
734.720156	0.998028
735.050762	0.997140
735.381320	0.997093
735.711831	0.996417
736.042293	0.996564
736.372707	0.998318
736.703073	0.995732
737.033391	0.996512
737.363661	0.997065
737.693883	0.996705
738.024056	0.996675
738.354182	0.997610
738.684260	0.996753
739.014290	0.996903
739.344272	0.997305
739.674207	0.996430
740.004093	0.996908
740.333931	0.997133
740.663722	0.996865
740.993464	0.996267
741.323159	0.996326
741.652806	0.996679
741.982405	0.997319
742.311956	0.997881
742.641460	0.997191
742.970915	0.996011
743.300323	0.995536
743.629683	0.996501
743.958996	0.998292
744.288260	0.997206
744.617477	0.996860
744.946647	0.996827
745.275768	0.997333
745.604842	0.996896
745.933869	0.997192
746.262847	0.997677
746.591778	0.995921
746.920662	0.997186
747.249498	0.998882
747.578286	0.998852
747.907027	0.997107
748.235720	0.997158
748.564365	0.997475
748.892963	0.996274
749.221514	0.996872
749.550017	0.996297
749.878473	0.997419
750.206881	0.997511
750.535242	0.995796
750.863555	0.996786
751.191821	0.997173
751.520039	0.997083
751.848210	0.995828
752.176334	0.996687
752.504411	0.997375
752.832440	0.997301
753.160421	0.998149
753.488356	0.997274
753.816243	0.997238
754.144082	0.997444
754.471875	0.997757
754.799620	0.997666
755.127318	0.997250
755.454969	0.997774
755.782572	0.998871
756.110129	0.997297
756.437638	0.998361
756.765100	0.997889
757.092515	0.996320
757.419882	0.997384
757.747203	0.997103
758.074477	0.997595
758.401703	0.997371
758.728882	0.997681
759.056014	0.997100
759.383099	0.996971
759.710138	0.996269
760.037129	0.996704
760.364073	0.997892
760.690970	0.996470
761.017820	0.996602
761.344623	0.997588
761.671379	0.998254
761.998088	0.997612
762.324751	0.996756
762.651366	0.995386
762.977935	0.994599
763.304456	0.995376
763.630931	0.994015
763.957359	0.993526
764.283740	0.995430
764.610074	0.995337
764.936362	0.995714
765.262602	0.996672
765.588796	0.996618
765.914943	0.997348
766.241044	0.997108
766.567097	0.997653
766.893104	0.997459
767.219064	0.996684
767.544978	0.997988
767.870845	0.997599
768.196665	0.996997
768.522438	0.997160
768.848165	0.998112
769.173846	0.998757
769.499479	0.999129
769.825066	0.997709
770.150607	0.998607
770.476101	0.998473
770.801548	0.997497
771.126949	0.998279
771.452303	0.998457
771.777611	0.998654
772.102872	0.998040
772.428087	0.997595
772.753256	0.997575
773.078378	0.998448
773.403453	0.997733
773.728482	0.999308
774.053465	0.997354
774.378401	0.998342
774.703291	0.998387
775.028135	0.999385
775.352932	0.997288
775.677683	0.998974
776.002388	0.998025
776.327046	0.997476
776.651658	0.999134
776.976224	0.998731
777.300743	0.997186
777.625216	0.997998
777.949643	0.998049
778.274024	0.997391
778.598359	0.999076
778.922647	0.997912
779.246889	0.999099
779.571086	0.998004
779.895236	0.997677
780.219339	0.998785
780.543397	0.998413
780.867409	0.997858
781.191374	0.998235
781.515294	0.999321
781.839167	0.998784
782.162995	0.998024
782.486776	0.997328
782.810511	0.998827
783.134201	0.998810
783.457844	0.998339
783.781441	0.998176
784.104993	0.997933
784.428498	0.998803
784.751958	0.998797
785.075372	0.998283
785.398739	0.998104
785.722061	0.997612
786.045337	0.999135
786.368568	0.998154
786.691752	0.999062
787.014891	0.997386
787.337983	0.996441
787.661030	0.998454
787.984031	0.998298
788.306987	0.997603
788.629897	0.997128
788.952760	0.997391
789.275579	0.998053
789.598351	0.998203
789.921078	0.998814
790.243759	0.997798
790.566395	0.996485
790.888984	0.998278
791.211529	0.998405
791.534027	0.997886
791.856480	0.998018
792.178888	0.998373
792.501249	0.997800
792.823566	0.998986
793.145836	0.999397
793.468062	0.998382
793.790241	0.999378
794.112375	0.995975
794.434464	0.998390
794.756507	0.998503
795.078505	0.998590
795.400457	0.998133
795.722364	0.997891
796.044226	0.998115
796.366042	0.997915
796.687812	0.996787
797.009538	0.998232
797.331218	0.998903
797.652852	0.999118
797.974442	0.997553
798.295986	0.998064
798.617484	0.997418
798.938938	0.999036
799.260346	0.998075
799.581709	0.997446
799.903026	0.999212
800.224299	0.997852
800.545526	0.997979
800.866708	0.998044
801.187845	0.998523
801.508936	0.998362
801.829983	0.998277
802.150984	0.998774
802.471940	0.998765
802.792851	0.997964
803.113717	0.998642
803.434538	0.999041
803.755314	0.999981
804.076045	0.998713
804.396731	0.998615
804.717372	0.997244
805.037967	0.999232
805.358518	0.998007
805.679024	0.997295
805.999485	0.999489
806.319901	0.999025
806.640272	0.999420
806.960598	0.998916
807.280879	0.998294
807.601115	1.000193
807.921306	0.999190
808.241453	0.997254
808.561554	0.997522
808.881611	0.998733
809.201623	0.998077
809.521590	0.998058
809.841513	0.998841
810.161390	0.997227
810.481223	0.997398
810.801011	0.998463
811.120755	0.999148
811.440453	0.997591
811.760107	0.998617
812.079716	0.998443
812.399281	0.998119
812.718801	0.998385
813.038276	0.997510
813.357707	0.998927
813.677093	0.999777
813.996434	0.998016
814.315731	1.000394
814.634983	0.998653
814.954191	0.998953
815.273354	0.998367
815.592473	0.997811
815.911547	0.999406
816.230577	0.996582
816.549562	0.998166
816.868502	0.997648
817.187399	0.998908
817.506250	0.999410
817.825058	0.997512
818.143821	0.998002
818.462539	0.998446
818.781213	0.997986
819.099843	0.997379
819.418429	0.996407
819.736970	0.997124
820.055466	0.996545
820.373919	0.996814
820.692327	0.994663
821.010691	0.994917
821.329011	0.991984
821.647286	0.990863
821.965517	0.988551
822.283704	0.986836
822.601847	0.986983
822.919945	0.987242
823.237999	0.988054
823.556010	0.989026
823.873976	0.990494
824.191897	0.991016
824.509775	0.992659
824.827609	0.993545
825.145398	0.993564
825.463144	0.993045
825.780845	0.992672
826.098502	0.992634
826.416116	0.993460
826.733685	0.991942
827.051210	0.990233
827.368692	0.991267
827.686129	0.992040
828.003522	0.994318
828.320872	0.993619
828.638177	0.994471
828.955439	0.996688
829.272656	0.996817
829.589830	0.995892
829.906960	0.997595
830.224046	0.996730
830.541088	0.996875
830.858086	0.997465
831.175041	0.998188
831.491952	0.997539
831.808819	0.997080
832.125642	0.997641
832.442421	0.997545
832.759157	0.997567
833.075849	0.994457
833.392497	0.994371
833.709101	0.993634
834.025662	0.995152
834.342179	0.993755
834.658653	0.995683
834.975083	0.995565
835.291469	0.996065
835.607811	0.996079
835.924110	0.997198
836.240366	0.998753
836.556578	0.998443
836.872746	0.998817
837.188871	0.998527
837.504952	0.997711
837.820990	0.999684
838.136984	0.997865
838.452935	0.998636
838.768842	0.998999
839.084706	0.998084
839.400526	0.997922
839.716303	0.996499
840.032037	0.996471
840.347727	0.996566
840.663373	0.997605
840.978977	0.997398
841.294537	0.998601
841.610054	0.998190
841.925527	0.999627
842.240957	0.998604
842.556344	0.998627
842.871687	0.999401
843.186987	0.999178
843.502244	1.000137
843.817458	0.997729
844.132629	0.997790
844.447756	0.999141
844.762840	0.998994
845.077881	0.999578
845.392879	0.997576
845.707833	0.998796
846.022745	0.999430
846.337613	0.999627
846.652438	0.999508
846.967221	0.999917
847.281960	0.999205
847.596656	1.000314
847.911309	0.999783
848.225919	0.998867
848.540485	0.999164
848.855009	1.000547
849.169490	0.999692
849.483928	0.998777
849.798323	0.998704
850.112675	0.999389
850.426984	0.999172
850.741251	0.999827
851.055474	0.999481
851.369654	0.999380
851.683792	0.999150
851.997887	1.000047
852.311938	0.999734
852.625947	0.998166
852.939914	0.998266
853.253837	1.000480
853.567718	0.999327
853.881555	0.999883
854.195350	0.999508
854.509103	0.999861
854.822812	0.999770
855.136479	0.999876
855.450103	0.999461
855.763685	1.000211
856.077224	0.999612
856.390720	0.998556
856.704173	1.000070
857.017584	1.000300
857.330953	0.999547
857.644278	0.999445
857.957561	0.999739
858.270802	0.999284
858.584000	0.999418
858.897155	1.000166
859.210268	0.999362
859.523339	1.000732
859.836367	0.999526
860.149352	0.998083
860.462295	0.999073
860.775195	0.999661
861.088054	0.998110
861.400869	0.999775
861.713642	0.999170
862.026373	1.000494
862.339062	0.999692
862.651708	1.000733
862.964312	0.999915
863.276873	0.998887
863.589392	0.998458
863.901869	0.999021
864.214303	0.999769
864.526696	0.999486
864.839045	0.999964
865.151353	0.999194
865.463619	0.998697
865.775842	0.997967
866.088023	0.999919
866.400162	0.999523
866.712258	1.000695
867.024313	0.999814
867.336325	1.000152
867.648296	0.999793
867.960224	1.000259
868.272110	0.998968
868.583954	1.000000
868.895755	1.000242
869.207515	0.998309
869.519233	0.999721
869.830909	0.998601
870.142542	0.998372
870.454134	0.998853
870.765684	0.998568
871.077191	0.999263
871.388657	0.999280
871.700081	1.000026
872.011463	0.999856
872.322803	0.998505
872.634101	0.997783
872.945357	0.998561
873.256571	0.998000
873.567744	0.999226
873.878874	0.999521
874.189963	0.998993
874.501010	1.000870
874.812015	1.000139
875.122979	0.999197
875.433900	0.998066
875.744780	1.000062
876.055618	0.997454
876.366415	0.998466
876.677169	0.999129
876.987882	0.998827
877.298554	0.999200
877.609183	0.998961
877.919771	0.997923
878.230317	0.998331
878.540822	0.998852
878.851285	0.998507
879.161707	0.997602
879.472087	0.998640
879.782425	0.996268
880.092722	0.995310
880.402977	0.994075
880.713191	0.991278
881.023363	0.989481
881.333494	0.988596
881.643583	0.988840
881.953631	0.988202
882.263637	0.988625
882.573602	0.989255
882.883526	0.990285
883.193408	0.991774
883.503248	0.992141
883.813048	0.992721
884.122806	0.994318
884.432522	0.994414
884.742197	0.995983
885.051831	0.995308
885.361424	0.996294
885.670975	0.997771
885.980485	0.997484
886.289954	0.997146
886.599382	0.996763
886.908768	0.998966
887.218113	0.997169
887.527417	0.998053
887.836680	0.997793
888.145901	0.999192
888.455082	0.999335
888.764221	0.999522
889.073319	0.997909
889.382376	0.999078
889.691392	0.998102
890.000366	0.999018
890.309300	0.999026
890.618193	0.998209
890.927044	0.998586
891.235855	0.998471
891.544625	0.998615
891.853353	0.998860
892.162041	0.996851
892.470687	0.998820
892.779293	0.997728
893.087858	0.996448
893.396381	0.997102
893.704864	0.996541
894.013306	0.996107
894.321707	0.995396
894.630068	0.994392
894.938387	0.993785
895.246665	0.994003
895.554903	0.994361
895.863100	0.995242
896.171256	0.995718
896.479371	0.995862
896.787446	0.996823
897.095480	0.998038
897.403473	0.997268
897.711425	0.997851
898.019336	0.997987
898.327207	0.999000
898.635038	0.997856
898.942827	0.998776
899.250576	0.998333
899.558284	0.998409
899.865952	0.997524
900.173579	0.999175
900.481165	0.998459
900.788711	0.998753
901.096216	0.997851
901.403681	0.998145
901.711105	0.999871
902.018489	0.997766
902.325832	0.997723
902.633135	0.998423
902.940397	0.999225
903.247619	0.998668
903.554800	0.997599
903.861941	0.995833
904.169041	0.994756
904.476101	0.993557
904.783121	0.993097
905.090100	0.993503
905.397039	0.994948
905.703938	0.995400
906.010796	0.996055
906.317614	0.995875
906.624391	0.997458
906.931129	0.998077
907.237826	0.999121
907.544483	0.997880
907.851099	0.998983
908.157675	0.998441
908.464211	0.998900
908.770707	0.998266
909.077163	0.999284
909.383578	1.000278
909.689954	0.998437
909.996289	0.999999
910.302584	1.000196
910.608839	0.999325
910.915054	0.998992
911.221229	1.000630
911.527363	0.998627
911.833458	1.000141
912.139513	0.999298
912.445527	1.000638
912.751502	0.999234
913.057436	0.998673
913.363331	0.999396
913.669186	0.999797
913.975000	0.998646
914.280775	0.998586
914.586510	0.997345
914.892205	0.996437
915.197859	0.996485
915.503475	0.995535
915.809050	0.994510
916.114585	0.993032
916.420081	0.992999
916.725536	0.993462
917.030952	0.993963
917.336328	0.993942
917.641665	0.994535
917.946961	0.995843
918.252218	0.995715
918.557435	0.996825
918.862612	0.996735
919.167750	0.997514
919.472848	0.998416
919.777906	0.999225
920.082925	0.999824
920.387904	0.999640
920.692843	0.998248
920.997743	0.997650
921.302603	0.999768
921.607423	0.997616
921.912204	0.999126
922.216946	0.999692
922.521647	0.998719
922.826310	0.998521
923.130932	0.999110
923.435516	0.999007
923.740059	0.999079
924.044564	0.998550
924.349028	0.998854
924.653454	0.998577
924.957840	0.998456
925.262186	0.999264
925.566493	0.998915
925.870761	0.999010
926.174989	0.999100
926.479178	0.999647
926.783328	0.999135
927.087438	0.999487
927.391509	0.997733
927.695541	0.999536
927.999533	1.000396
928.303486	0.999353
928.607400	1.000215
928.911275	0.999236
929.215110	1.000517
929.518906	1.000796
929.822663	1.000329
930.126381	1.000594
930.430060	1.000032
930.733699	1.000186
931.037299	1.000006
931.340861	1.000803
931.644383	0.997598
931.947866	0.998861
932.251309	1.001207
932.554714	0.999223
932.858080	1.000821
933.161407	0.998908
933.464694	0.999791
933.767943	0.999650
934.071153	1.000714
934.374323	1.000775
934.677455	1.000051
934.980548	0.999194
935.283602	1.000465
935.586617	0.999644
935.889593	1.002115
936.192530	1.000635
936.495428	0.998906
936.798287	1.000108
937.101108	0.999754
937.403890	1.000353
937.706632	1.000855
938.009336	0.999778
938.312002	0.999191
938.614628	1.000889
938.917216	0.998643
939.219765	0.998766
939.522275	1.000376
939.824747	0.999867
940.127179	0.999188
940.429573	0.999680
940.731929	0.998521
941.034246	0.998844
941.336524	0.998709
941.638763	0.998656
941.940964	0.998652
942.243126	0.999806
942.545250	0.999835
942.847335	0.998668
943.149381	0.999631
943.451389	0.998960
943.753359	1.000609
944.055290	0.998676
944.357182	0.998898
944.659036	0.999409
944.960851	0.999607
945.262628	1.000583
945.564367	1.000233
945.866067	0.999908
946.167729	0.999977
946.469352	1.000245
946.770937	0.998544
947.072484	0.999846
947.373992	1.000320
947.675462	0.998761
947.976893	0.999090
948.278286	1.000906
948.579641	0.999958
948.880958	0.999720
949.182236	1.000813
949.483476	0.999567
949.784678	0.999929
950.085841	0.999618
950.386967	0.999323
950.688054	1.000412
950.989103	0.999118
951.290114	0.998925
951.591087	0.999904
951.892021	0.999528
952.192917	0.999696
952.493776	1.000847
952.794596	1.000193
953.095378	0.999345
953.396122	0.999517
953.696828	0.999814
953.997496	0.999106
954.298126	1.000455
954.598718	0.998753
954.899272	0.999301
955.199788	0.999270
955.500266	1.001333
955.800706	1.000551
956.101108	0.999001
956.401472	1.002385
956.701798	0.999583
957.002087	0.999164
957.302337	0.999355
957.602550	0.999826
957.902724	1.000552
958.202861	0.999318
958.502960	0.999770
958.803022	1.000895
959.103045	1.000707
959.403031	1.000245
959.702979	1.000482
960.002889	0.999428
960.302762	0.999376
960.602596	1.000305
960.902393	0.999299
961.202153	1.000111
961.501875	1.000120
961.801559	1.000676
962.101205	0.998642
962.400814	1.000818
962.700385	1.001336
962.999918	0.999802
963.299414	0.999299
963.598873	1.000935
963.898293	0.999471
964.197677	0.999588
964.497022	1.000380
964.796331	1.000039
965.095601	1.001151
965.394835	1.000039
965.694030	1.001015
965.993189	1.000168
966.292309	1.001019
966.591393	0.999571
966.890439	1.000618
967.189447	0.999420
967.488419	1.000428
967.787353	0.999977
968.086249	1.000735
968.385108	1.000841
968.683930	1.000342
968.982714	0.999624
969.281462	1.000028
969.580172	1.000917
969.878844	1.001693
970.177480	1.000717
970.476078	1.001931
970.774639	1.000353
971.073162	0.999482
971.371649	0.999899
971.670098	1.000047
971.968510	1.000748
972.266885	0.999527
972.565223	1.000148
972.863524	0.999339
973.161788	0.999586
973.460014	1.001532
973.758204	1.000035
974.056356	1.000523
974.354471	0.999441
974.652550	1.000531
974.950591	0.998676
975.248595	0.999443
975.546563	1.000177
975.844493	1.000937
976.142386	0.999781
976.440243	1.000428
976.738062	1.000161
977.035845	1.000102
977.333590	1.000223
977.631299	0.999756
977.928971	1.000215
978.226606	0.999781
978.524204	0.999366
978.821765	0.999755
979.119290	1.001096
979.416777	1.000656
979.714228	1.000762
980.011642	1.001116
980.309020	1.000207
980.606360	0.999473
980.903664	1.000127
981.200931	1.000710
981.498162	1.000084
981.795356	1.000984
982.092513	1.000771
982.389633	1.000831
982.686717	0.998340
982.983764	1.000250
983.280775	0.999811
983.577749	1.000856
983.874686	0.999691
984.171587	0.999911
984.468451	0.999924
984.765279	1.001481
985.062070	1.000163
985.358824	1.000545
985.655543	1.001412
985.952224	1.001212
986.248869	1.001046
986.545478	1.001742
986.842050	0.999888
987.138586	0.999390
987.435086	0.999763
987.731549	1.000989
988.027975	1.000827
988.324366	0.999644
988.620719	1.001050
988.917037	1.000611
989.213318	1.001730
989.509563	1.000184
989.805772	1.000571
990.101944	1.001972
990.398080	1.001160
990.694180	1.001340
990.990244	0.999675
991.286271	1.001430
991.582262	1.000384
991.878217	0.999798
992.174136	1.000856
992.470019	1.000579
992.765865	1.001663
993.061676	0.999954
993.357450	1.000914
993.653188	1.000685
993.948890	1.000760
994.244556	1.000039
994.540186	0.999887
994.835780	1.000191
995.131337	1.001589
995.426859	0.999611
995.722345	0.999797
996.017795	1.000391
996.313208	0.999553
996.608586	0.998735
996.903928	1.000118
997.199234	0.999639
997.494504	1.000727
997.789738	0.999487
998.084936	1.001331
998.380099	0.998887
998.675225	1.001350
998.970316	1.000092
999.265371	1.000257
999.560390	0.999809
999.855373	1.000254
1000.150320	1.000616
1000.445232	1.000189
1000.740108	1.000143
1001.034948	0.999353
1001.329752	1.001612
1001.624521	1.001075
1001.919254	1.000392
1002.213951	1.000229
1002.508613	0.999728
1002.803239	1.000168
1003.097829	1.000295
1003.392384	1.000710
1003.686903	1.000383
1003.981386	1.000294
1004.275834	1.000652
1004.570246	0.999692
1004.864623	1.000441
1005.158964	1.000617
1005.453270	0.999635
1005.747540	1.000301
1006.041775	1.000591
1006.335974	0.999947
1006.630138	1.000119
1006.924266	0.999220
1007.218359	0.998287
1007.512416	1.001610
1007.806438	1.000243
1008.100425	1.000791
1008.394376	1.000996
1008.688292	1.000868
1008.982172	0.999858
1009.276017	0.999163
1009.569827	1.000449
1009.863602	0.999029
1010.157341	1.001513
1010.451045	1.000343
1010.744714	1.001609
1011.038347	1.001380
1011.331945	1.000205
1011.625508	1.000068
1011.919036	0.999949
1012.212528	1.000617
1012.505986	0.999471
1012.799408	1.002407
1013.092795	1.000443
1013.386147	1.000891
1013.679464	1.000851
1013.972745	1.001008
1014.265992	1.000540
1014.559204	1.000150
1014.852380	1.001250
1015.145521	0.999536
1015.438628	1.000158
1015.731699	1.000670
1016.024736	1.000897
1016.317737	1.000633
1016.610703	0.999793
1016.903635	1.000454
1017.196531	1.000071
1017.489393	1.000069
1017.782219	1.000699
1018.075011	0.999565
1018.367768	1.000412
1018.660490	1.000826
1018.953177	1.000826
1019.245829	1.000826
