Dividing Wavelength (nm)	Counts (n)	Blue Motor Position (mm): 9.800000	Red Motor Position (mm): 0.000000	
326.493990	1.003703
326.888308	1.003703
327.282561	1.003703
327.676750	1.004845
328.070874	1.005290
328.464933	1.004799
328.858929	1.005577
329.252859	1.004463
329.646726	1.006436
330.040528	1.005279
330.434265	1.004094
330.827938	1.003315
331.221547	1.005012
331.615091	1.004783
332.008571	1.004990
332.401986	1.004545
332.795338	1.004519
333.188625	1.005965
333.581847	1.004482
333.975006	1.005074
334.368100	1.004681
334.761129	1.003507
335.154095	1.004313
335.546996	1.003023
335.939833	0.999802
336.332606	0.998833
336.725315	0.999158
337.117960	1.000173
337.510540	0.998015
337.903056	0.999036
338.295508	1.000288
338.687896	0.999887
339.080220	0.999397
339.472480	0.999527
339.864676	1.000166
340.256807	0.998466
340.648875	1.000286
341.040879	0.998562
341.432818	1.000493
341.824694	0.998821
342.216506	0.999868
342.608253	0.999033
342.999937	0.997490
343.391557	0.998809
343.783113	1.000610
344.174605	0.998362
344.566033	0.998368
344.957397	0.999250
345.348697	0.999310
345.739934	0.999348
346.131106	0.998260
346.522215	0.998803
346.913260	0.998771
347.304241	0.997689
347.695159	0.999412
348.086012	0.998651
348.476802	0.998343
348.867528	0.998684
349.258191	0.998324
349.648789	0.998284
350.039324	0.998917
350.429796	0.999115
350.820203	0.998349
351.210548	0.998443
351.600828	0.999619
351.991045	0.998239
352.381198	0.999078
352.771288	0.998421
353.161314	0.997957
353.551276	0.996159
353.941175	0.996796
354.331010	0.999278
354.720782	0.997999
355.110490	0.998050
355.500135	0.998986
355.889717	0.997647
356.279235	0.997382
356.668689	0.998637
357.058080	0.996843
357.447408	0.996862
357.836672	0.998492
358.225873	0.997567
358.615010	0.997236
359.004084	0.996826
359.393095	0.997580
359.782043	0.997620
360.170927	0.997774
360.559748	0.997620
360.948505	0.996294
361.337199	0.997595
361.725830	0.997468
362.114398	0.997001
362.502903	0.995852
362.891344	0.996348
363.279722	0.996324
363.668037	0.997061
364.056289	0.996900
364.444478	0.998258
364.832603	0.997050
365.220665	0.997208
365.608665	0.997575
365.996601	0.996322
366.384474	0.995810
366.772284	0.996323
367.160031	0.993751
367.547715	0.994407
367.935336	0.995433
368.322893	0.993642
368.710388	0.992677
369.097820	0.990976
369.485189	0.988597
369.872495	0.987438
370.259738	0.983967
370.646918	0.981856
371.034035	0.978826
371.421090	0.975558
371.808081	0.971705
372.195010	0.968261
372.581875	0.964140
372.968678	0.958651
373.355418	0.955257
373.742096	0.947791
374.128710	0.943191
374.515262	0.939532
374.901751	0.933566
375.288177	0.927820
375.674540	0.920788
376.060841	0.915474
376.447079	0.907981
376.833254	0.902674
377.219367	0.898672
377.605417	0.886025
377.991404	0.882788
378.377329	0.876601
378.763191	0.869985
379.148991	0.860573
379.534727	0.853521
379.920402	0.845780
380.306013	0.841909
380.691563	0.828369
381.077049	0.823250
381.462474	0.819153
381.847835	0.806977
382.233134	0.802142
382.618371	0.802023
383.003545	0.785747
383.388657	0.782439
383.773706	0.775533
384.158693	0.771271
384.543618	0.766879
384.928480	0.757406
385.313280	0.747633
385.698017	0.747309
386.082692	0.735681
386.467305	0.734312
386.851856	0.728312
387.236344	0.723131
387.620770	0.717619
388.005133	0.711839
388.389435	0.706627
388.773674	0.703726
389.157851	0.696067
389.541965	0.693047
389.926018	0.699845
390.310008	0.685594
390.693936	0.682921
391.077802	0.675869
391.461606	0.677933
391.845348	0.666497
392.229027	0.665351
392.612645	0.663795
392.996200	0.651229
393.379694	0.643757
393.763125	0.634241
394.146494	0.638297
394.529801	0.628993
394.913047	0.621511
395.296230	0.626680
395.679351	0.618379
396.062410	0.615562
396.445408	0.617533
396.828343	0.613093
397.211217	0.608284
397.594028	0.620181
397.976778	0.611207
398.359466	0.607769
398.742092	0.603343
399.124656	0.615581
399.507158	0.603194
399.889598	0.600608
400.271977	0.591485
400.654294	0.595270
401.036549	0.594251
401.418742	0.599001
401.800874	0.584306
402.182944	0.581531
402.564952	0.573485
402.946898	0.574950
403.328783	0.575781
403.710606	0.586850
404.092367	0.562169
404.474067	0.567089
404.855705	0.565641
405.237282	0.574466
405.618797	0.560386
406.000250	0.555984
406.381642	0.546836
406.762972	0.552559
407.144240	0.550727
407.525447	0.550098
407.906593	0.543137
408.287677	0.538249
408.668700	0.546623
409.049661	0.541105
409.430560	0.535797
409.811399	0.544563
410.192176	0.526387
410.572891	0.533451
410.953545	0.521912
411.334138	0.535246
411.714669	0.527698
412.095139	0.539729
412.475547	0.524090
412.855894	0.526103
413.236180	0.524040
413.616405	0.529913
413.996568	0.520275
414.376670	0.526382
414.756711	0.531965
415.136691	0.527960
415.516609	0.519222
415.896466	0.516189
416.276262	0.511683
416.655997	0.513974
417.035670	0.495607
417.415283	0.486895
417.794834	0.492025
418.174324	0.497291
418.553753	0.505940
418.933121	0.488366
419.312428	0.483117
419.691674	0.488597
420.070859	0.476413
420.449983	0.484448
420.829045	0.473715
421.208047	0.482829
421.586988	0.476064
421.965867	0.474931
422.344686	0.463441
422.723444	0.475978
423.102141	0.492873
423.480777	0.465404
423.859352	0.486302
424.237866	0.463947
424.616319	0.464644
424.994712	0.455335
425.373044	0.465860
425.751314	0.453908
426.129524	0.470393
426.507673	0.454119
426.885762	0.447486
427.263789	0.452863
427.641756	0.462806
428.019662	0.452590
428.397508	0.451936
428.775292	0.456462
429.153016	0.448284
429.530679	0.454368
429.908282	0.447242
430.285824	0.457838
430.663305	0.436446
431.040726	0.457112
431.418086	0.457684
431.795385	0.448933
432.172624	0.448053
432.549802	0.448093
432.926920	0.447348
433.303977	0.446684
433.680974	0.443960
434.057910	0.442499
434.434786	0.442037
434.811601	0.444569
435.188355	0.427005
435.565050	0.436061
435.941683	0.437507
436.318257	0.420928
436.694770	0.422649
437.071222	0.420511
437.447614	0.424550
437.823946	0.431568
438.200218	0.420876
438.576429	0.430336
438.952580	0.423521
439.328670	0.420433
439.704700	0.426644
440.080670	0.427383
440.456580	0.409393
440.832429	0.417573
441.208218	0.428035
441.583947	0.417425
441.959616	0.416402
442.335224	0.422500
442.710773	0.412457
443.086261	0.410850
443.461689	0.424375
443.837057	0.414551
444.212365	0.404351
444.587612	0.411773
444.962800	0.401050
445.337927	0.403068
445.712995	0.429191
446.088002	0.391189
446.462949	0.401546
446.837837	0.406263
447.212664	0.394820
447.587431	0.386311
447.962139	0.356908
448.336786	0.316115
448.711374	0.326417
449.085901	0.370969
449.460369	0.374768
449.834776	0.378550
450.209124	0.357858
450.583412	0.350418
450.957640	0.343517
451.331808	0.355244
451.705917	0.378660
452.079965	0.383149
452.453954	0.371597
452.827883	0.378244
453.201752	0.372643
453.575562	0.383769
453.949311	0.372599
454.323001	0.379022
454.696632	0.374562
455.070202	0.367326
455.443713	0.359048
455.817164	0.353466
456.190556	0.349684
456.563888	0.346387
456.937160	0.343837
457.310373	0.361087
457.683526	0.360059
458.056619	0.365892
458.429653	0.366049
458.802628	0.369844
459.175542	0.364287
459.548398	0.346559
459.921194	0.338951
460.293930	0.338993
460.666607	0.316594
461.039224	0.304730
461.411782	0.300319
461.784280	0.299724
462.156719	0.303596
462.529099	0.308322
462.901419	0.324426
463.273680	0.328588
463.645882	0.327948
464.018024	0.333994
464.390106	0.326705
464.762130	0.311442
465.134094	0.294295
465.505999	0.263541
465.877845	0.233601
466.249631	0.220541
466.621358	0.227965
466.993026	0.242114
467.364634	0.248272
467.736184	0.257130
468.107674	0.265836
468.479105	0.265218
468.850477	0.271956
469.221790	0.278642
469.593043	0.288749
469.964238	0.293510
470.335373	0.292837
470.706449	0.291540
471.077467	0.291710
471.448425	0.253785
471.819324	0.229167
472.190164	0.228541
472.560945	0.257630
472.931667	0.279807
473.302330	0.284166
473.672934	0.296139
474.043479	0.284155
474.413965	0.285929
474.784393	0.289635
475.154761	0.284534
475.525070	0.281837
475.895321	0.287314
476.265513	0.281360
476.635645	0.276858
477.005719	0.276718
477.375734	0.273280
477.745691	0.266563
478.115588	0.262840
478.485427	0.256369
478.855207	0.243333
479.224928	0.225565
479.594591	0.213978
479.964194	0.217188
480.333739	0.218625
480.703226	0.219799
481.072653	0.218427
481.442022	0.213977
481.811333	0.210757
482.180584	0.214168
482.549777	0.219462
482.918912	0.222748
483.287988	0.222569
483.657005	0.222089
484.025964	0.228524
484.394864	0.225716
484.763706	0.226519
485.132489	0.231593
485.501213	0.232356
485.869879	0.230818
486.238487	0.233815
486.607036	0.231806
486.975527	0.236405
487.343959	0.232034
487.712333	0.231257
488.080648	0.232689
488.448905	0.231821
488.817104	0.233068
489.185244	0.227500
489.553326	0.224443
489.921350	0.214182
490.289315	0.196819
490.657222	0.191723
491.025070	0.192896
491.392861	0.195183
491.760593	0.200800
492.128267	0.206467
492.495883	0.212031
492.863440	0.218442
493.230939	0.224741
493.598380	0.226237
493.965763	0.228449
494.333088	0.230692
494.700354	0.232112
495.067563	0.231088
495.434713	0.234577
495.801805	0.232111
496.168839	0.233688
496.535815	0.235256
496.902733	0.234902
497.269593	0.236748
497.636395	0.234471
498.003139	0.234617
498.369825	0.237676
498.736453	0.234224
499.103023	0.235749
499.469535	0.235291
499.835989	0.235288
500.202385	0.236258
500.568723	0.239506
500.935003	0.234532
501.301226	0.238901
501.667390	0.232744
502.033497	0.231369
502.399546	0.234006
502.765537	0.236098
503.131470	0.234882
503.497345	0.231104
503.863163	0.239292
504.228923	0.232571
504.594625	0.230910
504.960269	0.236816
505.325856	0.231878
505.691385	0.236328
506.056856	0.233033
506.422270	0.232391
506.787625	0.234902
507.152924	0.232470
507.518164	0.232652
507.883347	0.234303
508.248472	0.236366
508.613540	0.230914
508.978550	0.233501
509.343503	0.234144
509.708398	0.231831
510.073236	0.229341
510.438016	0.229288
510.802738	0.230037
511.167403	0.229063
511.532010	0.231333
511.896561	0.226636
512.261053	0.225269
512.625488	0.227273
512.989866	0.227843
513.354186	0.227960
513.718449	0.229864
514.082655	0.226120
514.446803	0.228381
514.810894	0.226340
515.174927	0.228839
515.538904	0.228458
515.902822	0.225297
516.266684	0.227480
516.630488	0.228730
516.994235	0.227893
517.357925	0.226434
517.721558	0.224466
518.085133	0.224444
518.448651	0.224112
518.812112	0.226731
519.175516	0.225879
519.538863	0.223822
519.902152	0.225645
520.265385	0.222243
520.628560	0.224097
520.991678	0.224391
521.354739	0.223283
521.717743	0.224559
522.080690	0.224805
522.443580	0.222282
522.806413	0.223145
523.169189	0.222519
523.531908	0.221465
523.894569	0.225057
524.257174	0.224964
524.619722	0.222805
524.982213	0.223876
525.344647	0.222492
525.707025	0.223576
526.069345	0.221581
526.431608	0.223309
526.793815	0.221415
527.155964	0.225706
527.518057	0.224453
527.880093	0.225478
528.242072	0.224015
528.603995	0.226243
528.965860	0.227772
529.327669	0.226841
529.689421	0.227495
530.051117	0.228320
530.412755	0.226015
530.774337	0.228385
531.135862	0.228965
531.497331	0.228101
531.858743	0.231341
532.220098	0.227839
532.581396	0.230384
532.942638	0.230857
533.303824	0.232034
533.664953	0.231533
534.026025	0.233559
534.387040	0.231530
534.747999	0.231238
535.108902	0.230173
535.469748	0.235123
535.830537	0.233051
536.191270	0.233429
536.551947	0.233109
536.912567	0.233284
537.273131	0.234644
537.633638	0.235095
537.994089	0.235345
538.354483	0.236494
538.714821	0.233562
539.075103	0.233120
539.435328	0.234214
539.795497	0.237839
540.155609	0.234418
540.515665	0.232815
540.875665	0.238134
541.235609	0.237194
541.595496	0.236586
541.955328	0.233479
542.315102	0.236304
542.674821	0.237320
543.034483	0.237588
543.394090	0.236973
543.753640	0.239145
544.113134	0.233741
544.472571	0.237535
544.831953	0.234108
545.191278	0.238260
545.550548	0.237558
545.909761	0.234762
546.268918	0.235309
546.628019	0.233678
546.987064	0.236232
547.346053	0.237942
547.704986	0.236012
548.063863	0.236306
548.422684	0.236357
548.781449	0.238119
549.140158	0.236294
549.498811	0.239175
549.857408	0.241757
550.215949	0.236415
550.574434	0.239785
550.932864	0.237866
551.291237	0.236311
551.649555	0.237988
552.007817	0.237481
552.366022	0.238594
552.724173	0.238924
553.082267	0.238828
553.440305	0.235904
553.798288	0.240159
554.156215	0.236783
554.514086	0.237410
554.871902	0.240795
555.229661	0.239920
555.587365	0.240399
555.945014	0.243009
556.302606	0.239941
556.660143	0.242601
557.017625	0.239045
557.375050	0.241201
557.732421	0.238176
558.089735	0.240475
558.446994	0.240337
558.804197	0.239658
559.161345	0.239209
559.518437	0.242854
559.875474	0.240858
560.232455	0.240512
560.589381	0.241197
560.946251	0.241387
561.303065	0.238654
561.659825	0.240123
562.016528	0.241974
562.373177	0.244724
562.729770	0.241985
563.086307	0.243815
563.442789	0.241859
563.799216	0.244560
564.155587	0.243327
564.511904	0.244584
564.868164	0.244413
565.224370	0.244473
565.580520	0.246527
565.936615	0.245887
566.292654	0.249214
566.648638	0.245993
567.004567	0.246708
567.360441	0.247482
567.716260	0.249453
568.072023	0.247084
568.427732	0.247878
568.783385	0.250239
569.138982	0.248569
569.494525	0.248286
569.850013	0.251211
570.205445	0.249393
570.560823	0.251923
570.916145	0.254227
571.271412	0.252131
571.626625	0.253794
571.981782	0.254296
572.336884	0.254913
572.691931	0.254933
573.046923	0.256447
573.401860	0.257169
573.756743	0.259112
574.111570	0.257689
574.466342	0.258633
574.821059	0.257518
575.175722	0.260492
575.530330	0.260125
575.884882	0.260484
576.239380	0.261914
576.593823	0.262684
576.948211	0.262068
577.302544	0.265297
577.656823	0.265480
578.011047	0.264826
578.365216	0.266012
578.719330	0.267964
579.073389	0.267322
579.427394	0.268781
579.781344	0.269762
580.135239	0.270725
580.489080	0.270803
580.842866	0.273908
581.196597	0.273832
581.550273	0.272413
581.903895	0.273232
582.257463	0.271613
582.610975	0.275007
582.964434	0.274133
583.317837	0.276775
583.671186	0.277248
584.024481	0.277336
584.377721	0.279628
584.730906	0.280355
585.084037	0.279414
585.437113	0.281644
585.790135	0.280700
586.143103	0.283860
586.496016	0.284675
586.848874	0.282344
587.201679	0.283025
587.554428	0.286348
587.907124	0.285243
588.259765	0.286080
588.612352	0.286716
588.964884	0.290404
589.317362	0.290016
589.669786	0.289769
590.022155	0.288210
590.374470	0.287712
590.726731	0.289849
591.078937	0.294372
591.431090	0.291062
591.783188	0.295090
592.135232	0.295350
592.487222	0.295765
592.839157	0.293571
593.191038	0.296174
593.542866	0.297682
593.894639	0.301174
594.246358	0.299682
594.598022	0.299009
594.949633	0.302478
595.301190	0.303132
595.652692	0.302366
596.004141	0.298518
596.355535	0.306464
596.706876	0.306985
597.058162	0.309453
597.409395	0.306968
597.760573	0.304565
598.111698	0.307838
598.462768	0.308406
598.813785	0.309895
599.164748	0.310854
599.515657	0.311191
599.866511	0.314949
600.217312	0.310002
600.568060	0.315262
600.918753	0.311401
601.269392	0.312457
601.619978	0.315826
601.970510	0.313272
602.320988	0.313639
602.671412	0.311585
603.021783	0.313880
603.372100	0.315426
603.722363	0.314970
604.072572	0.315935
604.422728	0.315420
604.772830	0.317804
605.122878	0.317427
605.472872	0.318214
605.822813	0.316330
606.172701	0.319321
606.522534	0.316233
606.872314	0.316607
607.222041	0.318128
607.571714	0.315350
607.921333	0.317006
608.270899	0.316734
608.620411	0.313724
608.969870	0.317675
609.319276	0.317510
609.668627	0.317479
610.017926	0.315977
610.367171	0.314901
610.716362	0.315264
611.065500	0.315344
611.414585	0.314775
611.763616	0.314236
612.112594	0.315392
612.461518	0.314698
612.810389	0.312749
613.159207	0.315065
613.507971	0.316616
613.856682	0.312946
614.205340	0.313697
614.553945	0.310771
614.902496	0.314800
615.250994	0.313217
615.599439	0.313488
615.947830	0.312756
616.296169	0.314298
616.644454	0.313924
616.992686	0.314236
617.340864	0.312010
617.688990	0.315342
618.037063	0.312202
618.385082	0.313978
618.733048	0.311147
619.080961	0.313396
619.428821	0.312946
619.776628	0.312644
620.124382	0.314846
620.472083	0.315582
620.819731	0.314471
621.167326	0.318647
621.514868	0.318445
621.862357	0.322540
622.209793	0.322101
622.557176	0.324445
622.904506	0.325781
623.251783	0.328237
623.599007	0.330948
623.946179	0.329872
624.293297	0.332276
624.640363	0.336463
624.987376	0.336639
625.334336	0.339088
625.681243	0.341889
626.028097	0.342394
626.374899	0.343442
626.721647	0.344200
627.068343	0.347435
627.414987	0.348572
627.761577	0.350504
628.108115	0.348754
628.454600	0.354303
628.801032	0.352174
629.147412	0.353672
629.493739	0.354711
629.840014	0.357382
630.186236	0.354841
630.532405	0.361128
630.878521	0.358531
631.224585	0.361259
631.570597	0.364628
631.916556	0.363603
632.262462	0.363375
632.608316	0.366347
632.954117	0.366874
633.299866	0.368299
633.645562	0.368974
633.991206	0.373488
634.336797	0.376029
634.682336	0.379143
635.027823	0.380247
635.373257	0.380920
635.718639	0.385014
636.063968	0.384196
636.409245	0.389554
636.754470	0.390879
637.099642	0.393368
637.444762	0.397357
637.789829	0.396367
638.134845	0.400036
638.479808	0.401152
638.824719	0.401181
639.169577	0.406057
639.514383	0.404674
639.859137	0.409378
640.203839	0.409072
640.548489	0.410081
640.893086	0.411097
641.237632	0.413701
641.582125	0.412320
641.926566	0.414407
642.270955	0.414396
642.615292	0.415210
642.959576	0.414794
643.303809	0.415976
643.647990	0.415606
643.992118	0.416636
644.336195	0.419753
644.680219	0.419103
645.024192	0.419723
645.368112	0.413753
645.711981	0.413491
646.055797	0.409105
646.399562	0.412051
646.743274	0.406320
647.086935	0.403023
647.430544	0.403913
647.774101	0.403826
648.117606	0.403942
648.461059	0.404559
648.804460	0.406965
649.147810	0.412202
649.491108	0.414456
649.834354	0.416854
650.177548	0.421859
650.520690	0.427621
650.863781	0.429332
651.206820	0.428854
651.549807	0.433521
651.892742	0.438385
652.235626	0.438497
652.578458	0.439255
652.921238	0.446454
653.263967	0.444264
653.606644	0.448323
653.949269	0.449587
654.291843	0.452844
654.634365	0.450667
654.976836	0.454893
655.319255	0.455114
655.661622	0.457708
656.003938	0.458390
656.346203	0.460960
656.688416	0.460054
657.030577	0.462953
657.372687	0.466215
657.714746	0.467124
658.056753	0.465011
658.398708	0.469272
658.740612	0.470509
659.082465	0.468544
659.424266	0.469203
659.766016	0.468972
660.107715	0.473382
660.449362	0.472216
660.790958	0.473430
661.132503	0.475387
661.473996	0.474140
661.815438	0.475163
662.156829	0.475629
662.498168	0.477490
662.839456	0.477905
663.180693	0.477595
663.521879	0.477541
663.863013	0.479306
664.204097	0.479300
664.545129	0.477436
664.886110	0.478451
665.227040	0.476982
665.567918	0.479891
665.908746	0.479355
666.249522	0.479280
666.590248	0.480191
666.930922	0.480067
667.271545	0.479945
667.612118	0.480131
667.952639	0.482170
668.293109	0.482747
668.633528	0.485708
668.973896	0.485707
669.314213	0.487135
669.654480	0.490728
669.994695	0.489867
670.334859	0.491258
670.674973	0.494353
671.015035	0.493797
671.355047	0.495279
671.695008	0.496810
672.034918	0.498428
672.374777	0.499797
672.714585	0.501233
673.054342	0.502273
673.394049	0.502894
673.733705	0.502447
674.073310	0.505221
674.412864	0.506483
674.752368	0.509005
675.091820	0.509929
675.431223	0.513900
675.770574	0.515390
676.109875	0.518483
676.449125	0.519563
676.788324	0.521837
677.127473	0.527500
677.466571	0.527888
677.805619	0.531129
678.144616	0.533351
678.483562	0.535440
678.822458	0.537903
679.161303	0.539065
679.500098	0.541115
679.838842	0.542973
680.177535	0.544545
680.516179	0.543136
680.854771	0.543729
681.193314	0.539187
681.531805	0.532203
681.870247	0.525639
682.208638	0.520382
682.546978	0.520072
682.885268	0.521864
683.223508	0.529184
683.561697	0.532475
683.899836	0.535393
684.237925	0.539842
684.575963	0.542490
684.913951	0.546033
685.251889	0.545360
685.589776	0.546271
685.927614	0.548816
686.265401	0.546639
686.603137	0.547836
686.940824	0.545599
687.278460	0.544997
687.616046	0.545755
687.953582	0.542701
688.291068	0.544988
688.628504	0.543925
688.965889	0.545898
689.303224	0.549322
689.640510	0.554525
689.977745	0.559397
690.314930	0.566462
690.652065	0.570657
690.989150	0.576146
691.326185	0.583700
691.663170	0.589378
692.000105	0.595023
692.336990	0.599919
692.673825	0.604755
693.010610	0.609654
693.347345	0.613639
693.684030	0.618903
694.020665	0.622102
694.357251	0.628410
694.693786	0.630195
695.030272	0.633102
695.366707	0.637510
695.703093	0.639947
696.039429	0.639703
696.375716	0.644509
696.711952	0.645672
697.048139	0.647601
697.384276	0.649613
697.720363	0.651194
698.056400	0.650587
698.392388	0.655080
698.728326	0.657274
699.064214	0.660449
699.400053	0.661591
699.735842	0.667523
700.071581	0.669392
700.407270	0.672040
700.742910	0.675132
701.078501	0.679473
701.414042	0.683068
701.749533	0.685118
702.084974	0.690400
702.420366	0.688027
702.755709	0.693497
703.091002	0.699112
703.426246	0.697807
703.761440	0.699136
704.096584	0.702674
704.431679	0.704132
704.766725	0.706809
705.101721	0.708990
705.436668	0.707371
705.771565	0.710631
706.106413	0.708664
706.441212	0.710106
706.775961	0.710496
707.110661	0.709214
707.445311	0.707583
707.779913	0.709754
708.114465	0.708268
708.448967	0.705510
708.783421	0.701304
709.117825	0.699287
709.452180	0.698808
709.786485	0.694321
710.120742	0.688742
710.454949	0.689431
710.789107	0.684855
711.123216	0.680059
711.457275	0.679781
711.791286	0.676583
712.125247	0.678599
712.459159	0.681375
712.793023	0.676651
713.126837	0.686432
713.460602	0.686450
713.794318	0.689115
714.127985	0.691037
714.461602	0.701159
714.795171	0.701424
715.128691	0.708727
715.462162	0.715748
715.795584	0.721330
716.128957	0.723916
716.462281	0.726550
716.795556	0.730241
717.128782	0.736629
717.461960	0.743017
717.795088	0.743828
718.128167	0.748213
718.461198	0.752122
718.794180	0.754373
719.127113	0.758366
719.459997	0.760802
719.792833	0.765072
720.125619	0.765729
720.458357	0.770400
720.791046	0.773021
721.123686	0.775020
721.456278	0.778537
721.788821	0.778564
722.121315	0.782561
722.453761	0.783898
722.786158	0.784274
723.118506	0.783062
723.450805	0.786487
723.783056	0.784423
724.115259	0.786493
724.447412	0.787997
724.779518	0.786617
725.111574	0.786491
725.443582	0.784598
725.775542	0.787211
726.107453	0.783335
726.439315	0.783818
726.771129	0.781215
727.102895	0.777260
727.434612	0.775182
727.766281	0.774155
728.097901	0.772364
728.429473	0.774061
728.760996	0.773965
729.092471	0.774333
729.423897	0.777529
729.755276	0.779967
730.086606	0.779213
730.417887	0.775116
730.749120	0.771045
731.080305	0.768526
731.411442	0.765856
731.742530	0.766845
732.073570	0.767452
732.404562	0.766863
732.735506	0.767093
733.066401	0.770052
733.397249	0.775453
733.728048	0.783194
734.058798	0.793307
734.389501	0.801508
734.720156	0.805484
735.050762	0.811404
735.381320	0.813728
735.711831	0.817463
736.042293	0.821331
736.372707	0.822059
736.703073	0.822941
737.033391	0.822767
737.363661	0.823095
737.693883	0.822245
738.024056	0.820231
738.354182	0.819408
738.684260	0.815444
739.014290	0.813152
739.344272	0.813283
739.674207	0.810717
740.004093	0.809692
740.333931	0.810642
740.663722	0.811807
740.993464	0.812149
741.323159	0.814363
741.652806	0.818874
741.982405	0.821977
742.311956	0.826221
742.641460	0.827870
742.970915	0.830321
743.300323	0.833946
743.629683	0.838490
743.958996	0.841547
744.288260	0.844206
744.617477	0.848825
744.946647	0.848586
745.275768	0.853858
745.604842	0.854324
745.933869	0.857456
746.262847	0.860111
746.591778	0.859115
746.920662	0.862544
747.249498	0.863819
747.578286	0.862380
747.907027	0.859892
748.235720	0.856355
748.564365	0.857618
748.892963	0.858453
749.221514	0.860031
749.550017	0.860798
749.878473	0.862320
750.206881	0.866779
750.535242	0.866759
750.863555	0.868484
751.191821	0.869570
751.520039	0.870423
751.848210	0.870941
752.176334	0.870967
752.504411	0.871699
752.832440	0.874291
753.160421	0.875145
753.488356	0.875319
753.816243	0.875883
754.144082	0.879158
754.471875	0.880373
754.799620	0.879850
755.127318	0.880863
755.454969	0.881257
755.782572	0.883307
756.110129	0.882626
756.437638	0.885812
756.765100	0.883879
757.092515	0.883701
757.419882	0.884791
757.747203	0.885141
758.074477	0.886027
758.401703	0.884151
758.728882	0.882275
759.056014	0.882253
759.383099	0.882892
759.710138	0.881611
760.037129	0.880346
760.364073	0.881194
760.690970	0.881257
761.017820	0.881314
761.344623	0.882323
761.671379	0.879599
761.998088	0.875770
762.324751	0.866086
762.651366	0.844079
762.977935	0.809534
763.304456	0.787940
763.630931	0.788051
763.957359	0.804918
764.283740	0.827535
764.610074	0.843915
764.936362	0.858703
765.262602	0.869250
765.588796	0.879325
765.914943	0.886813
766.241044	0.892946
766.567097	0.897122
766.893104	0.902119
767.219064	0.904483
767.544978	0.909286
767.870845	0.912425
768.196665	0.914160
768.522438	0.916353
768.848165	0.918318
769.173846	0.920184
769.499479	0.923192
769.825066	0.924038
770.150607	0.926635
770.476101	0.926484
770.801548	0.927052
771.126949	0.931543
771.452303	0.932661
771.777611	0.933343
772.102872	0.933218
772.428087	0.935611
772.753256	0.936452
773.078378	0.937733
773.403453	0.940320
773.728482	0.942295
774.053465	0.941014
774.378401	0.942383
774.703291	0.944946
775.028135	0.945302
775.352932	0.945337
775.677683	0.947820
776.002388	0.948771
776.327046	0.948231
776.651658	0.950537
776.976224	0.951869
777.300743	0.950836
777.625216	0.952071
777.949643	0.953105
778.274024	0.952499
778.598359	0.953846
778.922647	0.952794
779.246889	0.954167
779.571086	0.954715
779.895236	0.955322
780.219339	0.955486
780.543397	0.954010
780.867409	0.954324
781.191374	0.954661
781.515294	0.955793
781.839167	0.956166
782.162995	0.956079
782.486776	0.954941
782.810511	0.957041
783.134201	0.959205
783.457844	0.957494
783.781441	0.958406
784.104993	0.959653
784.428498	0.961078
784.751958	0.961867
785.075372	0.960556
785.398739	0.961924
785.722061	0.961342
786.045337	0.960606
786.368568	0.961121
786.691752	0.962020
787.014891	0.958478
787.337983	0.954476
787.661030	0.949181
787.984031	0.944468
788.306987	0.941853
788.629897	0.940664
788.952760	0.945206
789.275579	0.947783
789.598351	0.952103
789.921078	0.956777
790.243759	0.958898
790.566395	0.960862
790.888984	0.961813
791.211529	0.964223
791.534027	0.965312
791.856480	0.966561
792.178888	0.966605
792.501249	0.968145
792.823566	0.971288
793.145836	0.969242
793.468062	0.969913
793.790241	0.970021
794.112375	0.968720
794.434464	0.969725
794.756507	0.968699
795.078505	0.967803
795.400457	0.965479
795.722364	0.962141
796.044226	0.959893
796.366042	0.958597
796.687812	0.958346
797.009538	0.960165
797.331218	0.962768
797.652852	0.963709
797.974442	0.964028
798.295986	0.965190
798.617484	0.965549
798.938938	0.967469
799.260346	0.967233
799.581709	0.968002
799.903026	0.970694
800.224299	0.970132
800.545526	0.970897
800.866708	0.972848
801.187845	0.973668
801.508936	0.974574
801.829983	0.973660
802.150984	0.974116
802.471940	0.975128
802.792851	0.974482
803.113717	0.976672
803.434538	0.975783
803.755314	0.978065
804.076045	0.976718
804.396731	0.976640
804.717372	0.976130
805.037967	0.977092
805.358518	0.976339
805.679024	0.975531
805.999485	0.976516
806.319901	0.975932
806.640272	0.976552
806.960598	0.974822
807.280879	0.975475
807.601115	0.975749
807.921306	0.976113
808.241453	0.974174
808.561554	0.975250
808.881611	0.974955
809.201623	0.975562
809.521590	0.975939
809.841513	0.977855
810.161390	0.976488
810.481223	0.977300
810.801011	0.978307
811.120755	0.980088
811.440453	0.977926
811.760107	0.979320
812.079716	0.978690
812.399281	0.980599
812.718801	0.980005
813.038276	0.980949
813.357707	0.980618
813.677093	0.980986
813.996434	0.981344
814.315731	0.982848
814.634983	0.981899
814.954191	0.981367
815.273354	0.981099
815.592473	0.980397
815.911547	0.981066
816.230577	0.979465
816.549562	0.978364
816.868502	0.978943
817.187399	0.979468
817.506250	0.978864
817.825058	0.977695
818.143821	0.977691
818.462539	0.976568
818.781213	0.975138
819.099843	0.973379
819.418429	0.968210
819.736970	0.964661
820.055466	0.960018
820.373919	0.955050
820.692327	0.949597
821.010691	0.939604
821.329011	0.914959
821.647286	0.869457
821.965517	0.823363
822.283704	0.804624
822.601847	0.808622
822.919945	0.831251
823.237999	0.855191
823.556010	0.874121
823.873976	0.891156
824.191897	0.907035
824.509775	0.920781
824.827609	0.930224
825.145398	0.936321
825.463144	0.936814
825.780845	0.933721
826.098502	0.928615
826.416116	0.915929
826.733685	0.901226
827.051210	0.897943
827.368692	0.905663
827.686129	0.918052
828.003522	0.932694
828.320872	0.942221
828.638177	0.952237
828.955439	0.960760
829.272656	0.965000
829.589830	0.969199
829.906960	0.972415
830.224046	0.975915
830.541088	0.977673
830.858086	0.977955
831.175041	0.980215
831.491952	0.979668
831.808819	0.980036
832.125642	0.979077
832.442421	0.977242
832.759157	0.971687
833.075849	0.960599
833.392497	0.946109
833.709101	0.936893
834.025662	0.939038
834.342179	0.946362
834.658653	0.956575
834.975083	0.964456
835.291469	0.970731
835.607811	0.974426
835.924110	0.977090
836.240366	0.981159
836.556578	0.983781
836.872746	0.984791
837.188871	0.986008
837.504952	0.987253
837.820990	0.988754
838.136984	0.988619
838.452935	0.989726
838.768842	0.989140
839.084706	0.989310
839.400526	0.983804
839.716303	0.973091
840.032037	0.969077
840.347727	0.969350
840.663373	0.974265
840.978977	0.979438
841.294537	0.983530
841.610054	0.987824
841.925527	0.988564
842.240957	0.989945
842.556344	0.990769
842.871687	0.992840
843.186987	0.992985
843.502244	0.993380
843.817458	0.992553
844.132629	0.994723
844.447756	0.995809
844.762840	0.994162
845.077881	0.995749
845.392879	0.993697
845.707833	0.995382
846.022745	0.995380
846.337613	0.995650
846.652438	0.995846
846.967221	0.995102
847.281960	0.996602
847.596656	0.996656
847.911309	0.996388
848.225919	0.995234
848.540485	0.996105
848.855009	0.996729
849.169490	0.996787
849.483928	0.995785
849.798323	0.995254
850.112675	0.997414
850.426984	0.996935
850.741251	0.997337
851.055474	0.996704
851.369654	0.996658
851.683792	0.995988
851.997887	0.996528
852.311938	0.997442
852.625947	0.996064
852.939914	0.995897
853.253837	0.998260
853.567718	0.997489
853.881555	0.996869
854.195350	0.995723
854.509103	0.995918
854.822812	0.996756
855.136479	0.997472
855.450103	0.996208
855.763685	0.997246
856.077224	0.996784
856.390720	0.996815
856.704173	0.998220
857.017584	0.997109
857.330953	0.997150
857.644278	0.996779
857.957561	0.996248
858.270802	0.996871
858.584000	0.996354
858.897155	0.996779
859.210268	0.996906
859.523339	0.996874
859.836367	0.997247
860.149352	0.995316
860.462295	0.996691
860.775195	0.997592
861.088054	0.996835
861.400869	0.996563
861.713642	0.996672
862.026373	0.997223
862.339062	0.997087
862.651708	0.996519
862.964312	0.997290
863.276873	0.996122
863.589392	0.995933
863.901869	0.995240
864.214303	0.996834
864.526696	0.996729
864.839045	0.995289
865.151353	0.995385
865.463619	0.996021
865.775842	0.996263
866.088023	0.996322
866.400162	0.995955
866.712258	0.996742
867.024313	0.995634
867.336325	0.996763
867.648296	0.995876
867.960224	0.996101
868.272110	0.996374
868.583954	0.994658
868.895755	0.996138
869.207515	0.995108
869.519233	0.996609
869.830909	0.995240
870.142542	0.993981
870.454134	0.995246
870.765684	0.994872
871.077191	0.995609
871.388657	0.994760
871.700081	0.995347
872.011463	0.996136
872.322803	0.993943
872.634101	0.995164
872.945357	0.993472
873.256571	0.994545
873.567744	0.994370
873.878874	0.994251
874.189963	0.992581
874.501010	0.995466
874.812015	0.994493
875.122979	0.995027
875.433900	0.993437
875.744780	0.993956
876.055618	0.992563
876.366415	0.993181
876.677169	0.993485
876.987882	0.993476
877.298554	0.994171
877.609183	0.993805
877.919771	0.992762
878.230317	0.993341
878.540822	0.990617
878.851285	0.991071
879.161707	0.990160
879.472087	0.989783
879.782425	0.985119
880.092722	0.979412
880.402977	0.970065
880.713191	0.954246
881.023363	0.934333
881.333494	0.923189
881.643583	0.921184
881.953631	0.923932
882.263637	0.929925
882.573602	0.938398
882.883526	0.946979
883.193408	0.954116
883.503248	0.958903
883.813048	0.964128
884.122806	0.969925
884.432522	0.972988
884.742197	0.977854
885.051831	0.979961
885.361424	0.982654
885.670975	0.985397
885.980485	0.985615
886.289954	0.987422
886.599382	0.987836
886.908768	0.990067
887.218113	0.990056
887.527417	0.991117
887.836680	0.991486
888.145901	0.992513
888.455082	0.994181
888.764221	0.994413
889.073319	0.992676
889.382376	0.994571
889.691392	0.993605
890.000366	0.994532
890.309300	0.994879
890.618193	0.993362
890.927044	0.993951
891.235855	0.992503
891.544625	0.993567
891.853353	0.993812
892.162041	0.992663
892.470687	0.992651
892.779293	0.991208
893.087858	0.989315
893.396381	0.989115
893.704864	0.986840
894.013306	0.982549
894.321707	0.977941
894.630068	0.974082
894.938387	0.972566
895.246665	0.973589
895.554903	0.975492
895.863100	0.979590
896.171256	0.981958
896.479371	0.984453
896.787446	0.985405
897.095480	0.988120
897.403473	0.989687
897.711425	0.990414
898.019336	0.992067
898.327207	0.991919
898.635038	0.991739
898.942827	0.992944
899.250576	0.992181
899.558284	0.993706
899.865952	0.992691
900.173579	0.993870
900.481165	0.994034
900.788711	0.993574
901.096216	0.995268
901.403681	0.994664
901.711105	0.994262
902.018489	0.994071
902.325832	0.995457
902.633135	0.994528
902.940397	0.994241
903.247619	0.992013
903.554800	0.986173
903.861941	0.979971
904.169041	0.972333
904.476101	0.967817
904.783121	0.967986
905.090100	0.970988
905.397039	0.975163
905.703938	0.980421
906.010796	0.984189
906.317614	0.987108
906.624391	0.989409
906.931129	0.991390
907.237826	0.992802
907.544483	0.994715
907.851099	0.994848
908.157675	0.995457
908.464211	0.996942
908.770707	0.994340
909.077163	0.996957
909.383578	0.996938
909.689954	0.995103
909.996289	0.997936
910.302584	0.997829
910.608839	0.998447
910.915054	0.997422
911.221229	0.999314
911.527363	0.996205
911.833458	0.996553
912.139513	0.998159
912.445527	0.998950
912.751502	0.997144
913.057436	0.996055
913.363331	0.996475
913.669186	0.995792
913.975000	0.995419
914.280775	0.993632
914.586510	0.990729
914.892205	0.988826
915.197859	0.984984
915.503475	0.981168
915.809050	0.976198
916.114585	0.973818
916.420081	0.972367
916.725536	0.973461
917.030952	0.975153
917.336328	0.978055
917.641665	0.981297
917.946961	0.982245
918.252218	0.984053
918.557435	0.987470
918.862612	0.989388
919.167750	0.990416
919.472848	0.991256
919.777906	0.992879
920.082925	0.994510
920.387904	0.994200
920.692843	0.994502
920.997743	0.994168
921.302603	0.995131
921.607423	0.994253
921.912204	0.996077
922.216946	0.997738
922.521647	0.996563
922.826310	0.997088
923.130932	0.997988
923.435516	0.997637
923.740059	0.997563
924.044564	0.997494
924.349028	0.997452
924.653454	0.999337
924.957840	0.998813
925.262186	0.999628
925.566493	0.997782
925.870761	0.998300
926.174989	0.998230
926.479178	1.000016
926.783328	0.997705
927.087438	0.999512
927.391509	1.000043
927.695541	0.999389
927.999533	1.000243
928.303486	0.998560
928.607400	1.000839
928.911275	0.999755
929.215110	1.000890
929.518906	0.999321
929.822663	1.001808
930.126381	1.000713
930.430060	1.000014
930.733699	1.001199
931.037299	1.000607
931.340861	1.000241
931.644383	0.998416
931.947866	1.000030
932.251309	1.000349
932.554714	1.000729
932.858080	1.000033
933.161407	0.999489
933.464694	1.000867
933.767943	1.000841
934.071153	0.999763
934.374323	1.000327
934.677455	0.999162
934.980548	0.999885
935.283602	1.000310
935.586617	1.000189
935.889593	1.001519
936.192530	1.000661
936.495428	1.000462
936.798287	0.999688
937.101108	1.000071
937.403890	0.998916
937.706632	1.000691
938.009336	0.999888
938.312002	0.998284
938.614628	0.998210
938.917216	0.997448
939.219765	0.998224
939.522275	0.998070
939.824747	0.998385
940.127179	0.998585
940.429573	0.999590
940.731929	0.998824
941.034246	0.998392
941.336524	0.998516
941.638763	0.998863
941.940964	0.998529
942.243126	0.999096
942.545250	0.999113
942.847335	0.999318
943.149381	0.999979
943.451389	0.999088
943.753359	0.999227
944.055290	1.001573
944.357182	0.999939
944.659036	1.000351
944.960851	0.999723
945.262628	1.000464
945.564367	0.999328
945.866067	0.999643
946.167729	1.000596
946.469352	1.000277
946.770937	0.996924
947.072484	1.000468
947.373992	1.000002
947.675462	0.999657
947.976893	0.998845
948.278286	1.001097
948.579641	1.000789
948.880958	0.999509
949.182236	0.999841
949.483476	1.000387
949.784678	1.000874
950.085841	1.000108
950.386967	0.999392
950.688054	0.999524
950.989103	0.999317
951.290114	0.998448
951.591087	1.000373
951.892021	0.999511
952.192917	1.000252
952.493776	0.999678
952.794596	0.999901
953.095378	0.999104
953.396122	0.999243
953.696828	1.000290
953.997496	1.000876
954.298126	1.001275
954.598718	0.999089
954.899272	1.001672
955.199788	0.999666
955.500266	1.001076
955.800706	1.000181
956.101108	0.999526
956.401472	1.002326
956.701798	0.999873
957.002087	1.000565
957.302337	1.000054
957.602550	1.001549
957.902724	1.000689
958.202861	1.000248
958.502960	1.000465
958.803022	1.000836
959.103045	1.001933
959.403031	1.002754
959.702979	1.002376
960.002889	1.001544
960.302762	1.001357
960.602596	1.002933
960.902393	1.001431
961.202153	1.001333
961.501875	1.001912
961.801559	1.002086
962.101205	1.001003
962.400814	1.002241
962.700385	1.001526
962.999918	1.002051
963.299414	1.001879
963.598873	1.001547
963.898293	1.002065
964.197677	1.000550
964.497022	1.002465
964.796331	1.001958
965.095601	1.003465
965.394835	1.001404
965.694030	1.003125
965.993189	1.001306
966.292309	1.002742
966.591393	1.000758
966.890439	1.002502
967.189447	1.002537
967.488419	1.001754
967.787353	1.001648
968.086249	1.001818
968.385108	1.001910
968.683930	1.002428
968.982714	1.002094
969.281462	1.001420
969.580172	1.001438
969.878844	1.002496
970.177480	1.002550
970.476078	1.002297
970.774639	1.002017
971.073162	1.001523
971.371649	1.001318
971.670098	1.001574
971.968510	1.001548
972.266885	1.000746
972.565223	1.001943
972.863524	1.000699
973.161788	1.001804
973.460014	1.002738
973.758204	1.002573
974.056356	1.003250
974.354471	1.001743
974.652550	1.003651
974.950591	1.001830
975.248595	1.001436
975.546563	1.003380
975.844493	1.002519
976.142386	1.001818
976.440243	1.001950
976.738062	1.001765
977.035845	1.002363
977.333590	1.003419
977.631299	1.001825
977.928971	1.001828
978.226606	1.002403
978.524204	1.001846
978.821765	1.003262
979.119290	1.003770
979.416777	1.002919
979.714228	1.001120
980.011642	1.002387
980.309020	1.002274
980.606360	1.002597
980.903664	1.001731
981.200931	1.001635
981.498162	1.002273
981.795356	1.002029
982.092513	1.001969
982.389633	1.002592
982.686717	0.999286
982.983764	1.000961
983.280775	1.001204
983.577749	1.002212
983.874686	1.000003
984.171587	1.000667
984.468451	1.001392
984.765279	1.002158
985.062070	1.001638
985.358824	1.001087
985.655543	1.002780
985.952224	1.002655
986.248869	1.001064
986.545478	1.002764
986.842050	1.002697
987.138586	1.001619
987.435086	1.002687
987.731549	1.003834
988.027975	1.002821
988.324366	1.002333
988.620719	1.003377
988.917037	1.003172
989.213318	1.002904
989.509563	1.002864
989.805772	1.004065
990.101944	1.002289
990.398080	1.002221
990.694180	1.003427
990.990244	1.001881
991.286271	1.002772
991.582262	1.002884
991.878217	1.002557
992.174136	1.004063
992.470019	1.002554
992.765865	1.004924
993.061676	1.002666
993.357450	1.003515
993.653188	1.004281
993.948890	1.001935
994.244556	1.001949
994.540186	1.002573
994.835780	1.002527
995.131337	1.003596
995.426859	1.002911
995.722345	1.002597
996.017795	1.002453
996.313208	1.002398
996.608586	1.001560
996.903928	1.002953
997.199234	1.002119
997.494504	1.003121
997.789738	1.001251
998.084936	1.002957
998.380099	1.001753
998.675225	1.002393
998.970316	1.003746
999.265371	1.001354
999.560390	1.003548
999.855373	1.002767
1000.150320	1.002704
1000.445232	1.002340
1000.740108	1.002319
1001.034948	1.002135
1001.329752	1.002863
1001.624521	1.003495
1001.919254	1.002318
1002.213951	1.004382
1002.508613	1.001961
1002.803239	1.002327
1003.097829	1.003519
1003.392384	1.003584
1003.686903	1.003868
1003.981386	1.003260
1004.275834	1.003896
1004.570246	1.002197
1004.864623	1.004496
1005.158964	1.003216
1005.453270	1.002486
1005.747540	1.002229
1006.041775	1.003279
1006.335974	1.003724
1006.630138	1.003079
1006.924266	1.002139
1007.218359	1.001961
1007.512416	1.003826
1007.806438	1.002532
1008.100425	1.002396
1008.394376	1.004846
1008.688292	1.003186
1008.982172	1.002700
1009.276017	1.004008
1009.569827	1.004554
1009.863602	1.002333
1010.157341	1.004067
1010.451045	1.002416
1010.744714	1.005328
1011.038347	1.003660
1011.331945	1.003597
1011.625508	1.003149
1011.919036	1.002135
1012.212528	1.003641
1012.505986	1.003889
1012.799408	1.002529
1013.092795	1.004421
1013.386147	1.002643
1013.679464	1.004934
1013.972745	1.002459
1014.265992	1.003296
1014.559204	1.002301
1014.852380	1.003599
1015.145521	1.003362
1015.438628	1.002451
1015.731699	1.002657
1016.024736	1.004335
1016.317737	1.004303
1016.610703	1.004150
1016.903635	1.003447
1017.196531	1.003034
1017.489393	1.002681
1017.782219	1.003134
1018.075011	1.001974
1018.367768	1.003026
1018.660490	1.002998
1018.953177	1.002998
1019.245829	1.002998
