Dividing Wavelength (nm)	Counts (n)	Blue Motor Position (mm): 2.900000	Red Motor Position (mm): 0.000000	
326.493990	1.006075
326.888308	1.006075
327.282561	1.006075
327.676750	1.007271
328.070874	1.008045
328.464933	1.007751
328.858929	1.007780
329.252859	1.007414
329.646726	1.005205
330.040528	1.006599
330.434265	1.006827
330.827938	1.006261
331.221547	1.008163
331.615091	1.007415
332.008571	1.007548
332.401986	1.006070
332.795338	1.006088
333.188625	1.006717
333.581847	1.006781
333.975006	1.006720
334.368100	1.006836
334.761129	1.004733
335.154095	1.006905
335.546996	1.004901
335.939833	0.999330
336.332606	0.999703
336.725315	0.999309
337.117960	0.999009
337.510540	0.998447
337.903056	1.000677
338.295508	0.999372
338.687896	0.999763
339.080220	0.999130
339.472480	0.999909
339.864676	1.000527
340.256807	0.998145
340.648875	0.999957
341.040879	0.999730
341.432818	1.000361
341.824694	0.998019
342.216506	1.000720
342.608253	0.999942
342.999937	0.998806
343.391557	0.998903
343.783113	1.000458
344.174605	0.999254
344.566033	0.999295
344.957397	0.999466
345.348697	0.999502
345.739934	0.999814
346.131106	0.999112
346.522215	0.998589
346.913260	0.999343
347.304241	0.998508
347.695159	0.999441
348.086012	0.998868
348.476802	0.998902
348.867528	0.998405
349.258191	0.998919
349.648789	1.000128
350.039324	0.999937
350.429796	0.998601
350.820203	0.998342
351.210548	0.999111
351.600828	0.999314
351.991045	0.998892
352.381198	0.999854
352.771288	0.998482
353.161314	0.999594
353.551276	0.999262
353.941175	0.997080
354.331010	0.999389
354.720782	0.999216
355.110490	0.998427
355.500135	0.999546
355.889717	0.997323
356.279235	0.998460
356.668689	0.999024
357.058080	0.998281
357.447408	0.997793
357.836672	0.999251
358.225873	0.998162
358.615010	0.998538
359.004084	0.997673
359.393095	0.999994
359.782043	0.998123
360.170927	0.998969
360.559748	0.997623
360.948505	0.998585
361.337199	0.996812
361.725830	0.997963
362.114398	0.997310
362.502903	0.996448
362.891344	0.997464
363.279722	0.997480
363.668037	0.998556
364.056289	0.997807
364.444478	0.998205
364.832603	0.997970
365.220665	0.997166
365.608665	0.997506
365.996601	0.997875
366.384474	0.996811
366.772284	0.997083
367.160031	0.994589
367.547715	0.995668
367.935336	0.994053
368.322893	0.994063
368.710388	0.993413
369.097820	0.990521
369.485189	0.989485
369.872495	0.986896
370.259738	0.984732
370.646918	0.981805
371.034035	0.979622
371.421090	0.976607
371.808081	0.970919
372.195010	0.969679
372.581875	0.963504
372.968678	0.959827
373.355418	0.955817
373.742096	0.949412
374.128710	0.944250
374.515262	0.939720
374.901751	0.934058
375.288177	0.929534
375.674540	0.922640
376.060841	0.917408
376.447079	0.909176
376.833254	0.902542
377.219367	0.898110
377.605417	0.886670
377.991404	0.882882
378.377329	0.877169
378.763191	0.871489
379.148991	0.860676
379.534727	0.854204
379.920402	0.845466
380.306013	0.841159
380.691563	0.828880
381.077049	0.822695
381.462474	0.819322
381.847835	0.808035
382.233134	0.802344
382.618371	0.802318
383.003545	0.785715
383.388657	0.782924
383.773706	0.775992
384.158693	0.772050
384.543618	0.765976
384.928480	0.757881
385.313280	0.747497
385.698017	0.747314
386.082692	0.735995
386.467305	0.734691
386.851856	0.728309
387.236344	0.723602
387.620770	0.718046
388.005133	0.712813
388.389435	0.706692
388.773674	0.704944
389.157851	0.696018
389.541965	0.693373
389.926018	0.700472
390.310008	0.687430
390.693936	0.684028
391.077802	0.675771
391.461606	0.678222
391.845348	0.666498
392.229027	0.666060
392.612645	0.664220
392.996200	0.651129
393.379694	0.643912
393.763125	0.634523
394.146494	0.638646
394.529801	0.630088
394.913047	0.621673
395.296230	0.627807
395.679351	0.618610
396.062410	0.614865
396.445408	0.618071
396.828343	0.614537
397.211217	0.609510
397.594028	0.620752
397.976778	0.611363
398.359466	0.607873
398.742092	0.603242
399.124656	0.615049
399.507158	0.603338
399.889598	0.600924
400.271977	0.591701
400.654294	0.596018
401.036549	0.594609
401.418742	0.599086
401.800874	0.584950
402.182944	0.581494
402.564952	0.573374
402.946898	0.574893
403.328783	0.576047
403.710606	0.587624
404.092367	0.561954
404.474067	0.566925
404.855705	0.566200
405.237282	0.574813
405.618797	0.561235
406.000250	0.556730
406.381642	0.546801
406.762972	0.551914
407.144240	0.550378
407.525447	0.550444
407.906593	0.542849
408.287677	0.537975
408.668700	0.547152
409.049661	0.541233
409.430560	0.535824
409.811399	0.544614
410.192176	0.526238
410.572891	0.533972
410.953545	0.521903
411.334138	0.535312
411.714669	0.528028
412.095139	0.540099
412.475547	0.523659
412.855894	0.525753
413.236180	0.525035
413.616405	0.529518
413.996568	0.520672
414.376670	0.526828
414.756711	0.531865
415.136691	0.528645
415.516609	0.519226
415.896466	0.516130
416.276262	0.512265
416.655997	0.513626
417.035670	0.495572
417.415283	0.487424
417.794834	0.492372
418.174324	0.497676
418.553753	0.506598
418.933121	0.489233
419.312428	0.482974
419.691674	0.488758
420.070859	0.476274
420.449983	0.485015
420.829045	0.474206
421.208047	0.482757
421.586988	0.475769
421.965867	0.474724
422.344686	0.463351
422.723444	0.476125
423.102141	0.493045
423.480777	0.466222
423.859352	0.486501
424.237866	0.464056
424.616319	0.465095
424.994712	0.455221
425.373044	0.465521
425.751314	0.454250
426.129524	0.470624
426.507673	0.453811
426.885762	0.447210
427.263789	0.452736
427.641756	0.462794
428.019662	0.452894
428.397508	0.452441
428.775292	0.456272
429.153016	0.448217
429.530679	0.454754
429.908282	0.447695
430.285824	0.457925
430.663305	0.436856
431.040726	0.457741
431.418086	0.457418
431.795385	0.449337
432.172624	0.448452
432.549802	0.448885
432.926920	0.447565
433.303977	0.446794
433.680974	0.444413
434.057910	0.442290
434.434786	0.442334
434.811601	0.444943
435.188355	0.427193
435.565050	0.436589
435.941683	0.437941
436.318257	0.421204
436.694770	0.422991
437.071222	0.421293
437.447614	0.425736
437.823946	0.431808
438.200218	0.420750
438.576429	0.430811
438.952580	0.423811
439.328670	0.420335
439.704700	0.426770
440.080670	0.428054
440.456580	0.409422
440.832429	0.417496
441.208218	0.428285
441.583947	0.417773
441.959616	0.416957
442.335224	0.422471
442.710773	0.413048
443.086261	0.411393
443.461689	0.424752
443.837057	0.414889
444.212365	0.404612
444.587612	0.411880
444.962800	0.401045
445.337927	0.403604
445.712995	0.429139
446.088002	0.391548
446.462949	0.401508
446.837837	0.406763
447.212664	0.395253
447.587431	0.386663
447.962139	0.356987
448.336786	0.316236
448.711374	0.326552
449.085901	0.371299
449.460369	0.375485
449.834776	0.378748
450.209124	0.357593
450.583412	0.350271
450.957640	0.343487
451.331808	0.355108
451.705917	0.378220
452.079965	0.383324
452.453954	0.371298
452.827883	0.378388
453.201752	0.373078
453.575562	0.383894
453.949311	0.372827
454.323001	0.379058
454.696632	0.375010
455.070202	0.367493
455.443713	0.359322
455.817164	0.353738
456.190556	0.349560
456.563888	0.346427
456.937160	0.344018
457.310373	0.361412
457.683526	0.360036
458.056619	0.366009
458.429653	0.366193
458.802628	0.369805
459.175542	0.364308
459.548398	0.346644
459.921194	0.339259
460.293930	0.339398
460.666607	0.316657
461.039224	0.305071
461.411782	0.300690
461.784280	0.299755
462.156719	0.304278
462.529099	0.308149
462.901419	0.324775
463.273680	0.328828
463.645882	0.328196
464.018024	0.334376
464.390106	0.326835
464.762130	0.311541
465.134094	0.294627
465.505999	0.263380
465.877845	0.233958
466.249631	0.220634
466.621358	0.228114
466.993026	0.242295
467.364634	0.248316
467.736184	0.257244
468.107674	0.266161
468.479105	0.265296
468.850477	0.271967
469.221790	0.278588
469.593043	0.288560
469.964238	0.293767
470.335373	0.293071
470.706449	0.291610
471.077467	0.291605
471.448425	0.253751
471.819324	0.229285
472.190164	0.228844
472.560945	0.258127
472.931667	0.280371
473.302330	0.284533
473.672934	0.296366
474.043479	0.284232
474.413965	0.286233
474.784393	0.289371
475.154761	0.284456
475.525070	0.281879
475.895321	0.287465
476.265513	0.281617
476.635645	0.277012
477.005719	0.276900
477.375734	0.273473
477.745691	0.266689
478.115588	0.263007
478.485427	0.256710
478.855207	0.243351
479.224928	0.225792
479.594591	0.214087
479.964194	0.217431
480.333739	0.218648
480.703226	0.220068
481.072653	0.218355
481.442022	0.213968
481.811333	0.210568
482.180584	0.214332
482.549777	0.219713
482.918912	0.222991
483.287988	0.222468
483.657005	0.222293
484.025964	0.228778
484.394864	0.225964
484.763706	0.226665
485.132489	0.231564
485.501213	0.232522
485.869879	0.230596
486.238487	0.233790
486.607036	0.231872
486.975527	0.236616
487.343959	0.232208
487.712333	0.231310
488.080648	0.232696
488.448905	0.231979
488.817104	0.233072
489.185244	0.227742
489.553326	0.224769
489.921350	0.214612
490.289315	0.196827
490.657222	0.191692
491.025070	0.193054
491.392861	0.194928
491.760593	0.200773
492.128267	0.206367
492.495883	0.211787
492.863440	0.218392
493.230939	0.224874
493.598380	0.226094
493.965763	0.228579
494.333088	0.230500
494.700354	0.231848
495.067563	0.230972
495.434713	0.234642
495.801805	0.231909
496.168839	0.233756
496.535815	0.235306
496.902733	0.235144
497.269593	0.236672
497.636395	0.234023
498.003139	0.234542
498.369825	0.237885
498.736453	0.234125
499.103023	0.235772
499.469535	0.234990
499.835989	0.235656
500.202385	0.236092
500.568723	0.239447
500.935003	0.234692
501.301226	0.238617
501.667390	0.233534
502.033497	0.231155
502.399546	0.234016
502.765537	0.235898
503.131470	0.234705
503.497345	0.231040
503.863163	0.239433
504.228923	0.232367
504.594625	0.231416
504.960269	0.236825
505.325856	0.231972
505.691385	0.236422
506.056856	0.233156
506.422270	0.232468
506.787625	0.234984
507.152924	0.232509
507.518164	0.232666
507.883347	0.234332
508.248472	0.236377
508.613540	0.231032
508.978550	0.233775
509.343503	0.234293
509.708398	0.231533
510.073236	0.229564
510.438016	0.229022
510.802738	0.230110
511.167403	0.228986
511.532010	0.231262
511.896561	0.226753
512.261053	0.225177
512.625488	0.227635
512.989866	0.227853
513.354186	0.227904
513.718449	0.230093
514.082655	0.226233
514.446803	0.228731
514.810894	0.226393
515.174927	0.228928
515.538904	0.228735
515.902822	0.225477
516.266684	0.227669
516.630488	0.228820
516.994235	0.227684
517.357925	0.226349
517.721558	0.224427
518.085133	0.224316
518.448651	0.223970
518.812112	0.226670
519.175516	0.226221
519.538863	0.223892
519.902152	0.225479
520.265385	0.222110
520.628560	0.224079
520.991678	0.224354
521.354739	0.223306
521.717743	0.224654
522.080690	0.224950
522.443580	0.222175
522.806413	0.223097
523.169189	0.222685
523.531908	0.221203
523.894569	0.225000
524.257174	0.224941
524.619722	0.222690
524.982213	0.223669
525.344647	0.222575
525.707025	0.223293
526.069345	0.221583
526.431608	0.223357
526.793815	0.221131
527.155964	0.225631
527.518057	0.224336
527.880093	0.225486
528.242072	0.223913
528.603995	0.225719
528.965860	0.227473
529.327669	0.226538
529.689421	0.227462
530.051117	0.227807
530.412755	0.225862
530.774337	0.228203
531.135862	0.228755
531.497331	0.227707
531.858743	0.230719
532.220098	0.227346
532.581396	0.230071
532.942638	0.230259
533.303824	0.231716
533.664953	0.231283
534.026025	0.233097
534.387040	0.231169
534.747999	0.230640
535.108902	0.229661
535.469748	0.234985
535.830537	0.232896
536.191270	0.232917
536.551947	0.232593
536.912567	0.232574
537.273131	0.234073
537.633638	0.234778
537.994089	0.235036
538.354483	0.236200
538.714821	0.232862
539.075103	0.232762
539.435328	0.233421
539.795497	0.237010
540.155609	0.233782
540.515665	0.232063
540.875665	0.237950
541.235609	0.236220
541.595496	0.236367
541.955328	0.232730
542.315102	0.235468
542.674821	0.236622
543.034483	0.236663
543.394090	0.236200
543.753640	0.238225
544.113134	0.233058
544.472571	0.236356
544.831953	0.233214
545.191278	0.237639
545.550548	0.236583
545.909761	0.233761
546.268918	0.234451
546.628019	0.232676
546.987064	0.235304
547.346053	0.237047
547.704986	0.234894
548.063863	0.235384
548.422684	0.235409
548.781449	0.237206
549.140158	0.234981
549.498811	0.237735
549.857408	0.240864
550.215949	0.235611
550.574434	0.238729
550.932864	0.236697
551.291237	0.235067
551.649555	0.236916
552.007817	0.236415
552.366022	0.237375
552.724173	0.237557
553.082267	0.237808
553.440305	0.234753
553.798288	0.239134
554.156215	0.235746
554.514086	0.236289
554.871902	0.239656
555.229661	0.238830
555.587365	0.239448
555.945014	0.241853
556.302606	0.238913
556.660143	0.241524
557.017625	0.237812
557.375050	0.239847
557.732421	0.236904
558.089735	0.239338
558.446994	0.239120
558.804197	0.238189
559.161345	0.238125
559.518437	0.241698
559.875474	0.239773
560.232455	0.239251
560.589381	0.240205
560.946251	0.240520
561.303065	0.237920
561.659825	0.239174
562.016528	0.240965
562.373177	0.243352
562.729770	0.240856
563.086307	0.242899
563.442789	0.240827
563.799216	0.243380
564.155587	0.242412
564.511904	0.243860
564.868164	0.243381
565.224370	0.243519
565.580520	0.245037
565.936615	0.245122
566.292654	0.248054
566.648638	0.244846
567.004567	0.245867
567.360441	0.246650
567.716260	0.248475
568.072023	0.246094
568.427732	0.247108
568.783385	0.249563
569.138982	0.247557
569.494525	0.247246
569.850013	0.250243
570.205445	0.248658
570.560823	0.251168
570.916145	0.253049
571.271412	0.251184
571.626625	0.253190
571.981782	0.253446
572.336884	0.254282
572.691931	0.254007
573.046923	0.255492
573.401860	0.256475
573.756743	0.258250
574.111570	0.256712
574.466342	0.257647
574.821059	0.256753
575.175722	0.259849
575.530330	0.259281
575.884882	0.259377
576.239380	0.261694
576.593823	0.262082
576.948211	0.261667
577.302544	0.264856
577.656823	0.264323
578.011047	0.264523
578.365216	0.265225
578.719330	0.267449
579.073389	0.266817
579.427394	0.268095
579.781344	0.269165
580.135239	0.270436
580.489080	0.270107
580.842866	0.273148
581.196597	0.272746
581.550273	0.271402
581.903895	0.272763
582.257463	0.270688
582.610975	0.274531
582.964434	0.273489
583.317837	0.276227
583.671186	0.276689
584.024481	0.276342
584.377721	0.278742
584.730906	0.279780
585.084037	0.279038
585.437113	0.280778
585.790135	0.279966
586.143103	0.283160
586.496016	0.283965
586.848874	0.281875
587.201679	0.282413
587.554428	0.285640
587.907124	0.284569
588.259765	0.285692
588.612352	0.285704
588.964884	0.289653
589.317362	0.289271
589.669786	0.289282
590.022155	0.287523
590.374470	0.287049
590.726731	0.289049
591.078937	0.294155
591.431090	0.290284
591.783188	0.294242
592.135232	0.294924
592.487222	0.294497
592.839157	0.292831
593.191038	0.295246
593.542866	0.297181
593.894639	0.300511
594.246358	0.298377
594.598022	0.298010
594.949633	0.301977
595.301190	0.303021
595.652692	0.301468
596.004141	0.297553
596.355535	0.305846
596.706876	0.306525
597.058162	0.308619
597.409395	0.306209
597.760573	0.303491
598.111698	0.306712
598.462768	0.307507
598.813785	0.308537
599.164748	0.309957
599.515657	0.310170
599.866511	0.313812
600.217312	0.308876
600.568060	0.314535
600.918753	0.310761
601.269392	0.311494
601.619978	0.315302
601.970510	0.312545
602.320988	0.312499
602.671412	0.310869
603.021783	0.313080
603.372100	0.314431
603.722363	0.314210
604.072572	0.315046
604.422728	0.314818
604.772830	0.317217
605.122878	0.316509
605.472872	0.316910
605.822813	0.315316
606.172701	0.318210
606.522534	0.314997
606.872314	0.315472
607.222041	0.316204
607.571714	0.314171
607.921333	0.316310
608.270899	0.315333
608.620411	0.312123
608.969870	0.316391
609.319276	0.316443
609.668627	0.316167
610.017926	0.314870
610.367171	0.313618
610.716362	0.314243
611.065500	0.314323
611.414585	0.312795
611.763616	0.313136
612.112594	0.313899
612.461518	0.313078
612.810389	0.310942
613.159207	0.313321
613.507971	0.315258
613.856682	0.310937
614.205340	0.312068
614.553945	0.309189
614.902496	0.313333
615.250994	0.311497
615.599439	0.311863
615.947830	0.311128
616.296169	0.312348
616.644454	0.312136
616.992686	0.311776
617.340864	0.309625
617.688990	0.313188
618.037063	0.310120
618.385082	0.311428
618.733048	0.308030
619.080961	0.310789
619.428821	0.310088
619.776628	0.309774
620.124382	0.312169
620.472083	0.312419
620.819731	0.311726
621.167326	0.315399
621.514868	0.315732
621.862357	0.319722
622.209793	0.319056
622.557176	0.321617
622.904506	0.322492
623.251783	0.325507
623.599007	0.327648
623.946179	0.326923
624.293297	0.328952
624.640363	0.332559
624.987376	0.333290
625.334336	0.335825
625.681243	0.337899
626.028097	0.338732
626.374899	0.339296
626.721647	0.340170
627.068343	0.343160
627.414987	0.344613
627.761577	0.346396
628.108115	0.344284
628.454600	0.350064
628.801032	0.347412
629.147412	0.349331
629.493739	0.350165
629.840014	0.352652
630.186236	0.349995
630.532405	0.355638
630.878521	0.352916
631.224585	0.355426
631.570597	0.358758
631.916556	0.357149
632.262462	0.357223
632.608316	0.359801
632.954117	0.360206
633.299866	0.361055
633.645562	0.361559
633.991206	0.365981
634.336797	0.368826
634.682336	0.371327
635.027823	0.372905
635.373257	0.373521
635.718639	0.377197
636.063968	0.376399
636.409245	0.382193
636.754470	0.382741
637.099642	0.385077
637.444762	0.388496
637.789829	0.387646
638.134845	0.391335
638.479808	0.391788
638.824719	0.391809
639.169577	0.395812
639.514383	0.395028
639.859137	0.399500
640.203839	0.399187
640.548489	0.399577
640.893086	0.400809
641.237632	0.402756
641.582125	0.401053
641.926566	0.402977
642.270955	0.402621
642.615292	0.402329
642.959576	0.402533
643.303809	0.402935
643.647990	0.402125
643.992118	0.402801
644.336195	0.405873
644.680219	0.404481
645.024192	0.405155
645.368112	0.398888
645.711981	0.397571
646.055797	0.393259
646.399562	0.395757
646.743274	0.388369
647.086935	0.385123
647.430544	0.385115
647.774101	0.384336
648.117606	0.383750
648.461059	0.384798
648.804460	0.386736
649.147810	0.391497
649.491108	0.393698
649.834354	0.395073
650.177548	0.400181
650.520690	0.406067
650.863781	0.407208
651.206820	0.406588
651.549807	0.410754
651.892742	0.414992
652.235626	0.414839
652.578458	0.415537
652.921238	0.422081
653.263967	0.419314
653.606644	0.423493
653.949269	0.423282
654.291843	0.427020
654.634365	0.424046
654.976836	0.426952
655.319255	0.427768
655.661622	0.429018
656.003938	0.428988
656.346203	0.431954
656.688416	0.429894
657.030577	0.432914
657.372687	0.435337
657.714746	0.435659
658.056753	0.432986
658.398708	0.437062
658.740612	0.438320
659.082465	0.434205
659.424266	0.434614
659.766016	0.433953
660.107715	0.437559
660.449362	0.435750
660.790958	0.436045
661.132503	0.437409
661.473996	0.434221
661.815438	0.435604
662.156829	0.435772
662.498168	0.436425
662.839456	0.438060
663.180693	0.435401
663.521879	0.435818
663.863013	0.436112
664.204097	0.434756
664.545129	0.431936
664.886110	0.432229
665.227040	0.429744
665.567918	0.432198
665.908746	0.429691
666.249522	0.429750
666.590248	0.430455
666.930922	0.428305
667.271545	0.427890
667.612118	0.428019
667.952639	0.429721
668.293109	0.428448
668.633528	0.430571
668.973896	0.431279
669.314213	0.431145
669.654480	0.432587
669.994695	0.433214
670.334859	0.434054
670.674973	0.434283
671.015035	0.434334
671.355047	0.434133
671.695008	0.434947
672.034918	0.437685
672.374777	0.436607
672.714585	0.437386
673.054342	0.437493
673.394049	0.437755
673.733705	0.435496
674.073310	0.436577
674.412864	0.439466
674.752368	0.440019
675.091820	0.440604
675.431223	0.444961
675.770574	0.444153
676.109875	0.447786
676.449125	0.447206
676.788324	0.449842
677.127473	0.455061
677.466571	0.454859
677.805619	0.456782
678.144616	0.458004
678.483562	0.459555
678.822458	0.462529
679.161303	0.462490
679.500098	0.463256
679.838842	0.465034
680.177535	0.464612
680.516179	0.462945
680.854771	0.461895
681.193314	0.455931
681.531805	0.446586
681.870247	0.435456
682.208638	0.428198
682.546978	0.426746
682.885268	0.428533
683.223508	0.434664
683.561697	0.438774
683.899836	0.441052
684.237925	0.444228
684.575963	0.447230
684.913951	0.450234
685.251889	0.445724
685.589776	0.448305
685.927614	0.450673
686.265401	0.444270
686.603137	0.445814
686.940824	0.440485
687.278460	0.438828
687.616046	0.437735
687.953582	0.432902
688.291068	0.433715
688.628504	0.429098
688.965889	0.432123
689.303224	0.435385
689.640510	0.439438
689.977745	0.445025
690.314930	0.452816
690.652065	0.458224
690.989150	0.465362
691.326185	0.472267
691.663170	0.477086
692.000105	0.484039
692.336990	0.491044
692.673825	0.493519
693.010610	0.500093
693.347345	0.506507
693.684030	0.507432
694.020665	0.512316
694.357251	0.520881
694.693786	0.520531
695.030272	0.523957
695.366707	0.528796
695.703093	0.532362
696.039429	0.530101
696.375716	0.532786
696.711952	0.534428
697.048139	0.536118
697.384276	0.537876
697.720363	0.536725
698.056400	0.535124
698.392388	0.541682
698.728326	0.543735
699.064214	0.546558
699.400053	0.547531
699.735842	0.551487
700.071581	0.553692
700.407270	0.556931
700.742910	0.558995
701.078501	0.566039
701.414042	0.566378
701.749533	0.569582
702.084974	0.578653
702.420366	0.571868
702.755709	0.578147
703.091002	0.586051
703.426246	0.579957
703.761440	0.586007
704.096584	0.590124
704.431679	0.587873
704.766725	0.589882
705.101721	0.591743
705.436668	0.587492
705.771565	0.594364
706.106413	0.590207
706.441212	0.586079
706.775961	0.585437
707.110661	0.587665
707.445311	0.584321
707.779913	0.581917
708.114465	0.580305
708.448967	0.576415
708.783421	0.568746
709.117825	0.563785
709.452180	0.562616
709.786485	0.557660
710.120742	0.546740
710.454949	0.548400
710.789107	0.540698
711.123216	0.531578
711.457275	0.532506
711.791286	0.524185
712.125247	0.523582
712.459159	0.534490
712.793023	0.525812
713.126837	0.530415
713.460602	0.531040
713.794318	0.539189
714.127985	0.539294
714.461602	0.549460
714.795171	0.552522
715.128691	0.560299
715.462162	0.567996
715.795584	0.573658
716.128957	0.577009
716.462281	0.583178
716.795556	0.586376
717.128782	0.591199
717.461960	0.601242
717.795088	0.600517
718.128167	0.606811
718.461198	0.614836
718.794180	0.615254
719.127113	0.618229
719.459997	0.621848
719.792833	0.628477
720.125619	0.628790
720.458357	0.635033
720.791046	0.634800
721.123686	0.638683
721.456278	0.645364
721.788821	0.642150
722.121315	0.647269
722.453761	0.651411
722.786158	0.648571
723.118506	0.645567
723.450805	0.653258
723.783056	0.649469
724.115259	0.647144
724.447412	0.645803
724.779518	0.647028
725.111574	0.645972
725.443582	0.641754
725.775542	0.644040
726.107453	0.635252
726.439315	0.636043
726.771129	0.634177
727.102895	0.627717
727.434612	0.620713
727.766281	0.618707
728.097901	0.617825
728.429473	0.617212
728.760996	0.615594
729.092471	0.616630
729.423897	0.620251
729.755276	0.618407
730.086606	0.618382
730.417887	0.614277
730.749120	0.604401
731.080305	0.594622
731.411442	0.590978
731.742530	0.595142
732.073570	0.594591
732.404562	0.587250
732.735506	0.588341
733.066401	0.593602
733.397249	0.601884
733.728048	0.613867
734.058798	0.626698
734.389501	0.638147
734.720156	0.648091
735.050762	0.655757
735.381320	0.656456
735.711831	0.663754
736.042293	0.669547
736.372707	0.666260
736.703073	0.670314
737.033391	0.672478
737.363661	0.669577
737.693883	0.665479
738.024056	0.663706
738.354182	0.664413
738.684260	0.653479
739.014290	0.650526
739.344272	0.650959
739.674207	0.643450
740.004093	0.643690
740.333931	0.644046
740.663722	0.643375
740.993464	0.644573
741.323159	0.647950
741.652806	0.652531
741.982405	0.657322
742.311956	0.663104
742.641460	0.665411
742.970915	0.668361
743.300323	0.675397
743.629683	0.682652
743.958996	0.685518
744.288260	0.688700
744.617477	0.695005
744.946647	0.696433
745.275768	0.702768
745.604842	0.702013
745.933869	0.711905
746.262847	0.713064
746.591778	0.706100
746.920662	0.712077
747.249498	0.719578
747.578286	0.710579
747.907027	0.706071
748.235720	0.706595
748.564365	0.701816
748.892963	0.701332
749.221514	0.704823
749.550017	0.709341
749.878473	0.710057
750.206881	0.715995
750.535242	0.717011
750.863555	0.715602
751.191821	0.717424
751.520039	0.720778
751.848210	0.724505
752.176334	0.718506
752.504411	0.716836
752.832440	0.724979
753.160421	0.728925
753.488356	0.726635
753.816243	0.723795
754.144082	0.733177
754.471875	0.737319
754.799620	0.733131
755.127318	0.734078
755.454969	0.733609
755.782572	0.735255
756.110129	0.738002
756.437638	0.741421
756.765100	0.738636
757.092515	0.735400
757.419882	0.734981
757.747203	0.740024
758.074477	0.740107
758.401703	0.735370
758.728882	0.732214
759.056014	0.730088
759.383099	0.729392
759.710138	0.730173
760.037129	0.726437
760.364073	0.720579
760.690970	0.723916
761.017820	0.727438
761.344623	0.724531
761.671379	0.715414
761.998088	0.703572
762.324751	0.680583
762.651366	0.637255
762.977935	0.569836
763.304456	0.517556
763.630931	0.507630
763.957359	0.547201
764.283740	0.591734
764.610074	0.619749
764.936362	0.650544
765.262602	0.679521
765.588796	0.699240
765.914943	0.717536
766.241044	0.735546
766.567097	0.742661
766.893104	0.752778
767.219064	0.758852
767.544978	0.765719
767.870845	0.778708
768.196665	0.782772
768.522438	0.781572
768.848165	0.783123
769.173846	0.791229
769.499479	0.795952
769.825066	0.799918
770.150607	0.804495
770.476101	0.800329
770.801548	0.801928
771.126949	0.813258
771.452303	0.817702
771.777611	0.816273
772.102872	0.814755
772.428087	0.819982
772.753256	0.823398
773.078378	0.825852
773.403453	0.834027
773.728482	0.838422
774.053465	0.831685
774.378401	0.835458
774.703291	0.845447
775.028135	0.844371
775.352932	0.844522
775.677683	0.849398
776.002388	0.850019
776.327046	0.849698
776.651658	0.853233
776.976224	0.855353
777.300743	0.855619
777.625216	0.859015
777.949643	0.860318
778.274024	0.858911
778.598359	0.861925
778.922647	0.859788
779.246889	0.861057
779.571086	0.864077
779.895236	0.866669
780.219339	0.865023
780.543397	0.859828
780.867409	0.859445
781.191374	0.860844
781.515294	0.861906
781.839167	0.862380
782.162995	0.864647
782.486776	0.863155
782.810511	0.862460
783.134201	0.867977
783.457844	0.864903
783.781441	0.866394
784.104993	0.873067
784.428498	0.873092
784.751958	0.870316
785.075372	0.872229
785.398739	0.874799
785.722061	0.870960
786.045337	0.866888
786.368568	0.872003
786.691752	0.874546
787.014891	0.860936
787.337983	0.851469
787.661030	0.843993
787.984031	0.825495
788.306987	0.813035
788.629897	0.814129
788.952760	0.819292
789.275579	0.823951
789.598351	0.839183
789.921078	0.853041
790.243759	0.853015
790.566395	0.858988
790.888984	0.866926
791.211529	0.871799
791.534027	0.874386
791.856480	0.877271
792.178888	0.882090
792.501249	0.884638
792.823566	0.886862
793.145836	0.886600
793.468062	0.888427
793.790241	0.888770
794.112375	0.886095
794.434464	0.883257
794.756507	0.880929
795.078505	0.880465
795.400457	0.874307
795.722364	0.863118
796.044226	0.856814
796.366042	0.855289
796.687812	0.857597
797.009538	0.853068
797.331218	0.858384
797.652852	0.861771
797.974442	0.866849
798.295986	0.867244
798.617484	0.868609
798.938938	0.874452
799.260346	0.878433
799.581709	0.879822
799.903026	0.882607
800.224299	0.883474
800.545526	0.886293
800.866708	0.890659
801.187845	0.894933
801.508936	0.894766
801.829983	0.892283
802.150984	0.896119
802.471940	0.901052
802.792851	0.899793
803.113717	0.902566
803.434538	0.899430
803.755314	0.902337
804.076045	0.903217
804.396731	0.903895
804.717372	0.901947
805.037967	0.904973
805.358518	0.902756
805.679024	0.898660
805.999485	0.900112
806.319901	0.899494
806.640272	0.902151
806.960598	0.900288
807.280879	0.896588
807.601115	0.895139
807.921306	0.899440
808.241453	0.899491
808.561554	0.898757
808.881611	0.897817
809.201623	0.900134
809.521590	0.899608
809.841513	0.901623
810.161390	0.897747
810.481223	0.900996
810.801011	0.904254
811.120755	0.906961
811.440453	0.905496
811.760107	0.905082
812.079716	0.903948
812.399281	0.906833
812.718801	0.909077
813.038276	0.909852
813.357707	0.910683
813.677093	0.908100
813.996434	0.910017
814.315731	0.912185
814.634983	0.913036
814.954191	0.913488
815.273354	0.907141
815.592473	0.904161
815.911547	0.905683
816.230577	0.901539
816.549562	0.898983
816.868502	0.898201
817.187399	0.895975
817.506250	0.890607
817.825058	0.893059
818.143821	0.888118
818.462539	0.883448
818.781213	0.876040
819.099843	0.866435
819.418429	0.848117
819.736970	0.830289
820.055466	0.810228
820.373919	0.785129
820.692327	0.750800
821.010691	0.715324
821.329011	0.634396
821.647286	0.517497
821.965517	0.402563
822.283704	0.359493
822.601847	0.359823
822.919945	0.395682
823.237999	0.430557
823.556010	0.478834
823.873976	0.535571
824.191897	0.586890
824.509775	0.630594
824.827609	0.676715
825.145398	0.700021
825.463144	0.701651
825.780845	0.685033
826.098502	0.665462
826.416116	0.619514
826.733685	0.574816
827.051210	0.565635
827.368692	0.581317
827.686129	0.618747
828.003522	0.673814
828.320872	0.722546
828.638177	0.766990
828.955439	0.800585
829.272656	0.822037
829.589830	0.839516
829.906960	0.856042
830.224046	0.869363
830.541088	0.879712
830.858086	0.883668
831.175041	0.891321
831.491952	0.888720
831.808819	0.884939
832.125642	0.877896
832.442421	0.864817
832.759157	0.841760
833.075849	0.794263
833.392497	0.729310
833.709101	0.687569
834.025662	0.697564
834.342179	0.729253
834.658653	0.769690
834.975083	0.806563
835.291469	0.834007
835.607811	0.856339
835.924110	0.874358
836.240366	0.890559
836.556578	0.904410
836.872746	0.910742
837.188871	0.917938
837.504952	0.924588
837.820990	0.926897
838.136984	0.930611
838.452935	0.933862
838.768842	0.935163
839.084706	0.928174
839.400526	0.901554
839.716303	0.860043
840.032037	0.838099
840.347727	0.841919
840.663373	0.859010
840.978977	0.882185
841.294537	0.906107
841.610054	0.921684
841.925527	0.928744
842.240957	0.936469
842.556344	0.944878
842.871687	0.949092
843.186987	0.953893
843.502244	0.955194
843.817458	0.956929
844.132629	0.961194
844.447756	0.964386
844.762840	0.964182
845.077881	0.965071
845.392879	0.963824
845.707833	0.966392
846.022745	0.968977
846.337613	0.967983
846.652438	0.969508
846.967221	0.969749
847.281960	0.970828
847.596656	0.972705
847.911309	0.971791
848.225919	0.970594
848.540485	0.972884
848.855009	0.973409
849.169490	0.972829
849.483928	0.974218
849.798323	0.972102
850.112675	0.976364
850.426984	0.974791
850.741251	0.976282
851.055474	0.974896
851.369654	0.973001
851.683792	0.972697
851.997887	0.974434
852.311938	0.975848
852.625947	0.974076
852.939914	0.972413
853.253837	0.974934
853.567718	0.975273
853.881555	0.974650
854.195350	0.973856
854.509103	0.974653
854.822812	0.976204
855.136479	0.974890
855.450103	0.974937
855.763685	0.973229
856.077224	0.973553
856.390720	0.975999
856.704173	0.975102
857.017584	0.973613
857.330953	0.972757
857.644278	0.971669
857.957561	0.972811
858.270802	0.973814
858.584000	0.973164
858.897155	0.971438
859.210268	0.971843
859.523339	0.974233
859.836367	0.975035
860.149352	0.973481
860.462295	0.974928
860.775195	0.974585
861.088054	0.972447
861.400869	0.974979
861.713642	0.974666
862.026373	0.976860
862.339062	0.976581
862.651708	0.973943
862.964312	0.974041
863.276873	0.974569
863.589392	0.971414
863.901869	0.969847
864.214303	0.968625
864.526696	0.967898
864.839045	0.967542
865.151353	0.967325
865.463619	0.967101
865.775842	0.967583
866.088023	0.967930
866.400162	0.965907
866.712258	0.968198
867.024313	0.967659
867.336325	0.969255
867.648296	0.967411
867.960224	0.966355
868.272110	0.967209
868.583954	0.967900
868.895755	0.968792
869.207515	0.964961
869.519233	0.964689
869.830909	0.965077
870.142542	0.966620
870.454134	0.966443
870.765684	0.963871
871.077191	0.963624
871.388657	0.962883
871.700081	0.963471
872.011463	0.963669
872.322803	0.962700
872.634101	0.963000
872.945357	0.957250
873.256571	0.955052
873.567744	0.958446
873.878874	0.957472
874.189963	0.958135
874.501010	0.956345
874.812015	0.954647
875.122979	0.955032
875.433900	0.956394
875.744780	0.958162
876.055618	0.954514
876.366415	0.953966
876.677169	0.954140
876.987882	0.954050
877.298554	0.955554
877.609183	0.951460
877.919771	0.949603
878.230317	0.945863
878.540822	0.943923
878.851285	0.938327
879.161707	0.929551
879.472087	0.917723
879.782425	0.899671
880.092722	0.864188
880.402977	0.811304
880.713191	0.747054
881.023363	0.686264
881.333494	0.650703
881.643583	0.624021
881.953631	0.624266
882.263637	0.652377
882.573602	0.692500
882.883526	0.718393
883.193408	0.744651
883.503248	0.767808
883.813048	0.794971
884.122806	0.827287
884.432522	0.850489
884.742197	0.871598
885.051831	0.882206
885.361424	0.892796
885.670975	0.906374
885.980485	0.914984
886.289954	0.921556
886.599382	0.925570
886.908768	0.932235
887.218113	0.937574
887.527417	0.941785
887.836680	0.946031
888.145901	0.947059
888.455082	0.950657
888.764221	0.955420
889.073319	0.956185
889.382376	0.957555
889.691392	0.955658
890.000366	0.956645
890.309300	0.958264
890.618193	0.956762
890.927044	0.956763
891.235855	0.954976
891.544625	0.956282
891.853353	0.955673
892.162041	0.952972
892.470687	0.945788
892.779293	0.941568
893.087858	0.936667
893.396381	0.928837
893.704864	0.913740
894.013306	0.889930
894.321707	0.863338
894.630068	0.847927
894.938387	0.841139
895.246665	0.844164
895.554903	0.856135
895.863100	0.870618
896.171256	0.889408
896.479371	0.907628
896.787446	0.922228
897.095480	0.928063
897.403473	0.931936
897.711425	0.936794
898.019336	0.942362
898.327207	0.947346
898.635038	0.947722
898.942827	0.949184
899.250576	0.953397
899.558284	0.956677
899.865952	0.958054
900.173579	0.960259
900.481165	0.960144
900.788711	0.962097
901.096216	0.964436
901.403681	0.967547
901.711105	0.966253
902.018489	0.967991
902.325832	0.965776
902.633135	0.965221
902.940397	0.958434
903.247619	0.945752
903.554800	0.920424
903.861941	0.879788
904.169041	0.840940
904.476101	0.824566
904.783121	0.823827
905.090100	0.841363
905.397039	0.863939
905.703938	0.886166
906.010796	0.906816
906.317614	0.924378
906.624391	0.937312
906.931129	0.947497
907.237826	0.955129
907.544483	0.962843
907.851099	0.967123
908.157675	0.970888
908.464211	0.974338
908.770707	0.976044
909.077163	0.978008
909.383578	0.980977
909.689954	0.979589
909.996289	0.981039
910.302584	0.983015
910.608839	0.984734
910.915054	0.983351
911.221229	0.984078
911.527363	0.982129
911.833458	0.982738
912.139513	0.982615
912.445527	0.981880
912.751502	0.978965
913.057436	0.976627
913.363331	0.974959
913.669186	0.972272
913.975000	0.965665
914.280775	0.958512
914.586510	0.951088
914.892205	0.936530
915.197859	0.914925
915.503475	0.887147
915.809050	0.867392
916.114585	0.859086
916.420081	0.857145
916.725536	0.853907
917.030952	0.862769
917.336328	0.877326
917.641665	0.892159
917.946961	0.908046
918.252218	0.920417
918.557435	0.928872
918.862612	0.937961
919.167750	0.944669
919.472848	0.951404
919.777906	0.957107
920.082925	0.962107
920.387904	0.965168
920.692843	0.967272
920.997743	0.967743
921.302603	0.971515
921.607423	0.973322
921.912204	0.975275
922.216946	0.977761
922.521647	0.977971
922.826310	0.978444
923.130932	0.982128
923.435516	0.984138
923.740059	0.983850
924.044564	0.984509
924.349028	0.984371
924.653454	0.987516
924.957840	0.987921
925.262186	0.989821
925.566493	0.989577
925.870761	0.989841
926.174989	0.989823
926.479178	0.992772
926.783328	0.993015
927.087438	0.992850
927.391509	0.992542
927.695541	0.993885
927.999533	0.994455
928.303486	0.994362
928.607400	0.995446
928.911275	0.995251
929.215110	0.996698
929.518906	0.996314
929.822663	0.996463
930.126381	0.996349
930.430060	0.994598
930.733699	0.996187
931.037299	0.994836
931.340861	0.995659
931.644383	0.994082
931.947866	0.995037
932.251309	0.995949
932.554714	0.995783
932.858080	0.996516
933.161407	0.994867
933.464694	0.995620
933.767943	0.996863
934.071153	0.996985
934.374323	0.996925
934.677455	0.996922
934.980548	0.995322
935.283602	0.997130
935.586617	0.996546
935.889593	0.997936
936.192530	0.996144
936.495428	0.996416
936.798287	0.995239
937.101108	0.995360
937.403890	0.994337
937.706632	0.994519
938.009336	0.991746
938.312002	0.990049
938.614628	0.988895
938.917216	0.986845
939.219765	0.987675
939.522275	0.987271
939.824747	0.988333
940.127179	0.987615
940.429573	0.990390
940.731929	0.988206
941.034246	0.989385
941.336524	0.989520
941.638763	0.990384
941.940964	0.990933
942.243126	0.991064
942.545250	0.993194
942.847335	0.992959
943.149381	0.993557
943.451389	0.993730
943.753359	0.994763
944.055290	0.995660
944.357182	0.994916
944.659036	0.994453
944.960851	0.995365
945.262628	0.996989
945.564367	0.995087
945.866067	0.994609
946.167729	0.994300
946.469352	0.994864
946.770937	0.993117
947.072484	0.996135
947.373992	0.995479
947.675462	0.994996
947.976893	0.994410
948.278286	0.996976
948.579641	0.996321
948.880958	0.995299
949.182236	0.995870
949.483476	0.996918
949.784678	0.996452
950.085841	0.995621
950.386967	0.996089
950.688054	0.996386
950.989103	0.994911
951.290114	0.994146
951.591087	0.994282
951.892021	0.995149
952.192917	0.993518
952.493776	0.994451
952.794596	0.993533
953.095378	0.991441
953.396122	0.993144
953.696828	0.994030
953.997496	0.993949
954.298126	0.996268
954.598718	0.994771
954.899272	0.995926
955.199788	0.996288
955.500266	0.997915
955.800706	0.997744
956.101108	0.997132
956.401472	1.000302
956.701798	0.998499
957.002087	0.998564
957.302337	1.000512
957.602550	1.000278
957.902724	0.999936
958.202861	1.000369
958.502960	0.999517
958.803022	1.001531
959.103045	1.002549
959.403031	1.001783
959.702979	1.001760
960.002889	1.001532
960.302762	1.000756
960.602596	1.002548
960.902393	1.001463
961.202153	1.002422
961.501875	1.001778
961.801559	1.002362
962.101205	1.001493
962.400814	1.002437
962.700385	1.001808
962.999918	1.002869
963.299414	1.002094
963.598873	1.003350
963.898293	1.002553
964.197677	1.002390
964.497022	1.002529
964.796331	1.002981
965.095601	1.003223
965.394835	1.001450
965.694030	1.003827
965.993189	1.001885
966.292309	1.003281
966.591393	1.001581
966.890439	1.002820
967.189447	1.002577
967.488419	1.002443
967.787353	1.003307
968.086249	1.002093
968.385108	1.002037
968.683930	1.003813
968.982714	1.002004
969.281462	1.001754
969.580172	1.002443
969.878844	1.003727
970.177480	1.002225
970.476078	1.003159
970.774639	1.002122
971.073162	1.002341
971.371649	1.001832
971.670098	1.001531
971.968510	1.001573
972.266885	1.001119
972.565223	1.002042
972.863524	1.001871
973.161788	1.001512
973.460014	1.002480
973.758204	1.001204
974.056356	1.002008
974.354471	1.000912
974.652550	1.003443
974.950591	1.002013
975.248595	1.000460
975.546563	1.002481
975.844493	1.003244
976.142386	1.001532
976.440243	1.003016
976.738062	1.003196
977.035845	1.001930
977.333590	1.004348
977.631299	1.002132
977.928971	1.002402
978.226606	1.001679
978.524204	1.002368
978.821765	1.003834
979.119290	1.004303
979.416777	1.004352
979.714228	1.003482
980.011642	1.004210
980.309020	1.002877
980.606360	1.001245
980.903664	1.003256
981.200931	1.002522
981.498162	1.002442
981.795356	1.000709
982.092513	0.999802
982.389633	0.999824
982.686717	0.997285
982.983764	0.996494
983.280775	0.996802
983.577749	0.996138
983.874686	0.995518
984.171587	0.997559
984.468451	0.997977
984.765279	1.000019
985.062070	1.000470
985.358824	1.000603
985.655543	1.001647
985.952224	1.001351
986.248869	1.002908
986.545478	1.004115
986.842050	1.002493
987.138586	1.002262
987.435086	1.002495
987.731549	1.003815
988.027975	1.004750
988.324366	1.002937
988.620719	1.004553
988.917037	1.003285
989.213318	1.005736
989.509563	1.004879
989.805772	1.004430
990.101944	1.004807
990.398080	1.003867
990.694180	1.004645
990.990244	1.003359
991.286271	1.003285
991.582262	1.004387
991.878217	1.003852
992.174136	1.004941
992.470019	1.003033
992.765865	1.005631
993.061676	1.003190
993.357450	1.004947
993.653188	1.004542
993.948890	1.003652
994.244556	1.002930
994.540186	1.003681
994.835780	1.003632
995.131337	1.003959
995.426859	1.002693
995.722345	1.002527
996.017795	1.001231
996.313208	1.002424
996.608586	1.001912
996.903928	1.001956
997.199234	1.002089
997.494504	1.004144
997.789738	1.001775
998.084936	1.003280
998.380099	1.002289
998.675225	1.003323
998.970316	1.003800
999.265371	1.003578
999.560390	1.004031
999.855373	1.003635
1000.150320	1.003687
1000.445232	1.004159
1000.740108	1.003520
1001.034948	1.002414
1001.329752	1.004970
1001.624521	1.004374
1001.919254	1.004075
1002.213951	1.004898
1002.508613	1.003683
1002.803239	1.003434
1003.097829	1.005860
1003.392384	1.003855
1003.686903	1.004251
1003.981386	1.004382
1004.275834	1.005992
1004.570246	1.004745
1004.864623	1.005105
1005.158964	1.004896
1005.453270	1.004769
1005.747540	1.004081
1006.041775	1.004837
1006.335974	1.004777
1006.630138	1.005292
1006.924266	1.004575
1007.218359	1.003701
1007.512416	1.005770
1007.806438	1.004073
1008.100425	1.004783
1008.394376	1.006088
1008.688292	1.003889
1008.982172	1.004095
1009.276017	1.005875
1009.569827	1.006095
1009.863602	1.003861
1010.157341	1.005414
1010.451045	1.004638
1010.744714	1.005816
1011.038347	1.005584
1011.331945	1.003985
1011.625508	1.005483
1011.919036	1.004948
1012.212528	1.005317
1012.505986	1.003456
1012.799408	1.005414
1013.092795	1.004567
1013.386147	1.005298
1013.679464	1.004716
1013.972745	1.004868
1014.265992	1.003582
1014.559204	1.004579
1014.852380	1.005426
1015.145521	1.004105
1015.438628	1.004895
1015.731699	1.004673
1016.024736	1.005605
1016.317737	1.004973
1016.610703	1.005379
1016.903635	1.004876
1017.196531	1.004988
1017.489393	1.003622
1017.782219	1.004530
1018.075011	1.003989
1018.367768	1.004051
1018.660490	1.003974
1018.953177	1.003974
1019.245829	1.003974
