Dividing Wavelength (nm)	Counts (n)	Blue Motor Position (mm): 10.600000	Red Motor Position (mm): 0.000000	
326.493990	1.003573
326.888308	1.003573
327.282561	1.003573
327.676750	1.004397
328.070874	1.004570
328.464933	1.004970
328.858929	1.006276
329.252859	1.003642
329.646726	1.004027
330.040528	1.002853
330.434265	1.005362
330.827938	1.003886
331.221547	1.003257
331.615091	1.005065
332.008571	1.006077
332.401986	1.003950
332.795338	1.004276
333.188625	1.003784
333.581847	1.003949
333.975006	1.004578
334.368100	1.004160
334.761129	1.002973
335.154095	1.005190
335.546996	1.003450
335.939833	0.998652
336.332606	0.998994
336.725315	0.997914
337.117960	0.999628
337.510540	0.998276
337.903056	0.999156
338.295508	0.999461
338.687896	0.999729
339.080220	0.999005
339.472480	0.999051
339.864676	0.999338
340.256807	0.998262
340.648875	0.998275
341.040879	0.999081
341.432818	1.000019
341.824694	0.998444
342.216506	0.999592
342.608253	0.998074
342.999937	0.998662
343.391557	0.999839
343.783113	0.999919
344.174605	0.999025
344.566033	0.997093
344.957397	0.999787
345.348697	0.999938
345.739934	0.999091
346.131106	0.998105
346.522215	0.998845
346.913260	0.999522
347.304241	0.998150
347.695159	0.998993
348.086012	0.998571
348.476802	0.999583
348.867528	0.998575
349.258191	0.999107
349.648789	0.998982
350.039324	0.999238
350.429796	0.998165
350.820203	0.996153
351.210548	0.998602
351.600828	0.998228
351.991045	0.998079
352.381198	0.998130
352.771288	0.997827
353.161314	0.997508
353.551276	0.999099
353.941175	0.997165
354.331010	0.998730
354.720782	0.998030
355.110490	0.998064
355.500135	0.999602
355.889717	0.997206
356.279235	0.997092
356.668689	0.998428
357.058080	0.997368
357.447408	0.997122
357.836672	0.998276
358.225873	0.998375
358.615010	0.997531
359.004084	0.996575
359.393095	0.997719
359.782043	0.997492
360.170927	0.998523
360.559748	0.997984
360.948505	0.996894
361.337199	0.998074
361.725830	0.997348
362.114398	0.995885
362.502903	0.996582
362.891344	0.996422
363.279722	0.996124
363.668037	0.997612
364.056289	0.997177
364.444478	0.996978
364.832603	0.997505
365.220665	0.997633
365.608665	0.996317
365.996601	0.995741
366.384474	0.996427
366.772284	0.996546
367.160031	0.994092
367.547715	0.995828
367.935336	0.994008
368.322893	0.992845
368.710388	0.992383
369.097820	0.991101
369.485189	0.987407
369.872495	0.987245
370.259738	0.983869
370.646918	0.982185
371.034035	0.979786
371.421090	0.977167
371.808081	0.971531
372.195010	0.968400
372.581875	0.963855
372.968678	0.959420
373.355418	0.955902
373.742096	0.948369
374.128710	0.943447
374.515262	0.939926
374.901751	0.934008
375.288177	0.929198
375.674540	0.921884
376.060841	0.915093
376.447079	0.908839
376.833254	0.902090
377.219367	0.897751
377.605417	0.886754
377.991404	0.882834
378.377329	0.876453
378.763191	0.870432
379.148991	0.860015
379.534727	0.854509
379.920402	0.845578
380.306013	0.842083
380.691563	0.829071
381.077049	0.823026
381.462474	0.817754
381.847835	0.807171
382.233134	0.801274
382.618371	0.802710
383.003545	0.785919
383.388657	0.782960
383.773706	0.775067
384.158693	0.771427
384.543618	0.766569
384.928480	0.757139
385.313280	0.747314
385.698017	0.746780
386.082692	0.734853
386.467305	0.733665
386.851856	0.729209
387.236344	0.722778
387.620770	0.717620
388.005133	0.712364
388.389435	0.706692
388.773674	0.703437
389.157851	0.695246
389.541965	0.693904
389.926018	0.699517
390.310008	0.686057
390.693936	0.682948
391.077802	0.675716
391.461606	0.677071
391.845348	0.666245
392.229027	0.665974
392.612645	0.664207
392.996200	0.651086
393.379694	0.643980
393.763125	0.633604
394.146494	0.639524
394.529801	0.628985
394.913047	0.621655
395.296230	0.627395
395.679351	0.618500
396.062410	0.615581
396.445408	0.618067
396.828343	0.613568
397.211217	0.609083
397.594028	0.620900
397.976778	0.610607
398.359466	0.607573
398.742092	0.603011
399.124656	0.615060
399.507158	0.603184
399.889598	0.599797
400.271977	0.591240
400.654294	0.595410
401.036549	0.594738
401.418742	0.598885
401.800874	0.585227
402.182944	0.580940
402.564952	0.573111
402.946898	0.575120
403.328783	0.575421
403.710606	0.587221
404.092367	0.561606
404.474067	0.567293
404.855705	0.565784
405.237282	0.574473
405.618797	0.560468
406.000250	0.556700
406.381642	0.546915
406.762972	0.551386
407.144240	0.549621
407.525447	0.550062
407.906593	0.543377
408.287677	0.538395
408.668700	0.546697
409.049661	0.541080
409.430560	0.535696
409.811399	0.544530
410.192176	0.526096
410.572891	0.533364
410.953545	0.521155
411.334138	0.534780
411.714669	0.527526
412.095139	0.539728
412.475547	0.524212
412.855894	0.525528
413.236180	0.524594
413.616405	0.529723
413.996568	0.520686
414.376670	0.526654
414.756711	0.532048
415.136691	0.527997
415.516609	0.519899
415.896466	0.515811
416.276262	0.512158
416.655997	0.513575
417.035670	0.496054
417.415283	0.487586
417.794834	0.492223
418.174324	0.497630
418.553753	0.506326
418.933121	0.488538
419.312428	0.482499
419.691674	0.488849
420.070859	0.476631
420.449983	0.484347
420.829045	0.473505
421.208047	0.482666
421.586988	0.475716
421.965867	0.474198
422.344686	0.463239
422.723444	0.476315
423.102141	0.493267
423.480777	0.465958
423.859352	0.486221
424.237866	0.463787
424.616319	0.464262
424.994712	0.455707
425.373044	0.465821
425.751314	0.454117
426.129524	0.470448
426.507673	0.453610
426.885762	0.447292
427.263789	0.452827
427.641756	0.462772
428.019662	0.452646
428.397508	0.452262
428.775292	0.456417
429.153016	0.448287
429.530679	0.454629
429.908282	0.447360
430.285824	0.457976
430.663305	0.436421
431.040726	0.457524
431.418086	0.457239
431.795385	0.449146
432.172624	0.447837
432.549802	0.448447
432.926920	0.447916
433.303977	0.446545
433.680974	0.444209
434.057910	0.442445
434.434786	0.441983
434.811601	0.444398
435.188355	0.427474
435.565050	0.436423
435.941683	0.437761
436.318257	0.421029
436.694770	0.422408
437.071222	0.420507
437.447614	0.424582
437.823946	0.431605
438.200218	0.421192
438.576429	0.430704
438.952580	0.423326
439.328670	0.419750
439.704700	0.426346
440.080670	0.427825
440.456580	0.409333
440.832429	0.417425
441.208218	0.428303
441.583947	0.416955
441.959616	0.416413
442.335224	0.422357
442.710773	0.412815
443.086261	0.411175
443.461689	0.425119
443.837057	0.414451
444.212365	0.404588
444.587612	0.411393
444.962800	0.401212
445.337927	0.403108
445.712995	0.429119
446.088002	0.391495
446.462949	0.401210
446.837837	0.406414
447.212664	0.394755
447.587431	0.386828
447.962139	0.356857
448.336786	0.315812
448.711374	0.326263
449.085901	0.370742
449.460369	0.374728
449.834776	0.378335
450.209124	0.357607
450.583412	0.350415
450.957640	0.343416
451.331808	0.355091
451.705917	0.378533
452.079965	0.383006
452.453954	0.371196
452.827883	0.377826
453.201752	0.372430
453.575562	0.384323
453.949311	0.372605
454.323001	0.378681
454.696632	0.374340
455.070202	0.367344
455.443713	0.358885
455.817164	0.353876
456.190556	0.349443
456.563888	0.346376
456.937160	0.343670
457.310373	0.361643
457.683526	0.360041
458.056619	0.365595
458.429653	0.366704
458.802628	0.369636
459.175542	0.364075
459.548398	0.346050
459.921194	0.339144
460.293930	0.339368
460.666607	0.317000
461.039224	0.305019
461.411782	0.300473
461.784280	0.299678
462.156719	0.304119
462.529099	0.308617
462.901419	0.324608
463.273680	0.328860
463.645882	0.328127
464.018024	0.334135
464.390106	0.326670
464.762130	0.311486
465.134094	0.294472
465.505999	0.263623
465.877845	0.233784
466.249631	0.220683
466.621358	0.228311
466.993026	0.241966
467.364634	0.248037
467.736184	0.256770
468.107674	0.265858
468.479105	0.264994
468.850477	0.271762
469.221790	0.278466
469.593043	0.289177
469.964238	0.293637
470.335373	0.293061
470.706449	0.291630
471.077467	0.291696
471.448425	0.253564
471.819324	0.229266
472.190164	0.228704
472.560945	0.258056
472.931667	0.280313
473.302330	0.284094
473.672934	0.296065
474.043479	0.284100
474.413965	0.286010
474.784393	0.289531
475.154761	0.284510
475.525070	0.281688
475.895321	0.287097
476.265513	0.281545
476.635645	0.276869
477.005719	0.276648
477.375734	0.273507
477.745691	0.266871
478.115588	0.262862
478.485427	0.256379
478.855207	0.243420
479.224928	0.225906
479.594591	0.214051
479.964194	0.217272
480.333739	0.218470
480.703226	0.220008
481.072653	0.218386
481.442022	0.213899
481.811333	0.210624
482.180584	0.214108
482.549777	0.219625
482.918912	0.222851
483.287988	0.222615
483.657005	0.222255
484.025964	0.228655
484.394864	0.226065
484.763706	0.226438
485.132489	0.231658
485.501213	0.232247
485.869879	0.230698
486.238487	0.233734
486.607036	0.231797
486.975527	0.236618
487.343959	0.232064
487.712333	0.231372
488.080648	0.232794
488.448905	0.232152
488.817104	0.233270
489.185244	0.227819
489.553326	0.224686
489.921350	0.214444
490.289315	0.196966
490.657222	0.191979
491.025070	0.193076
491.392861	0.195161
491.760593	0.200661
492.128267	0.206567
492.495883	0.212264
492.863440	0.218467
493.230939	0.224727
493.598380	0.226196
493.965763	0.228629
494.333088	0.230507
494.700354	0.231927
495.067563	0.231099
495.434713	0.234241
495.801805	0.231848
496.168839	0.233629
496.535815	0.235188
496.902733	0.235063
497.269593	0.236617
497.636395	0.234209
498.003139	0.234735
498.369825	0.237683
498.736453	0.234066
499.103023	0.235824
499.469535	0.235054
499.835989	0.235396
500.202385	0.236177
500.568723	0.239236
500.935003	0.234765
501.301226	0.238814
501.667390	0.233272
502.033497	0.231218
502.399546	0.234100
502.765537	0.236082
503.131470	0.234912
503.497345	0.230991
503.863163	0.239471
504.228923	0.232618
504.594625	0.231298
504.960269	0.236420
505.325856	0.232130
505.691385	0.236388
506.056856	0.232980
506.422270	0.232358
506.787625	0.235012
507.152924	0.232262
507.518164	0.232662
507.883347	0.234379
508.248472	0.236231
508.613540	0.231102
508.978550	0.233631
509.343503	0.234300
509.708398	0.231695
510.073236	0.229422
510.438016	0.229267
510.802738	0.230066
511.167403	0.229171
511.532010	0.231659
511.896561	0.226988
512.261053	0.225178
512.625488	0.227562
512.989866	0.227806
513.354186	0.228056
513.718449	0.230070
514.082655	0.226301
514.446803	0.228794
514.810894	0.226067
515.174927	0.229030
515.538904	0.228416
515.902822	0.225275
516.266684	0.227761
516.630488	0.228959
516.994235	0.227764
517.357925	0.226527
517.721558	0.224708
518.085133	0.224319
518.448651	0.224309
518.812112	0.226683
519.175516	0.226316
519.538863	0.223754
519.902152	0.225555
520.265385	0.222302
520.628560	0.224358
520.991678	0.224682
521.354739	0.223330
521.717743	0.224643
522.080690	0.225055
522.443580	0.222681
522.806413	0.223338
523.169189	0.222794
523.531908	0.221714
523.894569	0.225338
524.257174	0.225004
524.619722	0.222967
524.982213	0.224142
525.344647	0.222689
525.707025	0.223830
526.069345	0.221670
526.431608	0.223676
526.793815	0.221399
527.155964	0.225827
527.518057	0.224744
527.880093	0.225672
528.242072	0.224259
528.603995	0.226037
528.965860	0.227860
529.327669	0.227009
529.689421	0.227730
530.051117	0.228625
530.412755	0.226590
530.774337	0.228573
531.135862	0.229533
531.497331	0.228554
531.858743	0.231404
532.220098	0.228041
532.581396	0.230507
532.942638	0.231329
533.303824	0.231916
533.664953	0.231828
534.026025	0.233985
534.387040	0.231674
534.747999	0.231537
535.108902	0.230341
535.469748	0.235620
535.830537	0.233270
536.191270	0.233886
536.551947	0.233281
536.912567	0.233520
537.273131	0.235287
537.633638	0.235418
537.994089	0.236029
538.354483	0.237067
538.714821	0.233426
539.075103	0.233374
539.435328	0.234502
539.795497	0.238408
540.155609	0.234553
540.515665	0.232933
540.875665	0.238609
541.235609	0.237001
541.595496	0.237440
541.955328	0.234149
542.315102	0.236672
542.674821	0.237616
543.034483	0.237548
543.394090	0.237558
543.753640	0.239137
544.113134	0.234186
544.472571	0.237643
544.831953	0.234520
545.191278	0.238620
545.550548	0.238070
545.909761	0.234848
546.268918	0.235923
546.628019	0.234332
546.987064	0.236648
547.346053	0.238337
547.704986	0.236367
548.063863	0.236755
548.422684	0.236827
548.781449	0.238738
549.140158	0.236356
549.498811	0.239258
549.857408	0.242424
550.215949	0.236833
550.574434	0.240044
550.932864	0.238410
551.291237	0.236417
551.649555	0.238525
552.007817	0.237900
552.366022	0.238719
552.724173	0.239081
553.082267	0.239262
553.440305	0.236056
553.798288	0.240526
554.156215	0.237259
554.514086	0.237679
554.871902	0.240953
555.229661	0.240262
555.587365	0.240707
555.945014	0.243272
556.302606	0.240122
556.660143	0.243074
557.017625	0.239443
557.375050	0.241586
557.732421	0.238451
558.089735	0.240366
558.446994	0.240491
558.804197	0.239715
559.161345	0.239617
559.518437	0.243231
559.875474	0.241109
560.232455	0.240519
560.589381	0.241750
560.946251	0.241987
561.303065	0.239132
561.659825	0.240370
562.016528	0.242205
562.373177	0.245012
562.729770	0.242236
563.086307	0.243987
563.442789	0.242173
563.799216	0.244901
564.155587	0.243519
564.511904	0.244943
564.868164	0.245034
565.224370	0.244686
565.580520	0.246389
565.936615	0.246345
566.292654	0.249409
566.648638	0.246340
567.004567	0.247310
567.360441	0.247868
567.716260	0.249602
568.072023	0.247432
568.427732	0.248050
568.783385	0.250832
569.138982	0.249038
569.494525	0.248657
569.850013	0.251467
570.205445	0.250073
570.560823	0.252452
570.916145	0.254255
571.271412	0.252532
571.626625	0.253953
571.981782	0.254588
572.336884	0.255608
572.691931	0.254939
573.046923	0.256695
573.401860	0.257292
573.756743	0.259462
574.111570	0.258022
574.466342	0.258631
574.821059	0.257708
575.175722	0.260961
575.530330	0.260447
575.884882	0.260851
576.239380	0.262874
576.593823	0.262998
576.948211	0.262308
577.302544	0.265696
577.656823	0.265681
578.011047	0.265527
578.365216	0.266529
578.719330	0.268379
579.073389	0.267643
579.427394	0.269364
579.781344	0.270022
580.135239	0.271428
580.489080	0.271382
580.842866	0.274132
581.196597	0.274196
581.550273	0.272652
581.903895	0.273667
582.257463	0.271715
582.610975	0.275223
582.964434	0.274657
583.317837	0.277063
583.671186	0.277549
584.024481	0.277678
584.377721	0.279903
584.730906	0.281018
585.084037	0.279842
585.437113	0.281857
585.790135	0.281335
586.143103	0.284386
586.496016	0.285262
586.848874	0.283166
587.201679	0.283936
587.554428	0.287013
587.907124	0.285767
588.259765	0.286525
588.612352	0.286956
588.964884	0.291169
589.317362	0.290710
589.669786	0.290325
590.022155	0.288997
590.374470	0.288315
590.726731	0.290047
591.078937	0.295504
591.431090	0.291798
591.783188	0.295691
592.135232	0.296340
592.487222	0.296008
592.839157	0.294340
593.191038	0.296575
593.542866	0.298470
593.894639	0.301863
594.246358	0.300204
594.598022	0.299851
594.949633	0.303678
595.301190	0.304388
595.652692	0.303405
596.004141	0.299391
596.355535	0.307893
596.706876	0.308527
597.058162	0.310560
597.409395	0.307889
597.760573	0.305703
598.111698	0.308707
598.462768	0.309247
598.813785	0.310579
599.164748	0.311682
599.515657	0.312407
599.866511	0.316099
600.217312	0.311244
600.568060	0.316647
600.918753	0.312897
601.269392	0.313503
601.619978	0.317098
601.970510	0.314814
602.320988	0.314948
602.671412	0.313010
603.021783	0.315276
603.372100	0.316399
603.722363	0.316386
604.072572	0.317541
604.422728	0.316933
604.772830	0.319224
605.122878	0.319113
605.472872	0.319435
605.822813	0.318174
606.172701	0.320585
606.522534	0.318078
606.872314	0.318658
607.222041	0.319559
607.571714	0.317187
607.921333	0.319011
608.270899	0.318852
608.620411	0.315624
608.969870	0.319926
609.319276	0.319971
609.668627	0.319696
610.017926	0.318522
610.367171	0.317004
610.716362	0.317975
611.065500	0.318104
611.414585	0.317217
611.763616	0.317469
612.112594	0.318316
612.461518	0.317476
612.810389	0.316008
613.159207	0.318341
613.507971	0.320435
613.856682	0.315931
614.205340	0.317025
614.553945	0.314832
614.902496	0.318816
615.250994	0.316862
615.599439	0.317795
615.947830	0.317270
616.296169	0.318467
616.644454	0.318302
616.992686	0.318831
617.340864	0.316821
617.688990	0.320476
618.037063	0.317290
618.385082	0.319843
618.733048	0.316568
619.080961	0.319219
619.428821	0.319115
619.776628	0.318882
620.124382	0.321634
620.472083	0.322158
620.819731	0.321518
621.167326	0.325282
621.514868	0.325154
621.862357	0.329799
622.209793	0.329248
622.557176	0.332248
622.904506	0.333079
623.251783	0.335651
623.599007	0.338597
623.946179	0.338095
624.293297	0.340395
624.640363	0.344584
624.987376	0.345268
625.334336	0.347648
625.681243	0.350842
626.028097	0.351125
626.374899	0.352918
626.721647	0.353822
627.068343	0.357107
627.414987	0.359010
627.761577	0.361071
628.108115	0.359554
628.454600	0.365364
628.801032	0.363672
629.147412	0.365760
629.493739	0.366706
629.840014	0.370068
630.186236	0.367719
630.532405	0.374357
630.878521	0.371900
631.224585	0.374823
631.570597	0.378513
631.916556	0.378466
632.262462	0.378297
632.608316	0.381286
632.954117	0.382808
633.299866	0.384068
633.645562	0.385161
633.991206	0.390047
634.336797	0.393028
634.682336	0.395888
635.027823	0.397966
635.373257	0.398848
635.718639	0.403276
636.063968	0.402356
636.409245	0.408399
636.754470	0.409413
637.099642	0.412356
637.444762	0.416315
637.789829	0.416369
638.134845	0.420035
638.479808	0.421860
638.824719	0.421894
639.169577	0.426802
639.514383	0.426106
639.859137	0.431248
640.203839	0.431454
640.548489	0.433035
640.893086	0.434317
641.237632	0.437219
641.582125	0.436191
641.926566	0.439088
642.270955	0.439700
642.615292	0.440350
642.959576	0.440996
643.303809	0.441936
643.647990	0.442692
643.992118	0.443257
644.336195	0.446836
644.680219	0.447096
645.024192	0.447671
645.368112	0.443574
645.711981	0.443027
646.055797	0.440487
646.399562	0.444185
646.743274	0.439136
647.086935	0.437178
647.430544	0.438529
647.774101	0.438929
648.117606	0.439232
648.461059	0.441161
648.804460	0.443515
649.147810	0.448553
649.491108	0.451259
649.834354	0.453250
650.177548	0.459016
650.520690	0.464860
650.863781	0.466906
651.206820	0.466923
651.549807	0.471996
651.892742	0.477370
652.235626	0.477630
652.578458	0.478916
652.921238	0.485860
653.263967	0.484328
653.606644	0.488398
653.949269	0.489660
654.291843	0.493918
654.634365	0.492419
654.976836	0.497057
655.319255	0.497511
655.661622	0.499676
656.003938	0.501596
656.346203	0.504176
656.688416	0.504336
657.030577	0.507467
657.372687	0.510898
657.714746	0.511885
658.056753	0.510330
658.398708	0.515269
658.740612	0.516752
659.082465	0.515129
659.424266	0.516372
659.766016	0.516425
660.107715	0.520831
660.449362	0.520694
660.790958	0.522622
661.132503	0.525143
661.473996	0.524181
661.815438	0.525707
662.156829	0.526678
662.498168	0.528217
662.839456	0.529744
663.180693	0.529482
663.521879	0.530139
663.863013	0.532277
664.204097	0.533280
664.545129	0.531751
664.886110	0.533905
665.227040	0.533547
665.567918	0.535458
665.908746	0.536302
666.249522	0.536455
666.590248	0.538238
666.930922	0.537980
667.271545	0.538763
667.612118	0.539386
667.952639	0.541677
668.293109	0.542936
668.633528	0.545837
668.973896	0.546554
669.314213	0.548172
669.654480	0.551976
669.994695	0.552411
670.334859	0.553894
670.674973	0.556830
671.015035	0.556834
671.355047	0.559195
671.695008	0.561051
672.034918	0.562816
672.374777	0.564145
672.714585	0.566689
673.054342	0.567758
673.394049	0.569680
673.733705	0.569359
674.073310	0.572838
674.412864	0.574021
674.752368	0.577489
675.091820	0.579575
675.431223	0.582670
675.770574	0.583891
676.109875	0.587569
676.449125	0.588701
676.788324	0.591367
677.127473	0.596960
677.466571	0.597346
677.805619	0.600389
678.144616	0.602496
678.483562	0.605568
678.822458	0.608105
679.161303	0.610047
679.500098	0.611357
679.838842	0.613837
680.177535	0.614519
680.516179	0.613798
680.854771	0.614391
681.193314	0.612115
681.531805	0.606509
681.870247	0.601490
682.208638	0.597208
682.546978	0.596764
682.885268	0.599813
683.223508	0.605495
683.561697	0.609253
683.899836	0.612851
684.237925	0.616701
684.575963	0.619127
684.913951	0.622420
685.251889	0.621735
685.589776	0.622213
685.927614	0.624253
686.265401	0.623250
686.603137	0.625310
686.940824	0.624138
687.278460	0.623443
687.616046	0.624133
687.953582	0.622038
688.291068	0.623894
688.628504	0.623593
688.965889	0.624479
689.303224	0.627877
689.640510	0.633244
689.977745	0.637537
690.314930	0.644643
690.652065	0.648755
690.989150	0.653796
691.326185	0.660489
691.663170	0.666017
692.000105	0.672397
692.336990	0.676892
692.673825	0.680845
693.010610	0.685234
693.347345	0.688666
693.684030	0.694581
694.020665	0.696759
694.357251	0.702046
694.693786	0.703905
695.030272	0.706386
695.366707	0.711368
695.703093	0.713483
696.039429	0.713240
696.375716	0.717744
696.711952	0.719176
697.048139	0.720892
697.384276	0.723438
697.720363	0.723743
698.056400	0.724794
698.392388	0.729396
698.728326	0.730401
699.064214	0.733670
699.400053	0.735013
699.735842	0.740097
700.071581	0.741256
700.407270	0.745149
700.742910	0.747070
701.078501	0.750756
701.414042	0.754011
701.749533	0.757253
702.084974	0.761077
702.420366	0.760064
702.755709	0.763979
703.091002	0.768238
703.426246	0.768802
703.761440	0.770267
704.096584	0.771911
704.431679	0.773715
704.766725	0.776130
705.101721	0.777969
705.436668	0.777395
705.771565	0.779770
706.106413	0.778359
706.441212	0.779915
706.775961	0.780549
707.110661	0.780131
707.445311	0.778983
707.779913	0.781583
708.114465	0.779178
708.448967	0.777564
708.783421	0.775101
709.117825	0.772736
709.452180	0.772503
709.786485	0.769685
710.120742	0.765143
710.454949	0.764971
710.789107	0.763055
711.123216	0.758898
711.457275	0.759095
711.791286	0.756516
712.125247	0.758511
712.459159	0.759720
712.793023	0.755891
713.126837	0.765292
713.460602	0.763701
713.794318	0.766342
714.127985	0.769477
714.461602	0.778080
714.795171	0.778514
715.128691	0.784713
715.462162	0.790708
715.795584	0.794402
716.128957	0.797798
716.462281	0.800299
716.795556	0.802929
717.128782	0.807746
717.461960	0.812815
717.795088	0.814122
718.128167	0.817463
718.461198	0.820785
718.794180	0.822706
719.127113	0.826040
719.459997	0.828113
719.792833	0.831614
720.125619	0.832419
720.458357	0.836640
720.791046	0.837379
721.123686	0.839063
721.456278	0.842852
721.788821	0.842746
722.121315	0.846774
722.453761	0.847288
722.786158	0.848101
723.118506	0.848303
723.450805	0.849509
723.783056	0.848995
724.115259	0.849788
724.447412	0.851029
724.779518	0.850387
725.111574	0.850071
725.443582	0.849836
725.775542	0.850770
726.107453	0.848710
726.439315	0.850149
726.771129	0.846973
727.102895	0.844312
727.434612	0.843046
727.766281	0.842694
728.097901	0.840794
728.429473	0.843895
728.760996	0.843660
729.092471	0.843124
729.423897	0.847183
729.755276	0.848750
730.086606	0.848222
730.417887	0.845273
730.749120	0.842675
731.080305	0.842398
731.411442	0.839835
731.742530	0.840552
732.073570	0.842436
732.404562	0.841153
732.735506	0.841860
733.066401	0.842786
733.397249	0.848316
733.728048	0.854792
734.058798	0.862110
734.389501	0.868420
734.720156	0.871644
735.050762	0.876065
735.381320	0.876862
735.711831	0.879548
736.042293	0.881259
736.372707	0.883534
736.703073	0.883634
737.033391	0.883870
737.363661	0.883525
737.693883	0.883454
738.024056	0.881937
738.354182	0.882522
738.684260	0.879081
739.014290	0.877138
739.344272	0.877227
739.674207	0.876040
740.004093	0.875861
740.333931	0.875735
740.663722	0.875895
740.993464	0.878579
741.323159	0.879595
741.652806	0.882272
741.982405	0.884500
742.311956	0.888074
742.641460	0.889693
742.970915	0.891268
743.300323	0.894269
743.629683	0.897319
743.958996	0.901125
744.288260	0.902235
744.617477	0.904093
744.946647	0.906120
745.275768	0.910099
745.604842	0.909456
745.933869	0.912244
746.262847	0.914005
746.591778	0.912986
746.920662	0.914593
747.249498	0.916428
747.578286	0.916324
747.907027	0.912959
748.235720	0.910721
748.564365	0.912825
748.892963	0.913720
749.221514	0.914485
749.550017	0.914690
749.878473	0.916556
750.206881	0.919554
750.535242	0.920166
750.863555	0.920350
751.191821	0.921775
751.520039	0.921255
751.848210	0.921280
752.176334	0.922161
752.504411	0.922731
752.832440	0.923403
753.160421	0.924800
753.488356	0.925815
753.816243	0.926510
754.144082	0.926264
754.471875	0.928883
754.799620	0.929806
755.127318	0.928359
755.454969	0.929933
755.782572	0.931046
756.110129	0.929770
756.437638	0.931958
756.765100	0.932242
757.092515	0.932111
757.419882	0.931354
757.747203	0.931595
758.074477	0.933046
758.401703	0.932286
758.728882	0.931145
759.056014	0.931571
759.383099	0.931445
759.710138	0.930432
760.037129	0.930323
760.364073	0.930089
760.690970	0.929318
761.017820	0.930307
761.344623	0.931823
761.671379	0.930030
761.998088	0.927977
762.324751	0.923270
762.651366	0.909555
762.977935	0.888170
763.304456	0.875217
763.630931	0.875293
763.957359	0.886592
764.283740	0.900191
764.610074	0.911319
764.936362	0.918680
765.262602	0.925395
765.588796	0.930527
765.914943	0.935750
766.241044	0.939877
766.567097	0.941987
766.893104	0.945460
767.219064	0.945738
767.544978	0.948885
767.870845	0.951582
768.196665	0.952906
768.522438	0.954361
768.848165	0.954439
769.173846	0.957370
769.499479	0.958478
769.825066	0.959641
770.150607	0.960446
770.476101	0.958808
770.801548	0.960698
771.126949	0.962995
771.452303	0.963407
771.777611	0.964095
772.102872	0.965322
772.428087	0.965022
772.753256	0.966259
773.078378	0.966961
773.403453	0.967852
773.728482	0.970866
774.053465	0.969535
774.378401	0.969287
774.703291	0.971158
775.028135	0.972989
775.352932	0.971127
775.677683	0.973592
776.002388	0.973041
776.327046	0.972714
776.651658	0.974013
776.976224	0.974902
777.300743	0.974966
777.625216	0.974272
777.949643	0.976054
778.274024	0.974925
778.598359	0.976026
778.922647	0.976303
779.246889	0.977097
779.571086	0.977520
779.895236	0.976809
780.219339	0.977432
780.543397	0.975796
780.867409	0.977128
781.191374	0.976343
781.515294	0.977204
781.839167	0.977829
782.162995	0.977858
782.486776	0.976830
782.810511	0.978304
783.134201	0.979375
783.457844	0.979342
783.781441	0.978585
784.104993	0.979956
784.428498	0.979933
784.751958	0.981536
785.075372	0.980909
785.398739	0.980311
785.722061	0.980368
786.045337	0.981057
786.368568	0.979112
786.691752	0.980972
787.014891	0.979460
787.337983	0.977286
787.661030	0.974599
787.984031	0.972230
788.306987	0.969968
788.629897	0.969577
788.952760	0.972842
789.275579	0.974335
789.598351	0.974722
789.921078	0.978568
790.243759	0.980006
790.566395	0.979980
790.888984	0.981778
791.211529	0.982494
791.534027	0.982847
791.856480	0.983504
792.178888	0.984173
792.501249	0.983986
792.823566	0.986035
793.145836	0.986031
793.468062	0.985073
793.790241	0.985670
794.112375	0.984357
794.434464	0.984287
794.756507	0.984966
795.078505	0.984229
795.400457	0.983604
795.722364	0.980978
796.044226	0.979930
796.366042	0.979206
796.687812	0.978627
797.009538	0.979525
797.331218	0.982435
797.652852	0.981238
797.974442	0.982189
798.295986	0.983730
798.617484	0.982454
798.938938	0.984207
799.260346	0.984526
799.581709	0.983678
799.903026	0.985835
800.224299	0.986279
800.545526	0.986252
800.866708	0.986456
801.187845	0.986200
801.508936	0.986769
801.829983	0.986650
802.150984	0.986685
802.471940	0.989251
802.792851	0.987623
803.113717	0.988218
803.434538	0.988402
803.755314	0.988991
804.076045	0.988647
804.396731	0.987544
804.717372	0.986551
805.037967	0.988590
805.358518	0.988253
805.679024	0.987761
805.999485	0.987849
806.319901	0.987920
806.640272	0.988358
806.960598	0.987361
807.280879	0.987575
807.601115	0.988423
807.921306	0.988074
808.241453	0.987463
808.561554	0.987687
808.881611	0.987796
809.201623	0.987940
809.521590	0.988165
809.841513	0.988698
810.161390	0.987663
810.481223	0.988136
810.801011	0.989924
811.120755	0.990738
811.440453	0.988708
811.760107	0.990346
812.079716	0.988408
812.399281	0.989571
812.718801	0.989256
813.038276	0.990858
813.357707	0.990634
813.677093	0.990817
813.996434	0.990159
814.315731	0.992174
814.634983	0.990951
814.954191	0.991222
815.273354	0.990592
815.592473	0.990039
815.911547	0.989928
816.230577	0.989222
816.549562	0.989468
816.868502	0.988674
817.187399	0.989912
817.506250	0.989498
817.825058	0.988313
818.143821	0.989201
818.462539	0.988019
818.781213	0.987572
819.099843	0.987195
819.418429	0.983227
819.736970	0.981704
820.055466	0.978771
820.373919	0.976698
820.692327	0.973742
821.010691	0.969357
821.329011	0.957466
821.647286	0.933658
821.965517	0.907021
822.283704	0.895779
822.601847	0.897289
822.919945	0.908539
823.237999	0.921168
823.556010	0.931277
823.873976	0.940473
824.191897	0.948142
824.509775	0.955737
824.827609	0.961692
825.145398	0.965276
825.463144	0.964971
825.780845	0.964277
826.098502	0.961800
826.416116	0.957544
826.733685	0.948498
827.051210	0.944702
827.368692	0.948935
827.686129	0.955829
828.003522	0.963391
828.320872	0.968122
828.638177	0.973431
828.955439	0.978669
829.272656	0.980647
829.589830	0.982606
829.906960	0.985453
830.224046	0.985571
830.541088	0.988000
830.858086	0.988615
831.175041	0.989890
831.491952	0.988949
831.808819	0.988858
832.125642	0.988288
832.442421	0.987502
832.759157	0.985701
833.075849	0.978778
833.392497	0.972677
833.709101	0.967578
834.025662	0.967670
834.342179	0.970238
834.658653	0.976576
834.975083	0.979641
835.291469	0.983637
835.607811	0.985242
835.924110	0.987260
836.240366	0.989000
836.556578	0.990751
836.872746	0.992090
837.188871	0.993089
837.504952	0.993090
837.820990	0.993784
838.136984	0.992841
838.452935	0.994141
838.768842	0.993919
839.084706	0.992922
839.400526	0.990866
839.716303	0.985127
840.032037	0.983659
840.347727	0.984545
840.663373	0.986657
840.978977	0.987366
841.294537	0.990797
841.610054	0.992640
841.925527	0.993688
842.240957	0.994506
842.556344	0.994981
842.871687	0.995088
843.186987	0.995546
843.502244	0.996346
843.817458	0.996736
844.132629	0.996021
844.447756	0.998203
844.762840	0.997050
845.077881	0.998544
845.392879	0.996167
845.707833	0.997841
846.022745	0.997219
846.337613	0.997570
846.652438	0.997172
846.967221	0.997261
847.281960	0.997352
847.596656	0.998772
847.911309	0.998253
848.225919	0.997927
848.540485	0.998264
848.855009	0.999138
849.169490	0.998226
849.483928	0.998155
849.798323	0.997278
850.112675	0.999511
850.426984	0.999656
850.741251	0.997740
851.055474	0.998438
851.369654	0.999007
851.683792	0.997098
851.997887	0.997997
852.311938	0.998417
852.625947	0.996833
852.939914	0.997628
853.253837	0.999131
853.567718	0.998609
853.881555	0.998452
854.195350	0.997843
854.509103	0.997800
854.822812	0.999088
855.136479	1.000059
855.450103	0.999216
855.763685	0.998397
856.077224	0.998714
856.390720	0.998966
856.704173	0.998901
857.017584	0.998730
857.330953	0.998019
857.644278	0.998583
857.957561	0.999202
858.270802	0.997853
858.584000	0.997593
858.897155	0.997599
859.210268	0.998709
859.523339	0.998526
859.836367	0.998955
860.149352	0.997757
860.462295	0.999069
860.775195	0.998039
861.088054	0.997136
861.400869	0.998469
861.713642	0.997525
862.026373	0.998905
862.339062	0.998774
862.651708	0.998285
862.964312	0.998191
863.276873	0.997697
863.589392	0.997873
863.901869	0.997596
864.214303	0.998170
864.526696	0.996975
864.839045	0.998506
865.151353	0.997554
865.463619	0.997622
865.775842	0.997784
866.088023	0.998170
866.400162	0.998391
866.712258	0.999356
867.024313	0.998099
867.336325	0.997988
867.648296	0.998511
867.960224	0.997729
868.272110	0.998160
868.583954	0.998586
868.895755	0.998058
869.207515	0.995691
869.519233	0.997845
869.830909	0.996076
870.142542	0.995990
870.454134	0.996990
870.765684	0.997457
871.077191	0.998089
871.388657	0.997574
871.700081	0.997688
872.011463	0.996893
872.322803	0.996542
872.634101	0.996094
872.945357	0.996733
873.256571	0.994727
873.567744	0.996971
873.878874	0.995985
874.189963	0.995099
874.501010	0.998408
874.812015	0.996234
875.122979	0.996361
875.433900	0.995618
875.744780	0.996444
876.055618	0.995076
876.366415	0.995021
876.677169	0.995297
876.987882	0.996026
877.298554	0.997392
877.609183	0.996139
877.919771	0.995429
878.230317	0.994884
878.540822	0.994138
878.851285	0.993478
879.161707	0.993502
879.472087	0.992982
879.782425	0.988561
880.092722	0.985348
880.402977	0.979397
880.713191	0.970077
881.023363	0.958957
881.333494	0.952502
881.643583	0.952181
881.953631	0.952661
882.263637	0.954854
882.573602	0.959856
882.883526	0.964049
883.193408	0.968519
883.503248	0.971379
883.813048	0.974502
884.122806	0.980061
884.432522	0.980667
884.742197	0.984616
885.051831	0.986083
885.361424	0.987735
885.670975	0.990263
885.980485	0.989520
886.289954	0.991179
886.599382	0.992373
886.908768	0.993750
887.218113	0.992595
887.527417	0.993743
887.836680	0.994163
888.145901	0.996017
888.455082	0.996911
888.764221	0.995149
889.073319	0.995829
889.382376	0.995834
889.691392	0.994554
890.000366	0.996042
890.309300	0.996340
890.618193	0.996145
890.927044	0.995279
891.235855	0.994834
891.544625	0.995617
891.853353	0.996142
892.162041	0.995006
892.470687	0.995965
892.779293	0.994364
893.087858	0.991440
893.396381	0.991885
893.704864	0.989561
894.013306	0.988784
894.321707	0.984178
894.630068	0.981166
894.938387	0.979997
895.246665	0.981175
895.554903	0.981787
895.863100	0.985135
896.171256	0.986636
896.479371	0.988967
896.787446	0.989953
897.095480	0.990689
897.403473	0.992297
897.711425	0.992368
898.019336	0.993644
898.327207	0.993770
898.635038	0.992681
898.942827	0.995760
899.250576	0.994381
899.558284	0.995042
899.865952	0.993724
900.173579	0.995576
900.481165	0.995895
900.788711	0.994682
901.096216	0.995787
901.403681	0.996635
901.711105	0.996045
902.018489	0.995921
902.325832	0.995502
902.633135	0.996044
902.940397	0.995349
903.247619	0.994452
903.554800	0.990423
903.861941	0.985961
904.169041	0.979780
904.476101	0.976833
904.783121	0.976446
905.090100	0.979380
905.397039	0.981815
905.703938	0.985124
906.010796	0.987264
906.317614	0.989340
906.624391	0.992154
906.931129	0.994299
907.237826	0.994059
907.544483	0.995848
907.851099	0.995642
908.157675	0.996928
908.464211	0.997343
908.770707	0.996613
909.077163	0.997990
909.383578	0.997993
909.689954	0.997483
909.996289	0.997747
910.302584	0.997648
910.608839	0.998823
910.915054	0.996706
911.221229	0.998944
911.527363	0.997596
911.833458	0.998744
912.139513	0.998774
912.445527	0.998638
912.751502	0.996908
913.057436	0.996979
913.363331	0.997613
913.669186	0.997322
913.975000	0.995682
914.280775	0.994493
914.586510	0.992642
914.892205	0.991691
915.197859	0.987808
915.503475	0.985875
915.809050	0.981737
916.114585	0.978079
916.420081	0.977975
916.725536	0.979300
917.030952	0.981374
917.336328	0.982367
917.641665	0.984218
917.946961	0.985923
918.252218	0.987034
918.557435	0.989728
918.862612	0.991988
919.167750	0.991700
919.472848	0.994458
919.777906	0.995206
920.082925	0.995497
920.387904	0.995514
920.692843	0.995837
920.997743	0.995009
921.302603	0.996078
921.607423	0.996854
921.912204	0.996233
922.216946	0.997826
922.521647	0.997345
922.826310	0.996541
923.130932	0.998639
923.435516	0.998580
923.740059	0.997542
924.044564	0.997477
924.349028	0.997031
924.653454	0.999232
924.957840	0.998561
925.262186	0.998983
925.566493	0.998001
925.870761	0.999126
926.174989	0.999657
926.479178	1.000596
926.783328	0.999663
927.087438	0.999768
927.391509	0.999485
927.695541	1.000776
927.999533	1.000457
928.303486	0.999881
928.607400	0.999293
928.911275	1.000251
929.215110	1.001162
929.518906	0.999954
929.822663	1.001450
930.126381	1.001547
930.430060	1.000801
930.733699	1.000064
931.037299	0.999744
931.340861	0.999484
931.644383	0.998506
931.947866	0.999858
932.251309	1.000702
932.554714	0.999549
932.858080	1.000861
933.161407	0.998910
933.464694	1.001090
933.767943	0.999793
934.071153	0.999889
934.374323	1.000017
934.677455	0.999984
934.980548	0.999069
935.283602	1.001259
935.586617	0.999823
935.889593	1.001918
936.192530	1.000964
936.495428	0.999765
936.798287	0.998531
937.101108	1.000991
937.403890	1.000288
937.706632	1.000161
938.009336	0.999036
938.312002	0.999489
938.614628	1.000080
938.917216	0.999197
939.219765	0.997662
939.522275	0.999486
939.824747	0.999243
940.127179	0.998420
940.429573	0.998982
940.731929	0.998855
941.034246	0.999515
941.336524	0.998596
941.638763	0.999599
941.940964	0.999254
942.243126	0.999533
942.545250	0.998830
942.847335	0.999554
943.149381	0.998719
943.451389	0.998833
943.753359	0.999548
944.055290	1.000249
944.357182	0.999556
944.659036	1.000282
944.960851	1.000206
945.262628	1.000309
945.564367	0.998662
945.866067	0.999328
946.167729	1.000458
946.469352	1.001060
946.770937	0.998783
947.072484	1.000474
947.373992	1.000759
947.675462	0.999696
947.976893	0.998749
948.278286	1.000762
948.579641	1.001266
948.880958	1.000226
949.182236	1.000406
949.483476	1.000187
949.784678	1.001017
950.085841	0.998636
950.386967	0.999923
950.688054	1.000582
950.989103	0.999527
951.290114	0.999526
951.591087	0.999814
951.892021	0.999103
952.192917	0.999513
952.493776	0.998865
952.794596	0.999398
953.095378	1.000111
953.396122	0.999907
953.696828	1.000050
953.997496	0.999339
954.298126	1.000934
954.598718	1.000429
954.899272	1.001485
955.199788	0.999613
955.500266	1.001775
955.800706	1.000791
956.101108	1.001100
956.401472	1.002458
956.701798	1.000516
957.002087	1.000600
957.302337	1.000516
957.602550	1.000959
957.902724	1.000980
958.202861	1.001926
958.502960	1.001874
958.803022	1.001316
959.103045	1.000589
959.403031	1.001859
959.702979	1.002847
960.002889	1.001545
960.302762	1.000675
960.602596	1.002949
960.902393	1.002198
961.202153	1.002047
961.501875	1.002894
961.801559	1.002903
962.101205	1.002097
962.400814	1.002515
962.700385	1.001416
962.999918	1.002655
963.299414	1.000291
963.598873	1.001888
963.898293	1.002453
964.197677	1.000825
964.497022	1.002539
964.796331	1.001624
965.095601	1.002811
965.394835	1.002041
965.694030	1.002949
965.993189	1.001614
966.292309	1.001917
966.591393	1.001175
966.890439	1.002629
967.189447	1.001852
967.488419	1.001423
967.787353	1.001849
968.086249	1.001817
968.385108	1.001254
968.683930	1.002395
968.982714	1.001869
969.281462	1.002959
969.580172	1.001476
969.878844	1.002911
970.177480	1.001074
970.476078	1.002187
970.774639	1.002557
971.073162	1.000844
971.371649	1.001301
971.670098	1.000779
971.968510	1.001887
972.266885	1.001954
972.565223	1.002636
972.863524	1.001290
973.161788	1.001572
973.460014	1.001521
973.758204	1.001370
974.056356	1.001839
974.354471	1.001277
974.652550	1.002217
974.950591	1.001750
975.248595	1.001852
975.546563	1.002470
975.844493	1.002239
976.142386	1.001579
976.440243	1.002062
976.738062	1.002527
977.035845	1.000162
977.333590	1.001072
977.631299	1.001551
977.928971	1.001989
978.226606	1.001471
978.524204	1.001448
978.821765	1.002568
979.119290	1.004297
979.416777	1.001590
979.714228	1.001128
980.011642	1.002853
980.309020	1.001571
980.606360	1.002700
980.903664	1.002133
981.200931	1.001716
981.498162	1.001756
981.795356	1.001952
982.092513	1.001334
982.389633	1.002008
982.686717	1.000131
982.983764	1.000591
983.280775	1.001426
983.577749	1.001346
983.874686	0.999551
984.171587	1.000125
984.468451	1.001199
984.765279	1.002615
985.062070	1.001136
985.358824	1.002247
985.655543	1.001840
985.952224	1.002674
986.248869	1.001713
986.545478	1.003091
986.842050	1.001686
987.138586	1.001802
987.435086	1.002702
987.731549	1.003117
988.027975	1.003032
988.324366	1.002337
988.620719	1.003572
988.917037	1.004271
989.213318	1.002785
989.509563	1.003612
989.805772	1.003276
990.101944	1.003335
990.398080	1.003138
990.694180	1.003671
990.990244	1.002191
991.286271	1.002626
991.582262	1.003123
991.878217	1.001656
992.174136	1.003462
992.470019	1.002065
992.765865	1.002593
993.061676	1.004015
993.357450	1.002216
993.653188	1.003147
993.948890	1.002600
994.244556	1.001526
994.540186	1.002569
994.835780	1.002567
995.131337	1.002672
995.426859	1.002070
995.722345	1.001577
996.017795	1.001561
996.313208	1.002124
996.608586	1.002103
996.903928	1.003095
997.199234	1.002116
997.494504	1.003325
997.789738	1.002150
998.084936	1.001325
998.380099	1.002065
998.675225	1.002366
998.970316	1.002384
999.265371	1.003893
999.560390	1.002254
999.855373	1.002801
1000.150320	1.002328
1000.445232	1.003892
1000.740108	1.002893
1001.034948	1.001838
1001.329752	1.004314
1001.624521	1.002592
1001.919254	1.002456
1002.213951	1.002880
1002.508613	1.001743
1002.803239	1.002811
1003.097829	1.003815
1003.392384	1.001857
1003.686903	1.002630
1003.981386	1.003809
1004.275834	1.003891
1004.570246	1.001485
1004.864623	1.003433
1005.158964	1.003585
1005.453270	1.002717
1005.747540	1.002080
1006.041775	1.002494
1006.335974	1.003036
1006.630138	1.002472
1006.924266	1.001439
1007.218359	1.001932
1007.512416	1.003631
1007.806438	1.002825
1008.100425	1.003381
1008.394376	1.003650
1008.688292	1.002194
1008.982172	1.002397
1009.276017	1.002406
1009.569827	1.003785
1009.863602	1.002102
1010.157341	1.003369
1010.451045	1.002627
1010.744714	1.004572
1011.038347	1.003637
1011.331945	1.001880
1011.625508	1.002323
1011.919036	1.002629
1012.212528	1.002776
1012.505986	1.003107
1012.799408	1.003030
1013.092795	1.003630
1013.386147	1.002326
1013.679464	1.002808
1013.972745	1.003414
1014.265992	1.002556
1014.559204	1.003523
1014.852380	1.002929
1015.145521	1.002993
1015.438628	1.001785
1015.731699	1.003832
1016.024736	1.003382
1016.317737	1.003466
1016.610703	1.003301
1016.903635	1.002526
1017.196531	1.001675
1017.489393	1.002793
1017.782219	1.001830
1018.075011	1.002994
1018.367768	1.002561
1018.660490	1.003048
1018.953177	1.003048
1019.245829	1.003048
