Dividing Wavelength (nm)	Counts (n)	Blue Motor Position (mm): 2.300000	Red Motor Position (mm): 0.000000	
326.493990	1.005453
326.888308	1.005453
327.282561	1.005453
327.676750	1.007531
328.070874	1.007040
328.464933	1.007973
328.858929	1.007170
329.252859	1.006654
329.646726	1.005233
330.040528	1.005452
330.434265	1.006297
330.827938	1.005297
331.221547	1.008277
331.615091	1.006809
332.008571	1.006667
332.401986	1.006446
332.795338	1.005698
333.188625	1.007147
333.581847	1.006071
333.975006	1.007482
334.368100	1.006618
334.761129	1.005584
335.154095	1.006761
335.546996	1.005188
335.939833	0.999840
336.332606	0.999604
336.725315	0.999261
337.117960	1.000490
337.510540	0.999396
337.903056	1.000334
338.295508	0.999982
338.687896	0.999681
339.080220	0.999278
339.472480	0.998687
339.864676	1.000157
340.256807	0.998650
340.648875	1.000148
341.040879	0.999545
341.432818	1.000666
341.824694	0.999215
342.216506	1.000371
342.608253	0.998643
342.999937	0.999157
343.391557	0.999878
343.783113	1.000176
344.174605	0.999754
344.566033	0.998326
344.957397	0.999647
345.348697	0.999147
345.739934	0.999676
346.131106	0.999483
346.522215	0.998789
346.913260	0.998876
347.304241	0.998402
347.695159	0.999419
348.086012	0.998231
348.476802	1.000033
348.867528	0.996896
349.258191	1.000106
349.648789	0.999327
350.039324	0.998934
350.429796	0.998720
350.820203	0.996634
351.210548	0.999397
351.600828	0.999284
351.991045	0.998107
352.381198	1.000628
352.771288	0.998121
353.161314	0.999190
353.551276	0.998434
353.941175	0.997072
354.331010	0.999864
354.720782	0.997395
355.110490	0.999869
355.500135	0.997870
355.889717	0.997191
356.279235	0.997609
356.668689	0.998631
357.058080	0.997321
357.447408	0.997100
357.836672	0.997539
358.225873	0.997705
358.615010	0.997358
359.004084	0.997375
359.393095	0.998165
359.782043	0.997342
360.170927	0.998628
360.559748	0.998297
360.948505	0.997240
361.337199	0.996959
361.725830	0.998418
362.114398	0.998140
362.502903	0.997884
362.891344	0.995823
363.279722	0.997790
363.668037	0.997113
364.056289	0.997058
364.444478	0.998323
364.832603	0.997660
365.220665	0.997615
365.608665	0.997553
365.996601	0.997680
366.384474	0.996043
366.772284	0.996213
367.160031	0.994793
367.547715	0.995515
367.935336	0.994740
368.322893	0.993915
368.710388	0.992564
369.097820	0.990641
369.485189	0.988572
369.872495	0.987550
370.259738	0.984651
370.646918	0.982643
371.034035	0.979417
371.421090	0.976969
371.808081	0.971421
372.195010	0.968574
372.581875	0.963094
372.968678	0.959817
373.355418	0.956276
373.742096	0.948837
374.128710	0.943789
374.515262	0.940431
374.901751	0.935243
375.288177	0.929170
375.674540	0.922058
376.060841	0.915370
376.447079	0.909668
376.833254	0.903352
377.219367	0.897880
377.605417	0.885359
377.991404	0.883615
378.377329	0.877429
378.763191	0.871089
379.148991	0.861550
379.534727	0.853748
379.920402	0.845473
380.306013	0.841953
380.691563	0.829453
381.077049	0.822891
381.462474	0.818966
381.847835	0.807636
382.233134	0.802660
382.618371	0.803564
383.003545	0.785224
383.388657	0.783369
383.773706	0.775046
384.158693	0.771659
384.543618	0.766592
384.928480	0.757950
385.313280	0.747379
385.698017	0.746771
386.082692	0.735663
386.467305	0.733912
386.851856	0.728638
387.236344	0.723670
387.620770	0.717857
388.005133	0.711802
388.389435	0.706905
388.773674	0.704446
389.157851	0.695904
389.541965	0.693382
389.926018	0.700747
390.310008	0.686768
390.693936	0.684137
391.077802	0.676000
391.461606	0.676878
391.845348	0.667169
392.229027	0.665926
392.612645	0.664382
392.996200	0.651254
393.379694	0.644239
393.763125	0.634662
394.146494	0.639261
394.529801	0.630115
394.913047	0.621432
395.296230	0.626888
395.679351	0.618516
396.062410	0.615936
396.445408	0.618694
396.828343	0.613883
397.211217	0.608583
397.594028	0.621320
397.976778	0.611060
398.359466	0.607654
398.742092	0.603539
399.124656	0.615638
399.507158	0.603343
399.889598	0.600951
400.271977	0.592025
400.654294	0.595819
401.036549	0.594535
401.418742	0.598800
401.800874	0.585355
402.182944	0.581488
402.564952	0.573805
402.946898	0.575039
403.328783	0.576316
403.710606	0.587646
404.092367	0.561460
404.474067	0.567255
404.855705	0.566309
405.237282	0.574742
405.618797	0.561508
406.000250	0.556455
406.381642	0.546250
406.762972	0.552011
407.144240	0.551024
407.525447	0.550089
407.906593	0.543002
408.287677	0.538253
408.668700	0.547067
409.049661	0.540800
409.430560	0.535798
409.811399	0.544570
410.192176	0.526810
410.572891	0.534306
410.953545	0.521589
411.334138	0.535353
411.714669	0.527694
412.095139	0.540006
412.475547	0.523635
412.855894	0.525965
413.236180	0.525088
413.616405	0.529459
413.996568	0.520052
414.376670	0.526928
414.756711	0.531963
415.136691	0.528437
415.516609	0.519409
415.896466	0.516268
416.276262	0.512342
416.655997	0.513848
417.035670	0.495687
417.415283	0.487813
417.794834	0.492018
418.174324	0.498042
418.553753	0.506840
418.933121	0.488204
419.312428	0.482915
419.691674	0.488133
420.070859	0.476711
420.449983	0.484562
420.829045	0.474141
421.208047	0.482931
421.586988	0.476267
421.965867	0.474638
422.344686	0.463425
422.723444	0.475761
423.102141	0.493115
423.480777	0.465973
423.859352	0.486583
424.237866	0.464096
424.616319	0.464971
424.994712	0.455345
425.373044	0.465957
425.751314	0.454224
426.129524	0.470601
426.507673	0.453942
426.885762	0.447641
427.263789	0.452751
427.641756	0.462378
428.019662	0.452924
428.397508	0.452263
428.775292	0.456203
429.153016	0.448298
429.530679	0.454754
429.908282	0.447822
430.285824	0.458391
430.663305	0.436200
431.040726	0.457788
431.418086	0.457694
431.795385	0.449749
432.172624	0.448430
432.549802	0.448653
432.926920	0.447846
433.303977	0.447046
433.680974	0.444130
434.057910	0.443065
434.434786	0.442336
434.811601	0.444746
435.188355	0.427001
435.565050	0.436158
435.941683	0.437665
436.318257	0.421068
436.694770	0.423162
437.071222	0.420887
437.447614	0.425009
437.823946	0.431838
438.200218	0.421079
438.576429	0.430725
438.952580	0.423246
439.328670	0.420226
439.704700	0.426616
440.080670	0.428091
440.456580	0.409354
440.832429	0.417206
441.208218	0.428324
441.583947	0.417281
441.959616	0.416377
442.335224	0.422589
442.710773	0.412811
443.086261	0.410771
443.461689	0.425196
443.837057	0.414463
444.212365	0.405102
444.587612	0.412079
444.962800	0.401926
445.337927	0.403032
445.712995	0.429369
446.088002	0.391412
446.462949	0.401746
446.837837	0.406498
447.212664	0.395154
447.587431	0.386973
447.962139	0.357279
448.336786	0.316029
448.711374	0.326263
449.085901	0.370782
449.460369	0.375257
449.834776	0.378955
450.209124	0.357919
450.583412	0.350588
450.957640	0.343511
451.331808	0.355017
451.705917	0.378450
452.079965	0.382995
452.453954	0.371564
452.827883	0.377783
453.201752	0.372753
453.575562	0.384102
453.949311	0.372779
454.323001	0.378728
454.696632	0.374956
455.070202	0.367164
455.443713	0.358924
455.817164	0.353492
456.190556	0.349894
456.563888	0.346546
456.937160	0.343700
457.310373	0.361232
457.683526	0.360050
458.056619	0.365934
458.429653	0.366486
458.802628	0.370042
459.175542	0.364098
459.548398	0.346271
459.921194	0.339243
460.293930	0.339412
460.666607	0.316656
461.039224	0.304867
461.411782	0.300498
461.784280	0.299886
462.156719	0.303858
462.529099	0.308510
462.901419	0.324644
463.273680	0.328854
463.645882	0.328389
464.018024	0.334218
464.390106	0.326994
464.762130	0.311629
465.134094	0.294736
465.505999	0.263546
465.877845	0.233810
466.249631	0.220838
466.621358	0.228221
466.993026	0.241997
467.364634	0.248179
467.736184	0.257090
468.107674	0.266084
468.479105	0.265137
468.850477	0.272269
469.221790	0.278586
469.593043	0.288912
469.964238	0.293980
470.335373	0.293091
470.706449	0.291280
471.077467	0.292005
471.448425	0.254048
471.819324	0.229365
472.190164	0.228903
472.560945	0.257556
472.931667	0.280309
473.302330	0.284490
473.672934	0.296427
474.043479	0.284069
474.413965	0.286356
474.784393	0.289818
475.154761	0.284433
475.525070	0.281808
475.895321	0.287599
476.265513	0.281716
476.635645	0.276994
477.005719	0.276935
477.375734	0.273375
477.745691	0.266581
478.115588	0.263069
478.485427	0.256442
478.855207	0.243528
479.224928	0.225796
479.594591	0.214002
479.964194	0.217392
480.333739	0.218681
480.703226	0.219870
481.072653	0.218398
481.442022	0.214377
481.811333	0.211060
482.180584	0.214087
482.549777	0.219350
482.918912	0.222954
483.287988	0.222661
483.657005	0.222341
484.025964	0.228535
484.394864	0.225860
484.763706	0.226552
485.132489	0.231609
485.501213	0.232496
485.869879	0.230523
486.238487	0.233776
486.607036	0.232040
486.975527	0.236622
487.343959	0.232301
487.712333	0.231296
488.080648	0.232738
488.448905	0.231999
488.817104	0.233156
489.185244	0.227707
489.553326	0.224524
489.921350	0.214329
490.289315	0.196708
490.657222	0.191561
491.025070	0.192934
491.392861	0.195136
491.760593	0.200864
492.128267	0.206582
492.495883	0.211928
492.863440	0.218325
493.230939	0.224459
493.598380	0.226104
493.965763	0.228487
494.333088	0.230437
494.700354	0.232249
495.067563	0.230854
495.434713	0.234582
495.801805	0.232217
496.168839	0.233995
496.535815	0.235082
496.902733	0.235195
497.269593	0.236470
497.636395	0.234289
498.003139	0.234636
498.369825	0.237677
498.736453	0.234302
499.103023	0.235724
499.469535	0.235051
499.835989	0.235417
500.202385	0.236325
500.568723	0.239506
500.935003	0.234685
501.301226	0.238760
501.667390	0.233111
502.033497	0.231248
502.399546	0.234102
502.765537	0.235831
503.131470	0.234444
503.497345	0.230847
503.863163	0.239688
504.228923	0.232306
504.594625	0.231321
504.960269	0.236647
505.325856	0.232011
505.691385	0.236321
506.056856	0.233035
506.422270	0.232369
506.787625	0.234901
507.152924	0.232238
507.518164	0.232714
507.883347	0.234525
508.248472	0.236107
508.613540	0.231101
508.978550	0.233867
509.343503	0.234164
509.708398	0.231792
510.073236	0.229579
510.438016	0.228995
510.802738	0.230139
511.167403	0.228888
511.532010	0.231331
511.896561	0.226621
512.261053	0.225248
512.625488	0.227355
512.989866	0.227563
513.354186	0.228112
513.718449	0.229943
514.082655	0.226194
514.446803	0.228316
514.810894	0.226097
515.174927	0.229044
515.538904	0.228314
515.902822	0.225252
516.266684	0.227573
516.630488	0.228563
516.994235	0.227824
517.357925	0.226277
517.721558	0.224755
518.085133	0.223899
518.448651	0.224070
518.812112	0.226533
519.175516	0.226019
519.538863	0.223696
519.902152	0.225461
520.265385	0.222450
520.628560	0.223984
520.991678	0.224340
521.354739	0.223394
521.717743	0.224792
522.080690	0.224866
522.443580	0.222306
522.806413	0.223035
523.169189	0.222500
523.531908	0.221490
523.894569	0.224756
524.257174	0.224782
524.619722	0.222433
524.982213	0.223604
525.344647	0.222412
525.707025	0.223565
526.069345	0.221344
526.431608	0.223153
526.793815	0.221258
527.155964	0.225278
527.518057	0.224216
527.880093	0.225570
528.242072	0.223699
528.603995	0.226062
528.965860	0.227472
529.327669	0.226321
529.689421	0.227033
530.051117	0.228126
530.412755	0.226007
530.774337	0.228109
531.135862	0.228731
531.497331	0.227948
531.858743	0.230798
532.220098	0.227433
532.581396	0.229987
532.942638	0.230254
533.303824	0.231438
533.664953	0.231089
534.026025	0.232884
534.387040	0.230950
534.747999	0.230713
535.108902	0.229722
535.469748	0.234957
535.830537	0.232519
536.191270	0.233020
536.551947	0.232639
536.912567	0.232429
537.273131	0.234325
537.633638	0.234389
537.994089	0.235001
538.354483	0.235998
538.714821	0.232667
539.075103	0.232652
539.435328	0.233384
539.795497	0.237034
540.155609	0.233735
540.515665	0.232044
540.875665	0.237805
541.235609	0.236080
541.595496	0.236332
541.955328	0.233006
542.315102	0.235438
542.674821	0.236522
543.034483	0.236443
543.394090	0.236222
543.753640	0.237983
544.113134	0.232780
544.472571	0.236640
544.831953	0.233289
545.191278	0.237383
545.550548	0.236414
545.909761	0.233721
546.268918	0.234507
546.628019	0.232933
546.987064	0.235476
547.346053	0.237196
547.704986	0.235011
548.063863	0.235309
548.422684	0.235374
548.781449	0.237389
549.140158	0.234934
549.498811	0.237772
549.857408	0.240753
550.215949	0.235696
550.574434	0.238855
550.932864	0.236720
551.291237	0.235089
551.649555	0.236817
552.007817	0.236497
552.366022	0.237221
552.724173	0.237926
553.082267	0.237982
553.440305	0.234515
553.798288	0.239120
554.156215	0.235542
554.514086	0.236532
554.871902	0.239386
555.229661	0.238775
555.587365	0.239209
555.945014	0.241809
556.302606	0.238758
556.660143	0.241283
557.017625	0.237984
557.375050	0.240069
557.732421	0.237034
558.089735	0.239093
558.446994	0.239290
558.804197	0.238163
559.161345	0.238351
559.518437	0.241663
559.875474	0.239441
560.232455	0.239123
560.589381	0.240201
560.946251	0.240402
561.303065	0.237981
561.659825	0.239182
562.016528	0.240856
562.373177	0.243333
562.729770	0.240717
563.086307	0.242812
563.442789	0.240909
563.799216	0.243421
564.155587	0.242677
564.511904	0.243596
564.868164	0.243483
565.224370	0.243352
565.580520	0.245140
565.936615	0.244932
566.292654	0.247989
566.648638	0.244945
567.004567	0.246100
567.360441	0.246373
567.716260	0.248496
568.072023	0.246119
568.427732	0.247010
568.783385	0.249434
569.138982	0.247439
569.494525	0.247505
569.850013	0.250119
570.205445	0.248732
570.560823	0.251032
570.916145	0.253272
571.271412	0.251333
571.626625	0.253052
571.981782	0.253357
572.336884	0.254344
572.691931	0.254210
573.046923	0.255325
573.401860	0.256269
573.756743	0.258124
574.111570	0.256946
574.466342	0.257454
574.821059	0.256574
575.175722	0.259705
575.530330	0.259113
575.884882	0.259272
576.239380	0.261236
576.593823	0.262009
576.948211	0.261713
577.302544	0.264636
577.656823	0.264195
578.011047	0.264241
578.365216	0.264988
578.719330	0.267304
579.073389	0.266652
579.427394	0.268042
579.781344	0.269151
580.135239	0.270168
580.489080	0.270138
580.842866	0.273117
581.196597	0.272920
581.550273	0.271838
581.903895	0.272846
582.257463	0.270737
582.610975	0.274009
582.964434	0.273429
583.317837	0.275937
583.671186	0.276556
584.024481	0.276155
584.377721	0.278841
584.730906	0.279432
585.084037	0.278922
585.437113	0.280744
585.790135	0.280083
586.143103	0.283386
586.496016	0.284146
586.848874	0.281594
587.201679	0.282555
587.554428	0.285533
587.907124	0.284727
588.259765	0.285225
588.612352	0.285779
588.964884	0.289358
589.317362	0.289020
589.669786	0.288913
590.022155	0.287373
590.374470	0.286629
590.726731	0.288736
591.078937	0.294195
591.431090	0.290293
591.783188	0.294173
592.135232	0.295025
592.487222	0.294637
592.839157	0.292940
593.191038	0.295418
593.542866	0.297150
593.894639	0.300562
594.246358	0.298557
594.598022	0.298295
594.949633	0.301488
595.301190	0.302512
595.652692	0.301523
596.004141	0.297679
596.355535	0.305707
596.706876	0.306772
597.058162	0.308810
597.409395	0.306063
597.760573	0.303825
598.111698	0.306763
598.462768	0.307469
598.813785	0.308223
599.164748	0.310142
599.515657	0.310162
599.866511	0.313897
600.217312	0.309514
600.568060	0.314234
600.918753	0.310658
601.269392	0.311633
601.619978	0.315169
601.970510	0.312750
602.320988	0.312592
602.671412	0.310496
603.021783	0.312969
603.372100	0.314390
603.722363	0.313821
604.072572	0.314761
604.422728	0.314341
604.772830	0.317046
605.122878	0.316589
605.472872	0.317089
605.822813	0.315323
606.172701	0.318047
606.522534	0.315411
606.872314	0.315299
607.222041	0.316304
607.571714	0.314323
607.921333	0.315980
608.270899	0.315223
608.620411	0.312389
608.969870	0.316359
609.319276	0.316289
609.668627	0.316339
610.017926	0.314716
610.367171	0.313416
610.716362	0.313845
611.065500	0.314257
611.414585	0.312918
611.763616	0.313279
612.112594	0.313986
612.461518	0.313167
612.810389	0.311400
613.159207	0.313165
613.507971	0.315031
613.856682	0.310820
614.205340	0.311908
614.553945	0.309283
614.902496	0.313093
615.250994	0.311096
615.599439	0.311860
615.947830	0.311104
616.296169	0.312329
616.644454	0.312121
616.992686	0.311835
617.340864	0.309756
617.688990	0.313426
618.037063	0.309710
618.385082	0.311548
618.733048	0.308563
619.080961	0.310686
619.428821	0.310325
619.776628	0.310215
620.124382	0.312229
620.472083	0.312668
620.819731	0.311941
621.167326	0.315962
621.514868	0.315675
621.862357	0.319549
622.209793	0.318870
622.557176	0.321610
622.904506	0.322598
623.251783	0.325276
623.599007	0.327288
623.946179	0.326872
624.293297	0.328750
624.640363	0.332826
624.987376	0.333197
625.334336	0.335786
625.681243	0.338179
626.028097	0.338440
626.374899	0.339620
626.721647	0.339586
627.068343	0.342919
627.414987	0.344665
627.761577	0.346394
628.108115	0.344308
628.454600	0.350118
628.801032	0.346936
629.147412	0.349120
629.493739	0.350315
629.840014	0.352545
630.186236	0.349853
630.532405	0.355811
630.878521	0.352885
631.224585	0.355256
631.570597	0.358683
631.916556	0.357522
632.262462	0.357077
632.608316	0.359898
632.954117	0.360507
633.299866	0.361603
633.645562	0.361920
633.991206	0.366096
634.336797	0.368890
634.682336	0.371827
635.027823	0.372871
635.373257	0.373306
635.718639	0.377437
636.063968	0.376270
636.409245	0.381860
636.754470	0.382829
637.099642	0.384632
637.444762	0.388446
637.789829	0.387344
638.134845	0.391363
638.479808	0.392534
638.824719	0.391882
639.169577	0.396433
639.514383	0.394629
639.859137	0.398947
640.203839	0.398997
640.548489	0.399496
640.893086	0.400773
641.237632	0.402547
641.582125	0.401083
641.926566	0.403158
642.270955	0.402633
642.615292	0.402726
642.959576	0.402673
643.303809	0.403360
643.647990	0.402291
643.992118	0.403419
644.336195	0.406125
644.680219	0.404267
645.024192	0.404837
645.368112	0.399119
645.711981	0.398204
646.055797	0.393072
646.399562	0.395642
646.743274	0.388439
647.086935	0.385216
647.430544	0.385500
647.774101	0.384203
648.117606	0.384138
648.461059	0.384217
648.804460	0.386819
649.147810	0.391404
649.491108	0.393387
649.834354	0.395056
650.177548	0.400464
650.520690	0.405273
650.863781	0.407143
651.206820	0.406382
651.549807	0.411028
651.892742	0.414985
652.235626	0.414519
652.578458	0.415275
652.921238	0.422037
653.263967	0.419375
653.606644	0.423302
653.949269	0.423462
654.291843	0.426738
654.634365	0.423873
654.976836	0.426330
655.319255	0.427757
655.661622	0.428585
656.003938	0.428317
656.346203	0.431446
656.688416	0.429113
657.030577	0.433061
657.372687	0.435022
657.714746	0.435714
658.056753	0.432713
658.398708	0.436330
658.740612	0.437835
659.082465	0.433859
659.424266	0.434407
659.766016	0.433778
660.107715	0.437618
660.449362	0.435516
660.790958	0.436275
661.132503	0.437224
661.473996	0.434065
661.815438	0.435428
662.156829	0.435811
662.498168	0.436413
662.839456	0.437629
663.180693	0.435157
663.521879	0.435292
663.863013	0.436145
664.204097	0.434701
664.545129	0.431299
664.886110	0.432127
665.227040	0.429542
665.567918	0.431908
665.908746	0.429589
666.249522	0.429539
666.590248	0.430719
666.930922	0.428292
667.271545	0.427952
667.612118	0.427347
667.952639	0.429703
668.293109	0.427750
668.633528	0.430625
668.973896	0.430442
669.314213	0.431143
669.654480	0.432875
669.994695	0.432257
670.334859	0.433859
670.674973	0.434212
671.015035	0.434435
671.355047	0.434459
671.695008	0.434930
672.034918	0.437033
672.374777	0.435968
672.714585	0.438068
673.054342	0.437805
673.394049	0.437332
673.733705	0.435147
674.073310	0.436460
674.412864	0.439555
674.752368	0.439868
675.091820	0.440075
675.431223	0.444679
675.770574	0.444467
676.109875	0.447725
676.449125	0.447094
676.788324	0.449967
677.127473	0.455087
677.466571	0.455006
677.805619	0.456776
678.144616	0.457991
678.483562	0.459865
678.822458	0.461994
679.161303	0.462284
679.500098	0.463165
679.838842	0.465410
680.177535	0.464552
680.516179	0.462906
680.854771	0.461932
681.193314	0.455380
681.531805	0.447239
681.870247	0.435124
682.208638	0.427787
682.546978	0.426974
682.885268	0.427878
683.223508	0.434460
683.561697	0.438382
683.899836	0.441057
684.237925	0.444024
684.575963	0.447490
684.913951	0.450364
685.251889	0.445593
685.589776	0.447829
685.927614	0.450314
686.265401	0.444256
686.603137	0.445856
686.940824	0.439893
687.278460	0.438532
687.616046	0.437115
687.953582	0.432341
688.291068	0.433556
688.628504	0.429364
688.965889	0.431854
689.303224	0.435870
689.640510	0.439555
689.977745	0.445187
690.314930	0.453284
690.652065	0.457990
690.989150	0.465687
691.326185	0.472404
691.663170	0.476979
692.000105	0.484402
692.336990	0.490814
692.673825	0.493432
693.010610	0.500385
693.347345	0.506199
693.684030	0.507965
694.020665	0.512196
694.357251	0.520650
694.693786	0.520849
695.030272	0.524360
695.366707	0.527740
695.703093	0.532025
696.039429	0.529027
696.375716	0.531643
696.711952	0.533739
697.048139	0.536170
697.384276	0.537678
697.720363	0.536953
698.056400	0.535296
698.392388	0.540750
698.728326	0.543332
699.064214	0.546905
699.400053	0.546584
699.735842	0.551049
700.071581	0.554263
700.407270	0.557618
700.742910	0.559826
701.078501	0.565699
701.414042	0.567198
701.749533	0.569467
702.084974	0.578274
702.420366	0.571059
702.755709	0.577802
703.091002	0.585462
703.426246	0.580084
703.761440	0.584703
704.096584	0.590128
704.431679	0.587303
704.766725	0.590000
705.101721	0.590979
705.436668	0.587506
705.771565	0.594153
706.106413	0.590311
706.441212	0.586064
706.775961	0.585653
707.110661	0.587572
707.445311	0.584551
707.779913	0.581619
708.114465	0.579949
708.448967	0.577050
708.783421	0.568263
709.117825	0.563389
709.452180	0.562492
709.786485	0.556902
710.120742	0.546867
710.454949	0.548665
710.789107	0.540904
711.123216	0.531048
711.457275	0.531958
711.791286	0.524736
712.125247	0.522933
712.459159	0.534256
712.793023	0.525899
713.126837	0.530732
713.460602	0.530633
713.794318	0.539228
714.127985	0.538504
714.461602	0.549130
714.795171	0.552462
715.128691	0.560011
715.462162	0.567619
715.795584	0.573723
716.128957	0.576389
716.462281	0.583346
716.795556	0.586215
717.128782	0.592231
717.461960	0.601029
717.795088	0.599830
718.128167	0.605928
718.461198	0.614023
718.794180	0.615922
719.127113	0.618062
719.459997	0.621043
719.792833	0.627353
720.125619	0.629171
720.458357	0.635296
720.791046	0.634432
721.123686	0.638522
721.456278	0.644749
721.788821	0.642463
722.121315	0.647624
722.453761	0.651376
722.786158	0.648482
723.118506	0.644797
723.450805	0.652891
723.783056	0.649669
724.115259	0.646106
724.447412	0.646590
724.779518	0.647300
725.111574	0.645446
725.443582	0.641805
725.775542	0.644648
726.107453	0.636693
726.439315	0.635764
726.771129	0.633984
727.102895	0.626988
727.434612	0.620565
727.766281	0.618565
728.097901	0.617474
728.429473	0.618019
728.760996	0.615461
729.092471	0.616381
729.423897	0.620159
729.755276	0.618913
730.086606	0.618312
730.417887	0.613502
730.749120	0.604285
731.080305	0.595153
731.411442	0.590772
731.742530	0.594124
732.073570	0.594884
732.404562	0.586998
732.735506	0.588323
733.066401	0.593393
733.397249	0.602459
733.728048	0.613077
734.058798	0.626920
734.389501	0.637510
734.720156	0.647773
735.050762	0.655762
735.381320	0.656177
735.711831	0.665111
736.042293	0.670009
736.372707	0.666363
736.703073	0.670455
737.033391	0.672336
737.363661	0.669833
737.693883	0.665646
738.024056	0.663761
738.354182	0.665133
738.684260	0.652981
739.014290	0.649083
739.344272	0.650107
739.674207	0.643683
740.004093	0.643148
740.333931	0.644336
740.663722	0.643305
740.993464	0.644063
741.323159	0.647851
741.652806	0.653117
741.982405	0.657909
742.311956	0.663434
742.641460	0.665377
742.970915	0.668976
743.300323	0.674927
743.629683	0.681654
743.958996	0.685000
744.288260	0.688245
744.617477	0.695006
744.946647	0.696653
745.275768	0.702644
745.604842	0.702028
745.933869	0.712436
746.262847	0.713106
746.591778	0.706257
746.920662	0.712021
747.249498	0.719609
747.578286	0.710775
747.907027	0.705346
748.235720	0.706204
748.564365	0.701677
748.892963	0.700802
749.221514	0.705028
749.550017	0.709123
749.878473	0.709377
750.206881	0.716632
750.535242	0.716480
750.863555	0.715183
751.191821	0.716756
751.520039	0.720956
751.848210	0.724154
752.176334	0.719152
752.504411	0.717051
752.832440	0.725515
753.160421	0.728944
753.488356	0.727241
753.816243	0.723897
754.144082	0.733221
754.471875	0.737057
754.799620	0.733163
755.127318	0.733606
755.454969	0.733867
755.782572	0.734340
756.110129	0.738217
756.437638	0.741170
756.765100	0.737388
757.092515	0.734759
757.419882	0.734262
757.747203	0.739852
758.074477	0.739330
758.401703	0.736081
758.728882	0.732001
759.056014	0.729389
759.383099	0.729007
759.710138	0.730089
760.037129	0.726444
760.364073	0.719913
760.690970	0.723091
761.017820	0.726831
761.344623	0.724266
761.671379	0.714371
761.998088	0.703309
762.324751	0.679788
762.651366	0.637361
762.977935	0.569041
763.304456	0.517440
763.630931	0.508284
763.957359	0.546912
764.283740	0.592105
764.610074	0.620181
764.936362	0.651259
765.262602	0.678485
765.588796	0.700242
765.914943	0.717412
766.241044	0.736066
766.567097	0.742016
766.893104	0.753141
767.219064	0.759690
767.544978	0.765767
767.870845	0.779026
768.196665	0.783405
768.522438	0.781235
768.848165	0.782425
769.173846	0.792633
769.499479	0.796266
769.825066	0.800413
770.150607	0.803672
770.476101	0.800196
770.801548	0.802353
771.126949	0.813817
771.452303	0.817048
771.777611	0.815301
772.102872	0.814669
772.428087	0.820218
772.753256	0.824112
773.078378	0.825060
773.403453	0.833929
773.728482	0.838759
774.053465	0.831929
774.378401	0.835302
774.703291	0.844545
775.028135	0.845045
775.352932	0.844112
775.677683	0.849702
776.002388	0.849571
776.327046	0.848570
776.651658	0.853939
776.976224	0.856011
777.300743	0.855564
777.625216	0.857600
777.949643	0.859862
778.274024	0.859314
778.598359	0.861382
778.922647	0.858855
779.246889	0.860722
779.571086	0.864087
779.895236	0.866933
780.219339	0.864492
780.543397	0.860005
780.867409	0.859249
781.191374	0.861157
781.515294	0.862775
781.839167	0.862438
782.162995	0.864829
782.486776	0.862823
782.810511	0.863283
783.134201	0.867523
783.457844	0.865704
783.781441	0.867581
784.104993	0.873071
784.428498	0.873663
784.751958	0.869604
785.075372	0.871943
785.398739	0.875659
785.722061	0.870841
786.045337	0.867457
786.368568	0.872297
786.691752	0.874551
787.014891	0.859674
787.337983	0.849928
787.661030	0.843462
787.984031	0.825909
788.306987	0.813746
788.629897	0.812788
788.952760	0.819077
789.275579	0.823032
789.598351	0.839599
789.921078	0.853170
790.243759	0.854448
790.566395	0.857903
790.888984	0.866195
791.211529	0.871597
791.534027	0.874761
791.856480	0.876646
792.178888	0.881910
792.501249	0.883671
792.823566	0.886138
793.145836	0.886316
793.468062	0.886860
793.790241	0.887169
794.112375	0.886224
794.434464	0.882430
794.756507	0.880627
795.078505	0.880344
795.400457	0.874668
795.722364	0.863236
796.044226	0.855443
796.366042	0.854511
796.687812	0.858246
797.009538	0.852940
797.331218	0.858661
797.652852	0.862077
797.974442	0.866611
798.295986	0.867822
798.617484	0.869289
798.938938	0.874605
799.260346	0.878483
799.581709	0.880067
799.903026	0.882820
800.224299	0.882880
800.545526	0.886438
800.866708	0.890243
801.187845	0.895125
801.508936	0.894330
801.829983	0.891860
802.150984	0.895738
802.471940	0.900239
802.792851	0.900458
803.113717	0.902059
803.434538	0.899026
803.755314	0.902560
804.076045	0.903187
804.396731	0.902909
804.717372	0.902518
805.037967	0.905716
805.358518	0.903163
805.679024	0.898259
805.999485	0.899476
806.319901	0.900469
806.640272	0.902741
806.960598	0.899743
807.280879	0.896780
807.601115	0.895353
807.921306	0.899426
808.241453	0.899921
808.561554	0.897738
808.881611	0.897912
809.201623	0.898855
809.521590	0.899986
809.841513	0.900037
810.161390	0.898202
810.481223	0.901249
810.801011	0.904787
811.120755	0.906117
811.440453	0.905355
811.760107	0.905553
812.079716	0.904088
812.399281	0.906715
812.718801	0.908897
813.038276	0.909227
813.357707	0.910317
813.677093	0.907928
813.996434	0.909825
814.315731	0.912304
814.634983	0.913219
814.954191	0.912521
815.273354	0.906144
815.592473	0.904187
815.911547	0.905034
816.230577	0.901852
816.549562	0.899669
816.868502	0.898792
817.187399	0.896216
817.506250	0.891241
817.825058	0.891713
818.143821	0.888644
818.462539	0.884367
818.781213	0.875741
819.099843	0.864837
819.418429	0.847865
819.736970	0.831133
820.055466	0.810524
820.373919	0.784154
820.692327	0.750793
821.010691	0.715180
821.329011	0.634456
821.647286	0.517076
821.965517	0.402535
822.283704	0.359456
822.601847	0.359569
822.919945	0.395892
823.237999	0.431580
823.556010	0.478659
823.873976	0.535722
824.191897	0.586945
824.509775	0.631000
824.827609	0.677120
825.145398	0.699856
825.463144	0.701802
825.780845	0.684022
826.098502	0.665066
826.416116	0.620073
826.733685	0.574678
827.051210	0.565522
827.368692	0.580432
827.686129	0.618355
828.003522	0.673794
828.320872	0.722642
828.638177	0.766834
828.955439	0.800226
829.272656	0.821896
829.589830	0.840239
829.906960	0.856238
830.224046	0.868628
830.541088	0.878837
830.858086	0.883783
831.175041	0.890716
831.491952	0.888628
831.808819	0.885291
832.125642	0.877583
832.442421	0.865739
832.759157	0.842192
833.075849	0.792822
833.392497	0.728412
833.709101	0.687353
834.025662	0.696772
834.342179	0.728799
834.658653	0.769441
834.975083	0.806110
835.291469	0.833396
835.607811	0.854997
835.924110	0.874453
836.240366	0.890845
836.556578	0.903472
836.872746	0.911304
837.188871	0.917396
837.504952	0.924662
837.820990	0.926557
838.136984	0.931153
838.452935	0.933553
838.768842	0.935386
839.084706	0.928547
839.400526	0.902235
839.716303	0.860359
840.032037	0.838279
840.347727	0.842135
840.663373	0.859174
840.978977	0.882347
841.294537	0.906297
841.610054	0.920968
841.925527	0.928504
842.240957	0.937346
842.556344	0.943857
842.871687	0.948990
843.186987	0.951945
843.502244	0.955188
843.817458	0.955209
844.132629	0.959926
844.447756	0.964878
844.762840	0.964951
845.077881	0.965608
845.392879	0.964428
845.707833	0.965787
846.022745	0.969451
846.337613	0.969221
846.652438	0.969644
846.967221	0.970708
847.281960	0.969825
847.596656	0.972216
847.911309	0.971471
848.225919	0.970311
848.540485	0.973503
848.855009	0.974284
849.169490	0.974054
849.483928	0.973333
849.798323	0.972875
850.112675	0.975147
850.426984	0.974432
850.741251	0.974211
851.055474	0.974812
851.369654	0.973739
851.683792	0.973630
851.997887	0.974806
852.311938	0.975119
852.625947	0.974691
852.939914	0.972474
853.253837	0.975120
853.567718	0.974779
853.881555	0.975189
854.195350	0.974182
854.509103	0.974278
854.822812	0.974688
855.136479	0.976093
855.450103	0.974728
855.763685	0.973441
856.077224	0.974062
856.390720	0.975658
856.704173	0.974448
857.017584	0.973270
857.330953	0.972576
857.644278	0.970992
857.957561	0.973506
858.270802	0.974551
858.584000	0.973062
858.897155	0.970635
859.210268	0.971533
859.523339	0.973606
859.836367	0.974532
860.149352	0.973231
860.462295	0.974405
860.775195	0.974702
861.088054	0.972853
861.400869	0.975092
861.713642	0.974290
862.026373	0.975533
862.339062	0.975408
862.651708	0.973402
862.964312	0.973787
863.276873	0.973461
863.589392	0.973510
863.901869	0.969315
864.214303	0.967820
864.526696	0.968652
864.839045	0.969348
865.151353	0.966327
865.463619	0.965326
865.775842	0.967649
866.088023	0.966742
866.400162	0.966389
866.712258	0.966830
867.024313	0.967034
867.336325	0.969122
867.648296	0.968473
867.960224	0.966774
868.272110	0.967145
868.583954	0.968376
868.895755	0.969881
869.207515	0.965559
869.519233	0.965833
869.830909	0.964270
870.142542	0.965343
870.454134	0.966738
870.765684	0.964512
871.077191	0.962784
871.388657	0.962165
871.700081	0.963196
872.011463	0.963026
872.322803	0.961677
872.634101	0.959766
872.945357	0.957238
873.256571	0.956003
873.567744	0.958198
873.878874	0.959162
874.189963	0.956295
874.501010	0.956943
874.812015	0.954128
875.122979	0.954633
875.433900	0.956645
875.744780	0.959302
876.055618	0.953331
876.366415	0.953942
876.677169	0.953828
876.987882	0.955294
877.298554	0.956242
877.609183	0.950927
877.919771	0.948800
878.230317	0.946090
878.540822	0.942584
878.851285	0.938754
879.161707	0.929311
879.472087	0.918422
879.782425	0.900583
880.092722	0.864695
880.402977	0.811397
880.713191	0.747092
881.023363	0.686285
881.333494	0.651493
881.643583	0.624543
881.953631	0.624194
882.263637	0.651981
882.573602	0.692234
882.883526	0.719127
883.193408	0.743822
883.503248	0.767316
883.813048	0.795459
884.122806	0.825846
884.432522	0.850965
884.742197	0.871862
885.051831	0.882047
885.361424	0.893729
885.670975	0.906213
885.980485	0.915056
886.289954	0.920748
886.599382	0.925875
886.908768	0.931008
887.218113	0.936291
887.527417	0.942867
887.836680	0.944611
888.145901	0.946707
888.455082	0.950897
888.764221	0.954517
889.073319	0.955875
889.382376	0.957876
889.691392	0.955851
890.000366	0.957062
890.309300	0.957405
890.618193	0.957695
890.927044	0.955989
891.235855	0.954640
891.544625	0.955798
891.853353	0.955996
892.162041	0.952283
892.470687	0.946566
892.779293	0.940819
893.087858	0.936187
893.396381	0.928208
893.704864	0.914855
894.013306	0.890436
894.321707	0.862989
894.630068	0.847122
894.938387	0.841472
895.246665	0.843732
895.554903	0.855716
895.863100	0.870619
896.171256	0.887826
896.479371	0.907347
896.787446	0.920546
897.095480	0.927223
897.403473	0.930035
897.711425	0.934960
898.019336	0.942770
898.327207	0.947566
898.635038	0.947649
898.942827	0.949335
899.250576	0.951641
899.558284	0.956100
899.865952	0.957911
900.173579	0.959081
900.481165	0.959677
900.788711	0.961491
901.096216	0.965328
901.403681	0.967449
901.711105	0.965797
902.018489	0.966723
902.325832	0.967280
902.633135	0.963800
902.940397	0.959153
903.247619	0.946117
903.554800	0.920735
903.861941	0.880013
904.169041	0.840966
904.476101	0.823136
904.783121	0.823685
905.090100	0.840979
905.397039	0.862256
905.703938	0.885592
906.010796	0.906742
906.317614	0.923810
906.624391	0.937920
906.931129	0.947510
907.237826	0.956440
907.544483	0.961872
907.851099	0.967281
908.157675	0.970858
908.464211	0.974478
908.770707	0.976753
909.077163	0.979610
909.383578	0.978759
909.689954	0.978973
909.996289	0.979896
910.302584	0.981638
910.608839	0.985713
910.915054	0.981709
911.221229	0.982848
911.527363	0.981349
911.833458	0.982463
912.139513	0.982279
912.445527	0.982586
912.751502	0.978979
913.057436	0.976140
913.363331	0.974569
913.669186	0.971781
913.975000	0.965002
914.280775	0.959047
914.586510	0.950749
914.892205	0.937452
915.197859	0.914131
915.503475	0.887493
915.809050	0.865942
916.114585	0.859580
916.420081	0.856480
916.725536	0.854165
917.030952	0.862897
917.336328	0.876569
917.641665	0.891725
917.946961	0.907578
918.252218	0.919888
918.557435	0.929344
918.862612	0.937762
919.167750	0.944767
919.472848	0.949232
919.777906	0.956141
920.082925	0.962587
920.387904	0.965762
920.692843	0.967635
920.997743	0.968986
921.302603	0.971996
921.607423	0.972659
921.912204	0.976671
922.216946	0.977807
922.521647	0.977951
922.826310	0.978417
923.130932	0.981265
923.435516	0.984450
923.740059	0.983893
924.044564	0.983936
924.349028	0.982885
924.653454	0.986947
924.957840	0.988246
925.262186	0.989467
925.566493	0.988393
925.870761	0.990749
926.174989	0.989792
926.479178	0.992205
926.783328	0.992735
927.087438	0.992238
927.391509	0.992342
927.695541	0.994339
927.999533	0.995895
928.303486	0.994647
928.607400	0.995241
928.911275	0.995973
929.215110	0.996104
929.518906	0.994695
929.822663	0.996303
930.126381	0.996754
930.430060	0.995172
930.733699	0.996435
931.037299	0.996236
931.340861	0.995566
931.644383	0.994592
931.947866	0.995574
932.251309	0.995168
932.554714	0.995066
932.858080	0.995159
933.161407	0.995104
933.464694	0.996035
933.767943	0.996731
934.071153	0.996501
934.374323	0.996856
934.677455	0.995818
934.980548	0.996002
935.283602	0.996593
935.586617	0.995733
935.889593	0.997225
936.192530	0.996920
936.495428	0.996063
936.798287	0.995806
937.101108	0.995463
937.403890	0.994134
937.706632	0.995662
938.009336	0.991400
938.312002	0.988751
938.614628	0.989215
938.917216	0.987680
939.219765	0.985508
939.522275	0.987425
939.824747	0.987414
940.127179	0.988761
940.429573	0.989450
940.731929	0.987884
941.034246	0.989506
941.336524	0.989242
941.638763	0.990511
941.940964	0.990842
942.243126	0.991605
942.545250	0.992722
942.847335	0.992558
943.149381	0.993394
943.451389	0.993503
943.753359	0.994009
944.055290	0.994731
944.357182	0.994113
944.659036	0.995818
944.960851	0.995304
945.262628	0.996050
945.564367	0.995104
945.866067	0.994877
946.167729	0.996079
946.469352	0.995873
946.770937	0.994229
947.072484	0.996708
947.373992	0.994441
947.675462	0.995722
947.976893	0.994812
948.278286	0.997885
948.579641	0.997210
948.880958	0.996368
949.182236	0.996277
949.483476	0.997435
949.784678	0.996238
950.085841	0.995120
950.386967	0.996771
950.688054	0.996418
950.989103	0.994290
951.290114	0.994616
951.591087	0.994753
951.892021	0.993957
952.192917	0.994290
952.493776	0.993853
952.794596	0.992999
953.095378	0.992473
953.396122	0.992630
953.696828	0.993475
953.997496	0.994392
954.298126	0.996066
954.598718	0.994167
954.899272	0.996679
955.199788	0.995933
955.500266	0.997295
955.800706	0.997719
956.101108	0.997291
956.401472	0.999251
956.701798	0.998307
957.002087	0.998831
957.302337	0.999649
957.602550	0.998746
957.902724	1.000289
958.202861	0.999535
958.502960	0.999218
958.803022	1.001773
959.103045	1.000300
959.403031	1.001927
959.702979	1.000680
960.002889	1.001012
960.302762	1.000291
960.602596	1.002257
960.902393	1.001721
961.202153	1.001756
961.501875	1.002818
961.801559	1.002371
962.101205	1.001546
962.400814	1.002679
962.700385	1.003228
962.999918	1.002354
963.299414	1.001167
963.598873	1.002923
963.898293	1.002928
964.197677	1.001990
964.497022	1.002215
964.796331	1.002128
965.095601	1.002974
965.394835	1.002698
965.694030	1.003320
965.993189	1.002275
966.292309	1.001931
966.591393	1.000764
966.890439	1.002517
967.189447	1.000510
967.488419	1.001407
967.787353	1.002758
968.086249	1.002047
968.385108	1.002322
968.683930	1.003517
968.982714	1.003011
969.281462	1.002966
969.580172	1.002289
969.878844	1.003583
970.177480	1.002713
970.476078	1.004395
970.774639	1.001870
971.073162	1.002105
971.371649	1.002155
971.670098	1.002473
971.968510	1.001683
972.266885	1.000617
972.565223	1.000996
972.863524	1.000271
973.161788	1.001208
973.460014	1.001944
973.758204	1.001316
974.056356	1.000939
974.354471	1.000812
974.652550	1.002627
974.950591	1.002309
975.248595	1.000997
975.546563	1.002871
975.844493	1.003194
976.142386	1.001228
976.440243	1.003424
976.738062	1.002848
977.035845	1.001936
977.333590	1.002948
977.631299	1.002166
977.928971	1.002470
978.226606	1.002046
978.524204	1.001175
978.821765	1.002799
979.119290	1.003294
979.416777	1.002380
979.714228	1.002987
980.011642	1.003796
980.309020	1.002163
980.606360	1.001779
980.903664	1.001879
981.200931	1.001789
981.498162	1.000915
981.795356	1.000737
982.092513	1.000788
982.389633	0.999932
982.686717	0.996205
982.983764	0.997258
983.280775	0.995486
983.577749	0.996586
983.874686	0.994451
984.171587	0.997471
984.468451	0.998836
984.765279	0.999871
985.062070	1.000518
985.358824	1.000106
985.655543	1.000923
985.952224	1.002507
986.248869	1.002816
986.545478	1.002974
986.842050	1.002352
987.138586	1.001921
987.435086	1.002685
987.731549	1.004152
988.027975	1.004033
988.324366	1.002012
988.620719	1.003314
988.917037	1.003931
989.213318	1.004157
989.509563	1.003444
989.805772	1.003599
990.101944	1.004239
990.398080	1.005129
990.694180	1.003183
990.990244	1.003736
991.286271	1.004443
991.582262	1.004421
991.878217	1.003761
992.174136	1.005568
992.470019	1.004384
992.765865	1.006005
993.061676	1.004038
993.357450	1.003546
993.653188	1.005408
993.948890	1.002653
994.244556	1.003527
994.540186	1.002714
994.835780	1.003381
995.131337	1.003978
995.426859	1.002774
995.722345	1.002285
996.017795	1.002104
996.313208	1.001671
996.608586	1.001790
996.903928	1.002622
997.199234	1.001095
997.494504	1.002440
997.789738	1.002029
998.084936	1.003298
998.380099	1.001564
998.675225	1.004061
998.970316	1.004020
999.265371	1.002843
999.560390	1.003540
999.855373	1.003180
1000.150320	1.003937
1000.445232	1.003512
1000.740108	1.004341
1001.034948	1.004223
1001.329752	1.004648
1001.624521	1.004034
1001.919254	1.003644
1002.213951	1.004622
1002.508613	1.004556
1002.803239	1.004978
1003.097829	1.004758
1003.392384	1.003993
1003.686903	1.004527
1003.981386	1.004369
1004.275834	1.004644
1004.570246	1.001916
1004.864623	1.004470
1005.158964	1.005589
1005.453270	1.004392
1005.747540	1.004532
1006.041775	1.004686
1006.335974	1.004114
1006.630138	1.005367
1006.924266	1.004145
1007.218359	1.002969
1007.512416	1.005302
1007.806438	1.003447
1008.100425	1.004156
1008.394376	1.005420
1008.688292	1.003941
1008.982172	1.003596
1009.276017	1.003885
1009.569827	1.005260
1009.863602	1.002211
1010.157341	1.005751
1010.451045	1.003857
1010.744714	1.004905
1011.038347	1.005694
1011.331945	1.003667
1011.625508	1.004977
1011.919036	1.003460
1012.212528	1.003877
1012.505986	1.004874
1012.799408	1.004280
1013.092795	1.006391
1013.386147	1.004033
1013.679464	1.005766
1013.972745	1.004509
1014.265992	1.003985
1014.559204	1.004612
1014.852380	1.005305
1015.145521	1.004787
1015.438628	1.005356
1015.731699	1.004872
1016.024736	1.004295
1016.317737	1.005214
1016.610703	1.005205
1016.903635	1.004047
1017.196531	1.004483
1017.489393	1.005350
1017.782219	1.004114
1018.075011	1.003301
1018.367768	1.003105
1018.660490	1.005243
1018.953177	1.005243
1019.245829	1.005243
