Dividing Wavelength (nm)	Counts (n)	Blue Motor Position (mm): 9.000000	Red Motor Position (mm): 0.000000	
326.493990	1.004873
326.888308	1.004873
327.282561	1.004873
327.676750	1.004479
328.070874	1.007484
328.464933	1.005719
328.858929	1.005252
329.252859	1.006283
329.646726	1.005041
330.040528	1.005886
330.434265	1.005896
330.827938	1.003758
331.221547	1.006654
331.615091	1.006032
332.008571	1.007272
332.401986	1.005576
332.795338	1.004355
333.188625	1.005394
333.581847	1.004689
333.975006	1.005180
334.368100	1.005407
334.761129	1.003337
335.154095	1.004910
335.546996	1.003893
335.939833	0.999527
336.332606	1.000080
336.725315	0.998795
337.117960	1.000332
337.510540	0.999653
337.903056	0.999572
338.295508	1.000621
338.687896	1.000063
339.080220	0.999517
339.472480	0.998817
339.864676	0.999716
340.256807	0.998676
340.648875	1.001188
341.040879	0.998691
341.432818	0.999543
341.824694	0.998304
342.216506	1.000407
342.608253	0.999440
342.999937	0.999358
343.391557	0.998652
343.783113	1.000006
344.174605	0.999624
344.566033	0.998357
344.957397	0.999299
345.348697	0.999246
345.739934	0.998761
346.131106	0.998821
346.522215	0.998119
346.913260	0.998184
347.304241	0.998976
347.695159	0.999166
348.086012	0.998914
348.476802	0.999097
348.867528	0.998432
349.258191	0.999028
349.648789	0.997800
350.039324	0.999355
350.429796	0.998950
350.820203	0.997174
351.210548	0.999125
351.600828	0.999177
351.991045	0.999031
352.381198	0.999685
352.771288	0.997834
353.161314	0.998205
353.551276	0.998185
353.941175	0.997583
354.331010	0.999050
354.720782	0.998948
355.110490	0.999079
355.500135	0.999514
355.889717	0.998588
356.279235	0.996605
356.668689	0.998623
357.058080	0.997968
357.447408	0.997782
357.836672	0.997662
358.225873	0.997438
358.615010	0.999005
359.004084	0.997678
359.393095	0.998443
359.782043	0.997622
360.170927	0.998125
360.559748	0.997189
360.948505	0.997586
361.337199	0.997024
361.725830	0.996522
362.114398	0.997461
362.502903	0.997271
362.891344	0.997075
363.279722	0.996996
363.668037	0.997963
364.056289	0.997090
364.444478	0.997936
364.832603	0.996210
365.220665	0.997737
365.608665	0.996295
365.996601	0.996828
366.384474	0.995039
366.772284	0.996454
367.160031	0.994861
367.547715	0.994937
367.935336	0.994282
368.322893	0.992612
368.710388	0.991917
369.097820	0.992025
369.485189	0.988288
369.872495	0.986577
370.259738	0.984953
370.646918	0.981168
371.034035	0.979648
371.421090	0.976599
371.808081	0.971320
372.195010	0.969152
372.581875	0.963675
372.968678	0.958304
373.355418	0.955322
373.742096	0.947335
374.128710	0.944271
374.515262	0.939795
374.901751	0.933280
375.288177	0.928831
375.674540	0.922052
376.060841	0.915130
376.447079	0.909447
376.833254	0.902058
377.219367	0.897321
377.605417	0.886819
377.991404	0.883310
378.377329	0.876527
378.763191	0.870667
379.148991	0.860649
379.534727	0.853265
379.920402	0.845481
380.306013	0.841548
380.691563	0.829743
381.077049	0.822212
381.462474	0.818211
381.847835	0.806642
382.233134	0.802671
382.618371	0.803099
383.003545	0.786480
383.388657	0.783517
383.773706	0.775719
384.158693	0.771504
384.543618	0.765883
384.928480	0.757689
385.313280	0.747683
385.698017	0.747479
386.082692	0.735527
386.467305	0.734251
386.851856	0.728490
387.236344	0.722789
387.620770	0.717765
388.005133	0.711863
388.389435	0.706087
388.773674	0.703625
389.157851	0.695387
389.541965	0.692605
389.926018	0.699969
390.310008	0.686142
390.693936	0.683800
391.077802	0.676111
391.461606	0.677402
391.845348	0.666527
392.229027	0.665884
392.612645	0.663893
392.996200	0.651374
393.379694	0.644428
393.763125	0.635194
394.146494	0.639142
394.529801	0.629649
394.913047	0.621418
395.296230	0.627464
395.679351	0.619085
396.062410	0.615100
396.445408	0.618143
396.828343	0.614201
397.211217	0.607977
397.594028	0.620766
397.976778	0.611359
398.359466	0.608031
398.742092	0.603157
399.124656	0.614803
399.507158	0.603572
399.889598	0.600224
400.271977	0.591847
400.654294	0.594800
401.036549	0.594383
401.418742	0.599238
401.800874	0.584387
402.182944	0.581392
402.564952	0.573537
402.946898	0.574807
403.328783	0.575884
403.710606	0.586718
404.092367	0.561770
404.474067	0.567418
404.855705	0.565926
405.237282	0.574755
405.618797	0.561026
406.000250	0.556606
406.381642	0.546604
406.762972	0.551417
407.144240	0.550497
407.525447	0.549882
407.906593	0.543085
408.287677	0.538462
408.668700	0.546561
409.049661	0.541235
409.430560	0.535810
409.811399	0.544693
410.192176	0.525764
410.572891	0.534219
410.953545	0.521482
411.334138	0.535212
411.714669	0.527785
412.095139	0.539340
412.475547	0.524198
412.855894	0.525957
413.236180	0.524771
413.616405	0.529935
413.996568	0.520746
414.376670	0.527096
414.756711	0.531643
415.136691	0.528155
415.516609	0.519724
415.896466	0.515666
416.276262	0.512805
416.655997	0.513464
417.035670	0.495933
417.415283	0.487124
417.794834	0.491699
418.174324	0.496956
418.553753	0.506079
418.933121	0.488684
419.312428	0.482870
419.691674	0.488570
420.070859	0.476397
420.449983	0.484690
420.829045	0.473570
421.208047	0.482993
421.586988	0.475663
421.965867	0.474480
422.344686	0.463326
422.723444	0.475965
423.102141	0.493044
423.480777	0.465741
423.859352	0.486616
424.237866	0.464102
424.616319	0.464493
424.994712	0.455553
425.373044	0.465913
425.751314	0.453862
426.129524	0.470567
426.507673	0.453896
426.885762	0.447331
427.263789	0.452908
427.641756	0.462270
428.019662	0.452635
428.397508	0.452514
428.775292	0.456261
429.153016	0.448394
429.530679	0.454991
429.908282	0.447409
430.285824	0.458051
430.663305	0.436393
431.040726	0.457306
431.418086	0.457339
431.795385	0.448825
432.172624	0.448044
432.549802	0.448498
432.926920	0.447427
433.303977	0.447047
433.680974	0.444088
434.057910	0.442824
434.434786	0.441702
434.811601	0.444936
435.188355	0.427287
435.565050	0.436546
435.941683	0.437521
436.318257	0.421235
436.694770	0.422674
437.071222	0.420383
437.447614	0.425248
437.823946	0.431413
438.200218	0.420567
438.576429	0.430140
438.952580	0.423388
439.328670	0.420233
439.704700	0.426613
440.080670	0.428251
440.456580	0.409267
440.832429	0.417206
441.208218	0.428095
441.583947	0.416755
441.959616	0.416597
442.335224	0.421786
442.710773	0.412643
443.086261	0.410619
443.461689	0.424356
443.837057	0.414718
444.212365	0.404552
444.587612	0.411774
444.962800	0.401485
445.337927	0.402767
445.712995	0.428960
446.088002	0.390928
446.462949	0.401656
446.837837	0.406881
447.212664	0.395175
447.587431	0.386741
447.962139	0.356960
448.336786	0.315982
448.711374	0.326316
449.085901	0.371267
449.460369	0.374950
449.834776	0.378714
450.209124	0.357296
450.583412	0.350743
450.957640	0.343379
451.331808	0.354916
451.705917	0.378531
452.079965	0.383059
452.453954	0.371008
452.827883	0.378345
453.201752	0.372282
453.575562	0.383885
453.949311	0.372474
454.323001	0.378818
454.696632	0.374234
455.070202	0.367052
455.443713	0.359218
455.817164	0.353338
456.190556	0.349518
456.563888	0.346211
456.937160	0.343877
457.310373	0.361167
457.683526	0.360037
458.056619	0.365808
458.429653	0.365902
458.802628	0.369879
459.175542	0.363683
459.548398	0.346624
459.921194	0.338928
460.293930	0.339291
460.666607	0.316545
461.039224	0.304585
461.411782	0.300326
461.784280	0.299681
462.156719	0.303714
462.529099	0.308470
462.901419	0.324346
463.273680	0.328475
463.645882	0.328674
464.018024	0.334199
464.390106	0.327039
464.762130	0.311540
465.134094	0.294831
465.505999	0.263304
465.877845	0.233816
466.249631	0.220570
466.621358	0.228125
466.993026	0.242188
467.364634	0.247912
467.736184	0.256805
468.107674	0.266155
468.479105	0.265094
468.850477	0.271702
469.221790	0.278814
469.593043	0.288825
469.964238	0.293631
470.335373	0.293301
470.706449	0.291152
471.077467	0.291689
471.448425	0.253939
471.819324	0.228939
472.190164	0.228559
472.560945	0.257675
472.931667	0.279738
473.302330	0.284219
473.672934	0.296136
474.043479	0.284134
474.413965	0.286180
474.784393	0.289658
475.154761	0.284696
475.525070	0.281446
475.895321	0.287544
476.265513	0.281527
476.635645	0.277015
477.005719	0.276873
477.375734	0.273256
477.745691	0.266454
478.115588	0.262901
478.485427	0.256475
478.855207	0.243403
479.224928	0.226001
479.594591	0.213641
479.964194	0.217406
480.333739	0.218370
480.703226	0.220000
481.072653	0.218432
481.442022	0.213996
481.811333	0.210742
482.180584	0.214204
482.549777	0.219480
482.918912	0.223078
483.287988	0.222581
483.657005	0.222024
484.025964	0.228924
484.394864	0.225914
484.763706	0.226456
485.132489	0.231673
485.501213	0.232440
485.869879	0.230600
486.238487	0.233700
486.607036	0.231899
486.975527	0.236546
487.343959	0.232100
487.712333	0.231342
488.080648	0.232716
488.448905	0.231785
488.817104	0.233081
489.185244	0.227695
489.553326	0.224679
489.921350	0.214452
490.289315	0.196597
490.657222	0.191756
491.025070	0.193079
491.392861	0.195012
491.760593	0.200968
492.128267	0.206435
492.495883	0.211974
492.863440	0.218430
493.230939	0.224916
493.598380	0.226299
493.965763	0.228259
494.333088	0.230605
494.700354	0.232137
495.067563	0.230899
495.434713	0.234576
495.801805	0.232363
496.168839	0.233684
496.535815	0.235166
496.902733	0.235073
497.269593	0.236532
497.636395	0.234265
498.003139	0.234511
498.369825	0.237639
498.736453	0.234143
499.103023	0.235673
499.469535	0.235099
499.835989	0.235350
500.202385	0.236090
500.568723	0.239236
500.935003	0.234574
501.301226	0.238658
501.667390	0.233137
502.033497	0.231338
502.399546	0.234137
502.765537	0.236046
503.131470	0.234659
503.497345	0.230828
503.863163	0.239253
504.228923	0.232453
504.594625	0.231067
504.960269	0.236249
505.325856	0.232051
505.691385	0.236114
506.056856	0.232930
506.422270	0.232303
506.787625	0.234921
507.152924	0.232082
507.518164	0.232823
507.883347	0.234100
508.248472	0.236107
508.613540	0.231181
508.978550	0.233507
509.343503	0.234115
509.708398	0.231650
510.073236	0.229640
510.438016	0.229004
510.802738	0.230000
511.167403	0.228959
511.532010	0.231297
511.896561	0.226634
512.261053	0.225314
512.625488	0.227654
512.989866	0.227731
513.354186	0.227785
513.718449	0.230068
514.082655	0.226275
514.446803	0.228711
514.810894	0.225936
515.174927	0.229102
515.538904	0.228402
515.902822	0.225260
516.266684	0.227372
516.630488	0.228986
516.994235	0.227757
517.357925	0.226389
517.721558	0.224754
518.085133	0.224310
518.448651	0.224220
518.812112	0.226451
519.175516	0.225962
519.538863	0.223769
519.902152	0.225645
520.265385	0.222066
520.628560	0.224083
520.991678	0.224303
521.354739	0.223286
521.717743	0.224320
522.080690	0.224812
522.443580	0.222328
522.806413	0.223058
523.169189	0.222507
523.531908	0.221291
523.894569	0.224774
524.257174	0.224998
524.619722	0.222578
524.982213	0.223758
525.344647	0.222528
525.707025	0.223576
526.069345	0.221385
526.431608	0.223468
526.793815	0.221185
527.155964	0.225650
527.518057	0.224491
527.880093	0.225404
528.242072	0.223857
528.603995	0.225958
528.965860	0.227515
529.327669	0.226314
529.689421	0.227263
530.051117	0.228217
530.412755	0.225989
530.774337	0.228265
531.135862	0.228959
531.497331	0.228091
531.858743	0.230977
532.220098	0.227446
532.581396	0.230045
532.942638	0.230504
533.303824	0.231549
533.664953	0.231444
534.026025	0.233230
534.387040	0.231112
534.747999	0.230966
535.108902	0.229887
535.469748	0.235070
535.830537	0.233143
536.191270	0.233064
536.551947	0.232787
536.912567	0.232700
537.273131	0.234624
537.633638	0.235016
537.994089	0.235235
538.354483	0.236315
538.714821	0.233290
539.075103	0.233147
539.435328	0.233751
539.795497	0.237644
540.155609	0.234373
540.515665	0.232487
540.875665	0.237865
541.235609	0.236662
541.595496	0.236751
541.955328	0.233254
542.315102	0.236121
542.674821	0.236973
543.034483	0.237248
543.394090	0.236825
543.753640	0.238741
544.113134	0.233537
544.472571	0.237162
544.831953	0.234005
545.191278	0.238086
545.550548	0.237288
545.909761	0.234249
546.268918	0.235060
546.628019	0.233234
546.987064	0.236078
547.346053	0.237941
547.704986	0.235663
548.063863	0.236025
548.422684	0.236269
548.781449	0.238238
549.140158	0.236022
549.498811	0.238659
549.857408	0.241603
550.215949	0.236351
550.574434	0.239510
550.932864	0.237572
551.291237	0.235964
551.649555	0.237751
552.007817	0.237219
552.366022	0.238217
552.724173	0.238502
553.082267	0.238503
553.440305	0.235493
553.798288	0.240252
554.156215	0.236673
554.514086	0.237077
554.871902	0.240700
555.229661	0.239554
555.587365	0.240345
555.945014	0.242715
556.302606	0.239390
556.660143	0.242550
557.017625	0.238782
557.375050	0.241032
557.732421	0.238069
558.089735	0.240044
558.446994	0.239799
558.804197	0.239109
559.161345	0.238715
559.518437	0.242477
559.875474	0.240615
560.232455	0.239961
560.589381	0.240849
560.946251	0.241156
561.303065	0.238600
561.659825	0.240003
562.016528	0.241574
562.373177	0.244287
562.729770	0.241594
563.086307	0.243504
563.442789	0.241688
563.799216	0.244165
564.155587	0.243251
564.511904	0.244286
564.868164	0.244173
565.224370	0.243944
565.580520	0.246123
565.936615	0.245808
566.292654	0.248847
566.648638	0.245703
567.004567	0.246932
567.360441	0.247103
567.716260	0.248997
568.072023	0.246743
568.427732	0.247927
568.783385	0.250120
569.138982	0.247901
569.494525	0.247764
569.850013	0.250848
570.205445	0.249456
570.560823	0.251714
570.916145	0.253778
571.271412	0.252277
571.626625	0.253489
571.981782	0.253875
572.336884	0.254899
572.691931	0.254448
573.046923	0.256141
573.401860	0.256925
573.756743	0.258910
574.111570	0.257701
574.466342	0.257908
574.821059	0.257293
575.175722	0.260150
575.530330	0.259846
575.884882	0.260158
576.239380	0.262029
576.593823	0.262524
576.948211	0.262091
577.302544	0.265043
577.656823	0.265072
578.011047	0.264797
578.365216	0.265916
578.719330	0.267677
579.073389	0.267136
579.427394	0.268493
579.781344	0.269639
580.135239	0.270820
580.489080	0.270561
580.842866	0.273607
581.196597	0.273837
581.550273	0.272140
581.903895	0.273294
582.257463	0.270949
582.610975	0.274630
582.964434	0.273799
583.317837	0.276351
583.671186	0.276741
584.024481	0.276894
584.377721	0.279300
584.730906	0.280006
585.084037	0.279455
585.437113	0.280950
585.790135	0.280527
586.143103	0.283565
586.496016	0.284610
586.848874	0.282416
587.201679	0.282748
587.554428	0.286106
587.907124	0.285059
588.259765	0.285471
588.612352	0.286251
588.964884	0.290090
589.317362	0.289324
589.669786	0.289243
590.022155	0.288044
590.374470	0.287457
590.726731	0.289248
591.078937	0.294283
591.431090	0.290681
591.783188	0.294878
592.135232	0.295122
592.487222	0.295171
592.839157	0.293350
593.191038	0.295740
593.542866	0.297593
593.894639	0.300683
594.246358	0.299330
594.598022	0.298712
594.949633	0.302084
595.301190	0.302802
595.652692	0.302082
596.004141	0.298032
596.355535	0.306023
596.706876	0.306644
597.058162	0.309101
597.409395	0.306300
597.760573	0.304171
598.111698	0.307314
598.462768	0.307794
598.813785	0.309103
599.164748	0.310598
599.515657	0.310522
599.866511	0.314096
600.217312	0.309420
600.568060	0.314642
600.918753	0.311059
601.269392	0.311866
601.619978	0.315401
601.970510	0.312930
602.320988	0.313258
602.671412	0.311129
603.021783	0.313538
603.372100	0.314414
603.722363	0.314445
604.072572	0.315661
604.422728	0.315109
604.772830	0.317646
605.122878	0.317038
605.472872	0.317340
605.822813	0.315706
606.172701	0.318332
606.522534	0.315727
606.872314	0.316111
607.222041	0.316980
607.571714	0.314985
607.921333	0.316439
608.270899	0.316531
608.620411	0.313091
608.969870	0.316772
609.319276	0.317146
609.668627	0.316820
610.017926	0.315430
610.367171	0.314205
610.716362	0.314988
611.065500	0.314670
611.414585	0.313803
611.763616	0.314104
612.112594	0.314367
612.461518	0.313633
612.810389	0.311778
613.159207	0.314075
613.507971	0.315639
613.856682	0.311521
614.205340	0.312499
614.553945	0.310158
614.902496	0.313864
615.250994	0.311610
615.599439	0.312485
615.947830	0.311755
616.296169	0.313011
616.644454	0.312671
616.992686	0.312785
617.340864	0.310668
617.688990	0.314122
618.037063	0.310813
618.385082	0.312894
618.733048	0.309115
619.080961	0.311865
619.428821	0.311082
619.776628	0.310855
620.124382	0.313361
620.472083	0.313939
620.819731	0.312892
621.167326	0.316827
621.514868	0.316450
621.862357	0.320804
622.209793	0.320364
622.557176	0.323076
622.904506	0.323426
623.251783	0.325995
623.599007	0.328242
623.946179	0.327885
624.293297	0.330164
624.640363	0.333843
624.987376	0.334244
625.334336	0.336735
625.681243	0.339363
626.028097	0.339570
626.374899	0.340391
626.721647	0.341575
627.068343	0.344352
627.414987	0.345329
627.761577	0.347665
628.108115	0.345565
628.454600	0.351247
628.801032	0.348832
629.147412	0.350876
629.493739	0.351395
629.840014	0.354253
630.186236	0.351525
630.532405	0.356791
630.878521	0.354485
631.224585	0.356614
631.570597	0.360647
631.916556	0.359453
632.262462	0.358880
632.608316	0.361416
632.954117	0.362135
633.299866	0.363160
633.645562	0.363722
633.991206	0.367770
634.336797	0.370611
634.682336	0.373260
635.027823	0.375002
635.373257	0.375774
635.718639	0.379294
636.063968	0.378458
636.409245	0.384111
636.754470	0.384976
637.099642	0.386993
637.444762	0.390696
637.789829	0.389556
638.134845	0.393328
638.479808	0.394517
638.824719	0.394108
639.169577	0.398457
639.514383	0.397793
639.859137	0.401526
640.203839	0.401223
640.548489	0.401564
640.893086	0.403751
641.237632	0.405320
641.582125	0.403914
641.926566	0.405876
642.270955	0.405692
642.615292	0.405995
642.959576	0.405304
643.303809	0.406136
643.647990	0.405924
643.992118	0.406390
644.336195	0.409397
644.680219	0.408296
645.024192	0.409181
645.368112	0.402945
645.711981	0.401849
646.055797	0.397259
646.399562	0.400209
646.743274	0.393150
647.086935	0.389495
647.430544	0.390407
647.774101	0.389588
648.117606	0.389230
648.461059	0.389816
648.804460	0.392399
649.147810	0.397272
649.491108	0.399022
649.834354	0.401388
650.177548	0.406377
650.520690	0.412071
650.863781	0.412950
651.206820	0.412391
651.549807	0.417141
651.892742	0.422157
652.235626	0.421494
652.578458	0.422265
652.921238	0.428722
653.263967	0.426263
653.606644	0.430088
653.949269	0.431125
654.291843	0.434672
654.634365	0.432079
654.976836	0.434928
655.319255	0.435565
655.661622	0.437104
656.003938	0.438069
656.346203	0.440304
656.688416	0.438980
657.030577	0.441866
657.372687	0.444466
657.714746	0.445313
658.056753	0.442663
658.398708	0.447056
658.740612	0.447905
659.082465	0.444894
659.424266	0.445670
659.766016	0.445097
660.107715	0.449234
660.449362	0.447795
660.790958	0.448876
661.132503	0.450026
661.473996	0.447250
661.815438	0.448982
662.156829	0.449118
662.498168	0.450150
662.839456	0.451550
663.180693	0.449861
663.521879	0.449551
663.863013	0.451419
664.204097	0.450515
664.545129	0.447047
664.886110	0.447746
665.227040	0.446243
665.567918	0.448903
665.908746	0.447292
666.249522	0.447281
666.590248	0.448372
666.930922	0.447284
667.271545	0.447465
667.612118	0.446773
667.952639	0.448507
668.293109	0.448452
668.633528	0.451021
668.973896	0.450767
669.314213	0.452032
669.654480	0.454511
669.994695	0.454311
670.334859	0.454916
670.674973	0.456946
671.015035	0.456754
671.355047	0.457598
671.695008	0.459211
672.034918	0.460495
672.374777	0.461332
672.714585	0.462580
673.054342	0.463100
673.394049	0.463226
673.733705	0.462301
674.073310	0.464273
674.412864	0.465714
674.752368	0.467909
675.091820	0.468385
675.431223	0.473323
675.770574	0.473767
676.109875	0.476091
676.449125	0.476604
676.788324	0.479458
677.127473	0.485255
677.466571	0.485115
677.805619	0.487563
678.144616	0.489423
678.483562	0.491384
678.822458	0.493760
679.161303	0.494539
679.500098	0.496411
679.838842	0.497617
680.177535	0.498125
680.516179	0.496356
680.854771	0.496604
681.193314	0.491331
681.531805	0.483279
681.870247	0.474454
682.208638	0.468411
682.546978	0.467475
682.885268	0.468888
683.223508	0.476997
683.561697	0.480432
683.899836	0.483652
684.237925	0.487055
684.575963	0.489863
684.913951	0.492928
685.251889	0.490915
685.589776	0.492509
685.927614	0.495557
686.265401	0.491941
686.603137	0.493032
686.940824	0.489915
687.278460	0.488446
687.616046	0.488729
687.953582	0.484882
688.291068	0.487223
688.628504	0.484509
688.965889	0.486277
689.303224	0.489796
689.640510	0.494947
689.977745	0.501163
690.314930	0.507783
690.652065	0.511937
690.989150	0.518939
691.326185	0.525722
691.663170	0.530779
692.000105	0.537355
692.336990	0.544091
692.673825	0.547527
693.010610	0.553451
693.347345	0.557867
693.684030	0.562378
694.020665	0.565849
694.357251	0.573640
694.693786	0.574256
695.030272	0.577855
695.366707	0.582106
695.703093	0.584516
696.039429	0.584543
696.375716	0.588059
696.711952	0.589489
697.048139	0.591311
697.384276	0.594111
697.720363	0.593642
698.056400	0.594797
698.392388	0.599626
698.728326	0.601784
699.064214	0.604312
699.400053	0.605891
699.735842	0.611548
700.071581	0.613231
700.407270	0.616312
700.742910	0.618802
701.078501	0.624840
701.414042	0.626883
701.749533	0.630193
702.084974	0.636463
702.420366	0.632257
702.755709	0.638246
703.091002	0.645194
703.426246	0.642727
703.761440	0.644890
704.096584	0.648737
704.431679	0.648477
704.766725	0.651642
705.101721	0.654761
705.436668	0.652171
705.771565	0.656006
706.106413	0.652722
706.441212	0.652785
706.775961	0.652882
707.110661	0.653238
707.445311	0.650290
707.779913	0.651352
708.114465	0.649857
708.448967	0.646945
708.783421	0.641272
709.117825	0.638300
709.452180	0.638377
709.786485	0.632861
710.120742	0.625754
710.454949	0.626353
710.789107	0.621578
711.123216	0.614951
711.457275	0.615798
711.791286	0.611334
712.125247	0.612647
712.459159	0.617292
712.793023	0.611229
713.126837	0.620525
713.460602	0.620766
713.794318	0.624898
714.127985	0.626737
714.461602	0.637219
714.795171	0.637159
715.128691	0.645715
715.462162	0.652760
715.795584	0.658862
716.128957	0.661797
716.462281	0.664594
716.795556	0.668822
717.128782	0.674791
717.461960	0.683168
717.795088	0.682512
718.128167	0.688937
718.461198	0.693540
718.794180	0.694476
719.127113	0.699685
719.459997	0.703002
719.792833	0.706176
720.125619	0.707046
720.458357	0.712504
720.791046	0.714848
721.123686	0.717694
721.456278	0.723294
721.788821	0.721814
722.121315	0.726473
722.453761	0.728540
722.786158	0.729165
723.118506	0.726693
723.450805	0.730035
723.783056	0.728095
724.115259	0.730083
724.447412	0.729367
724.779518	0.729404
725.111574	0.729810
725.443582	0.726343
725.775542	0.729256
726.107453	0.724025
726.439315	0.725363
726.771129	0.722101
727.102895	0.717619
727.434612	0.714863
727.766281	0.712944
728.097901	0.710942
728.429473	0.712364
728.760996	0.711608
729.092471	0.711960
729.423897	0.715786
729.755276	0.717229
730.086606	0.715844
730.417887	0.711422
730.749120	0.705576
731.080305	0.702795
731.411442	0.698354
731.742530	0.700256
732.073570	0.700705
732.404562	0.697683
732.735506	0.698737
733.066401	0.702190
733.397249	0.708544
733.728048	0.717467
734.058798	0.730586
734.389501	0.739724
734.720156	0.744317
735.050762	0.750895
735.381320	0.754752
735.711831	0.758752
736.042293	0.762587
736.372707	0.763583
736.703073	0.765377
737.033391	0.765414
737.363661	0.765184
737.693883	0.762668
738.024056	0.762276
738.354182	0.761692
738.684260	0.755724
739.014290	0.752812
739.344272	0.752435
739.674207	0.749139
740.004093	0.748930
740.333931	0.749255
740.663722	0.750737
740.993464	0.751931
741.323159	0.753503
741.652806	0.758103
741.982405	0.762503
742.311956	0.766991
742.641460	0.769339
742.970915	0.773016
743.300323	0.776374
743.629683	0.781268
743.958996	0.784843
744.288260	0.788344
744.617477	0.793943
744.946647	0.794427
745.275768	0.800424
745.604842	0.800437
745.933869	0.804766
746.262847	0.807062
746.591778	0.805434
746.920662	0.808886
747.249498	0.811944
747.578286	0.809101
747.907027	0.804873
748.235720	0.802406
748.564365	0.802110
748.892963	0.804646
749.221514	0.805850
749.550017	0.806923
749.878473	0.809564
750.206881	0.814087
750.535242	0.815094
750.863555	0.814636
751.191821	0.816905
751.520039	0.817212
751.848210	0.818880
752.176334	0.818541
752.504411	0.820070
752.832440	0.822331
753.160421	0.824844
753.488356	0.825223
753.816243	0.824886
754.144082	0.828898
754.471875	0.830715
754.799620	0.830426
755.127318	0.830911
755.454969	0.830931
755.782572	0.832331
756.110129	0.833880
756.437638	0.835531
756.765100	0.835741
757.092515	0.834583
757.419882	0.834741
757.747203	0.836400
758.074477	0.836425
758.401703	0.835345
758.728882	0.832836
759.056014	0.833210
759.383099	0.832098
759.710138	0.830887
760.037129	0.827714
760.364073	0.827669
760.690970	0.829596
761.017820	0.830436
761.344623	0.829730
761.671379	0.825336
761.998088	0.819609
762.324751	0.805417
762.651366	0.774477
762.977935	0.728586
763.304456	0.698064
763.630931	0.696745
763.957359	0.721066
764.283740	0.750395
764.610074	0.771459
764.936362	0.792748
765.262602	0.808331
765.588796	0.822470
765.914943	0.833025
766.241044	0.843091
766.567097	0.848449
766.893104	0.854578
767.219064	0.858927
767.544978	0.864065
767.870845	0.869640
768.196665	0.871784
768.522438	0.874088
768.848165	0.875529
769.173846	0.880369
769.499479	0.882234
769.825066	0.884903
770.150607	0.887722
770.476101	0.887754
770.801548	0.889726
771.126949	0.893194
771.452303	0.895874
771.777611	0.897798
772.102872	0.896881
772.428087	0.900261
772.753256	0.902113
773.078378	0.903393
773.403453	0.907139
773.728482	0.911337
774.053465	0.909167
774.378401	0.911324
774.703291	0.914968
775.028135	0.915624
775.352932	0.915773
775.677683	0.919061
776.002388	0.919720
776.327046	0.917986
776.651658	0.921957
776.976224	0.923173
777.300743	0.923234
777.625216	0.924442
777.949643	0.925835
778.274024	0.925348
778.598359	0.926725
778.922647	0.926091
779.246889	0.927912
779.571086	0.929388
779.895236	0.929730
780.219339	0.928820
780.543397	0.927156
780.867409	0.927374
781.191374	0.927951
781.515294	0.929233
781.839167	0.929374
782.162995	0.929763
782.486776	0.929161
782.810511	0.929602
783.134201	0.932760
783.457844	0.932480
783.781441	0.933691
784.104993	0.935137
784.428498	0.935944
784.751958	0.935691
785.075372	0.936402
785.398739	0.937140
785.722061	0.935841
786.045337	0.935012
786.368568	0.935598
786.691752	0.935737
787.014891	0.931265
787.337983	0.926473
787.661030	0.918383
787.984031	0.909929
788.306987	0.904387
788.629897	0.902990
788.952760	0.909711
789.275579	0.913774
789.598351	0.920168
789.921078	0.927009
790.243759	0.930011
790.566395	0.933578
790.888984	0.936541
791.211529	0.938732
791.534027	0.941256
791.856480	0.942809
792.178888	0.944389
792.501249	0.945608
792.823566	0.948643
793.145836	0.947525
793.468062	0.948072
793.790241	0.950075
794.112375	0.947469
794.434464	0.945541
794.756507	0.945550
795.078505	0.943832
795.400457	0.940683
795.722364	0.934795
796.044226	0.931571
796.366042	0.929136
796.687812	0.931079
797.009538	0.931699
797.331218	0.933979
797.652852	0.936809
797.974442	0.937460
798.295986	0.940138
798.617484	0.940141
798.938938	0.942730
799.260346	0.944097
799.581709	0.944981
799.903026	0.948169
800.224299	0.948488
800.545526	0.949869
800.866708	0.952275
801.187845	0.953695
801.508936	0.953186
801.829983	0.953699
802.150984	0.955835
802.471940	0.957031
802.792851	0.956061
803.113717	0.958211
803.434538	0.958218
803.755314	0.958938
804.076045	0.958683
804.396731	0.958873
804.717372	0.957952
805.037967	0.959209
805.358518	0.959119
805.679024	0.956427
805.999485	0.957720
806.319901	0.957189
806.640272	0.957845
806.960598	0.956443
807.280879	0.955541
807.601115	0.955827
807.921306	0.957154
808.241453	0.957099
808.561554	0.955890
808.881611	0.956863
809.201623	0.957437
809.521590	0.957713
809.841513	0.958458
810.161390	0.956929
810.481223	0.959264
810.801011	0.960416
811.120755	0.962522
811.440453	0.961085
811.760107	0.962642
812.079716	0.962955
812.399281	0.963550
812.718801	0.963714
813.038276	0.964470
813.357707	0.965081
813.677093	0.965225
813.996434	0.964930
814.315731	0.966741
814.634983	0.966349
814.954191	0.966519
815.273354	0.964720
815.592473	0.964135
815.911547	0.964592
816.230577	0.962196
816.549562	0.962199
816.868502	0.960491
817.187399	0.961800
817.506250	0.960446
817.825058	0.958594
818.143821	0.959008
818.462539	0.957022
818.781213	0.953876
819.099843	0.950004
819.418429	0.942044
819.736970	0.935024
820.055466	0.925830
820.373919	0.918672
820.692327	0.907147
821.010691	0.890763
821.329011	0.847036
821.647286	0.774852
821.965517	0.705640
822.283704	0.679069
822.601847	0.684198
822.919945	0.715514
823.237999	0.750802
823.556010	0.783138
823.873976	0.812926
824.191897	0.838222
824.509775	0.859782
824.827609	0.878118
825.145398	0.887795
825.463144	0.887604
825.780845	0.882279
826.098502	0.873070
826.416116	0.849312
826.733685	0.825363
827.051210	0.820606
827.368692	0.833239
827.686129	0.855603
828.003522	0.880122
828.320872	0.899296
828.638177	0.915961
828.955439	0.930095
829.272656	0.938770
829.589830	0.944650
829.906960	0.951376
830.224046	0.955589
830.541088	0.959484
830.858086	0.961752
831.175041	0.964500
831.491952	0.963458
831.808819	0.963636
832.125642	0.961345
832.442421	0.956839
832.759157	0.946938
833.075849	0.926316
833.392497	0.902675
833.709101	0.886298
834.025662	0.890927
834.342179	0.903997
834.658653	0.921422
834.975083	0.935431
835.291469	0.946849
835.607811	0.954366
835.924110	0.960242
836.240366	0.967181
836.556578	0.970603
836.872746	0.972914
837.188871	0.974079
837.504952	0.977079
837.820990	0.979165
838.136984	0.979499
838.452935	0.980124
838.768842	0.980808
839.084706	0.978064
839.400526	0.969377
839.716303	0.951245
840.032037	0.943895
840.347727	0.944877
840.663373	0.954254
840.978977	0.963190
841.294537	0.971676
841.610054	0.975924
841.925527	0.979472
842.240957	0.981595
842.556344	0.982546
842.871687	0.985086
843.186987	0.986135
843.502244	0.987890
843.817458	0.988571
844.132629	0.988096
844.447756	0.989715
844.762840	0.990140
845.077881	0.991928
845.392879	0.989386
845.707833	0.991416
846.022745	0.991585
846.337613	0.991794
846.652438	0.992170
846.967221	0.992996
847.281960	0.992078
847.596656	0.992952
847.911309	0.992700
848.225919	0.991995
848.540485	0.993249
848.855009	0.995226
849.169490	0.993356
849.483928	0.993109
849.798323	0.992444
850.112675	0.994841
850.426984	0.994063
850.741251	0.993981
851.055474	0.994232
851.369654	0.993741
851.683792	0.993435
851.997887	0.993307
852.311938	0.994814
852.625947	0.992684
852.939914	0.993027
853.253837	0.995041
853.567718	0.994759
853.881555	0.994102
854.195350	0.994209
854.509103	0.993498
854.822812	0.995255
855.136479	0.993786
855.450103	0.994477
855.763685	0.994106
856.077224	0.994595
856.390720	0.993097
856.704173	0.995010
857.017584	0.994335
857.330953	0.993437
857.644278	0.993263
857.957561	0.992890
858.270802	0.994421
858.584000	0.993660
858.897155	0.993535
859.210268	0.993333
859.523339	0.993045
859.836367	0.994411
860.149352	0.993747
860.462295	0.993882
860.775195	0.994530
861.088054	0.992523
861.400869	0.994352
861.713642	0.993356
862.026373	0.994297
862.339062	0.995140
862.651708	0.994944
862.964312	0.994809
863.276873	0.993042
863.589392	0.993571
863.901869	0.992936
864.214303	0.993752
864.526696	0.992937
864.839045	0.993001
865.151353	0.991977
865.463619	0.992161
865.775842	0.992925
866.088023	0.992616
866.400162	0.992328
866.712258	0.993677
867.024313	0.993165
867.336325	0.993992
867.648296	0.993345
867.960224	0.993502
868.272110	0.993440
868.583954	0.993092
868.895755	0.993103
869.207515	0.992871
869.519233	0.992330
869.830909	0.991254
870.142542	0.992100
870.454134	0.993000
870.765684	0.991512
871.077191	0.992238
871.388657	0.991979
871.700081	0.990895
872.011463	0.991683
872.322803	0.991809
872.634101	0.990004
872.945357	0.989620
873.256571	0.989831
873.567744	0.989269
873.878874	0.990106
874.189963	0.989118
874.501010	0.990398
874.812015	0.989894
875.122979	0.990309
875.433900	0.988510
875.744780	0.990475
876.055618	0.988693
876.366415	0.989151
876.677169	0.988728
876.987882	0.988960
877.298554	0.991092
877.609183	0.988716
877.919771	0.989006
878.230317	0.989810
878.540822	0.986809
878.851285	0.985943
879.161707	0.983848
879.472087	0.982313
879.782425	0.975128
880.092722	0.966988
880.402977	0.949382
880.713191	0.921884
881.023363	0.888543
881.333494	0.869331
881.643583	0.865460
881.953631	0.871371
882.263637	0.883889
882.573602	0.899388
882.883526	0.913223
883.193408	0.924309
883.503248	0.934647
883.813048	0.941807
884.122806	0.952458
884.432522	0.959899
884.742197	0.966380
885.051831	0.969124
885.361424	0.973314
885.670975	0.976994
885.980485	0.978341
886.289954	0.981163
886.599382	0.981524
886.908768	0.983644
887.218113	0.983590
887.527417	0.987218
887.836680	0.988082
888.145901	0.988456
888.455082	0.989700
888.764221	0.990416
889.073319	0.989870
889.382376	0.992047
889.691392	0.990540
890.000366	0.990525
890.309300	0.990399
890.618193	0.990331
890.927044	0.989666
891.235855	0.989516
891.544625	0.990306
891.853353	0.989200
892.162041	0.988449
892.470687	0.989116
892.779293	0.985884
893.087858	0.983709
893.396381	0.982845
893.704864	0.977577
894.013306	0.971933
894.321707	0.963646
894.630068	0.957773
894.938387	0.955729
895.246665	0.958214
895.554903	0.961629
895.863100	0.968641
896.171256	0.972529
896.479371	0.976294
896.787446	0.979990
897.095480	0.982525
897.403473	0.984584
897.711425	0.985243
898.019336	0.987143
898.327207	0.988977
898.635038	0.987781
898.942827	0.988998
899.250576	0.988804
899.558284	0.990265
899.865952	0.988046
900.173579	0.990688
900.481165	0.991295
900.788711	0.991301
901.096216	0.991616
901.403681	0.992302
901.711105	0.992991
902.018489	0.991585
902.325832	0.993097
902.633135	0.991922
902.940397	0.991496
903.247619	0.987833
903.554800	0.979415
903.861941	0.968072
904.169041	0.955076
904.476101	0.949366
904.783121	0.950227
905.090100	0.955936
905.397039	0.962712
905.703938	0.970087
906.010796	0.975784
906.317614	0.980845
906.624391	0.984833
906.931129	0.986899
907.237826	0.988982
907.544483	0.991574
907.851099	0.990778
908.157675	0.992801
908.464211	0.993810
908.770707	0.993408
909.077163	0.995740
909.383578	0.993943
909.689954	0.995563
909.996289	0.994979
910.302584	0.996397
910.608839	0.997581
910.915054	0.996031
911.221229	0.997197
911.527363	0.995730
911.833458	0.995544
912.139513	0.994804
912.445527	0.996799
912.751502	0.996472
913.057436	0.994802
913.363331	0.995410
913.669186	0.993695
913.975000	0.992511
914.280775	0.990505
914.586510	0.987166
914.892205	0.983164
915.197859	0.977367
915.503475	0.970485
915.809050	0.962896
916.114585	0.958328
916.420081	0.958546
916.725536	0.959509
917.030952	0.962179
917.336328	0.966966
917.641665	0.970583
917.946961	0.974413
918.252218	0.977402
918.557435	0.980933
918.862612	0.984100
919.167750	0.985613
919.472848	0.988378
919.777906	0.990111
920.082925	0.991522
920.387904	0.992251
920.692843	0.992180
920.997743	0.992429
921.302603	0.993557
921.607423	0.992796
921.912204	0.993415
922.216946	0.995425
922.521647	0.995678
922.826310	0.994946
923.130932	0.996177
923.435516	0.996756
923.740059	0.997324
924.044564	0.996361
924.349028	0.996297
924.653454	0.998006
924.957840	0.998257
925.262186	0.997414
925.566493	0.997424
925.870761	0.998855
926.174989	0.997535
926.479178	0.999512
926.783328	0.999102
927.087438	0.998718
927.391509	0.997840
927.695541	0.998585
927.999533	1.000119
928.303486	0.999559
928.607400	0.999836
928.911275	1.000331
929.215110	1.000657
929.518906	0.999598
929.822663	1.000663
930.126381	1.000707
930.430060	0.999417
930.733699	0.999755
931.037299	0.999327
931.340861	0.999721
931.644383	0.998961
931.947866	0.999446
932.251309	1.000819
932.554714	0.998654
932.858080	0.999637
933.161407	0.998855
933.464694	0.999579
933.767943	0.999806
934.071153	1.000877
934.374323	1.001235
934.677455	1.000465
934.980548	0.999778
935.283602	1.001107
935.586617	0.999170
935.889593	1.001387
936.192530	1.001062
936.495428	1.000829
936.798287	0.999925
937.101108	0.999497
937.403890	0.998860
937.706632	1.001198
938.009336	0.999851
938.312002	0.998954
938.614628	0.998575
938.917216	0.996709
939.219765	0.997124
939.522275	0.998200
939.824747	0.998018
940.127179	0.997575
940.429573	0.998946
940.731929	0.998219
941.034246	0.997682
941.336524	0.997172
941.638763	0.997916
941.940964	0.998935
942.243126	0.999285
942.545250	0.998707
942.847335	0.998877
943.149381	0.999066
943.451389	0.998971
943.753359	0.998786
944.055290	1.001103
944.357182	0.999955
944.659036	0.999897
944.960851	0.999287
945.262628	1.000266
945.564367	0.999457
945.866067	0.999956
946.167729	1.001195
946.469352	0.999960
946.770937	0.998628
947.072484	1.000336
947.373992	0.998447
947.675462	1.000035
947.976893	0.999417
948.278286	1.002254
948.579641	1.000160
948.880958	0.999907
949.182236	1.001016
949.483476	1.000758
949.784678	1.000570
950.085841	0.999859
950.386967	0.999748
950.688054	0.999571
950.989103	0.999257
951.290114	0.999102
951.591087	0.999891
951.892021	0.999380
952.192917	0.999692
952.493776	0.999254
952.794596	0.998449
953.095378	0.999050
953.396122	0.999692
953.696828	0.999812
953.997496	1.000648
954.298126	1.000269
954.598718	0.999673
954.899272	1.000172
955.199788	1.000230
955.500266	1.001398
955.800706	0.999844
956.101108	1.000439
956.401472	1.003003
956.701798	1.000971
957.002087	1.001772
957.302337	0.999941
957.602550	1.001554
957.902724	1.000848
958.202861	1.001128
958.502960	1.000955
958.803022	1.002415
959.103045	1.001453
959.403031	1.003686
959.702979	1.002172
960.002889	1.002822
960.302762	1.000759
960.602596	1.002577
960.902393	1.001975
961.202153	1.001456
961.501875	1.001641
961.801559	1.002175
962.101205	1.001440
962.400814	1.002611
962.700385	1.002963
962.999918	1.002799
963.299414	1.000530
963.598873	1.002508
963.898293	1.002417
964.197677	1.001309
964.497022	1.002295
964.796331	1.002723
965.095601	1.003006
965.394835	1.001321
965.694030	1.002821
965.993189	1.001624
966.292309	1.003735
966.591393	1.001268
966.890439	1.003280
967.189447	1.001205
967.488419	1.002638
967.787353	1.001180
968.086249	1.002689
968.385108	1.002252
968.683930	1.003090
968.982714	1.002752
969.281462	1.002885
969.580172	1.003337
969.878844	1.003605
970.177480	1.002634
970.476078	1.003219
970.774639	1.002669
971.073162	1.001620
971.371649	1.002241
971.670098	1.002428
971.968510	1.003291
972.266885	1.001290
972.565223	1.002257
972.863524	1.001694
973.161788	1.001764
973.460014	1.003953
973.758204	1.002529
974.056356	1.001735
974.354471	1.002228
974.652550	1.002710
974.950591	1.002131
975.248595	1.001020
975.546563	1.001988
975.844493	1.002994
976.142386	1.002123
976.440243	1.002284
976.738062	1.004198
977.035845	1.001775
977.333590	1.003389
977.631299	1.001865
977.928971	1.001606
978.226606	1.002300
978.524204	1.002676
978.821765	1.002798
979.119290	1.002954
979.416777	1.002764
979.714228	1.001441
980.011642	1.003995
980.309020	1.002361
980.606360	1.002690
980.903664	1.002378
981.200931	1.003202
981.498162	1.002736
981.795356	1.002019
982.092513	1.002016
982.389633	1.002665
982.686717	1.000465
982.983764	1.001055
983.280775	1.000368
983.577749	1.001234
983.874686	1.001203
984.171587	1.000133
984.468451	1.000806
984.765279	1.002419
985.062070	1.001322
985.358824	1.001379
985.655543	1.002355
985.952224	1.002891
986.248869	1.001915
986.545478	1.003963
986.842050	1.002371
987.138586	1.002674
987.435086	1.002342
987.731549	1.004239
988.027975	1.002695
988.324366	1.002799
988.620719	1.003088
988.917037	1.003564
989.213318	1.003939
989.509563	1.003008
989.805772	1.003075
990.101944	1.004059
990.398080	1.003610
990.694180	1.004378
990.990244	1.002358
991.286271	1.003030
991.582262	1.003932
991.878217	1.003424
992.174136	1.003523
992.470019	1.003815
992.765865	1.005866
993.061676	1.004479
993.357450	1.003664
993.653188	1.004571
993.948890	1.003493
994.244556	1.001917
994.540186	1.002822
994.835780	1.004404
995.131337	1.003053
995.426859	1.002612
995.722345	1.002208
996.017795	1.003217
996.313208	1.002978
996.608586	1.003681
996.903928	1.002689
997.199234	1.003572
997.494504	1.003547
997.789738	1.001511
998.084936	1.002360
998.380099	1.001786
998.675225	1.004051
998.970316	1.001651
999.265371	1.002707
999.560390	1.002854
999.855373	1.003579
1000.150320	1.002689
1000.445232	1.002470
1000.740108	1.002243
1001.034948	1.003175
1001.329752	1.003641
1001.624521	1.003973
1001.919254	1.002610
1002.213951	1.003448
1002.508613	1.001982
1002.803239	1.002796
1003.097829	1.004364
1003.392384	1.002788
1003.686903	1.003349
1003.981386	1.003781
1004.275834	1.004177
1004.570246	1.002438
1004.864623	1.003744
1005.158964	1.003566
1005.453270	1.003161
1005.747540	1.003978
1006.041775	1.003232
1006.335974	1.004103
1006.630138	1.003581
1006.924266	1.002828
1007.218359	1.001652
1007.512416	1.004208
1007.806438	1.003338
1008.100425	1.004205
1008.394376	1.004151
1008.688292	1.002805
1008.982172	1.003712
1009.276017	1.005084
1009.569827	1.004244
1009.863602	1.003329
1010.157341	1.003744
1010.451045	1.004646
1010.744714	1.005810
1011.038347	1.004429
1011.331945	1.003049
1011.625508	1.003765
1011.919036	1.003214
1012.212528	1.003556
1012.505986	1.003630
1012.799408	1.004162
1013.092795	1.003672
1013.386147	1.004366
1013.679464	1.003674
1013.972745	1.003460
1014.265992	1.003838
1014.559204	1.002384
1014.852380	1.004502
1015.145521	1.003906
1015.438628	1.003472
1015.731699	1.003300
1016.024736	1.003055
1016.317737	1.004422
1016.610703	1.003883
1016.903635	1.004147
1017.196531	1.002778
1017.489393	1.002332
1017.782219	1.002989
1018.075011	1.002636
1018.367768	1.003613
1018.660490	1.003549
1018.953177	1.003549
1019.245829	1.003549
