Dividing Wavelength (nm)	Counts (n)	Blue Motor Position (mm): 10.000000	Red Motor Position (mm): 0.000000	
326.493990	1.003483
326.888308	1.003483
327.282561	1.003483
327.676750	1.004436
328.070874	1.004813
328.464933	1.004930
328.858929	1.005494
329.252859	1.004804
329.646726	1.003816
330.040528	1.002621
330.434265	1.003955
330.827938	1.003435
331.221547	1.003940
331.615091	1.004600
332.008571	1.006384
332.401986	1.003889
332.795338	1.004733
333.188625	1.004270
333.581847	1.003086
333.975006	1.005025
334.368100	1.004741
334.761129	1.003501
335.154095	1.004054
335.546996	1.002804
335.939833	0.997425
336.332606	0.999724
336.725315	0.998667
337.117960	0.999827
337.510540	0.998359
337.903056	0.998728
338.295508	0.999682
338.687896	1.000598
339.080220	0.998704
339.472480	0.998930
339.864676	1.000445
340.256807	0.998235
340.648875	0.999560
341.040879	0.999411
341.432818	1.000306
341.824694	1.000002
342.216506	0.999290
342.608253	0.998814
342.999937	0.999114
343.391557	0.998616
343.783113	1.000125
344.174605	0.998748
344.566033	0.999183
344.957397	0.999415
345.348697	0.999471
345.739934	0.999680
346.131106	0.997958
346.522215	0.998056
346.913260	0.999765
347.304241	0.997764
347.695159	0.999416
348.086012	0.998097
348.476802	0.999000
348.867528	0.997499
349.258191	0.999947
349.648789	0.998676
350.039324	0.999134
350.429796	0.998205
350.820203	0.997745
351.210548	0.997998
351.600828	0.998685
351.991045	0.997696
352.381198	0.998063
352.771288	0.998377
353.161314	0.998046
353.551276	0.999098
353.941175	0.996299
354.331010	0.999482
354.720782	0.998355
355.110490	0.996674
355.500135	0.998043
355.889717	0.997890
356.279235	0.997954
356.668689	0.998318
357.058080	0.997547
357.447408	0.996059
357.836672	0.998324
358.225873	0.997114
358.615010	0.997486
359.004084	0.996600
359.393095	0.997755
359.782043	0.996844
360.170927	0.998699
360.559748	0.997408
360.948505	0.998127
361.337199	0.996987
361.725830	0.998317
362.114398	0.997764
362.502903	0.997209
362.891344	0.995250
363.279722	0.997247
363.668037	0.997409
364.056289	0.996571
364.444478	0.998625
364.832603	0.996589
365.220665	0.997426
365.608665	0.996903
365.996601	0.996791
366.384474	0.994954
366.772284	0.996267
367.160031	0.994743
367.547715	0.995008
367.935336	0.993667
368.322893	0.993697
368.710388	0.992179
369.097820	0.990134
369.485189	0.988220
369.872495	0.986683
370.259738	0.983522
370.646918	0.981641
371.034035	0.978104
371.421090	0.976089
371.808081	0.972016
372.195010	0.968616
372.581875	0.964463
372.968678	0.959093
373.355418	0.956439
373.742096	0.948190
374.128710	0.944312
374.515262	0.940001
374.901751	0.933201
375.288177	0.928805
375.674540	0.921487
376.060841	0.915738
376.447079	0.909123
376.833254	0.903246
377.219367	0.897134
377.605417	0.886509
377.991404	0.883025
378.377329	0.875765
378.763191	0.869502
379.148991	0.861174
379.534727	0.852675
379.920402	0.844980
380.306013	0.841196
380.691563	0.828856
381.077049	0.822245
381.462474	0.818423
381.847835	0.807490
382.233134	0.802135
382.618371	0.802555
383.003545	0.785438
383.388657	0.783656
383.773706	0.775982
384.158693	0.771864
384.543618	0.766203
384.928480	0.757131
385.313280	0.746883
385.698017	0.747098
386.082692	0.735772
386.467305	0.733823
386.851856	0.728788
387.236344	0.722728
387.620770	0.717450
388.005133	0.710938
388.389435	0.706584
388.773674	0.703669
389.157851	0.695326
389.541965	0.693122
389.926018	0.700263
390.310008	0.686172
390.693936	0.683723
391.077802	0.675877
391.461606	0.677287
391.845348	0.665790
392.229027	0.665913
392.612645	0.663957
392.996200	0.650940
393.379694	0.643291
393.763125	0.634697
394.146494	0.639323
394.529801	0.628736
394.913047	0.621316
395.296230	0.626358
395.679351	0.618889
396.062410	0.615187
396.445408	0.618618
396.828343	0.613813
397.211217	0.608881
397.594028	0.621578
397.976778	0.610632
398.359466	0.608149
398.742092	0.603075
399.124656	0.615178
399.507158	0.602917
399.889598	0.600703
400.271977	0.591904
400.654294	0.594498
401.036549	0.594502
401.418742	0.598704
401.800874	0.584362
402.182944	0.580760
402.564952	0.572573
402.946898	0.575219
403.328783	0.575584
403.710606	0.587077
404.092367	0.562247
404.474067	0.566358
404.855705	0.566242
405.237282	0.574613
405.618797	0.560590
406.000250	0.556802
406.381642	0.546373
406.762972	0.551963
407.144240	0.550188
407.525447	0.549679
407.906593	0.542462
408.287677	0.538523
408.668700	0.547196
409.049661	0.540759
409.430560	0.535495
409.811399	0.544413
410.192176	0.526537
410.572891	0.533178
410.953545	0.521650
411.334138	0.535202
411.714669	0.526863
412.095139	0.539575
412.475547	0.523469
412.855894	0.525856
413.236180	0.524047
413.616405	0.529654
413.996568	0.520413
414.376670	0.526830
414.756711	0.531586
415.136691	0.528115
415.516609	0.519294
415.896466	0.516019
416.276262	0.512278
416.655997	0.513826
417.035670	0.495735
417.415283	0.487489
417.794834	0.491664
418.174324	0.497375
418.553753	0.506004
418.933121	0.488520
419.312428	0.482658
419.691674	0.488139
420.070859	0.477167
420.449983	0.484478
420.829045	0.473590
421.208047	0.483030
421.586988	0.475342
421.965867	0.474297
422.344686	0.463040
422.723444	0.475538
423.102141	0.492729
423.480777	0.465623
423.859352	0.486597
424.237866	0.463550
424.616319	0.464414
424.994712	0.455549
425.373044	0.465633
425.751314	0.454059
426.129524	0.470589
426.507673	0.453511
426.885762	0.447015
427.263789	0.452683
427.641756	0.461896
428.019662	0.452795
428.397508	0.452252
428.775292	0.456484
429.153016	0.447575
429.530679	0.454666
429.908282	0.446848
430.285824	0.457777
430.663305	0.436212
431.040726	0.457374
431.418086	0.457322
431.795385	0.449421
432.172624	0.447652
432.549802	0.448285
432.926920	0.447309
433.303977	0.446830
433.680974	0.444066
434.057910	0.442442
434.434786	0.441844
434.811601	0.444291
435.188355	0.427076
435.565050	0.436297
435.941683	0.437112
436.318257	0.421437
436.694770	0.422450
437.071222	0.420412
437.447614	0.424871
437.823946	0.431456
438.200218	0.420434
438.576429	0.430417
438.952580	0.423205
439.328670	0.420008
439.704700	0.426454
440.080670	0.427834
440.456580	0.409122
440.832429	0.417072
441.208218	0.427762
441.583947	0.417238
441.959616	0.416015
442.335224	0.422295
442.710773	0.413146
443.086261	0.410882
443.461689	0.424701
443.837057	0.414384
444.212365	0.404410
444.587612	0.411820
444.962800	0.401436
445.337927	0.403192
445.712995	0.429391
446.088002	0.390854
446.462949	0.401995
446.837837	0.406256
447.212664	0.395088
447.587431	0.386512
447.962139	0.357000
448.336786	0.315983
448.711374	0.326526
449.085901	0.370831
449.460369	0.374850
449.834776	0.378469
450.209124	0.357671
450.583412	0.350366
450.957640	0.343668
451.331808	0.355200
451.705917	0.377946
452.079965	0.383048
452.453954	0.370743
452.827883	0.377812
453.201752	0.372696
453.575562	0.384237
453.949311	0.372501
454.323001	0.378715
454.696632	0.374640
455.070202	0.367026
455.443713	0.358773
455.817164	0.353625
456.190556	0.349382
456.563888	0.346627
456.937160	0.344187
457.310373	0.361009
457.683526	0.359897
458.056619	0.365864
458.429653	0.365998
458.802628	0.370047
459.175542	0.363634
459.548398	0.346543
459.921194	0.339279
460.293930	0.339219
460.666607	0.316487
461.039224	0.304968
461.411782	0.300350
461.784280	0.299592
462.156719	0.303814
462.529099	0.308609
462.901419	0.324245
463.273680	0.328681
463.645882	0.327820
464.018024	0.334146
464.390106	0.326673
464.762130	0.311425
465.134094	0.294498
465.505999	0.263457
465.877845	0.233622
466.249631	0.220660
466.621358	0.227937
466.993026	0.242217
467.364634	0.248401
467.736184	0.256980
468.107674	0.265744
468.479105	0.264888
468.850477	0.271779
469.221790	0.278610
469.593043	0.288883
469.964238	0.293822
470.335373	0.293213
470.706449	0.291511
471.077467	0.291728
471.448425	0.253863
471.819324	0.229146
472.190164	0.228850
472.560945	0.257413
472.931667	0.280456
473.302330	0.284289
473.672934	0.296039
474.043479	0.283984
474.413965	0.286204
474.784393	0.289245
475.154761	0.284367
475.525070	0.281511
475.895321	0.287457
476.265513	0.281529
476.635645	0.277079
477.005719	0.276604
477.375734	0.273529
477.745691	0.266670
478.115588	0.262910
478.485427	0.256394
478.855207	0.243240
479.224928	0.225767
479.594591	0.213883
479.964194	0.217095
480.333739	0.218643
480.703226	0.219908
481.072653	0.218356
481.442022	0.214056
481.811333	0.210747
482.180584	0.214099
482.549777	0.219343
482.918912	0.222763
483.287988	0.222504
483.657005	0.222246
484.025964	0.228696
484.394864	0.225895
484.763706	0.226562
485.132489	0.231834
485.501213	0.232410
485.869879	0.230571
486.238487	0.233814
486.607036	0.231977
486.975527	0.236530
487.343959	0.232163
487.712333	0.231321
488.080648	0.232752
488.448905	0.231624
488.817104	0.233136
489.185244	0.227710
489.553326	0.224293
489.921350	0.214511
490.289315	0.196870
490.657222	0.191542
491.025070	0.193161
491.392861	0.195105
491.760593	0.200678
492.128267	0.206581
492.495883	0.211998
492.863440	0.218128
493.230939	0.224747
493.598380	0.226287
493.965763	0.228315
494.333088	0.230608
494.700354	0.232319
495.067563	0.231083
495.434713	0.234421
495.801805	0.232181
496.168839	0.233470
496.535815	0.235130
496.902733	0.234816
497.269593	0.236748
497.636395	0.234269
498.003139	0.234779
498.369825	0.237509
498.736453	0.234004
499.103023	0.235864
499.469535	0.235031
499.835989	0.234994
500.202385	0.236053
500.568723	0.239383
500.935003	0.234535
501.301226	0.238634
501.667390	0.233059
502.033497	0.231317
502.399546	0.233848
502.765537	0.236207
503.131470	0.234644
503.497345	0.230598
503.863163	0.239639
504.228923	0.232785
504.594625	0.231070
504.960269	0.236639
505.325856	0.232041
505.691385	0.236192
506.056856	0.233045
506.422270	0.232545
506.787625	0.234937
507.152924	0.232443
507.518164	0.232658
507.883347	0.234595
508.248472	0.235870
508.613540	0.231254
508.978550	0.233657
509.343503	0.234043
509.708398	0.232088
510.073236	0.229362
510.438016	0.229076
510.802738	0.230053
511.167403	0.229132
511.532010	0.231420
511.896561	0.226532
512.261053	0.225317
512.625488	0.227348
512.989866	0.227866
513.354186	0.228129
513.718449	0.229871
514.082655	0.226267
514.446803	0.228525
514.810894	0.226178
515.174927	0.228926
515.538904	0.228277
515.902822	0.225364
516.266684	0.227441
516.630488	0.228702
516.994235	0.227767
517.357925	0.226649
517.721558	0.224700
518.085133	0.224320
518.448651	0.224288
518.812112	0.226130
519.175516	0.226165
519.538863	0.223732
519.902152	0.225615
520.265385	0.222230
520.628560	0.224080
520.991678	0.224483
521.354739	0.223337
521.717743	0.224507
522.080690	0.224873
522.443580	0.222599
522.806413	0.223100
523.169189	0.222827
523.531908	0.221445
523.894569	0.224938
524.257174	0.225210
524.619722	0.222539
524.982213	0.223726
525.344647	0.223006
525.707025	0.223512
526.069345	0.221815
526.431608	0.223465
526.793815	0.221446
527.155964	0.225569
527.518057	0.224472
527.880093	0.225454
528.242072	0.224216
528.603995	0.226271
528.965860	0.227711
529.327669	0.226624
529.689421	0.227628
530.051117	0.228600
530.412755	0.226258
530.774337	0.228347
531.135862	0.229195
531.497331	0.228352
531.858743	0.231205
532.220098	0.227570
532.581396	0.230568
532.942638	0.230861
533.303824	0.231873
533.664953	0.231657
534.026025	0.233741
534.387040	0.231654
534.747999	0.231356
535.108902	0.230213
535.469748	0.235528
535.830537	0.233138
536.191270	0.233557
536.551947	0.233340
536.912567	0.233367
537.273131	0.235062
537.633638	0.235220
537.994089	0.235580
538.354483	0.236408
538.714821	0.233675
539.075103	0.233632
539.435328	0.234136
539.795497	0.238064
540.155609	0.234504
540.515665	0.232730
540.875665	0.238450
541.235609	0.236588
541.595496	0.236906
541.955328	0.233559
542.315102	0.236152
542.674821	0.237544
543.034483	0.237336
543.394090	0.237207
543.753640	0.238765
544.113134	0.233960
544.472571	0.237310
544.831953	0.234167
545.191278	0.238356
545.550548	0.237440
545.909761	0.234510
546.268918	0.235471
546.628019	0.233575
546.987064	0.236751
547.346053	0.238134
547.704986	0.235992
548.063863	0.236290
548.422684	0.236753
548.781449	0.238345
549.140158	0.236245
549.498811	0.238835
549.857408	0.241909
550.215949	0.236656
550.574434	0.240057
550.932864	0.237755
551.291237	0.236320
551.649555	0.238057
552.007817	0.237799
552.366022	0.238467
552.724173	0.238778
553.082267	0.238900
553.440305	0.235890
553.798288	0.240201
554.156215	0.237028
554.514086	0.237695
554.871902	0.240848
555.229661	0.239758
555.587365	0.240798
555.945014	0.243120
556.302606	0.239998
556.660143	0.242450
557.017625	0.238994
557.375050	0.240887
557.732421	0.238326
558.089735	0.240392
558.446994	0.240418
558.804197	0.239519
559.161345	0.239330
559.518437	0.242784
559.875474	0.241095
560.232455	0.240131
560.589381	0.241378
560.946251	0.241660
561.303065	0.238857
561.659825	0.240299
562.016528	0.242142
562.373177	0.244834
562.729770	0.241967
563.086307	0.243891
563.442789	0.241767
563.799216	0.244732
564.155587	0.243550
564.511904	0.244788
564.868164	0.244783
565.224370	0.244423
565.580520	0.246109
565.936615	0.245980
566.292654	0.249086
566.648638	0.246290
567.004567	0.246865
567.360441	0.247728
567.716260	0.249395
568.072023	0.247252
568.427732	0.248264
568.783385	0.250321
569.138982	0.248406
569.494525	0.248207
569.850013	0.251128
570.205445	0.249676
570.560823	0.252083
570.916145	0.254055
571.271412	0.252470
571.626625	0.254071
571.981782	0.254208
572.336884	0.255036
572.691931	0.255022
573.046923	0.256638
573.401860	0.257265
573.756743	0.259169
574.111570	0.257897
574.466342	0.258727
574.821059	0.257576
575.175722	0.260418
575.530330	0.260343
575.884882	0.260524
576.239380	0.262135
576.593823	0.262756
576.948211	0.262163
577.302544	0.265744
577.656823	0.265328
578.011047	0.265077
578.365216	0.266191
578.719330	0.268047
579.073389	0.267594
579.427394	0.268816
579.781344	0.269788
580.135239	0.271093
580.489080	0.270983
580.842866	0.273609
581.196597	0.274197
581.550273	0.272532
581.903895	0.273506
582.257463	0.271127
582.610975	0.275000
582.964434	0.274393
583.317837	0.276641
583.671186	0.277115
584.024481	0.277364
584.377721	0.279602
584.730906	0.280834
585.084037	0.279667
585.437113	0.281668
585.790135	0.280903
586.143103	0.284081
586.496016	0.284888
586.848874	0.282868
587.201679	0.282997
587.554428	0.286363
587.907124	0.285520
588.259765	0.285966
588.612352	0.286289
588.964884	0.290399
589.317362	0.289691
589.669786	0.289654
590.022155	0.288049
590.374470	0.287656
590.726731	0.289698
591.078937	0.294634
591.431090	0.291062
591.783188	0.295271
592.135232	0.295669
592.487222	0.295803
592.839157	0.293867
593.191038	0.295849
593.542866	0.297961
593.894639	0.301433
594.246358	0.299396
594.598022	0.298999
594.949633	0.302856
595.301190	0.303458
595.652692	0.302585
596.004141	0.298402
596.355535	0.306782
596.706876	0.307326
597.058162	0.309565
597.409395	0.307159
597.760573	0.304581
598.111698	0.308130
598.462768	0.308320
598.813785	0.310083
599.164748	0.311224
599.515657	0.311248
599.866511	0.315180
600.217312	0.310280
600.568060	0.315497
600.918753	0.311928
601.269392	0.312937
601.619978	0.316351
601.970510	0.313697
602.320988	0.313650
602.671412	0.311780
603.021783	0.314051
603.372100	0.315649
603.722363	0.315185
604.072572	0.316525
604.422728	0.315580
604.772830	0.317905
605.122878	0.317683
605.472872	0.318378
605.822813	0.316619
606.172701	0.319200
606.522534	0.316696
606.872314	0.316932
607.222041	0.317764
607.571714	0.315653
607.921333	0.317374
608.270899	0.316906
608.620411	0.313934
608.969870	0.318102
609.319276	0.318058
609.668627	0.318011
610.017926	0.316597
610.367171	0.315095
610.716362	0.315830
611.065500	0.315877
611.414585	0.314807
611.763616	0.314860
612.112594	0.315609
612.461518	0.314983
612.810389	0.313151
613.159207	0.315308
613.507971	0.317277
613.856682	0.313148
614.205340	0.314350
614.553945	0.311759
614.902496	0.315529
615.250994	0.313664
615.599439	0.314297
615.947830	0.313686
616.296169	0.315020
616.644454	0.314703
616.992686	0.314389
617.340864	0.312558
617.688990	0.316249
618.037063	0.312972
618.385082	0.315036
618.733048	0.311772
619.080961	0.314709
619.428821	0.313848
619.776628	0.313668
620.124382	0.316125
620.472083	0.316511
620.819731	0.315652
621.167326	0.319907
621.514868	0.319457
621.862357	0.323728
622.209793	0.322959
622.557176	0.325851
622.904506	0.326805
623.251783	0.329450
623.599007	0.331956
623.946179	0.330747
624.293297	0.333622
624.640363	0.337348
624.987376	0.337725
625.334336	0.340650
625.681243	0.342984
626.028097	0.343517
626.374899	0.344864
626.721647	0.345677
627.068343	0.348735
627.414987	0.350080
627.761577	0.351820
628.108115	0.350293
628.454600	0.355296
628.801032	0.353967
629.147412	0.355778
629.493739	0.357001
629.840014	0.359645
630.186236	0.357167
630.532405	0.363015
630.878521	0.360598
631.224585	0.363053
631.570597	0.367061
631.916556	0.366052
632.262462	0.365876
632.608316	0.368596
632.954117	0.369253
633.299866	0.370707
633.645562	0.371212
633.991206	0.375733
634.336797	0.379009
634.682336	0.381502
635.027823	0.382868
635.373257	0.384058
635.718639	0.387753
636.063968	0.387076
636.409245	0.392890
636.754470	0.394086
637.099642	0.396539
637.444762	0.400045
637.789829	0.399374
638.134845	0.403270
638.479808	0.404470
638.824719	0.404809
639.169577	0.409009
639.514383	0.408490
639.859137	0.413405
640.203839	0.412646
640.548489	0.414061
640.893086	0.415043
641.237632	0.417317
641.582125	0.415971
641.926566	0.418653
642.270955	0.418672
642.615292	0.419102
642.959576	0.419081
643.303809	0.420252
643.647990	0.420438
643.992118	0.420681
644.336195	0.423958
644.680219	0.423776
645.024192	0.424773
645.368112	0.419045
645.711981	0.418356
646.055797	0.414732
646.399562	0.417846
646.743274	0.411944
647.086935	0.409321
647.430544	0.410176
647.774101	0.409718
648.117606	0.409937
648.461059	0.411081
648.804460	0.413507
649.147810	0.418517
649.491108	0.420851
649.834354	0.423584
650.177548	0.428682
650.520690	0.434334
650.863781	0.435715
651.206820	0.435849
651.549807	0.440722
651.892742	0.445545
652.235626	0.445633
652.578458	0.446484
652.921238	0.454068
653.263967	0.451557
653.606644	0.455481
653.949269	0.457099
654.291843	0.460779
654.634365	0.458732
654.976836	0.463066
655.319255	0.463381
655.661622	0.465590
656.003938	0.466783
656.346203	0.468896
656.688416	0.468762
657.030577	0.471528
657.372687	0.474893
657.714746	0.475750
658.056753	0.473775
658.398708	0.478470
658.740612	0.479531
659.082465	0.477900
659.424266	0.478446
659.766016	0.478790
660.107715	0.482846
660.449362	0.482271
660.790958	0.483208
661.132503	0.485434
661.473996	0.483639
661.815438	0.485414
662.156829	0.486425
662.498168	0.487989
662.839456	0.488860
663.180693	0.488215
663.521879	0.488333
663.863013	0.489956
664.204097	0.490421
664.545129	0.487813
664.886110	0.489439
665.227040	0.488905
665.567918	0.490869
665.908746	0.490555
666.249522	0.490723
666.590248	0.492459
666.930922	0.491717
667.271545	0.492228
667.612118	0.492965
667.952639	0.494872
668.293109	0.495065
668.633528	0.498100
668.973896	0.498097
669.314213	0.499746
669.654480	0.503325
669.994695	0.502860
670.334859	0.504265
670.674973	0.507285
671.015035	0.506960
671.355047	0.508477
671.695008	0.510604
672.034918	0.511787
672.374777	0.513238
672.714585	0.514851
673.054342	0.515789
673.394049	0.517057
673.733705	0.517407
674.073310	0.519448
674.412864	0.521502
674.752368	0.523986
675.091820	0.525323
675.431223	0.528929
675.770574	0.530322
676.109875	0.533602
676.449125	0.534535
676.788324	0.537107
677.127473	0.542641
677.466571	0.543527
677.805619	0.545806
678.144616	0.547937
678.483562	0.550696
678.822458	0.553045
679.161303	0.554363
679.500098	0.556447
679.838842	0.558563
680.177535	0.558791
680.516179	0.558130
680.854771	0.559048
681.193314	0.555150
681.531805	0.548593
681.870247	0.542210
682.208638	0.537733
682.546978	0.536732
682.885268	0.539493
683.223508	0.546137
683.561697	0.550299
683.899836	0.553589
684.237925	0.557426
684.575963	0.559975
684.913951	0.563195
685.251889	0.563191
685.589776	0.564106
685.927614	0.566273
686.265401	0.564980
686.603137	0.566859
686.940824	0.564079
687.278460	0.563261
687.616046	0.564590
687.953582	0.560863
688.291068	0.563720
688.628504	0.562727
688.965889	0.563675
689.303224	0.567082
689.640510	0.572257
689.977745	0.577228
690.314930	0.584252
690.652065	0.588013
690.989150	0.593721
691.326185	0.600968
691.663170	0.606921
692.000105	0.612282
692.336990	0.617222
692.673825	0.621985
693.010610	0.626775
693.347345	0.630932
693.684030	0.636379
694.020665	0.639892
694.357251	0.645432
694.693786	0.646742
695.030272	0.649843
695.366707	0.654686
695.703093	0.657256
696.039429	0.656470
696.375716	0.660798
696.711952	0.662460
697.048139	0.663783
697.384276	0.666782
697.720363	0.666850
698.056400	0.667552
698.392388	0.672007
698.728326	0.673415
699.064214	0.677220
699.400053	0.677945
699.735842	0.683826
700.071581	0.685096
700.407270	0.688237
700.742910	0.691188
701.078501	0.695437
701.414042	0.699709
701.749533	0.701464
702.084974	0.707397
702.420366	0.704427
702.755709	0.709585
703.091002	0.714984
703.426246	0.714565
703.761440	0.716530
704.096584	0.719674
704.431679	0.720510
704.766725	0.722987
705.101721	0.725941
705.436668	0.723953
705.771565	0.727093
706.106413	0.725149
706.441212	0.726171
706.775961	0.727414
707.110661	0.726284
707.445311	0.724484
707.779913	0.727294
708.114465	0.725582
708.448967	0.722440
708.783421	0.719209
709.117825	0.716721
709.452180	0.716246
709.786485	0.712410
710.120742	0.707167
710.454949	0.707727
710.789107	0.704034
711.123216	0.698391
711.457275	0.699075
711.791286	0.695838
712.125247	0.698391
712.459159	0.700789
712.793023	0.696099
713.126837	0.705836
713.460602	0.706009
713.794318	0.707966
714.127985	0.709882
714.461602	0.720494
714.795171	0.719418
715.128691	0.727216
715.462162	0.734004
715.795584	0.738859
716.128957	0.743106
716.462281	0.744541
716.795556	0.748004
717.128782	0.754518
717.461960	0.760223
717.795088	0.760606
718.128167	0.765048
718.461198	0.769120
718.794180	0.770670
719.127113	0.774940
719.459997	0.777622
719.792833	0.781545
720.125619	0.781992
720.458357	0.786901
720.791046	0.789383
721.123686	0.791208
721.456278	0.794906
721.788821	0.794021
722.121315	0.797891
722.453761	0.799391
722.786158	0.799916
723.118506	0.800181
723.450805	0.801979
723.783056	0.801186
724.115259	0.802212
724.447412	0.803426
724.779518	0.802388
725.111574	0.802908
725.443582	0.801155
725.775542	0.804274
726.107453	0.799484
726.439315	0.800854
726.771129	0.797151
727.102895	0.794094
727.434612	0.792537
727.766281	0.791238
728.097901	0.788359
728.429473	0.791457
728.760996	0.790772
729.092471	0.791274
729.423897	0.794724
729.755276	0.795780
730.086606	0.795468
730.417887	0.792767
730.749120	0.788779
731.080305	0.786918
731.411442	0.783718
731.742530	0.785455
732.073570	0.785545
732.404562	0.784726
732.735506	0.785479
733.066401	0.787524
733.397249	0.793225
733.728048	0.801368
734.058798	0.810707
734.389501	0.818141
734.720156	0.821651
735.050762	0.827089
735.381320	0.830586
735.711831	0.832891
736.042293	0.835787
736.372707	0.836499
736.703073	0.838373
737.033391	0.838145
737.363661	0.838764
737.693883	0.837296
738.024056	0.836214
738.354182	0.835953
738.684260	0.830514
739.014290	0.828932
739.344272	0.828796
739.674207	0.826620
740.004093	0.825745
740.333931	0.826646
740.663722	0.827416
740.993464	0.828567
741.323159	0.830407
741.652806	0.834738
741.982405	0.837261
742.311956	0.840853
742.641460	0.843003
742.970915	0.845560
743.300323	0.849228
743.629683	0.853154
743.958996	0.857177
744.288260	0.858686
744.617477	0.862646
744.946647	0.864232
745.275768	0.869887
745.604842	0.868625
745.933869	0.871985
746.262847	0.873766
746.591778	0.872141
746.920662	0.874839
747.249498	0.877132
747.578286	0.876398
747.907027	0.873563
748.235720	0.870872
748.564365	0.871678
748.892963	0.872563
749.221514	0.873858
749.550017	0.874801
749.878473	0.877162
750.206881	0.881586
750.535242	0.880522
750.863555	0.881069
751.191821	0.883718
751.520039	0.883234
751.848210	0.884072
752.176334	0.884570
752.504411	0.884797
752.832440	0.886490
753.160421	0.888551
753.488356	0.889923
753.816243	0.889274
754.144082	0.892421
754.471875	0.894059
754.799620	0.892524
755.127318	0.893134
755.454969	0.894161
755.782572	0.895569
756.110129	0.894887
756.437638	0.897588
756.765100	0.896913
757.092515	0.896193
757.419882	0.896195
757.747203	0.897409
758.074477	0.898183
758.401703	0.897021
758.728882	0.895482
759.056014	0.896229
759.383099	0.895137
759.710138	0.894003
760.037129	0.893412
760.364073	0.894648
760.690970	0.893500
761.017820	0.894800
761.344623	0.894904
761.671379	0.893475
761.998088	0.889233
762.324751	0.881127
762.651366	0.861567
762.977935	0.830019
763.304456	0.811472
763.630931	0.810662
763.957359	0.826990
764.283740	0.846382
764.610074	0.861439
764.936362	0.874665
765.262602	0.883820
765.588796	0.892998
765.914943	0.898927
766.241044	0.906183
766.567097	0.909253
766.893104	0.913630
767.219064	0.915165
767.544978	0.919653
767.870845	0.923004
768.196665	0.925200
768.522438	0.926962
768.848165	0.927507
769.173846	0.930463
769.499479	0.930949
769.825066	0.933848
770.150607	0.935769
770.476101	0.935177
770.801548	0.936671
771.126949	0.939812
771.452303	0.940778
771.777611	0.941948
772.102872	0.942097
772.428087	0.943654
772.753256	0.945279
773.078378	0.945795
773.403453	0.947254
773.728482	0.950666
774.053465	0.949339
774.378401	0.950519
774.703291	0.953231
775.028135	0.953803
775.352932	0.952365
775.677683	0.954918
776.002388	0.955855
776.327046	0.955211
776.651658	0.957728
776.976224	0.958239
777.300743	0.958062
777.625216	0.958295
777.949643	0.959770
778.274024	0.959289
778.598359	0.960130
778.922647	0.960157
779.246889	0.960590
779.571086	0.960595
779.895236	0.961372
780.219339	0.962320
780.543397	0.960356
780.867409	0.960865
781.191374	0.959820
781.515294	0.962284
781.839167	0.961715
782.162995	0.962769
782.486776	0.962246
782.810511	0.962851
783.134201	0.964024
783.457844	0.964102
783.781441	0.965065
784.104993	0.964217
784.428498	0.966876
784.751958	0.966529
785.075372	0.967210
785.398739	0.967306
785.722061	0.966737
786.045337	0.966363
786.368568	0.966843
786.691752	0.966859
787.014891	0.964152
787.337983	0.961109
787.661030	0.957035
787.984031	0.951734
788.306987	0.949643
788.629897	0.948603
788.952760	0.953867
789.275579	0.956553
789.598351	0.959686
789.921078	0.963745
790.243759	0.964594
790.566395	0.966089
790.888984	0.968620
791.211529	0.969572
791.534027	0.970103
791.856480	0.970944
792.178888	0.972507
792.501249	0.973789
792.823566	0.974557
793.145836	0.974065
793.468062	0.974839
793.790241	0.975792
794.112375	0.974466
794.434464	0.973182
794.756507	0.973812
795.078505	0.973598
795.400457	0.970817
795.722364	0.968352
796.044226	0.965823
796.366042	0.965224
796.687812	0.964731
797.009538	0.966025
797.331218	0.968361
797.652852	0.968831
797.974442	0.969720
798.295986	0.970610
798.617484	0.970597
798.938938	0.972006
799.260346	0.973419
799.581709	0.973927
799.903026	0.974805
800.224299	0.973563
800.545526	0.975254
800.866708	0.976890
801.187845	0.977482
801.508936	0.978404
801.829983	0.977415
802.150984	0.978577
802.471940	0.979146
802.792851	0.978721
803.113717	0.981296
803.434538	0.979750
803.755314	0.980938
804.076045	0.981155
804.396731	0.980346
804.717372	0.979818
805.037967	0.980832
805.358518	0.980241
805.679024	0.978345
805.999485	0.979947
806.319901	0.979751
806.640272	0.980260
806.960598	0.979424
807.280879	0.978849
807.601115	0.979003
807.921306	0.980485
808.241453	0.979480
808.561554	0.980177
808.881611	0.979648
809.201623	0.979423
809.521590	0.980342
809.841513	0.980705
810.161390	0.979622
810.481223	0.981237
810.801011	0.981818
811.120755	0.982774
811.440453	0.981243
811.760107	0.982645
812.079716	0.981660
812.399281	0.982580
812.718801	0.983197
813.038276	0.982740
813.357707	0.983288
813.677093	0.984712
813.996434	0.983320
814.315731	0.985531
814.634983	0.985068
814.954191	0.985535
815.273354	0.983852
815.592473	0.983613
815.911547	0.984229
816.230577	0.983163
816.549562	0.981894
816.868502	0.982096
817.187399	0.983075
817.506250	0.981509
817.825058	0.981155
818.143821	0.981859
818.462539	0.979639
818.781213	0.979385
819.099843	0.977846
819.418429	0.972774
819.736970	0.969379
820.055466	0.965716
820.373919	0.961685
820.692327	0.956987
821.010691	0.949012
821.329011	0.927415
821.647286	0.888075
821.965517	0.847693
822.283704	0.831427
822.601847	0.834721
822.919945	0.853421
823.237999	0.874138
823.556010	0.890740
823.873976	0.905542
824.191897	0.918975
824.509775	0.930616
824.827609	0.939323
825.145398	0.944429
825.463144	0.945573
825.780845	0.943081
826.098502	0.938044
826.416116	0.928529
826.733685	0.916290
827.051210	0.912448
827.368692	0.918971
827.686129	0.929572
828.003522	0.942416
828.320872	0.950701
828.638177	0.958969
828.955439	0.966116
829.272656	0.970530
829.589830	0.973298
829.906960	0.977029
830.224046	0.978490
830.541088	0.979232
830.858086	0.980772
831.175041	0.982891
831.491952	0.982669
831.808819	0.982346
832.125642	0.981377
832.442421	0.980316
832.759157	0.975403
833.075849	0.966363
833.392497	0.954407
833.709101	0.947208
834.025662	0.948098
834.342179	0.953884
834.658653	0.963040
834.975083	0.968772
835.291469	0.973683
835.607811	0.977499
835.924110	0.980765
836.240366	0.984019
836.556578	0.985376
836.872746	0.986896
837.188871	0.988144
837.504952	0.988842
837.820990	0.990329
838.136984	0.989243
838.452935	0.990419
838.768842	0.990877
839.084706	0.990159
839.400526	0.986650
839.716303	0.977080
840.032037	0.973991
840.347727	0.973938
840.663373	0.977609
840.978977	0.982568
841.294537	0.986765
841.610054	0.988518
841.925527	0.990605
842.240957	0.992541
842.556344	0.991978
842.871687	0.993641
843.186987	0.993302
843.502244	0.994347
843.817458	0.994339
844.132629	0.994735
844.447756	0.995707
844.762840	0.994766
845.077881	0.997201
845.392879	0.995144
845.707833	0.995598
846.022745	0.995722
846.337613	0.995837
846.652438	0.996161
846.967221	0.995840
847.281960	0.996950
847.596656	0.996948
847.911309	0.996929
848.225919	0.996100
848.540485	0.997287
848.855009	0.998651
849.169490	0.996499
849.483928	0.997076
849.798323	0.996195
850.112675	0.997668
850.426984	0.997568
850.741251	0.997485
851.055474	0.996663
851.369654	0.997133
851.683792	0.996680
851.997887	0.997932
852.311938	0.996488
852.625947	0.997301
852.939914	0.996189
853.253837	0.997703
853.567718	0.998216
853.881555	0.997557
854.195350	0.996359
854.509103	0.996480
854.822812	0.997607
855.136479	0.997243
855.450103	0.997612
855.763685	0.997208
856.077224	0.997143
856.390720	0.996490
856.704173	0.998214
857.017584	0.996619
857.330953	0.996635
857.644278	0.997074
857.957561	0.996270
858.270802	0.998352
858.584000	0.997017
858.897155	0.997471
859.210268	0.997753
859.523339	0.998072
859.836367	0.997941
860.149352	0.996660
860.462295	0.996639
860.775195	0.997026
861.088054	0.996296
861.400869	0.997514
861.713642	0.995735
862.026373	0.997687
862.339062	0.996866
862.651708	0.996526
862.964312	0.997845
863.276873	0.996655
863.589392	0.996962
863.901869	0.995803
864.214303	0.996143
864.526696	0.995728
864.839045	0.996361
865.151353	0.995729
865.463619	0.995200
865.775842	0.996346
866.088023	0.996650
866.400162	0.996359
866.712258	0.998112
867.024313	0.995823
867.336325	0.997960
867.648296	0.996164
867.960224	0.996015
868.272110	0.997060
868.583954	0.996984
868.895755	0.996688
869.207515	0.996703
869.519233	0.997110
869.830909	0.996035
870.142542	0.994911
870.454134	0.995096
870.765684	0.995832
871.077191	0.995121
871.388657	0.995891
871.700081	0.996132
872.011463	0.996482
872.322803	0.995359
872.634101	0.994456
872.945357	0.995410
873.256571	0.994543
873.567744	0.994569
873.878874	0.994803
874.189963	0.994121
874.501010	0.996195
874.812015	0.994934
875.122979	0.994131
875.433900	0.994364
875.744780	0.994311
876.055618	0.994172
876.366415	0.994004
876.677169	0.994474
876.987882	0.994564
877.298554	0.994800
877.609183	0.994237
877.919771	0.994364
878.230317	0.994215
878.540822	0.992303
878.851285	0.992325
879.161707	0.990598
879.472087	0.991313
879.782425	0.985452
880.092722	0.981035
880.402977	0.972830
880.713191	0.959901
881.023363	0.942336
881.333494	0.931813
881.643583	0.930348
881.953631	0.932930
882.263637	0.938065
882.573602	0.945430
882.883526	0.951233
883.193408	0.958175
883.503248	0.962634
883.813048	0.966655
884.122806	0.972110
884.432522	0.975572
884.742197	0.980498
885.051831	0.982190
885.361424	0.983369
885.670975	0.987249
885.980485	0.987130
886.289954	0.987272
886.599382	0.988510
886.908768	0.991031
887.218113	0.989695
887.527417	0.991212
887.836680	0.992918
888.145901	0.994104
888.455082	0.994545
888.764221	0.994285
889.073319	0.994309
889.382376	0.994213
889.691392	0.992336
890.000366	0.994974
890.309300	0.994076
890.618193	0.994777
890.927044	0.993681
891.235855	0.993503
891.544625	0.993667
891.853353	0.993735
892.162041	0.993771
892.470687	0.993931
892.779293	0.991859
893.087858	0.989626
893.396381	0.989199
893.704864	0.987262
894.013306	0.985280
894.321707	0.979880
894.630068	0.977035
894.938387	0.975692
895.246665	0.976085
895.554903	0.977338
895.863100	0.981039
896.171256	0.983021
896.479371	0.985490
896.787446	0.986582
897.095480	0.988641
897.403473	0.989815
897.711425	0.991410
898.019336	0.990972
898.327207	0.993051
898.635038	0.991839
898.942827	0.992956
899.250576	0.993272
899.558284	0.993610
899.865952	0.992503
900.173579	0.994994
900.481165	0.994285
900.788711	0.994761
901.096216	0.995002
901.403681	0.995081
901.711105	0.995235
902.018489	0.995515
902.325832	0.995077
902.633135	0.995080
902.940397	0.994473
903.247619	0.993310
903.554800	0.988280
903.861941	0.981293
904.169041	0.974553
904.476101	0.971273
904.783121	0.970471
905.090100	0.973007
905.397039	0.978083
905.703938	0.980918
906.010796	0.984836
906.317614	0.988527
906.624391	0.989946
906.931129	0.991503
907.237826	0.993115
907.544483	0.994669
907.851099	0.994690
908.157675	0.995698
908.464211	0.996998
908.770707	0.996282
909.077163	0.997607
909.383578	0.997151
909.689954	0.996088
909.996289	0.996550
910.302584	0.997850
910.608839	0.999070
910.915054	0.998297
911.221229	0.999181
911.527363	0.997757
911.833458	0.998325
912.139513	0.996301
912.445527	0.997955
912.751502	0.997203
913.057436	0.997126
913.363331	0.997217
913.669186	0.996458
913.975000	0.995228
914.280775	0.994442
914.586510	0.991719
914.892205	0.989092
915.197859	0.986318
915.503475	0.982374
915.809050	0.978179
916.114585	0.974722
916.420081	0.973632
916.725536	0.975422
917.030952	0.976964
917.336328	0.979341
917.641665	0.980341
917.946961	0.982769
918.252218	0.985997
918.557435	0.987737
918.862612	0.989004
919.167750	0.990502
919.472848	0.992094
919.777906	0.994489
920.082925	0.995936
920.387904	0.994298
920.692843	0.994338
920.997743	0.994688
921.302603	0.996367
921.607423	0.995978
921.912204	0.996366
922.216946	0.997535
922.521647	0.997418
922.826310	0.996364
923.130932	0.997761
923.435516	0.997188
923.740059	0.996040
924.044564	0.997347
924.349028	0.996916
924.653454	0.998009
924.957840	0.998645
925.262186	0.997624
925.566493	0.999025
925.870761	0.999183
926.174989	0.997384
926.479178	1.000164
926.783328	0.998752
927.087438	0.998473
927.391509	0.999580
927.695541	1.000437
927.999533	0.999645
928.303486	0.999430
928.607400	0.999383
928.911275	0.999759
929.215110	1.001311
929.518906	1.001486
929.822663	1.000230
930.126381	1.001591
930.430060	1.000711
930.733699	1.000990
931.037299	0.999254
931.340861	1.000375
931.644383	0.998377
931.947866	0.999804
932.251309	1.000272
932.554714	1.000058
932.858080	0.999989
933.161407	0.999622
933.464694	1.000640
933.767943	0.999407
934.071153	0.999331
934.374323	1.000364
934.677455	0.999965
934.980548	0.999821
935.283602	1.001306
935.586617	1.000166
935.889593	1.001568
936.192530	1.000632
936.495428	1.000818
936.798287	0.998458
937.101108	1.000064
937.403890	0.998982
937.706632	1.000747
938.009336	1.000021
938.312002	0.999904
938.614628	0.999540
938.917216	0.997354
939.219765	0.998426
939.522275	0.999947
939.824747	0.998729
940.127179	0.998532
940.429573	0.999839
940.731929	0.997822
941.034246	0.998891
941.336524	0.998239
941.638763	0.998986
941.940964	0.998725
942.243126	0.998512
942.545250	0.999609
942.847335	0.999772
943.149381	0.999688
943.451389	0.998920
943.753359	1.000052
944.055290	1.000883
944.357182	0.999916
944.659036	0.999998
944.960851	0.999917
945.262628	0.999500
945.564367	0.999169
945.866067	0.999825
946.167729	0.999893
946.469352	1.000659
946.770937	0.997576
947.072484	0.999526
947.373992	0.999714
947.675462	0.998640
947.976893	0.999722
948.278286	1.001386
948.579641	1.001540
948.880958	1.000512
949.182236	0.999162
949.483476	1.000404
949.784678	1.000363
950.085841	0.999718
950.386967	1.000017
950.688054	0.998622
950.989103	0.997717
951.290114	0.998450
951.591087	0.999027
951.892021	0.999634
952.192917	1.000647
952.493776	1.000167
952.794596	1.000356
953.095378	0.999745
953.396122	0.999353
953.696828	1.000834
953.997496	1.000798
954.298126	1.000053
954.598718	0.999415
954.899272	1.001254
955.199788	0.999618
955.500266	1.000013
955.800706	1.000787
956.101108	1.000830
956.401472	1.001351
956.701798	1.000728
957.002087	1.001437
957.302337	1.000590
957.602550	1.001077
957.902724	1.001409
958.202861	0.999987
958.502960	1.000722
958.803022	1.002577
959.103045	1.002558
959.403031	1.001409
959.702979	1.001305
960.002889	1.001549
960.302762	1.001758
960.602596	1.001830
960.902393	1.001159
961.202153	1.002505
961.501875	1.000915
961.801559	1.002841
962.101205	1.001710
962.400814	1.002869
962.700385	1.001895
962.999918	1.001990
963.299414	1.001347
963.598873	1.002839
963.898293	1.002025
964.197677	1.000987
964.497022	1.002633
964.796331	1.001060
965.095601	1.003329
965.394835	1.001233
965.694030	1.003319
965.993189	1.001452
966.292309	1.002161
966.591393	1.000086
966.890439	1.002045
967.189447	1.001801
967.488419	1.001574
967.787353	1.001554
968.086249	1.001755
968.385108	1.000875
968.683930	1.003564
968.982714	1.002088
969.281462	1.002867
969.580172	1.002367
969.878844	1.003009
970.177480	1.002300
970.476078	1.003105
970.774639	1.002355
971.073162	1.001851
971.371649	1.002026
971.670098	1.002456
971.968510	1.000839
972.266885	1.000220
972.565223	1.001586
972.863524	1.001528
973.161788	1.001127
973.460014	1.002555
973.758204	1.001081
974.056356	1.002211
974.354471	1.001261
974.652550	1.003306
974.950591	1.000416
975.248595	1.000449
975.546563	1.002991
975.844493	1.002752
976.142386	1.000598
976.440243	1.001642
976.738062	1.002409
977.035845	1.000979
977.333590	1.002107
977.631299	1.001829
977.928971	1.001267
978.226606	1.000806
978.524204	1.001420
978.821765	1.001552
979.119290	1.002659
979.416777	1.001578
979.714228	1.001868
980.011642	1.003241
980.309020	1.001942
980.606360	1.002064
980.903664	1.002322
981.200931	1.000268
981.498162	1.001730
981.795356	1.001081
982.092513	1.002042
982.389633	1.002301
982.686717	0.999373
982.983764	1.000660
983.280775	1.000500
983.577749	1.002049
983.874686	1.000161
984.171587	1.000666
984.468451	1.001300
984.765279	1.002804
985.062070	1.001903
985.358824	1.002593
985.655543	1.003352
985.952224	1.002659
986.248869	1.001847
986.545478	1.003870
986.842050	1.001801
987.138586	1.001857
987.435086	1.001496
987.731549	1.004806
988.027975	1.003063
988.324366	1.001643
988.620719	1.003889
988.917037	1.002533
989.213318	1.004578
989.509563	1.001699
989.805772	1.003589
990.101944	1.002667
990.398080	1.002493
990.694180	1.004659
990.990244	1.003089
991.286271	1.002421
991.582262	1.002985
991.878217	1.002444
992.174136	1.004489
992.470019	1.003257
992.765865	1.003504
993.061676	1.002730
993.357450	1.002819
993.653188	1.003084
993.948890	1.003131
994.244556	1.002009
994.540186	1.001579
994.835780	1.002273
995.131337	1.003799
995.426859	1.002368
995.722345	1.002462
996.017795	1.002064
996.313208	1.002640
996.608586	1.002463
996.903928	1.002480
997.199234	1.001742
997.494504	1.003615
997.789738	1.000711
998.084936	1.001419
998.380099	1.001207
998.675225	1.002644
998.970316	1.003610
999.265371	1.002998
999.560390	1.003643
999.855373	1.002671
1000.150320	1.002036
1000.445232	1.003328
1000.740108	1.003100
1001.034948	1.002120
1001.329752	1.004252
1001.624521	1.003507
1001.919254	1.002524
1002.213951	1.003012
1002.508613	1.002274
1002.803239	1.002183
1003.097829	1.002343
1003.392384	1.002819
1003.686903	1.003910
1003.981386	1.003438
1004.275834	1.003495
1004.570246	1.002837
1004.864623	1.003735
1005.158964	1.003325
1005.453270	1.002305
1005.747540	1.001444
1006.041775	1.003836
1006.335974	1.004297
1006.630138	1.003609
1006.924266	1.002035
1007.218359	1.000946
1007.512416	1.003453
1007.806438	1.002274
1008.100425	1.003664
1008.394376	1.002828
1008.688292	1.002514
1008.982172	1.002875
1009.276017	1.004023
1009.569827	1.004091
1009.863602	1.002701
1010.157341	1.003426
1010.451045	1.003445
1010.744714	1.003623
1011.038347	1.003626
1011.331945	1.001956
1011.625508	1.003012
1011.919036	1.003669
1012.212528	1.003531
1012.505986	1.003046
1012.799408	1.002707
1013.092795	1.005015
1013.386147	1.004272
1013.679464	1.003616
1013.972745	1.002788
1014.265992	1.002960
1014.559204	1.002598
1014.852380	1.003076
1015.145521	1.002338
1015.438628	1.003109
1015.731699	1.002136
1016.024736	1.003632
1016.317737	1.002984
1016.610703	1.002552
1016.903635	1.002766
1017.196531	1.002820
1017.489393	1.002491
1017.782219	1.002666
1018.075011	1.002938
1018.367768	1.002030
1018.660490	1.004353
1018.953177	1.004353
1019.245829	1.004353
