Dividing Wavelength (nm)	Counts (n)	Blue Motor Position (mm): 0.900000	Red Motor Position (mm): 0.000000	
326.493990	1.006299
326.888308	1.006299
327.282561	1.006299
327.676750	1.007372
328.070874	1.007712
328.464933	1.008258
328.858929	1.008374
329.252859	1.007425
329.646726	1.006350
330.040528	1.007007
330.434265	1.005880
330.827938	1.006333
331.221547	1.006865
331.615091	1.006406
332.008571	1.007493
332.401986	1.006882
332.795338	1.006441
333.188625	1.006708
333.581847	1.005734
333.975006	1.006225
334.368100	1.005129
334.761129	1.005992
335.154095	1.006248
335.546996	1.004195
335.939833	0.999155
336.332606	0.999928
336.725315	0.998064
337.117960	1.000451
337.510540	0.999261
337.903056	0.999541
338.295508	1.001160
338.687896	0.999876
339.080220	0.998906
339.472480	0.998941
339.864676	1.000279
340.256807	0.999420
340.648875	1.000130
341.040879	0.998847
341.432818	0.999461
341.824694	0.999665
342.216506	1.000414
342.608253	0.999421
342.999937	0.999768
343.391557	1.000146
343.783113	1.001424
344.174605	0.999946
344.566033	0.998925
344.957397	1.000267
345.348697	0.999399
345.739934	0.999204
346.131106	0.998373
346.522215	0.999670
346.913260	0.999014
347.304241	0.999467
347.695159	0.998629
348.086012	0.998553
348.476802	0.999131
348.867528	0.998900
349.258191	0.999400
349.648789	1.000499
350.039324	0.999433
350.429796	0.998863
350.820203	0.998324
351.210548	0.999826
351.600828	0.999083
351.991045	0.999187
352.381198	0.998505
352.771288	0.998692
353.161314	0.998941
353.551276	0.999151
353.941175	0.996342
354.331010	0.999532
354.720782	0.998692
355.110490	0.999424
355.500135	0.999431
355.889717	0.997133
356.279235	0.998210
356.668689	0.999004
357.058080	0.999424
357.447408	0.998132
357.836672	0.998708
358.225873	0.998970
358.615010	0.998835
359.004084	0.998032
359.393095	0.998530
359.782043	0.997901
360.170927	0.999588
360.559748	0.997680
360.948505	0.997992
361.337199	0.998273
361.725830	0.997834
362.114398	0.996959
362.502903	0.996881
362.891344	0.996970
363.279722	0.997614
363.668037	0.997742
364.056289	0.997631
364.444478	0.999131
364.832603	0.997091
365.220665	0.998501
365.608665	0.997892
365.996601	0.996089
366.384474	0.996062
366.772284	0.997828
367.160031	0.995169
367.547715	0.996589
367.935336	0.995622
368.322893	0.993930
368.710388	0.992568
369.097820	0.991524
369.485189	0.989343
369.872495	0.987233
370.259738	0.985285
370.646918	0.982736
371.034035	0.979509
371.421090	0.977625
371.808081	0.970943
372.195010	0.970356
372.581875	0.965073
372.968678	0.959687
373.355418	0.956774
373.742096	0.948717
374.128710	0.944678
374.515262	0.939611
374.901751	0.935082
375.288177	0.929424
375.674540	0.922567
376.060841	0.915941
376.447079	0.909695
376.833254	0.903137
377.219367	0.898011
377.605417	0.885873
377.991404	0.883632
378.377329	0.876360
378.763191	0.871678
379.148991	0.861303
379.534727	0.854159
379.920402	0.845116
380.306013	0.841417
380.691563	0.828910
381.077049	0.822898
381.462474	0.819149
381.847835	0.807899
382.233134	0.802214
382.618371	0.803135
383.003545	0.786002
383.388657	0.784210
383.773706	0.776344
384.158693	0.771961
384.543618	0.766530
384.928480	0.757894
385.313280	0.747828
385.698017	0.747255
386.082692	0.736050
386.467305	0.734569
386.851856	0.728457
387.236344	0.724178
387.620770	0.719031
388.005133	0.711846
388.389435	0.706030
388.773674	0.704418
389.157851	0.696152
389.541965	0.693644
389.926018	0.699450
390.310008	0.686078
390.693936	0.683487
391.077802	0.675789
391.461606	0.677763
391.845348	0.666563
392.229027	0.666177
392.612645	0.664969
392.996200	0.652333
393.379694	0.643996
393.763125	0.634928
394.146494	0.638948
394.529801	0.629878
394.913047	0.621806
395.296230	0.627677
395.679351	0.618818
396.062410	0.616513
396.445408	0.618409
396.828343	0.613721
397.211217	0.608719
397.594028	0.621065
397.976778	0.611008
398.359466	0.608228
398.742092	0.603481
399.124656	0.615402
399.507158	0.603442
399.889598	0.600294
400.271977	0.590961
400.654294	0.596235
401.036549	0.595435
401.418742	0.599194
401.800874	0.584422
402.182944	0.581484
402.564952	0.573501
402.946898	0.575434
403.328783	0.575995
403.710606	0.587923
404.092367	0.562269
404.474067	0.567156
404.855705	0.566114
405.237282	0.574915
405.618797	0.561355
406.000250	0.556978
406.381642	0.546877
406.762972	0.552361
407.144240	0.550288
407.525447	0.550602
407.906593	0.543120
408.287677	0.538858
408.668700	0.547164
409.049661	0.541446
409.430560	0.536102
409.811399	0.545122
410.192176	0.526997
410.572891	0.534216
410.953545	0.522264
411.334138	0.535248
411.714669	0.528456
412.095139	0.540541
412.475547	0.524368
412.855894	0.526321
413.236180	0.524799
413.616405	0.529963
413.996568	0.520767
414.376670	0.527233
414.756711	0.531752
415.136691	0.527969
415.516609	0.519963
415.896466	0.516246
416.276262	0.512922
416.655997	0.514235
417.035670	0.495801
417.415283	0.487223
417.794834	0.492519
418.174324	0.497746
418.553753	0.506636
418.933121	0.488808
419.312428	0.482668
419.691674	0.488548
420.070859	0.476755
420.449983	0.484840
420.829045	0.474214
421.208047	0.482631
421.586988	0.476243
421.965867	0.475227
422.344686	0.463610
422.723444	0.476108
423.102141	0.493481
423.480777	0.466211
423.859352	0.486724
424.237866	0.464097
424.616319	0.465007
424.994712	0.455716
425.373044	0.466016
425.751314	0.454528
426.129524	0.470924
426.507673	0.454072
426.885762	0.447729
427.263789	0.453164
427.641756	0.462885
428.019662	0.453428
428.397508	0.452323
428.775292	0.456430
429.153016	0.448517
429.530679	0.454749
429.908282	0.447923
430.285824	0.458176
430.663305	0.436615
431.040726	0.457464
431.418086	0.457297
431.795385	0.449786
432.172624	0.448267
432.549802	0.448545
432.926920	0.447656
433.303977	0.446977
433.680974	0.444355
434.057910	0.442773
434.434786	0.441851
434.811601	0.445231
435.188355	0.427179
435.565050	0.436526
435.941683	0.437748
436.318257	0.421882
436.694770	0.422918
437.071222	0.421013
437.447614	0.425157
437.823946	0.432061
438.200218	0.420957
438.576429	0.430765
438.952580	0.424258
439.328670	0.420298
439.704700	0.426647
440.080670	0.428342
440.456580	0.409389
440.832429	0.417256
441.208218	0.428136
441.583947	0.417456
441.959616	0.416610
442.335224	0.422124
442.710773	0.412804
443.086261	0.410994
443.461689	0.424712
443.837057	0.414522
444.212365	0.405124
444.587612	0.411947
444.962800	0.401857
445.337927	0.402829
445.712995	0.429044
446.088002	0.391289
446.462949	0.401879
446.837837	0.406683
447.212664	0.395036
447.587431	0.386650
447.962139	0.357509
448.336786	0.316151
448.711374	0.326528
449.085901	0.370823
449.460369	0.375122
449.834776	0.378264
450.209124	0.357964
450.583412	0.350461
450.957640	0.343416
451.331808	0.355297
451.705917	0.378364
452.079965	0.383695
452.453954	0.371886
452.827883	0.377895
453.201752	0.372976
453.575562	0.384216
453.949311	0.373128
454.323001	0.379016
454.696632	0.374464
455.070202	0.367363
455.443713	0.359332
455.817164	0.353612
456.190556	0.349925
456.563888	0.346820
456.937160	0.344058
457.310373	0.361095
457.683526	0.360265
458.056619	0.366324
458.429653	0.366600
458.802628	0.370348
459.175542	0.364343
459.548398	0.346827
459.921194	0.339415
460.293930	0.339245
460.666607	0.316924
461.039224	0.304825
461.411782	0.300664
461.784280	0.300181
462.156719	0.303811
462.529099	0.308768
462.901419	0.324396
463.273680	0.328774
463.645882	0.328688
464.018024	0.334242
464.390106	0.326886
464.762130	0.311743
465.134094	0.294657
465.505999	0.263745
465.877845	0.233636
466.249631	0.220706
466.621358	0.228382
466.993026	0.241818
467.364634	0.248459
467.736184	0.257168
468.107674	0.266090
468.479105	0.265177
468.850477	0.271780
469.221790	0.278893
469.593043	0.289011
469.964238	0.293794
470.335373	0.293167
470.706449	0.291251
471.077467	0.291925
471.448425	0.254037
471.819324	0.229280
472.190164	0.228804
472.560945	0.257929
472.931667	0.280462
473.302330	0.284166
473.672934	0.296115
474.043479	0.284412
474.413965	0.286299
474.784393	0.289623
475.154761	0.284888
475.525070	0.281842
475.895321	0.287571
476.265513	0.281776
476.635645	0.277015
477.005719	0.276908
477.375734	0.273422
477.745691	0.266449
478.115588	0.262979
478.485427	0.256629
478.855207	0.243358
479.224928	0.225984
479.594591	0.214213
479.964194	0.217275
480.333739	0.218613
480.703226	0.219837
481.072653	0.218326
481.442022	0.214395
481.811333	0.210874
482.180584	0.214226
482.549777	0.219864
482.918912	0.222897
483.287988	0.222631
483.657005	0.222131
484.025964	0.228698
484.394864	0.225857
484.763706	0.226468
485.132489	0.231554
485.501213	0.232424
485.869879	0.230498
486.238487	0.233650
486.607036	0.232053
486.975527	0.236208
487.343959	0.232262
487.712333	0.231624
488.080648	0.232814
488.448905	0.231910
488.817104	0.233310
489.185244	0.227635
489.553326	0.224298
489.921350	0.214420
490.289315	0.196793
490.657222	0.191647
491.025070	0.193139
491.392861	0.194978
491.760593	0.200917
492.128267	0.206747
492.495883	0.212102
492.863440	0.218517
493.230939	0.224911
493.598380	0.226277
493.965763	0.228368
494.333088	0.230789
494.700354	0.232152
495.067563	0.231010
495.434713	0.234474
495.801805	0.232140
496.168839	0.233925
496.535815	0.235322
496.902733	0.235179
497.269593	0.236620
497.636395	0.234416
498.003139	0.234609
498.369825	0.238167
498.736453	0.234114
499.103023	0.235739
499.469535	0.235094
499.835989	0.235277
500.202385	0.236123
500.568723	0.239509
500.935003	0.234601
501.301226	0.239045
501.667390	0.233297
502.033497	0.231017
502.399546	0.234208
502.765537	0.236089
503.131470	0.234822
503.497345	0.230738
503.863163	0.239452
504.228923	0.232433
504.594625	0.231098
504.960269	0.236718
505.325856	0.231707
505.691385	0.236501
506.056856	0.233180
506.422270	0.232309
506.787625	0.234863
507.152924	0.232466
507.518164	0.232642
507.883347	0.234321
508.248472	0.236272
508.613540	0.231264
508.978550	0.233880
509.343503	0.234352
509.708398	0.231965
510.073236	0.229398
510.438016	0.229211
510.802738	0.230430
511.167403	0.229145
511.532010	0.231187
511.896561	0.226722
512.261053	0.225260
512.625488	0.227779
512.989866	0.228030
513.354186	0.228039
513.718449	0.230048
514.082655	0.226241
514.446803	0.228709
514.810894	0.226185
515.174927	0.229060
515.538904	0.228466
515.902822	0.225307
516.266684	0.227570
516.630488	0.228754
516.994235	0.227713
517.357925	0.226536
517.721558	0.224678
518.085133	0.224353
518.448651	0.224033
518.812112	0.226974
519.175516	0.226078
519.538863	0.223724
519.902152	0.225551
520.265385	0.222156
520.628560	0.223762
520.991678	0.224354
521.354739	0.223364
521.717743	0.224521
522.080690	0.224929
522.443580	0.222324
522.806413	0.223186
523.169189	0.222745
523.531908	0.221419
523.894569	0.225033
524.257174	0.225018
524.619722	0.222450
524.982213	0.223795
525.344647	0.222738
525.707025	0.223269
526.069345	0.221734
526.431608	0.223382
526.793815	0.221574
527.155964	0.225555
527.518057	0.224399
527.880093	0.225404
528.242072	0.223823
528.603995	0.225900
528.965860	0.227595
529.327669	0.226490
529.689421	0.227268
530.051117	0.227962
530.412755	0.225838
530.774337	0.228151
531.135862	0.228681
531.497331	0.227794
531.858743	0.230766
532.220098	0.227561
532.581396	0.230139
532.942638	0.230508
533.303824	0.231679
533.664953	0.231089
534.026025	0.233155
534.387040	0.231194
534.747999	0.230927
535.108902	0.229770
535.469748	0.234996
535.830537	0.232528
536.191270	0.233149
536.551947	0.232555
536.912567	0.232839
537.273131	0.234316
537.633638	0.234695
537.994089	0.235067
538.354483	0.236115
538.714821	0.232778
539.075103	0.232778
539.435328	0.233584
539.795497	0.237349
540.155609	0.233995
540.515665	0.231820
540.875665	0.237773
541.235609	0.236052
541.595496	0.236255
541.955328	0.232786
542.315102	0.235361
542.674821	0.236553
543.034483	0.236626
543.394090	0.236408
543.753640	0.238108
544.113134	0.233173
544.472571	0.236712
544.831953	0.233221
545.191278	0.237586
545.550548	0.236790
545.909761	0.233884
546.268918	0.234663
546.628019	0.232625
546.987064	0.235423
547.346053	0.237171
547.704986	0.234858
548.063863	0.235254
548.422684	0.235743
548.781449	0.237594
549.140158	0.235164
549.498811	0.237783
549.857408	0.240934
550.215949	0.235811
550.574434	0.238734
550.932864	0.236563
551.291237	0.235340
551.649555	0.236990
552.007817	0.236420
552.366022	0.237682
552.724173	0.237699
553.082267	0.237650
553.440305	0.234689
553.798288	0.239209
554.156215	0.235729
554.514086	0.236449
554.871902	0.239817
555.229661	0.238614
555.587365	0.239570
555.945014	0.242070
556.302606	0.239040
556.660143	0.241749
557.017625	0.238073
557.375050	0.239984
557.732421	0.237125
558.089735	0.239276
558.446994	0.239087
558.804197	0.238576
559.161345	0.238060
559.518437	0.241878
559.875474	0.239586
560.232455	0.239106
560.589381	0.240083
560.946251	0.240688
561.303065	0.238122
561.659825	0.239258
562.016528	0.240872
562.373177	0.243805
562.729770	0.241107
563.086307	0.242751
563.442789	0.240900
563.799216	0.243508
564.155587	0.242260
564.511904	0.243808
564.868164	0.243424
565.224370	0.243402
565.580520	0.244909
565.936615	0.245321
566.292654	0.248097
566.648638	0.244982
567.004567	0.246089
567.360441	0.246553
567.716260	0.248538
568.072023	0.246098
568.427732	0.246994
568.783385	0.249295
569.138982	0.247406
569.494525	0.247459
569.850013	0.250061
570.205445	0.248780
570.560823	0.251096
570.916145	0.253242
571.271412	0.251303
571.626625	0.252658
571.981782	0.253424
572.336884	0.254097
572.691931	0.253791
573.046923	0.255410
573.401860	0.256626
573.756743	0.258137
574.111570	0.257141
574.466342	0.257730
574.821059	0.256700
575.175722	0.259596
575.530330	0.259252
575.884882	0.259551
576.239380	0.261442
576.593823	0.262164
576.948211	0.261844
577.302544	0.264844
577.656823	0.264403
578.011047	0.264104
578.365216	0.265116
578.719330	0.267194
579.073389	0.266630
579.427394	0.268166
579.781344	0.268964
580.135239	0.270313
580.489080	0.270246
580.842866	0.273160
581.196597	0.273317
581.550273	0.271695
581.903895	0.272628
582.257463	0.270371
582.610975	0.274079
582.964434	0.273414
583.317837	0.275996
583.671186	0.276638
584.024481	0.276396
584.377721	0.279232
584.730906	0.279711
585.084037	0.279154
585.437113	0.280979
585.790135	0.280151
586.143103	0.283393
586.496016	0.283754
586.848874	0.281837
587.201679	0.282630
587.554428	0.285820
587.907124	0.284717
588.259765	0.285429
588.612352	0.285788
588.964884	0.289538
589.317362	0.289095
589.669786	0.289133
590.022155	0.287402
590.374470	0.287080
590.726731	0.288732
591.078937	0.293954
591.431090	0.290166
591.783188	0.294393
592.135232	0.294556
592.487222	0.294684
592.839157	0.292888
593.191038	0.295308
593.542866	0.297270
593.894639	0.300458
594.246358	0.298913
594.598022	0.298150
594.949633	0.301743
595.301190	0.302238
595.652692	0.301579
596.004141	0.297802
596.355535	0.305853
596.706876	0.306560
597.058162	0.308846
597.409395	0.305908
597.760573	0.303822
598.111698	0.306980
598.462768	0.307549
598.813785	0.308663
599.164748	0.309711
599.515657	0.310266
599.866511	0.313762
600.217312	0.309091
600.568060	0.314029
600.918753	0.310746
601.269392	0.311723
601.619978	0.315262
601.970510	0.312808
602.320988	0.312676
602.671412	0.310607
603.021783	0.313139
603.372100	0.314331
603.722363	0.313961
604.072572	0.314883
604.422728	0.314618
604.772830	0.316606
605.122878	0.316374
605.472872	0.317210
605.822813	0.315502
606.172701	0.318028
606.522534	0.315246
606.872314	0.315495
607.222041	0.316397
607.571714	0.314323
607.921333	0.315611
608.270899	0.315817
608.620411	0.312012
608.969870	0.316363
609.319276	0.316566
609.668627	0.316373
610.017926	0.314977
610.367171	0.313588
610.716362	0.314083
611.065500	0.314073
611.414585	0.313267
611.763616	0.313133
612.112594	0.314156
612.461518	0.313295
612.810389	0.311491
613.159207	0.313258
613.507971	0.315299
613.856682	0.310884
614.205340	0.312352
614.553945	0.309555
614.902496	0.313096
615.250994	0.310972
615.599439	0.311885
615.947830	0.311340
616.296169	0.312273
616.644454	0.311716
616.992686	0.312185
617.340864	0.309920
617.688990	0.313285
618.037063	0.310101
618.385082	0.311653
618.733048	0.308628
619.080961	0.310796
619.428821	0.310663
619.776628	0.310077
620.124382	0.312474
620.472083	0.312888
620.819731	0.311960
621.167326	0.316012
621.514868	0.315435
621.862357	0.319741
622.209793	0.318897
622.557176	0.322018
622.904506	0.322584
623.251783	0.325024
623.599007	0.327566
623.946179	0.326730
624.293297	0.329188
624.640363	0.332964
624.987376	0.333089
625.334336	0.335534
625.681243	0.337711
626.028097	0.338673
626.374899	0.339692
626.721647	0.340504
627.068343	0.343095
627.414987	0.344507
627.761577	0.346396
628.108115	0.344593
628.454600	0.349910
628.801032	0.347466
629.147412	0.349319
629.493739	0.350249
629.840014	0.352832
630.186236	0.349769
630.532405	0.355715
630.878521	0.353059
631.224585	0.355048
631.570597	0.359315
631.916556	0.357636
632.262462	0.357091
632.608316	0.360017
632.954117	0.360389
633.299866	0.361246
633.645562	0.361607
633.991206	0.366519
634.336797	0.368900
634.682336	0.372039
635.027823	0.373062
635.373257	0.373224
635.718639	0.377481
636.063968	0.376623
636.409245	0.382373
636.754470	0.382701
637.099642	0.385095
637.444762	0.388465
637.789829	0.387777
638.134845	0.391123
638.479808	0.392050
638.824719	0.392073
639.169577	0.395925
639.514383	0.394838
639.859137	0.399495
640.203839	0.398565
640.548489	0.399737
640.893086	0.400885
641.237632	0.402671
641.582125	0.400907
641.926566	0.403561
642.270955	0.402865
642.615292	0.402729
642.959576	0.402365
643.303809	0.402901
643.647990	0.402340
643.992118	0.403219
644.336195	0.406073
644.680219	0.404851
645.024192	0.405405
645.368112	0.399301
645.711981	0.398018
646.055797	0.393247
646.399562	0.395699
646.743274	0.388610
647.086935	0.385088
647.430544	0.385253
647.774101	0.384333
648.117606	0.384042
648.461059	0.384578
648.804460	0.386493
649.147810	0.392117
649.491108	0.393867
649.834354	0.395216
650.177548	0.400449
650.520690	0.405996
650.863781	0.407115
651.206820	0.406361
651.549807	0.410898
651.892742	0.415344
652.235626	0.414647
652.578458	0.415708
652.921238	0.422242
653.263967	0.419223
653.606644	0.422724
653.949269	0.423074
654.291843	0.427029
654.634365	0.424308
654.976836	0.427130
655.319255	0.427705
655.661622	0.428792
656.003938	0.429008
656.346203	0.432083
656.688416	0.430086
657.030577	0.432931
657.372687	0.435554
657.714746	0.436147
658.056753	0.432667
658.398708	0.436296
658.740612	0.438193
659.082465	0.434298
659.424266	0.434680
659.766016	0.433775
660.107715	0.437078
660.449362	0.435425
660.790958	0.436359
661.132503	0.437265
661.473996	0.434793
661.815438	0.435700
662.156829	0.436277
662.498168	0.436756
662.839456	0.437837
663.180693	0.435784
663.521879	0.435238
663.863013	0.436311
664.204097	0.434804
664.545129	0.431918
664.886110	0.432432
665.227040	0.429622
665.567918	0.432025
665.908746	0.429631
666.249522	0.429671
666.590248	0.430971
666.930922	0.428563
667.271545	0.427759
667.612118	0.427519
667.952639	0.429456
668.293109	0.428411
668.633528	0.430665
668.973896	0.431035
669.314213	0.430619
669.654480	0.432971
669.994695	0.432803
670.334859	0.434118
670.674973	0.434368
671.015035	0.434047
671.355047	0.434863
671.695008	0.434765
672.034918	0.437050
672.374777	0.436648
672.714585	0.437628
673.054342	0.437542
673.394049	0.437725
673.733705	0.435133
674.073310	0.436492
674.412864	0.439768
674.752368	0.440253
675.091820	0.440514
675.431223	0.445262
675.770574	0.444445
676.109875	0.448019
676.449125	0.447252
676.788324	0.449779
677.127473	0.454750
677.466571	0.455331
677.805619	0.456747
678.144616	0.458043
678.483562	0.459897
678.822458	0.462229
679.161303	0.462491
679.500098	0.463574
679.838842	0.465272
680.177535	0.464726
680.516179	0.462659
680.854771	0.462014
681.193314	0.455405
681.531805	0.446693
681.870247	0.435164
682.208638	0.427671
682.546978	0.426861
682.885268	0.428712
683.223508	0.435191
683.561697	0.438637
683.899836	0.441264
684.237925	0.444402
684.575963	0.446997
684.913951	0.450492
685.251889	0.446182
685.589776	0.448296
685.927614	0.450191
686.265401	0.444336
686.603137	0.446238
686.940824	0.440455
687.278460	0.438681
687.616046	0.437363
687.953582	0.432721
688.291068	0.433901
688.628504	0.429291
688.965889	0.431578
689.303224	0.435230
689.640510	0.439667
689.977745	0.445620
690.314930	0.453516
690.652065	0.458243
690.989150	0.465523
691.326185	0.472338
691.663170	0.477041
692.000105	0.483728
692.336990	0.491137
692.673825	0.494168
693.010610	0.500791
693.347345	0.506456
693.684030	0.507932
694.020665	0.511970
694.357251	0.521686
694.693786	0.521004
695.030272	0.523882
695.366707	0.528625
695.703093	0.532329
696.039429	0.529912
696.375716	0.532231
696.711952	0.534094
697.048139	0.535771
697.384276	0.538094
697.720363	0.537152
698.056400	0.534726
698.392388	0.540835
698.728326	0.543218
699.064214	0.546483
699.400053	0.547617
699.735842	0.551853
700.071581	0.554187
700.407270	0.557078
700.742910	0.559395
701.078501	0.565993
701.414042	0.567137
701.749533	0.568750
702.084974	0.579060
702.420366	0.570992
702.755709	0.578546
703.091002	0.586899
703.426246	0.580248
703.761440	0.585108
704.096584	0.590281
704.431679	0.587176
704.766725	0.589677
705.101721	0.591115
705.436668	0.587410
705.771565	0.594014
706.106413	0.590507
706.441212	0.586918
706.775961	0.585969
707.110661	0.587577
707.445311	0.584807
707.779913	0.581060
708.114465	0.579787
708.448967	0.576872
708.783421	0.569162
709.117825	0.563308
709.452180	0.563151
709.786485	0.556904
710.120742	0.546584
710.454949	0.548665
710.789107	0.540778
711.123216	0.531319
711.457275	0.532049
711.791286	0.524133
712.125247	0.523558
712.459159	0.533956
712.793023	0.525893
713.126837	0.530253
713.460602	0.531301
713.794318	0.539761
714.127985	0.538332
714.461602	0.549170
714.795171	0.552874
715.128691	0.560612
715.462162	0.568127
715.795584	0.573611
716.128957	0.577212
716.462281	0.583090
716.795556	0.586225
717.128782	0.592102
717.461960	0.600995
717.795088	0.599745
718.128167	0.606404
718.461198	0.614368
718.794180	0.615460
719.127113	0.618312
719.459997	0.621319
719.792833	0.628277
720.125619	0.628962
720.458357	0.634791
720.791046	0.634881
721.123686	0.638977
721.456278	0.645024
721.788821	0.642012
722.121315	0.647437
722.453761	0.651022
722.786158	0.648793
723.118506	0.645295
723.450805	0.652954
723.783056	0.649616
724.115259	0.647135
724.447412	0.646260
724.779518	0.646929
725.111574	0.645670
725.443582	0.641235
725.775542	0.644268
726.107453	0.635672
726.439315	0.636121
726.771129	0.634545
727.102895	0.628011
727.434612	0.621147
727.766281	0.618667
728.097901	0.617576
728.429473	0.616958
728.760996	0.616124
729.092471	0.616041
729.423897	0.620269
729.755276	0.618686
730.086606	0.619490
730.417887	0.613654
730.749120	0.604134
731.080305	0.594933
731.411442	0.590967
731.742530	0.594605
732.073570	0.594838
732.404562	0.586815
732.735506	0.587993
733.066401	0.593418
733.397249	0.601829
733.728048	0.613230
734.058798	0.627173
734.389501	0.638356
734.720156	0.648122
735.050762	0.655526
735.381320	0.656431
735.711831	0.665040
736.042293	0.670017
736.372707	0.666565
736.703073	0.671193
737.033391	0.672831
737.363661	0.669667
737.693883	0.664468
738.024056	0.664039
738.354182	0.664772
738.684260	0.654217
739.014290	0.650095
739.344272	0.650492
739.674207	0.644367
740.004093	0.643688
740.333931	0.643884
740.663722	0.644328
740.993464	0.644063
741.323159	0.648099
741.652806	0.652612
741.982405	0.658580
742.311956	0.663250
742.641460	0.665106
742.970915	0.668198
743.300323	0.675768
743.629683	0.682218
743.958996	0.685641
744.288260	0.688056
744.617477	0.695360
744.946647	0.696440
745.275768	0.703108
745.604842	0.701561
745.933869	0.711661
746.262847	0.713349
746.591778	0.705864
746.920662	0.713131
747.249498	0.718966
747.578286	0.710555
747.907027	0.705911
748.235720	0.706648
748.564365	0.702211
748.892963	0.701964
749.221514	0.705614
749.550017	0.709047
749.878473	0.709621
750.206881	0.716630
750.535242	0.716633
750.863555	0.715664
751.191821	0.717072
751.520039	0.720565
751.848210	0.724851
752.176334	0.718624
752.504411	0.717758
752.832440	0.725065
753.160421	0.728476
753.488356	0.727640
753.816243	0.724455
754.144082	0.733758
754.471875	0.737666
754.799620	0.732738
755.127318	0.734139
755.454969	0.734366
755.782572	0.734169
756.110129	0.738467
756.437638	0.742009
756.765100	0.737906
757.092515	0.735712
757.419882	0.735002
757.747203	0.739899
758.074477	0.739937
758.401703	0.736158
758.728882	0.731342
759.056014	0.730754
759.383099	0.729157
759.710138	0.730143
760.037129	0.726521
760.364073	0.720802
760.690970	0.723161
761.017820	0.727555
761.344623	0.724694
761.671379	0.714876
761.998088	0.703832
762.324751	0.679983
762.651366	0.637062
762.977935	0.569420
763.304456	0.518032
763.630931	0.508171
763.957359	0.547725
764.283740	0.591382
764.610074	0.619252
764.936362	0.651247
765.262602	0.679435
765.588796	0.700386
765.914943	0.717322
766.241044	0.735897
766.567097	0.742524
766.893104	0.752761
767.219064	0.758574
767.544978	0.765810
767.870845	0.778659
768.196665	0.783879
768.522438	0.780722
768.848165	0.782019
769.173846	0.792092
769.499479	0.796567
769.825066	0.799324
770.150607	0.804741
770.476101	0.800311
770.801548	0.802343
771.126949	0.813594
771.452303	0.817403
771.777611	0.816714
772.102872	0.814802
772.428087	0.820228
772.753256	0.823855
773.078378	0.825554
773.403453	0.833043
773.728482	0.838798
774.053465	0.831951
774.378401	0.835298
774.703291	0.844850
775.028135	0.845254
775.352932	0.844750
775.677683	0.849607
776.002388	0.850072
776.327046	0.848664
776.651658	0.853742
776.976224	0.855709
777.300743	0.855251
777.625216	0.857917
777.949643	0.859895
778.274024	0.859012
778.598359	0.861225
778.922647	0.860413
779.246889	0.860942
779.571086	0.864371
779.895236	0.866676
780.219339	0.865316
780.543397	0.859398
780.867409	0.859765
781.191374	0.861835
781.515294	0.863195
781.839167	0.862170
782.162995	0.864981
782.486776	0.863127
782.810511	0.862777
783.134201	0.868243
783.457844	0.865897
783.781441	0.868157
784.104993	0.873601
784.428498	0.873857
784.751958	0.869971
785.075372	0.872409
785.398739	0.875229
785.722061	0.870913
786.045337	0.867073
786.368568	0.871841
786.691752	0.875042
787.014891	0.860268
787.337983	0.851345
787.661030	0.843525
787.984031	0.826269
788.306987	0.814003
788.629897	0.813998
788.952760	0.819395
789.275579	0.824314
789.598351	0.839213
789.921078	0.853113
790.243759	0.853874
790.566395	0.858830
790.888984	0.868245
791.211529	0.871312
791.534027	0.874379
791.856480	0.879519
792.178888	0.882220
792.501249	0.884204
792.823566	0.887203
793.145836	0.886173
793.468062	0.887951
793.790241	0.888244
794.112375	0.886265
794.434464	0.883535
794.756507	0.881619
795.078505	0.880270
795.400457	0.874654
795.722364	0.862602
796.044226	0.855857
796.366042	0.854043
796.687812	0.857975
797.009538	0.853604
797.331218	0.857742
797.652852	0.862127
797.974442	0.866298
798.295986	0.867684
798.617484	0.868882
798.938938	0.874315
799.260346	0.878861
799.581709	0.879204
799.903026	0.883517
800.224299	0.883821
800.545526	0.886421
800.866708	0.891678
801.187845	0.894515
801.508936	0.893436
801.829983	0.891819
802.150984	0.896723
802.471940	0.900638
802.792851	0.900759
803.113717	0.902709
803.434538	0.899173
803.755314	0.902590
804.076045	0.903036
804.396731	0.902719
804.717372	0.902504
805.037967	0.905912
805.358518	0.902907
805.679024	0.898662
805.999485	0.900802
806.319901	0.899248
806.640272	0.901927
806.960598	0.900263
807.280879	0.896213
807.601115	0.895694
807.921306	0.898667
808.241453	0.900064
808.561554	0.898972
808.881611	0.896978
809.201623	0.899849
809.521590	0.899592
809.841513	0.901131
810.161390	0.899540
810.481223	0.900669
810.801011	0.904081
811.120755	0.906428
811.440453	0.904301
811.760107	0.905855
812.079716	0.904009
812.399281	0.907378
812.718801	0.909533
813.038276	0.909662
813.357707	0.910800
813.677093	0.909269
813.996434	0.909591
814.315731	0.912735
814.634983	0.912904
814.954191	0.913354
815.273354	0.907353
815.592473	0.905560
815.911547	0.905882
816.230577	0.903459
816.549562	0.900256
816.868502	0.897748
817.187399	0.896478
817.506250	0.891004
817.825058	0.893372
818.143821	0.888845
818.462539	0.884200
818.781213	0.875696
819.099843	0.865508
819.418429	0.848065
819.736970	0.830961
820.055466	0.809976
820.373919	0.784604
820.692327	0.750963
821.010691	0.715325
821.329011	0.634449
821.647286	0.517053
821.965517	0.402466
822.283704	0.359388
822.601847	0.360392
822.919945	0.395674
823.237999	0.430862
823.556010	0.479026
823.873976	0.535355
824.191897	0.586958
824.509775	0.630629
824.827609	0.676559
825.145398	0.700399
825.463144	0.702332
825.780845	0.684241
826.098502	0.665715
826.416116	0.619605
826.733685	0.574602
827.051210	0.565504
827.368692	0.580778
827.686129	0.618050
828.003522	0.674159
828.320872	0.722586
828.638177	0.766619
828.955439	0.800116
829.272656	0.821221
829.589830	0.838797
829.906960	0.855622
830.224046	0.867844
830.541088	0.878611
830.858086	0.884182
831.175041	0.890421
831.491952	0.889770
831.808819	0.885617
832.125642	0.878049
832.442421	0.865104
832.759157	0.842199
833.075849	0.792774
833.392497	0.728735
833.709101	0.687733
834.025662	0.697251
834.342179	0.729533
834.658653	0.770121
834.975083	0.807138
835.291469	0.832136
835.607811	0.856490
835.924110	0.874977
836.240366	0.890909
836.556578	0.903502
836.872746	0.910853
837.188871	0.918687
837.504952	0.924530
837.820990	0.927029
838.136984	0.931290
838.452935	0.933727
838.768842	0.935649
839.084706	0.927965
839.400526	0.901852
839.716303	0.860516
840.032037	0.838752
840.347727	0.842264
840.663373	0.858924
840.978977	0.882026
841.294537	0.905366
841.610054	0.921366
841.925527	0.929084
842.240957	0.936912
842.556344	0.943557
842.871687	0.950036
843.186987	0.953243
843.502244	0.954502
843.817458	0.956546
844.132629	0.960654
844.447756	0.964657
844.762840	0.965795
845.077881	0.965392
845.392879	0.963091
845.707833	0.966969
846.022745	0.968920
846.337613	0.968444
846.652438	0.968974
846.967221	0.970321
847.281960	0.970954
847.596656	0.972449
847.911309	0.971777
848.225919	0.971563
848.540485	0.973185
848.855009	0.973976
849.169490	0.974718
849.483928	0.974333
849.798323	0.972979
850.112675	0.976211
850.426984	0.974414
850.741251	0.974378
851.055474	0.974448
851.369654	0.973843
851.683792	0.974149
851.997887	0.974588
852.311938	0.975029
852.625947	0.973146
852.939914	0.973199
853.253837	0.973796
853.567718	0.975618
853.881555	0.974555
854.195350	0.973771
854.509103	0.975145
854.822812	0.975195
855.136479	0.975310
855.450103	0.975091
855.763685	0.973128
856.077224	0.975864
856.390720	0.975523
856.704173	0.975319
857.017584	0.973197
857.330953	0.973038
857.644278	0.971370
857.957561	0.973344
858.270802	0.974632
858.584000	0.973305
858.897155	0.972307
859.210268	0.971567
859.523339	0.973859
859.836367	0.975146
860.149352	0.975479
860.462295	0.974203
860.775195	0.975066
861.088054	0.973907
861.400869	0.975532
861.713642	0.974547
862.026373	0.976499
862.339062	0.975706
862.651708	0.973689
862.964312	0.973225
863.276873	0.973235
863.589392	0.973295
863.901869	0.969937
864.214303	0.969733
864.526696	0.968987
864.839045	0.968259
865.151353	0.967200
865.463619	0.966002
865.775842	0.967092
866.088023	0.967783
866.400162	0.966569
866.712258	0.966999
867.024313	0.966963
867.336325	0.968252
867.648296	0.968221
867.960224	0.967111
868.272110	0.966941
868.583954	0.968851
868.895755	0.968587
869.207515	0.966312
869.519233	0.964515
869.830909	0.965635
870.142542	0.965830
870.454134	0.966070
870.765684	0.963472
871.077191	0.964145
871.388657	0.962418
871.700081	0.963761
872.011463	0.964496
872.322803	0.961964
872.634101	0.959971
872.945357	0.958138
873.256571	0.956431
873.567744	0.957537
873.878874	0.959182
874.189963	0.957806
874.501010	0.957612
874.812015	0.953511
875.122979	0.954742
875.433900	0.957319
875.744780	0.957628
876.055618	0.954453
876.366415	0.953711
876.677169	0.954046
876.987882	0.955549
877.298554	0.956191
877.609183	0.951613
877.919771	0.948597
878.230317	0.946366
878.540822	0.943272
878.851285	0.937995
879.161707	0.930367
879.472087	0.918112
879.782425	0.900313
880.092722	0.865124
880.402977	0.810830
880.713191	0.747118
881.023363	0.685729
881.333494	0.651558
881.643583	0.623964
881.953631	0.624142
882.263637	0.651755
882.573602	0.692606
882.883526	0.718842
883.193408	0.744572
883.503248	0.767374
883.813048	0.795742
884.122806	0.826541
884.432522	0.850590
884.742197	0.871257
885.051831	0.882501
885.361424	0.894125
885.670975	0.906395
885.980485	0.915552
886.289954	0.922023
886.599382	0.926669
886.908768	0.931146
887.218113	0.936200
887.527417	0.942745
887.836680	0.945833
888.145901	0.947642
888.455082	0.952138
888.764221	0.955149
889.073319	0.956683
889.382376	0.957646
889.691392	0.955876
890.000366	0.957434
890.309300	0.957084
890.618193	0.957659
890.927044	0.955720
891.235855	0.955865
891.544625	0.955021
891.853353	0.956122
892.162041	0.953000
892.470687	0.946624
892.779293	0.942158
893.087858	0.937101
893.396381	0.927773
893.704864	0.914359
894.013306	0.890092
894.321707	0.863489
894.630068	0.847303
894.938387	0.841457
895.246665	0.844106
895.554903	0.856796
895.863100	0.871558
896.171256	0.888029
896.479371	0.907770
896.787446	0.920847
897.095480	0.927655
897.403473	0.929394
897.711425	0.937009
898.019336	0.942482
898.327207	0.948532
898.635038	0.946724
898.942827	0.949653
899.250576	0.953140
899.558284	0.956689
899.865952	0.958626
900.173579	0.958854
900.481165	0.960336
900.788711	0.962367
901.096216	0.964822
901.403681	0.965438
901.711105	0.966539
902.018489	0.966888
902.325832	0.965350
902.633135	0.965461
902.940397	0.960033
903.247619	0.946173
903.554800	0.920328
903.861941	0.879252
904.169041	0.841037
904.476101	0.822589
904.783121	0.824233
905.090100	0.840781
905.397039	0.863210
905.703938	0.887075
906.010796	0.907753
906.317614	0.924212
906.624391	0.937763
906.931129	0.947144
907.237826	0.956480
907.544483	0.962977
907.851099	0.967212
908.157675	0.971253
908.464211	0.973507
908.770707	0.976251
909.077163	0.979570
909.383578	0.979669
909.689954	0.979132
909.996289	0.980082
910.302584	0.983240
910.608839	0.985495
910.915054	0.984028
911.221229	0.983483
911.527363	0.981069
911.833458	0.982484
912.139513	0.981553
912.445527	0.981298
912.751502	0.978877
913.057436	0.975333
913.363331	0.975486
913.669186	0.972069
913.975000	0.965462
914.280775	0.960001
914.586510	0.952265
914.892205	0.938311
915.197859	0.914295
915.503475	0.887801
915.809050	0.866399
916.114585	0.860472
916.420081	0.856869
916.725536	0.854316
917.030952	0.862195
917.336328	0.875942
917.641665	0.892157
917.946961	0.908361
918.252218	0.920614
918.557435	0.929262
918.862612	0.937982
919.167750	0.944070
919.472848	0.950522
919.777906	0.957334
920.082925	0.962086
920.387904	0.965209
920.692843	0.966488
920.997743	0.967702
921.302603	0.970908
921.607423	0.973761
921.912204	0.977473
922.216946	0.976906
922.521647	0.978279
922.826310	0.978767
923.130932	0.981363
923.435516	0.983585
923.740059	0.982727
924.044564	0.983837
924.349028	0.985226
924.653454	0.988202
924.957840	0.988925
925.262186	0.988707
925.566493	0.989519
925.870761	0.989624
926.174989	0.990897
926.479178	0.993024
926.783328	0.993234
927.087438	0.992783
927.391509	0.994054
927.695541	0.994394
927.999533	0.995824
928.303486	0.995390
928.607400	0.995876
928.911275	0.996055
929.215110	0.996217
929.518906	0.996436
929.822663	0.996932
930.126381	0.997228
930.430060	0.995988
930.733699	0.996626
931.037299	0.995598
931.340861	0.995247
931.644383	0.994038
931.947866	0.995574
932.251309	0.995564
932.554714	0.995632
932.858080	0.995633
933.161407	0.994976
933.464694	0.996052
933.767943	0.996152
934.071153	0.996377
934.374323	0.997178
934.677455	0.996479
934.980548	0.996450
935.283602	0.997066
935.586617	0.996119
935.889593	0.998265
936.192530	0.997502
936.495428	0.996102
936.798287	0.995548
937.101108	0.995267
937.403890	0.994506
937.706632	0.994268
938.009336	0.992336
938.312002	0.989649
938.614628	0.989545
938.917216	0.987936
939.219765	0.988048
939.522275	0.987256
939.824747	0.988075
940.127179	0.987363
940.429573	0.990136
940.731929	0.988156
941.034246	0.989215
941.336524	0.988815
941.638763	0.991099
941.940964	0.990891
942.243126	0.991808
942.545250	0.992791
942.847335	0.992938
943.149381	0.992724
943.451389	0.993446
943.753359	0.993855
944.055290	0.995431
944.357182	0.995947
944.659036	0.995784
944.960851	0.995874
945.262628	0.995533
945.564367	0.995292
945.866067	0.995891
946.167729	0.995980
946.469352	0.994652
946.770937	0.993702
947.072484	0.994595
947.373992	0.995130
947.675462	0.994350
947.976893	0.995430
948.278286	0.997371
948.579641	0.997667
948.880958	0.995767
949.182236	0.996408
949.483476	0.997327
949.784678	0.996358
950.085841	0.996843
950.386967	0.996916
950.688054	0.997031
950.989103	0.994182
951.290114	0.994398
951.591087	0.995378
951.892021	0.994121
952.192917	0.994056
952.493776	0.994568
952.794596	0.993847
953.095378	0.992927
953.396122	0.992487
953.696828	0.994558
953.997496	0.994466
954.298126	0.996340
954.598718	0.995082
954.899272	0.994811
955.199788	0.995960
955.500266	0.997418
955.800706	0.997081
956.101108	0.997555
956.401472	1.000797
956.701798	0.999386
957.002087	0.998710
957.302337	0.999248
957.602550	0.999422
957.902724	1.001126
958.202861	0.999530
958.502960	1.000685
958.803022	1.000932
959.103045	1.000985
959.403031	1.001634
959.702979	1.001398
960.002889	1.002277
960.302762	1.000697
960.602596	1.002287
960.902393	1.002548
961.202153	1.002601
961.501875	1.002289
961.801559	1.002283
962.101205	1.001879
962.400814	1.003293
962.700385	1.002842
962.999918	1.002593
963.299414	1.001741
963.598873	1.003034
963.898293	1.003034
964.197677	1.002570
964.497022	1.003445
964.796331	1.002157
965.095601	1.004166
965.394835	1.002398
965.694030	1.004106
965.993189	1.002515
966.292309	1.004335
966.591393	1.001940
966.890439	1.002866
967.189447	1.002529
967.488419	1.003368
967.787353	1.003088
968.086249	1.002746
968.385108	1.002828
968.683930	1.002952
968.982714	1.003069
969.281462	1.003522
969.580172	1.002277
969.878844	1.004112
970.177480	1.002637
970.476078	1.002336
970.774639	1.002134
971.073162	1.002292
971.371649	1.002898
971.670098	1.001104
971.968510	1.002218
972.266885	1.002164
972.565223	1.002040
972.863524	1.002096
973.161788	1.001816
973.460014	1.003288
973.758204	1.001831
974.056356	1.002401
974.354471	1.001586
974.652550	1.001959
974.950591	1.001704
975.248595	1.001891
975.546563	1.002604
975.844493	1.003184
976.142386	1.001105
976.440243	1.002903
976.738062	1.002966
977.035845	1.002315
977.333590	1.003757
977.631299	1.001375
977.928971	1.002040
978.226606	1.001995
978.524204	1.001685
978.821765	1.003969
979.119290	1.004176
979.416777	1.002897
979.714228	1.003944
980.011642	1.004002
980.309020	1.002633
980.606360	1.001915
980.903664	1.002183
981.200931	1.001712
981.498162	1.000664
981.795356	1.001324
982.092513	0.999385
982.389633	1.000484
982.686717	0.997569
982.983764	0.995459
983.280775	0.996377
983.577749	0.997095
983.874686	0.996135
984.171587	0.996751
984.468451	0.998377
984.765279	1.000057
985.062070	1.001088
985.358824	1.001043
985.655543	1.002010
985.952224	1.002289
986.248869	1.002440
986.545478	1.002915
986.842050	1.002331
987.138586	1.002743
987.435086	1.002572
987.731549	1.004158
988.027975	1.004811
988.324366	1.002635
988.620719	1.004154
988.917037	1.003003
989.213318	1.005107
989.509563	1.004237
989.805772	1.005010
990.101944	1.003773
990.398080	1.003180
990.694180	1.005425
990.990244	1.003821
991.286271	1.004078
991.582262	1.004687
991.878217	1.003653
992.174136	1.005145
992.470019	1.003651
992.765865	1.004646
993.061676	1.004246
993.357450	1.004335
993.653188	1.004576
993.948890	1.003923
994.244556	1.004327
994.540186	1.004315
994.835780	1.003032
995.131337	1.003614
995.426859	1.003539
995.722345	1.003708
996.017795	1.002599
996.313208	1.002603
996.608586	1.002060
996.903928	1.002894
997.199234	1.001970
997.494504	1.002928
997.789738	1.001025
998.084936	1.003618
998.380099	1.003325
998.675225	1.003612
998.970316	1.003776
999.265371	1.003543
999.560390	1.003981
999.855373	1.003156
1000.150320	1.004097
1000.445232	1.003781
1000.740108	1.003417
1001.034948	1.004049
1001.329752	1.004355
1001.624521	1.005311
1001.919254	1.003913
1002.213951	1.005025
1002.508613	1.002548
1002.803239	1.003196
1003.097829	1.005936
1003.392384	1.003375
1003.686903	1.004649
1003.981386	1.005280
1004.275834	1.005219
1004.570246	1.003285
1004.864623	1.004953
1005.158964	1.004908
1005.453270	1.004307
1005.747540	1.004262
1006.041775	1.004626
1006.335974	1.005087
1006.630138	1.004463
1006.924266	1.002963
1007.218359	1.003624
1007.512416	1.005119
1007.806438	1.004385
1008.100425	1.004661
1008.394376	1.006539
1008.688292	1.003762
1008.982172	1.003628
1009.276017	1.005596
1009.569827	1.005885
1009.863602	1.003012
1010.157341	1.005359
1010.451045	1.004899
1010.744714	1.005882
1011.038347	1.005267
1011.331945	1.004269
1011.625508	1.004272
1011.919036	1.004183
1012.212528	1.005332
1012.505986	1.003747
1012.799408	1.005502
1013.092795	1.004854
1013.386147	1.004479
1013.679464	1.005244
1013.972745	1.004790
1014.265992	1.005049
1014.559204	1.003980
1014.852380	1.005640
1015.145521	1.004692
1015.438628	1.004230
1015.731699	1.004341
1016.024736	1.006208
1016.317737	1.004896
1016.610703	1.004393
1016.903635	1.005105
1017.196531	1.004284
1017.489393	1.005012
1017.782219	1.002767
1018.075011	1.003574
1018.367768	1.004682
1018.660490	1.004333
1018.953177	1.004333
1019.245829	1.004333
