Dividing Wavelength (nm)	Counts (n)	Blue Motor Position (mm): 5.500000	Red Motor Position (mm): 0.000000	
326.493990	1.005582
326.888308	1.005582
327.282561	1.005582
327.676750	1.006294
328.070874	1.005936
328.464933	1.006876
328.858929	1.006821
329.252859	1.005993
329.646726	1.005112
330.040528	1.005303
330.434265	1.005942
330.827938	1.005777
331.221547	1.005343
331.615091	1.005895
332.008571	1.006710
332.401986	1.005546
332.795338	1.005936
333.188625	1.006545
333.581847	1.004419
333.975006	1.005905
334.368100	1.006374
334.761129	1.004297
335.154095	1.005039
335.546996	1.002946
335.939833	0.998305
336.332606	0.999499
336.725315	0.998581
337.117960	0.999449
337.510540	0.997999
337.903056	0.999094
338.295508	1.000281
338.687896	0.998632
339.080220	0.997808
339.472480	0.998617
339.864676	0.999203
340.256807	0.997479
340.648875	0.999812
341.040879	0.997199
341.432818	0.999568
341.824694	0.998163
342.216506	0.999196
342.608253	0.998276
342.999937	0.998098
343.391557	0.998320
343.783113	0.999282
344.174605	0.999509
344.566033	0.997849
344.957397	0.998595
345.348697	0.998209
345.739934	0.999466
346.131106	0.998853
346.522215	0.997123
346.913260	0.998101
347.304241	0.998633
347.695159	0.999973
348.086012	0.997979
348.476802	0.999231
348.867528	0.997149
349.258191	0.998838
349.648789	0.998754
350.039324	0.999173
350.429796	0.997217
350.820203	0.996944
351.210548	0.998545
351.600828	0.997604
351.991045	0.997355
352.381198	0.998803
352.771288	0.998179
353.161314	0.999266
353.551276	0.998453
353.941175	0.996254
354.331010	0.998788
354.720782	0.997708
355.110490	0.998265
355.500135	0.999157
355.889717	0.996876
356.279235	0.997011
356.668689	0.998956
357.058080	0.998172
357.447408	0.996903
357.836672	0.998356
358.225873	0.996826
358.615010	0.997743
359.004084	0.996399
359.393095	0.998496
359.782043	0.997245
360.170927	0.997492
360.559748	0.996675
360.948505	0.996355
361.337199	0.996620
361.725830	0.998732
362.114398	0.997666
362.502903	0.996103
362.891344	0.995078
363.279722	0.995063
363.668037	0.999088
364.056289	0.996579
364.444478	0.998678
364.832603	0.995656
365.220665	0.996947
365.608665	0.995374
365.996601	0.997332
366.384474	0.995327
366.772284	0.995649
367.160031	0.993797
367.547715	0.995258
367.935336	0.993975
368.322893	0.993204
368.710388	0.992600
369.097820	0.990594
369.485189	0.988227
369.872495	0.985742
370.259738	0.983338
370.646918	0.981089
371.034035	0.979444
371.421090	0.976663
371.808081	0.971259
372.195010	0.968544
372.581875	0.963246
372.968678	0.958846
373.355418	0.955338
373.742096	0.947822
374.128710	0.943811
374.515262	0.938872
374.901751	0.933687
375.288177	0.927585
375.674540	0.922244
376.060841	0.915451
376.447079	0.909631
376.833254	0.902914
377.219367	0.897219
377.605417	0.885723
377.991404	0.882261
378.377329	0.876407
378.763191	0.871231
379.148991	0.861466
379.534727	0.853549
379.920402	0.845383
380.306013	0.841693
380.691563	0.829067
381.077049	0.822518
381.462474	0.817896
381.847835	0.806883
382.233134	0.802490
382.618371	0.802701
383.003545	0.784674
383.388657	0.782520
383.773706	0.774691
384.158693	0.771156
384.543618	0.765393
384.928480	0.756812
385.313280	0.747426
385.698017	0.746205
386.082692	0.735297
386.467305	0.733826
386.851856	0.728009
387.236344	0.722506
387.620770	0.716654
388.005133	0.712158
388.389435	0.706152
388.773674	0.703586
389.157851	0.694682
389.541965	0.692362
389.926018	0.700237
390.310008	0.686248
390.693936	0.682500
391.077802	0.675277
391.461606	0.676857
391.845348	0.666057
392.229027	0.666080
392.612645	0.663608
392.996200	0.650366
393.379694	0.643323
393.763125	0.633657
394.146494	0.638514
394.529801	0.629412
394.913047	0.621673
395.296230	0.627072
395.679351	0.618986
396.062410	0.616123
396.445408	0.618185
396.828343	0.613140
397.211217	0.608658
397.594028	0.620835
397.976778	0.610699
398.359466	0.607713
398.742092	0.603532
399.124656	0.614865
399.507158	0.602852
399.889598	0.599707
400.271977	0.591515
400.654294	0.594987
401.036549	0.594764
401.418742	0.598866
401.800874	0.584154
402.182944	0.581241
402.564952	0.573014
402.946898	0.574525
403.328783	0.575787
403.710606	0.587179
404.092367	0.561855
404.474067	0.566606
404.855705	0.565743
405.237282	0.574359
405.618797	0.560504
406.000250	0.556891
406.381642	0.546362
406.762972	0.551278
407.144240	0.549917
407.525447	0.549943
407.906593	0.542701
408.287677	0.537941
408.668700	0.546425
409.049661	0.541095
409.430560	0.535672
409.811399	0.544539
410.192176	0.526255
410.572891	0.533786
410.953545	0.520737
411.334138	0.535329
411.714669	0.527337
412.095139	0.539499
412.475547	0.523087
412.855894	0.525404
413.236180	0.524706
413.616405	0.529497
413.996568	0.519928
414.376670	0.526558
414.756711	0.530831
415.136691	0.528474
415.516609	0.519250
415.896466	0.515854
416.276262	0.512306
416.655997	0.513544
417.035670	0.495506
417.415283	0.486980
417.794834	0.491569
418.174324	0.497136
418.553753	0.505666
418.933121	0.488470
419.312428	0.482286
419.691674	0.488293
420.070859	0.476594
420.449983	0.484041
420.829045	0.474082
421.208047	0.482430
421.586988	0.475712
421.965867	0.474376
422.344686	0.463072
422.723444	0.475799
423.102141	0.493024
423.480777	0.465894
423.859352	0.486393
424.237866	0.463291
424.616319	0.464081
424.994712	0.455631
425.373044	0.465863
425.751314	0.453650
426.129524	0.470908
426.507673	0.453219
426.885762	0.447079
427.263789	0.452713
427.641756	0.462311
428.019662	0.452781
428.397508	0.452128
428.775292	0.456022
429.153016	0.447895
429.530679	0.454348
429.908282	0.448112
430.285824	0.457696
430.663305	0.436173
431.040726	0.457033
431.418086	0.457210
431.795385	0.448976
432.172624	0.448410
432.549802	0.447687
432.926920	0.447115
433.303977	0.446790
433.680974	0.443254
434.057910	0.442887
434.434786	0.441547
434.811601	0.444280
435.188355	0.426562
435.565050	0.436675
435.941683	0.437093
436.318257	0.421277
436.694770	0.422480
437.071222	0.420200
437.447614	0.424502
437.823946	0.431479
438.200218	0.420465
438.576429	0.430786
438.952580	0.423239
439.328670	0.420276
439.704700	0.426313
440.080670	0.427607
440.456580	0.409098
440.832429	0.416775
441.208218	0.427879
441.583947	0.416901
441.959616	0.416537
442.335224	0.422235
442.710773	0.412406
443.086261	0.410519
443.461689	0.424751
443.837057	0.414204
444.212365	0.404488
444.587612	0.411487
444.962800	0.401570
445.337927	0.402820
445.712995	0.428392
446.088002	0.390846
446.462949	0.401585
446.837837	0.406152
447.212664	0.394922
447.587431	0.386374
447.962139	0.356767
448.336786	0.315632
448.711374	0.326315
449.085901	0.370514
449.460369	0.374786
449.834776	0.378425
450.209124	0.357433
450.583412	0.350322
450.957640	0.343022
451.331808	0.354923
451.705917	0.377913
452.079965	0.382881
452.453954	0.370492
452.827883	0.378019
453.201752	0.372395
453.575562	0.383955
453.949311	0.372056
454.323001	0.378426
454.696632	0.374193
455.070202	0.367160
455.443713	0.358612
455.817164	0.354103
456.190556	0.348986
456.563888	0.346067
456.937160	0.343924
457.310373	0.361138
457.683526	0.359944
458.056619	0.365655
458.429653	0.365766
458.802628	0.369847
459.175542	0.364005
459.548398	0.346032
459.921194	0.338907
460.293930	0.339060
460.666607	0.316483
461.039224	0.304802
461.411782	0.300372
461.784280	0.299364
462.156719	0.303748
462.529099	0.308264
462.901419	0.324242
463.273680	0.328478
463.645882	0.328539
464.018024	0.334219
464.390106	0.326611
464.762130	0.311501
465.134094	0.294574
465.505999	0.263291
465.877845	0.233475
466.249631	0.220490
466.621358	0.228039
466.993026	0.241942
467.364634	0.248355
467.736184	0.256957
468.107674	0.265632
468.479105	0.264645
468.850477	0.271716
469.221790	0.278425
469.593043	0.288725
469.964238	0.293778
470.335373	0.292898
470.706449	0.291277
471.077467	0.291655
471.448425	0.253505
471.819324	0.229222
472.190164	0.228910
472.560945	0.257634
472.931667	0.280256
473.302330	0.284233
473.672934	0.295895
474.043479	0.284204
474.413965	0.285958
474.784393	0.289100
475.154761	0.284299
475.525070	0.281301
475.895321	0.287355
476.265513	0.281390
476.635645	0.276989
477.005719	0.276961
477.375734	0.273058
477.745691	0.266136
478.115588	0.262701
478.485427	0.256197
478.855207	0.243235
479.224928	0.225628
479.594591	0.213754
479.964194	0.217272
480.333739	0.218369
480.703226	0.219777
481.072653	0.218136
481.442022	0.213935
481.811333	0.210506
482.180584	0.213999
482.549777	0.219450
482.918912	0.222989
483.287988	0.222128
483.657005	0.221813
484.025964	0.228483
484.394864	0.225888
484.763706	0.226456
485.132489	0.231669
485.501213	0.232374
485.869879	0.230590
486.238487	0.233216
486.607036	0.231781
486.975527	0.236332
487.343959	0.231776
487.712333	0.231190
488.080648	0.232322
488.448905	0.231940
488.817104	0.232916
489.185244	0.227664
489.553326	0.224218
489.921350	0.214441
490.289315	0.196601
490.657222	0.191569
491.025070	0.192935
491.392861	0.195027
491.760593	0.200631
492.128267	0.206263
492.495883	0.211774
492.863440	0.218258
493.230939	0.224615
493.598380	0.226046
493.965763	0.227886
494.333088	0.230299
494.700354	0.232204
495.067563	0.230878
495.434713	0.234342
495.801805	0.232039
496.168839	0.233557
496.535815	0.235050
496.902733	0.234929
497.269593	0.236473
497.636395	0.233933
498.003139	0.234212
498.369825	0.237561
498.736453	0.233961
499.103023	0.235760
499.469535	0.235079
499.835989	0.235067
500.202385	0.236045
500.568723	0.239355
500.935003	0.234428
501.301226	0.238868
501.667390	0.233041
502.033497	0.231215
502.399546	0.233911
502.765537	0.235773
503.131470	0.234483
503.497345	0.230722
503.863163	0.239274
504.228923	0.232212
504.594625	0.231283
504.960269	0.236241
505.325856	0.232062
505.691385	0.236263
506.056856	0.232868
506.422270	0.232334
506.787625	0.234866
507.152924	0.232292
507.518164	0.232679
507.883347	0.233901
508.248472	0.236131
508.613540	0.230913
508.978550	0.233483
509.343503	0.234067
509.708398	0.231735
510.073236	0.229502
510.438016	0.229122
510.802738	0.230080
511.167403	0.229177
511.532010	0.231152
511.896561	0.226403
512.261053	0.224858
512.625488	0.227530
512.989866	0.227745
513.354186	0.227954
513.718449	0.229707
514.082655	0.225902
514.446803	0.228403
514.810894	0.225878
515.174927	0.228659
515.538904	0.228264
515.902822	0.224798
516.266684	0.227534
516.630488	0.228528
516.994235	0.227332
517.357925	0.226437
517.721558	0.224397
518.085133	0.224124
518.448651	0.223895
518.812112	0.226609
519.175516	0.225765
519.538863	0.223453
519.902152	0.225118
520.265385	0.221984
520.628560	0.224039
520.991678	0.224249
521.354739	0.223089
521.717743	0.224009
522.080690	0.224785
522.443580	0.221999
522.806413	0.222782
523.169189	0.222447
523.531908	0.221206
523.894569	0.224813
524.257174	0.224765
524.619722	0.222290
524.982213	0.223442
525.344647	0.222431
525.707025	0.223175
526.069345	0.221510
526.431608	0.223119
526.793815	0.220928
527.155964	0.225198
527.518057	0.224044
527.880093	0.225206
528.242072	0.223807
528.603995	0.225426
528.965860	0.227245
529.327669	0.226358
529.689421	0.227002
530.051117	0.227807
530.412755	0.225821
530.774337	0.227930
531.135862	0.228419
531.497331	0.227400
531.858743	0.230616
532.220098	0.227118
532.581396	0.229766
532.942638	0.230399
533.303824	0.231525
533.664953	0.230887
534.026025	0.232830
534.387040	0.230724
534.747999	0.230554
535.108902	0.229643
535.469748	0.234620
535.830537	0.232485
536.191270	0.232557
536.551947	0.232109
536.912567	0.232253
537.273131	0.233857
537.633638	0.234315
537.994089	0.234767
538.354483	0.235809
538.714821	0.232517
539.075103	0.232511
539.435328	0.233377
539.795497	0.237043
540.155609	0.233735
540.515665	0.231793
540.875665	0.237325
541.235609	0.235995
541.595496	0.235881
541.955328	0.232566
542.315102	0.235206
542.674821	0.236339
543.034483	0.236446
543.394090	0.236181
543.753640	0.237812
544.113134	0.232595
544.472571	0.236106
544.831953	0.233177
545.191278	0.237194
545.550548	0.236333
545.909761	0.233446
546.268918	0.234618
546.628019	0.232506
546.987064	0.235009
547.346053	0.236919
547.704986	0.234650
548.063863	0.234907
548.422684	0.235129
548.781449	0.237036
549.140158	0.234925
549.498811	0.237535
549.857408	0.240814
550.215949	0.235239
550.574434	0.238372
550.932864	0.236527
551.291237	0.235037
551.649555	0.236634
552.007817	0.236304
552.366022	0.237060
552.724173	0.237385
553.082267	0.237689
553.440305	0.234455
553.798288	0.239016
554.156215	0.235426
554.514086	0.236230
554.871902	0.239341
555.229661	0.238442
555.587365	0.239291
555.945014	0.241580
556.302606	0.238711
556.660143	0.241152
557.017625	0.237867
557.375050	0.239998
557.732421	0.237088
558.089735	0.238717
558.446994	0.238675
558.804197	0.238356
559.161345	0.237876
559.518437	0.241519
559.875474	0.239299
560.232455	0.239102
560.589381	0.239892
560.946251	0.240147
561.303065	0.237593
561.659825	0.238772
562.016528	0.240699
562.373177	0.243170
562.729770	0.240630
563.086307	0.242653
563.442789	0.240596
563.799216	0.243156
564.155587	0.242227
564.511904	0.243500
564.868164	0.243502
565.224370	0.242922
565.580520	0.244663
565.936615	0.244692
566.292654	0.247828
566.648638	0.245172
567.004567	0.245741
567.360441	0.246296
567.716260	0.248286
568.072023	0.245913
568.427732	0.246931
568.783385	0.248809
569.138982	0.247359
569.494525	0.247274
569.850013	0.249963
570.205445	0.248515
570.560823	0.250884
570.916145	0.253293
571.271412	0.251210
571.626625	0.252700
571.981782	0.253284
572.336884	0.253907
572.691931	0.253401
573.046923	0.255154
573.401860	0.256097
573.756743	0.258025
574.111570	0.256706
574.466342	0.257476
574.821059	0.256292
575.175722	0.259283
575.530330	0.258946
575.884882	0.259534
576.239380	0.261164
576.593823	0.261814
576.948211	0.261326
577.302544	0.264758
577.656823	0.264124
578.011047	0.264232
578.365216	0.264852
578.719330	0.267189
579.073389	0.266334
579.427394	0.268067
579.781344	0.268847
580.135239	0.270056
580.489080	0.269924
580.842866	0.273064
581.196597	0.273192
581.550273	0.271229
581.903895	0.272543
582.257463	0.270550
582.610975	0.274126
582.964434	0.273246
583.317837	0.275658
583.671186	0.275973
584.024481	0.276348
584.377721	0.278543
584.730906	0.279327
585.084037	0.278751
585.437113	0.280802
585.790135	0.279850
586.143103	0.282900
586.496016	0.283963
586.848874	0.281546
587.201679	0.282072
587.554428	0.285331
587.907124	0.284400
588.259765	0.284654
588.612352	0.285597
588.964884	0.289576
589.317362	0.288884
589.669786	0.288812
590.022155	0.287309
590.374470	0.286699
590.726731	0.288675
591.078937	0.293626
591.431090	0.289897
591.783188	0.294169
592.135232	0.294683
592.487222	0.294610
592.839157	0.292828
593.191038	0.295026
593.542866	0.296852
593.894639	0.299914
594.246358	0.298579
594.598022	0.297974
594.949633	0.301590
595.301190	0.301863
595.652692	0.301501
596.004141	0.297400
596.355535	0.305467
596.706876	0.306203
597.058162	0.308551
597.409395	0.305771
597.760573	0.303798
598.111698	0.306572
598.462768	0.307216
598.813785	0.308454
599.164748	0.309928
599.515657	0.309995
599.866511	0.313800
600.217312	0.308916
600.568060	0.314207
600.918753	0.310533
601.269392	0.311245
601.619978	0.314965
601.970510	0.312502
602.320988	0.312581
602.671412	0.310376
603.021783	0.313042
603.372100	0.313792
603.722363	0.313584
604.072572	0.314673
604.422728	0.314304
604.772830	0.316579
605.122878	0.316475
605.472872	0.316846
605.822813	0.315105
606.172701	0.317830
606.522534	0.315032
606.872314	0.315249
607.222041	0.316056
607.571714	0.314353
607.921333	0.315629
608.270899	0.315457
608.620411	0.312160
608.969870	0.315900
609.319276	0.316158
609.668627	0.316192
610.017926	0.314434
610.367171	0.312684
610.716362	0.313791
611.065500	0.314164
611.414585	0.312638
611.763616	0.312827
612.112594	0.314010
612.461518	0.313123
612.810389	0.310495
613.159207	0.313342
613.507971	0.315125
613.856682	0.310653
614.205340	0.312216
614.553945	0.309301
614.902496	0.312936
615.250994	0.310989
615.599439	0.311465
615.947830	0.310745
616.296169	0.311777
616.644454	0.311784
616.992686	0.311701
617.340864	0.309473
617.688990	0.312708
618.037063	0.309877
618.385082	0.311305
618.733048	0.308454
619.080961	0.310749
619.428821	0.310161
619.776628	0.309687
620.124382	0.311994
620.472083	0.312554
620.819731	0.311181
621.167326	0.315635
621.514868	0.314995
621.862357	0.319558
622.209793	0.318832
622.557176	0.321308
622.904506	0.322566
623.251783	0.324546
623.599007	0.327074
623.946179	0.326400
624.293297	0.328444
624.640363	0.332517
624.987376	0.332958
625.334336	0.335319
625.681243	0.337528
626.028097	0.338638
626.374899	0.339361
626.721647	0.339647
627.068343	0.342997
627.414987	0.343889
627.761577	0.346390
628.108115	0.344377
628.454600	0.349949
628.801032	0.346677
629.147412	0.348934
629.493739	0.349566
629.840014	0.352528
630.186236	0.349728
630.532405	0.355582
630.878521	0.352617
631.224585	0.354879
631.570597	0.358704
631.916556	0.357232
632.262462	0.356977
632.608316	0.359618
632.954117	0.360310
633.299866	0.360895
633.645562	0.361072
633.991206	0.365761
634.336797	0.368605
634.682336	0.371305
635.027823	0.372429
635.373257	0.373162
635.718639	0.376916
636.063968	0.376198
636.409245	0.381960
636.754470	0.382515
637.099642	0.384720
637.444762	0.388253
637.789829	0.387284
638.134845	0.390609
638.479808	0.391781
638.824719	0.391164
639.169577	0.396100
639.514383	0.394974
639.859137	0.398769
640.203839	0.398397
640.548489	0.399294
640.893086	0.400214
641.237632	0.401918
641.582125	0.400659
641.926566	0.403063
642.270955	0.402112
642.615292	0.402660
642.959576	0.401892
643.303809	0.402581
643.647990	0.402116
643.992118	0.402783
644.336195	0.405416
644.680219	0.404462
645.024192	0.405072
645.368112	0.398900
645.711981	0.397918
646.055797	0.392705
646.399562	0.395262
646.743274	0.388190
647.086935	0.384603
647.430544	0.384797
647.774101	0.383543
648.117606	0.383775
648.461059	0.383755
648.804460	0.386369
649.147810	0.391500
649.491108	0.393087
649.834354	0.395097
650.177548	0.399872
650.520690	0.405377
650.863781	0.406410
651.206820	0.405895
651.549807	0.410829
651.892742	0.414338
652.235626	0.413892
652.578458	0.415250
652.921238	0.421800
653.263967	0.418817
653.606644	0.422719
653.949269	0.423334
654.291843	0.426713
654.634365	0.423958
654.976836	0.426583
655.319255	0.427313
655.661622	0.428495
656.003938	0.428540
656.346203	0.431251
656.688416	0.429067
657.030577	0.432528
657.372687	0.435143
657.714746	0.435703
658.056753	0.432642
658.398708	0.435879
658.740612	0.437443
659.082465	0.433565
659.424266	0.434731
659.766016	0.433265
660.107715	0.437003
660.449362	0.435269
660.790958	0.435933
661.132503	0.437008
661.473996	0.433959
661.815438	0.435057
662.156829	0.435251
662.498168	0.436016
662.839456	0.437399
663.180693	0.435108
663.521879	0.435133
663.863013	0.435714
664.204097	0.434142
664.545129	0.430863
664.886110	0.431553
665.227040	0.429392
665.567918	0.431535
665.908746	0.429174
666.249522	0.429506
666.590248	0.429887
666.930922	0.428266
667.271545	0.427349
667.612118	0.427201
667.952639	0.429271
668.293109	0.427563
668.633528	0.430429
668.973896	0.430314
669.314213	0.430855
669.654480	0.432299
669.994695	0.432693
670.334859	0.433718
670.674973	0.433852
671.015035	0.433541
671.355047	0.433925
671.695008	0.434807
672.034918	0.436869
672.374777	0.436104
672.714585	0.437306
673.054342	0.437232
673.394049	0.437235
673.733705	0.435098
674.073310	0.436028
674.412864	0.439059
674.752368	0.440122
675.091820	0.439532
675.431223	0.444299
675.770574	0.444254
676.109875	0.446997
676.449125	0.447126
676.788324	0.449232
677.127473	0.454522
677.466571	0.454560
677.805619	0.456373
678.144616	0.457513
678.483562	0.459139
678.822458	0.462030
679.161303	0.462139
679.500098	0.463179
679.838842	0.464837
680.177535	0.463816
680.516179	0.462398
680.854771	0.461819
681.193314	0.454932
681.531805	0.446574
681.870247	0.435108
682.208638	0.427432
682.546978	0.426650
682.885268	0.428372
683.223508	0.434451
683.561697	0.438324
683.899836	0.440853
684.237925	0.443835
684.575963	0.447041
684.913951	0.450116
685.251889	0.445496
685.589776	0.447492
685.927614	0.449864
686.265401	0.444318
686.603137	0.445700
686.940824	0.439939
687.278460	0.438427
687.616046	0.437109
687.953582	0.432186
688.291068	0.433680
688.628504	0.428558
688.965889	0.431310
689.303224	0.435528
689.640510	0.439337
689.977745	0.444985
690.314930	0.453065
690.652065	0.457750
690.989150	0.465177
691.326185	0.472262
691.663170	0.476786
692.000105	0.483748
692.336990	0.491084
692.673825	0.493248
693.010610	0.499689
693.347345	0.505938
693.684030	0.507127
694.020665	0.511619
694.357251	0.520075
694.693786	0.520558
695.030272	0.523761
695.366707	0.527710
695.703093	0.531303
696.039429	0.529688
696.375716	0.531414
696.711952	0.533649
697.048139	0.535377
697.384276	0.537990
697.720363	0.536552
698.056400	0.534882
698.392388	0.540442
698.728326	0.543580
699.064214	0.546044
699.400053	0.546953
699.735842	0.551396
700.071581	0.553206
700.407270	0.556432
700.742910	0.558931
701.078501	0.565371
701.414042	0.566275
701.749533	0.568654
702.084974	0.578582
702.420366	0.570770
702.755709	0.577651
703.091002	0.586304
703.426246	0.579399
703.761440	0.585396
704.096584	0.589617
704.431679	0.586502
704.766725	0.588717
705.101721	0.590958
705.436668	0.586728
705.771565	0.593796
706.106413	0.589873
706.441212	0.586003
706.775961	0.585024
707.110661	0.587639
707.445311	0.583417
707.779913	0.581035
708.114465	0.579566
708.448967	0.576489
708.783421	0.568120
709.117825	0.562385
709.452180	0.562594
709.786485	0.556406
710.120742	0.546396
710.454949	0.548519
710.789107	0.539994
711.123216	0.530721
711.457275	0.532124
711.791286	0.524201
712.125247	0.522482
712.459159	0.533297
712.793023	0.525111
713.126837	0.530404
713.460602	0.530566
713.794318	0.538928
714.127985	0.538846
714.461602	0.548848
714.795171	0.552027
715.128691	0.559830
715.462162	0.567030
715.795584	0.574157
716.128957	0.575833
716.462281	0.582266
716.795556	0.586076
717.128782	0.592200
717.461960	0.600459
717.795088	0.599597
718.128167	0.606175
718.461198	0.613972
718.794180	0.615575
719.127113	0.617037
719.459997	0.621451
719.792833	0.626725
720.125619	0.628364
720.458357	0.633921
720.791046	0.633621
721.123686	0.637400
721.456278	0.645104
721.788821	0.642176
722.121315	0.646503
722.453761	0.650595
722.786158	0.647668
723.118506	0.644477
723.450805	0.651958
723.783056	0.649341
724.115259	0.645432
724.447412	0.645903
724.779518	0.647084
725.111574	0.645430
725.443582	0.641242
725.775542	0.643534
726.107453	0.635994
726.439315	0.635959
726.771129	0.634155
727.102895	0.626969
727.434612	0.620282
727.766281	0.618589
728.097901	0.617889
728.429473	0.616947
728.760996	0.615187
729.092471	0.616560
729.423897	0.618920
729.755276	0.618646
730.086606	0.618950
730.417887	0.613214
730.749120	0.603782
731.080305	0.594325
731.411442	0.590381
731.742530	0.594445
732.073570	0.594774
732.404562	0.586777
732.735506	0.587466
733.066401	0.593037
733.397249	0.602299
733.728048	0.612656
734.058798	0.626273
734.389501	0.637340
734.720156	0.647923
735.050762	0.654742
735.381320	0.655902
735.711831	0.663940
736.042293	0.669225
736.372707	0.666427
736.703073	0.669617
737.033391	0.672131
737.363661	0.668847
737.693883	0.664433
738.024056	0.663258
738.354182	0.663826
738.684260	0.652912
739.014290	0.649709
739.344272	0.649574
739.674207	0.643073
740.004093	0.642832
740.333931	0.643031
740.663722	0.643219
740.993464	0.644121
741.323159	0.647498
741.652806	0.652327
741.982405	0.658058
742.311956	0.662033
742.641460	0.664642
742.970915	0.667228
743.300323	0.675190
743.629683	0.681877
743.958996	0.684522
744.288260	0.688595
744.617477	0.693976
744.946647	0.696097
745.275768	0.701868
745.604842	0.701418
745.933869	0.710695
746.262847	0.713561
746.591778	0.705659
746.920662	0.712427
747.249498	0.718780
747.578286	0.709528
747.907027	0.705863
748.235720	0.706082
748.564365	0.701168
748.892963	0.700352
749.221514	0.704663
749.550017	0.708021
749.878473	0.709803
750.206881	0.715583
750.535242	0.717209
750.863555	0.715579
751.191821	0.717431
751.520039	0.720010
751.848210	0.724399
752.176334	0.717414
752.504411	0.716490
752.832440	0.725531
753.160421	0.729531
753.488356	0.726497
753.816243	0.724553
754.144082	0.732551
754.471875	0.735929
754.799620	0.732177
755.127318	0.733370
755.454969	0.734331
755.782572	0.734332
756.110129	0.737517
756.437638	0.740725
756.765100	0.737385
757.092515	0.733969
757.419882	0.733617
757.747203	0.739403
758.074477	0.739470
758.401703	0.735614
758.728882	0.731221
759.056014	0.729569
759.383099	0.728723
759.710138	0.729706
760.037129	0.725274
760.364073	0.720518
760.690970	0.722736
761.017820	0.726813
761.344623	0.723261
761.671379	0.714667
761.998088	0.703196
762.324751	0.680148
762.651366	0.636653
762.977935	0.568915
763.304456	0.518099
763.630931	0.507788
763.957359	0.546895
764.283740	0.591581
764.610074	0.619278
764.936362	0.650866
765.262602	0.679198
765.588796	0.699688
765.914943	0.716955
766.241044	0.735559
766.567097	0.741494
766.893104	0.752118
767.219064	0.759050
767.544978	0.765452
767.870845	0.778257
768.196665	0.781330
768.522438	0.780989
768.848165	0.781810
769.173846	0.791492
769.499479	0.795592
769.825066	0.800139
770.150607	0.803496
770.476101	0.799212
770.801548	0.802154
771.126949	0.812649
771.452303	0.817278
771.777611	0.814572
772.102872	0.813708
772.428087	0.820080
772.753256	0.823715
773.078378	0.825023
773.403453	0.833993
773.728482	0.838735
774.053465	0.831467
774.378401	0.835424
774.703291	0.844347
775.028135	0.844906
775.352932	0.844036
775.677683	0.849413
776.002388	0.849539
776.327046	0.848756
776.651658	0.851719
776.976224	0.855399
777.300743	0.855200
777.625216	0.858355
777.949643	0.860218
778.274024	0.857980
778.598359	0.860556
778.922647	0.858755
779.246889	0.860486
779.571086	0.863622
779.895236	0.866509
780.219339	0.864058
780.543397	0.859640
780.867409	0.859115
781.191374	0.860883
781.515294	0.862768
781.839167	0.861534
782.162995	0.863922
782.486776	0.860864
782.810511	0.863078
783.134201	0.868053
783.457844	0.865181
783.781441	0.866366
784.104993	0.872699
784.428498	0.872852
784.751958	0.869135
785.075372	0.870161
785.398739	0.873967
785.722061	0.869215
786.045337	0.867169
786.368568	0.871500
786.691752	0.872640
787.014891	0.859573
787.337983	0.850471
787.661030	0.843280
787.984031	0.823946
788.306987	0.812922
788.629897	0.813593
788.952760	0.818713
789.275579	0.822605
789.598351	0.839103
789.921078	0.852258
790.243759	0.853135
790.566395	0.857555
790.888984	0.867033
791.211529	0.870122
791.534027	0.873894
791.856480	0.875497
792.178888	0.880516
792.501249	0.883611
792.823566	0.886252
793.145836	0.885852
793.468062	0.887320
793.790241	0.889331
794.112375	0.884355
794.434464	0.883112
794.756507	0.880637
795.078505	0.879653
795.400457	0.874263
795.722364	0.862612
796.044226	0.855998
796.366042	0.853961
796.687812	0.856380
797.009538	0.852755
797.331218	0.857396
797.652852	0.862191
797.974442	0.865478
798.295986	0.867982
798.617484	0.868393
798.938938	0.872948
799.260346	0.878488
799.581709	0.879533
799.903026	0.882985
800.224299	0.883042
800.545526	0.885876
800.866708	0.891251
801.187845	0.894675
801.508936	0.893250
801.829983	0.892124
802.150984	0.895380
802.471940	0.901088
802.792851	0.899091
803.113717	0.901174
803.434538	0.897809
803.755314	0.901567
804.076045	0.903504
804.396731	0.902655
804.717372	0.901262
805.037967	0.905202
805.358518	0.903558
805.679024	0.898439
805.999485	0.900027
806.319901	0.898612
806.640272	0.901691
806.960598	0.899399
807.280879	0.895750
807.601115	0.894694
807.921306	0.898605
808.241453	0.899458
808.561554	0.897195
808.881611	0.896810
809.201623	0.897832
809.521590	0.897565
809.841513	0.900200
810.161390	0.898469
810.481223	0.901095
810.801011	0.904438
811.120755	0.905353
811.440453	0.904500
811.760107	0.904248
812.079716	0.904092
812.399281	0.906642
812.718801	0.908698
813.038276	0.909358
813.357707	0.910601
813.677093	0.906852
813.996434	0.909278
814.315731	0.911264
814.634983	0.912913
814.954191	0.912772
815.273354	0.906864
815.592473	0.903973
815.911547	0.904525
816.230577	0.901646
816.549562	0.897799
816.868502	0.898462
817.187399	0.895701
817.506250	0.890577
817.825058	0.891493
818.143821	0.889040
818.462539	0.883721
818.781213	0.875177
819.099843	0.865424
819.418429	0.847347
819.736970	0.830712
820.055466	0.810641
820.373919	0.783506
820.692327	0.750813
821.010691	0.715061
821.329011	0.634681
821.647286	0.518180
821.965517	0.403178
822.283704	0.360521
822.601847	0.360756
822.919945	0.396723
823.237999	0.431236
823.556010	0.479582
823.873976	0.536002
824.191897	0.587504
824.509775	0.630882
824.827609	0.676425
825.145398	0.700144
825.463144	0.701811
825.780845	0.684172
826.098502	0.665513
826.416116	0.620106
826.733685	0.575525
827.051210	0.565695
827.368692	0.580938
827.686129	0.618993
828.003522	0.674000
828.320872	0.721949
828.638177	0.766017
828.955439	0.800354
829.272656	0.822489
829.589830	0.838695
829.906960	0.855875
830.224046	0.868128
830.541088	0.878210
830.858086	0.883739
831.175041	0.890129
831.491952	0.888532
831.808819	0.884295
832.125642	0.878377
832.442421	0.864505
832.759157	0.841093
833.075849	0.792989
833.392497	0.728995
833.709101	0.688234
834.025662	0.698243
834.342179	0.729574
834.658653	0.769482
834.975083	0.806402
835.291469	0.834808
835.607811	0.855371
835.924110	0.873009
836.240366	0.890232
836.556578	0.903518
836.872746	0.911412
837.188871	0.917673
837.504952	0.923593
837.820990	0.925914
838.136984	0.930759
838.452935	0.932307
838.768842	0.934315
839.084706	0.928056
839.400526	0.902336
839.716303	0.859603
840.032037	0.838923
840.347727	0.841473
840.663373	0.859388
840.978977	0.882892
841.294537	0.906316
841.610054	0.920955
841.925527	0.928782
842.240957	0.935270
842.556344	0.943176
842.871687	0.948692
843.186987	0.952378
843.502244	0.954952
843.817458	0.955348
844.132629	0.959174
844.447756	0.964290
844.762840	0.964312
845.077881	0.964731
845.392879	0.963328
845.707833	0.964977
846.022745	0.967780
846.337613	0.968503
846.652438	0.968604
846.967221	0.969310
847.281960	0.970051
847.596656	0.971410
847.911309	0.971404
848.225919	0.971353
848.540485	0.973160
848.855009	0.974421
849.169490	0.972279
849.483928	0.972157
849.798323	0.972079
850.112675	0.975416
850.426984	0.974383
850.741251	0.974720
851.055474	0.974580
851.369654	0.972581
851.683792	0.972397
851.997887	0.974145
852.311938	0.974316
852.625947	0.973288
852.939914	0.971932
853.253837	0.973654
853.567718	0.974353
853.881555	0.974747
854.195350	0.971974
854.509103	0.972846
854.822812	0.974711
855.136479	0.973458
855.450103	0.973783
855.763685	0.971639
856.077224	0.973194
856.390720	0.974920
856.704173	0.974269
857.017584	0.972902
857.330953	0.971209
857.644278	0.970023
857.957561	0.971600
858.270802	0.973808
858.584000	0.972741
858.897155	0.970006
859.210268	0.970720
859.523339	0.973318
859.836367	0.974716
860.149352	0.973782
860.462295	0.974270
860.775195	0.974900
861.088054	0.972334
861.400869	0.972772
861.713642	0.973261
862.026373	0.975060
862.339062	0.975172
862.651708	0.972880
862.964312	0.972276
863.276873	0.972327
863.589392	0.972015
863.901869	0.968990
864.214303	0.969788
864.526696	0.968169
864.839045	0.966704
865.151353	0.966359
865.463619	0.965430
865.775842	0.967291
866.088023	0.967312
866.400162	0.966750
866.712258	0.965875
867.024313	0.967451
867.336325	0.968700
867.648296	0.967731
867.960224	0.964851
868.272110	0.966957
868.583954	0.968537
868.895755	0.968520
869.207515	0.964928
869.519233	0.963372
869.830909	0.964116
870.142542	0.964592
870.454134	0.965607
870.765684	0.963054
871.077191	0.964009
871.388657	0.961600
871.700081	0.962126
872.011463	0.962475
872.322803	0.961696
872.634101	0.958851
872.945357	0.956246
873.256571	0.955518
873.567744	0.956752
873.878874	0.957669
874.189963	0.956667
874.501010	0.956847
874.812015	0.954264
875.122979	0.954052
875.433900	0.956648
875.744780	0.958106
876.055618	0.954375
876.366415	0.953499
876.677169	0.952184
876.987882	0.954839
877.298554	0.954968
877.609183	0.951135
877.919771	0.948685
878.230317	0.946413
878.540822	0.941910
878.851285	0.937736
879.161707	0.930275
879.472087	0.918147
879.782425	0.900132
880.092722	0.865533
880.402977	0.811437
880.713191	0.747725
881.023363	0.687170
881.333494	0.651133
881.643583	0.624654
881.953631	0.624722
882.263637	0.653354
882.573602	0.693213
882.883526	0.719340
883.193408	0.745407
883.503248	0.767471
883.813048	0.795532
884.122806	0.826686
884.432522	0.851286
884.742197	0.870518
885.051831	0.881664
885.361424	0.893536
885.670975	0.904919
885.980485	0.914633
886.289954	0.921524
886.599382	0.924973
886.908768	0.930625
887.218113	0.936062
887.527417	0.940768
887.836680	0.944014
888.145901	0.946508
888.455082	0.951064
888.764221	0.954174
889.073319	0.956076
889.382376	0.956602
889.691392	0.955148
890.000366	0.956171
890.309300	0.956707
890.618193	0.956329
890.927044	0.955266
891.235855	0.954363
891.544625	0.957012
891.853353	0.955234
892.162041	0.952674
892.470687	0.945225
892.779293	0.940623
893.087858	0.935423
893.396381	0.927275
893.704864	0.915194
894.013306	0.890667
894.321707	0.864100
894.630068	0.848138
894.938387	0.841337
895.246665	0.843495
895.554903	0.856991
895.863100	0.871050
896.171256	0.888216
896.479371	0.907636
896.787446	0.920809
897.095480	0.927816
897.403473	0.930668
897.711425	0.935171
898.019336	0.943026
898.327207	0.947421
898.635038	0.946902
898.942827	0.948466
899.250576	0.951682
899.558284	0.956717
899.865952	0.956653
900.173579	0.958539
900.481165	0.956856
900.788711	0.962755
901.096216	0.964542
901.403681	0.965835
901.711105	0.965526
902.018489	0.966905
902.325832	0.965711
902.633135	0.964290
902.940397	0.959058
903.247619	0.945055
903.554800	0.920114
903.861941	0.878928
904.169041	0.840857
904.476101	0.822962
904.783121	0.824068
905.090100	0.841320
905.397039	0.862869
905.703938	0.886464
906.010796	0.906782
906.317614	0.923909
906.624391	0.937246
906.931129	0.947182
907.237826	0.954666
907.544483	0.961966
907.851099	0.966742
908.157675	0.971148
908.464211	0.973146
908.770707	0.975741
909.077163	0.977761
909.383578	0.979225
909.689954	0.979571
909.996289	0.979525
910.302584	0.982475
910.608839	0.983061
910.915054	0.982863
911.221229	0.982598
911.527363	0.980109
911.833458	0.981269
912.139513	0.981378
912.445527	0.981658
912.751502	0.978914
913.057436	0.974913
913.363331	0.974737
913.669186	0.970435
913.975000	0.964925
914.280775	0.959331
914.586510	0.952118
914.892205	0.937468
915.197859	0.913885
915.503475	0.887094
915.809050	0.865982
916.114585	0.860185
916.420081	0.857213
916.725536	0.854014
917.030952	0.863087
917.336328	0.876938
917.641665	0.891485
917.946961	0.907289
918.252218	0.919565
918.557435	0.929777
918.862612	0.937115
919.167750	0.944722
919.472848	0.949881
919.777906	0.956998
920.082925	0.960858
920.387904	0.965259
920.692843	0.965581
920.997743	0.967555
921.302603	0.970023
921.607423	0.972447
921.912204	0.975769
922.216946	0.976669
922.521647	0.977423
922.826310	0.977819
923.130932	0.981030
923.435516	0.982478
923.740059	0.984309
924.044564	0.982541
924.349028	0.983863
924.653454	0.987144
924.957840	0.987381
925.262186	0.988568
925.566493	0.987550
925.870761	0.990375
926.174989	0.989074
926.479178	0.991513
926.783328	0.992376
927.087438	0.992248
927.391509	0.992694
927.695541	0.992515
927.999533	0.994145
928.303486	0.994214
928.607400	0.994129
928.911275	0.994692
929.215110	0.996847
929.518906	0.996084
929.822663	0.996757
930.126381	0.996082
930.430060	0.995114
930.733699	0.993736
931.037299	0.995047
931.340861	0.994987
931.644383	0.992732
931.947866	0.994281
932.251309	0.994959
932.554714	0.993329
932.858080	0.994919
933.161407	0.994667
933.464694	0.995236
933.767943	0.995839
934.071153	0.996848
934.374323	0.995372
934.677455	0.994827
934.980548	0.996002
935.283602	0.995225
935.586617	0.995150
935.889593	0.997396
936.192530	0.996712
936.495428	0.994682
936.798287	0.995041
937.101108	0.994544
937.403890	0.993270
937.706632	0.993227
938.009336	0.991333
938.312002	0.989916
938.614628	0.988563
938.917216	0.986626
939.219765	0.987407
939.522275	0.986751
939.824747	0.986862
940.127179	0.988342
940.429573	0.989374
940.731929	0.988515
941.034246	0.987677
941.336524	0.988568
941.638763	0.990778
941.940964	0.990696
942.243126	0.990655
942.545250	0.991206
942.847335	0.991643
943.149381	0.992687
943.451389	0.992190
943.753359	0.993656
944.055290	0.995174
944.357182	0.994428
944.659036	0.994160
944.960851	0.993924
945.262628	0.995195
945.564367	0.993650
945.866067	0.994150
946.167729	0.993687
946.469352	0.994032
946.770937	0.992933
947.072484	0.995955
947.373992	0.994213
947.675462	0.994388
947.976893	0.994182
948.278286	0.996447
948.579641	0.995205
948.880958	0.995301
949.182236	0.995848
949.483476	0.996175
949.784678	0.995696
950.085841	0.996103
950.386967	0.995383
950.688054	0.996081
950.989103	0.994099
951.290114	0.993904
951.591087	0.994135
951.892021	0.993217
952.192917	0.994122
952.493776	0.993029
952.794596	0.993512
953.095378	0.991990
953.396122	0.991107
953.696828	0.993253
953.997496	0.994060
954.298126	0.995283
954.598718	0.994119
954.899272	0.995701
955.199788	0.995056
955.500266	0.996358
955.800706	0.996795
956.101108	0.996344
956.401472	0.998236
956.701798	0.997900
957.002087	0.998071
957.302337	0.997740
957.602550	1.000211
957.902724	0.999267
958.202861	1.000524
958.502960	0.999093
958.803022	1.001904
959.103045	0.999949
959.403031	1.001472
959.702979	1.001420
960.002889	1.000573
960.302762	0.999835
960.602596	1.001671
960.902393	1.000581
961.202153	1.000945
961.501875	1.001155
961.801559	1.001678
962.101205	1.000974
962.400814	1.002421
962.700385	1.001577
962.999918	1.002665
963.299414	1.000041
963.598873	1.001979
963.898293	1.001730
964.197677	1.000988
964.497022	1.002918
964.796331	1.001293
965.095601	1.003299
965.394835	1.001381
965.694030	1.002450
965.993189	1.001175
966.292309	1.002723
966.591393	1.000259
966.890439	1.001870
967.189447	1.001330
967.488419	1.001666
967.787353	1.002730
968.086249	1.001570
968.385108	1.002102
968.683930	1.003422
968.982714	1.002124
969.281462	1.001354
969.580172	1.001624
969.878844	1.002593
970.177480	1.002218
970.476078	1.002778
970.774639	1.001748
971.073162	1.001177
971.371649	1.001002
971.670098	1.001172
971.968510	1.001455
972.266885	1.000431
972.565223	1.001547
972.863524	1.000947
973.161788	1.000751
973.460014	1.001601
973.758204	1.000873
974.056356	1.000236
974.354471	1.000785
974.652550	1.002720
974.950591	1.001638
975.248595	1.000039
975.546563	1.001914
975.844493	1.002220
976.142386	1.002023
976.440243	1.002314
976.738062	1.001256
977.035845	1.000779
977.333590	1.003212
977.631299	1.001349
977.928971	1.001351
978.226606	1.001807
978.524204	1.001487
978.821765	1.002285
979.119290	1.003885
979.416777	1.001956
979.714228	1.003053
980.011642	1.002696
980.309020	1.001372
980.606360	1.001306
980.903664	1.002074
981.200931	1.001097
981.498162	1.001479
981.795356	1.000371
982.092513	0.998889
982.389633	0.998559
982.686717	0.995945
982.983764	0.994956
983.280775	0.995990
983.577749	0.996536
983.874686	0.995041
984.171587	0.996706
984.468451	0.997958
984.765279	0.999632
985.062070	0.999448
985.358824	0.999675
985.655543	1.000683
985.952224	1.001352
986.248869	1.000343
986.545478	1.002553
986.842050	1.001808
987.138586	1.001711
987.435086	1.001147
987.731549	1.002901
988.027975	1.002992
988.324366	1.003143
988.620719	1.002939
988.917037	1.002300
989.213318	1.003576
989.509563	1.003100
989.805772	1.002984
990.101944	1.004600
990.398080	1.002687
990.694180	1.003480
990.990244	1.002383
991.286271	1.002741
991.582262	1.003190
991.878217	1.002597
992.174136	1.004249
992.470019	1.002974
992.765865	1.004769
993.061676	1.003142
993.357450	1.002694
993.653188	1.003622
993.948890	1.002707
994.244556	1.001893
994.540186	1.003167
994.835780	1.002045
995.131337	1.002596
995.426859	1.002777
995.722345	1.001294
996.017795	1.001296
996.313208	1.001345
996.608586	1.001523
996.903928	1.001613
997.199234	1.002243
997.494504	1.002048
997.789738	1.000617
998.084936	1.002487
998.380099	1.001601
998.675225	1.002965
998.970316	1.001728
999.265371	1.002315
999.560390	1.003391
999.855373	1.002336
1000.150320	1.003121
1000.445232	1.002833
1000.740108	1.004295
1001.034948	1.003189
1001.329752	1.003836
1001.624521	1.002559
1001.919254	1.002432
1002.213951	1.004102
1002.508613	1.002118
1002.803239	1.002941
1003.097829	1.004035
1003.392384	1.003383
1003.686903	1.004743
1003.981386	1.002328
1004.275834	1.004996
1004.570246	1.002216
1004.864623	1.003903
1005.158964	1.003847
1005.453270	1.003829
1005.747540	1.004450
1006.041775	1.003980
1006.335974	1.002972
1006.630138	1.004019
1006.924266	1.002584
1007.218359	1.002233
1007.512416	1.005206
1007.806438	1.003767
1008.100425	1.003984
1008.394376	1.005075
1008.688292	1.003524
1008.982172	1.003924
1009.276017	1.003558
1009.569827	1.004428
1009.863602	1.002053
1010.157341	1.003507
1010.451045	1.003771
1010.744714	1.005392
1011.038347	1.004226
1011.331945	1.003178
1011.625508	1.003195
1011.919036	1.004449
1012.212528	1.003705
1012.505986	1.003370
1012.799408	1.004502
1013.092795	1.004469
1013.386147	1.003995
1013.679464	1.004884
1013.972745	1.004068
1014.265992	1.003660
1014.559204	1.003991
1014.852380	1.003786
1015.145521	1.004439
1015.438628	1.004960
1015.731699	1.003599
1016.024736	1.004474
1016.317737	1.003122
1016.610703	1.004714
1016.903635	1.003609
1017.196531	1.003485
1017.489393	1.001824
1017.782219	1.003736
1018.075011	1.003548
1018.367768	1.003256
1018.660490	1.004272
1018.953177	1.004272
1019.245829	1.004272
