Dividing Wavelength (nm)	Counts (n)	Blue Motor Position (mm): 29.000000	Red Motor Position (mm): 0.000000	
326.493990	0.999717
326.888308	0.999717
327.282561	0.999717
327.676750	1.001353
328.070874	1.001063
328.464933	1.002244
328.858929	1.001165
329.252859	1.000473
329.646726	1.000591
330.040528	1.000796
330.434265	1.000726
330.827938	0.999680
331.221547	1.001370
331.615091	1.000876
332.008571	1.002408
332.401986	1.000293
332.795338	1.001443
333.188625	1.000798
333.581847	1.000131
333.975006	1.000951
334.368100	1.001504
334.761129	1.000582
335.154095	1.001019
335.546996	1.000578
335.939833	1.000333
336.332606	1.000155
336.725315	0.998181
337.117960	1.000677
337.510540	0.998706
337.903056	1.000158
338.295508	1.001640
338.687896	1.000582
339.080220	1.000159
339.472480	0.999750
339.864676	1.000733
340.256807	0.999332
340.648875	1.001275
341.040879	0.999953
341.432818	1.001146
341.824694	1.000293
342.216506	1.001192
342.608253	0.999825
342.999937	0.999813
343.391557	1.000586
343.783113	1.001090
344.174605	0.999066
344.566033	0.998611
344.957397	1.000451
345.348697	1.000840
345.739934	0.999594
346.131106	0.999505
346.522215	0.998538
346.913260	1.000221
347.304241	0.998623
347.695159	0.999998
348.086012	0.999234
348.476802	0.999633
348.867528	0.999017
349.258191	0.999828
349.648789	0.999920
350.039324	0.999378
350.429796	0.999573
350.820203	0.997757
351.210548	1.000229
351.600828	0.999153
351.991045	0.998314
352.381198	0.998868
352.771288	1.000224
353.161314	0.998693
353.551276	0.999354
353.941175	0.998154
354.331010	1.000296
354.720782	0.998995
355.110490	0.999397
355.500135	1.000722
355.889717	0.996984
356.279235	0.997941
356.668689	0.999925
357.058080	0.999351
357.447408	0.997426
357.836672	0.998829
358.225873	0.999091
358.615010	0.998156
359.004084	0.998059
359.393095	0.998947
359.782043	0.998155
360.170927	0.999565
360.559748	0.999677
360.948505	0.997257
361.337199	0.999174
361.725830	0.998033
362.114398	0.999066
362.502903	0.997124
362.891344	0.997587
363.279722	0.997468
363.668037	0.998597
364.056289	0.998472
364.444478	0.999234
364.832603	0.998258
365.220665	0.997928
365.608665	0.997709
365.996601	0.997348
366.384474	0.995986
366.772284	0.997398
367.160031	0.995884
367.547715	0.996440
367.935336	0.995289
368.322893	0.993530
368.710388	0.992726
369.097820	0.992433
369.485189	0.990272
369.872495	0.988672
370.259738	0.984464
370.646918	0.982735
371.034035	0.981102
371.421090	0.977281
371.808081	0.972529
372.195010	0.970193
372.581875	0.964803
372.968678	0.959839
373.355418	0.957122
373.742096	0.949677
374.128710	0.945674
374.515262	0.940046
374.901751	0.935911
375.288177	0.929955
375.674540	0.921894
376.060841	0.917436
376.447079	0.910028
376.833254	0.903185
377.219367	0.898375
377.605417	0.886457
377.991404	0.883510
378.377329	0.876720
378.763191	0.871523
379.148991	0.862382
379.534727	0.854146
379.920402	0.846434
380.306013	0.843214
380.691563	0.830699
381.077049	0.823883
381.462474	0.819192
381.847835	0.809030
382.233134	0.803121
382.618371	0.803758
383.003545	0.786602
383.388657	0.784393
383.773706	0.776111
384.158693	0.772398
384.543618	0.767536
384.928480	0.758701
385.313280	0.748792
385.698017	0.748606
386.082692	0.736611
386.467305	0.735057
386.851856	0.728545
387.236344	0.724276
387.620770	0.717973
388.005133	0.712617
388.389435	0.707241
388.773674	0.704824
389.157851	0.696549
389.541965	0.694135
389.926018	0.700843
390.310008	0.687623
390.693936	0.684709
391.077802	0.676528
391.461606	0.677503
391.845348	0.667670
392.229027	0.667285
392.612645	0.664799
392.996200	0.652498
393.379694	0.644802
393.763125	0.635641
394.146494	0.639905
394.529801	0.629759
394.913047	0.622465
395.296230	0.627998
395.679351	0.619921
396.062410	0.616471
396.445408	0.619155
396.828343	0.614158
397.211217	0.610340
397.594028	0.621769
397.976778	0.611650
398.359466	0.609006
398.742092	0.604441
399.124656	0.616185
399.507158	0.603315
399.889598	0.601939
400.271977	0.592622
400.654294	0.596505
401.036549	0.595392
401.418742	0.600225
401.800874	0.585927
402.182944	0.582823
402.564952	0.574018
402.946898	0.576689
403.328783	0.576420
403.710606	0.588586
404.092367	0.562938
404.474067	0.568517
404.855705	0.566819
405.237282	0.576470
405.618797	0.562110
406.000250	0.557097
406.381642	0.547464
406.762972	0.553584
407.144240	0.551702
407.525447	0.551814
407.906593	0.544666
408.287677	0.540574
408.668700	0.548259
409.049661	0.542413
409.430560	0.536641
409.811399	0.545958
410.192176	0.527723
410.572891	0.534974
410.953545	0.522833
411.334138	0.536366
411.714669	0.528873
412.095139	0.541285
412.475547	0.525331
412.855894	0.527089
413.236180	0.525651
413.616405	0.531694
413.996568	0.521871
414.376670	0.528177
414.756711	0.533497
415.136691	0.530204
415.516609	0.520844
415.896466	0.517680
416.276262	0.513386
416.655997	0.515673
417.035670	0.496900
417.415283	0.488851
417.794834	0.493529
418.174324	0.499207
418.553753	0.508647
418.933121	0.490237
419.312428	0.484594
419.691674	0.490527
420.070859	0.478362
420.449983	0.486176
420.829045	0.475207
421.208047	0.485219
421.586988	0.478077
421.965867	0.476913
422.344686	0.465520
422.723444	0.478322
423.102141	0.495604
423.480777	0.467828
423.859352	0.488931
424.237866	0.465795
424.616319	0.466662
424.994712	0.458114
425.373044	0.468459
425.751314	0.456500
426.129524	0.473673
426.507673	0.456746
426.885762	0.450583
427.263789	0.456506
427.641756	0.466062
428.019662	0.456440
428.397508	0.455991
428.775292	0.461107
429.153016	0.453378
429.530679	0.460078
429.908282	0.454157
430.285824	0.464348
430.663305	0.444389
431.040726	0.466066
431.418086	0.466832
431.795385	0.459837
432.172624	0.460074
432.549802	0.461965
432.926920	0.462018
433.303977	0.462539
433.680974	0.461501
434.057910	0.461780
434.434786	0.463029
434.811601	0.467467
435.188355	0.452006
435.565050	0.462885
435.941683	0.466858
436.318257	0.453503
436.694770	0.457227
437.071222	0.458128
437.447614	0.465508
437.823946	0.473674
438.200218	0.466856
438.576429	0.479100
438.952580	0.476111
439.328670	0.476199
439.704700	0.486085
440.080670	0.491066
440.456580	0.478013
440.832429	0.489142
441.208218	0.503019
441.583947	0.497676
441.959616	0.501585
442.335224	0.511833
442.710773	0.508214
443.086261	0.512114
443.461689	0.529705
443.837057	0.526522
444.212365	0.523636
444.587612	0.535020
444.962800	0.533100
445.337927	0.540823
445.712995	0.568129
446.088002	0.543838
446.462949	0.559197
446.837837	0.570332
447.212664	0.566382
447.587431	0.569543
447.962139	0.557015
448.336786	0.534685
448.711374	0.549143
449.085901	0.588168
449.460369	0.598988
449.834776	0.608927
450.209124	0.603953
450.583412	0.609926
450.957640	0.610498
451.331808	0.627249
451.705917	0.650053
452.079965	0.660539
452.453954	0.662245
452.827883	0.674188
453.201752	0.679596
453.575562	0.693632
453.949311	0.696911
454.323001	0.706908
454.696632	0.713225
455.070202	0.717908
455.443713	0.722004
455.817164	0.727929
456.190556	0.735018
456.563888	0.742079
456.937160	0.748616
457.310373	0.762962
457.683526	0.770702
458.056619	0.782296
458.429653	0.789654
458.802628	0.797860
459.175542	0.803357
459.548398	0.805110
459.921194	0.808857
460.293930	0.816048
460.666607	0.814632
461.039224	0.817557
461.411782	0.823085
461.784280	0.830838
462.156719	0.840722
462.529099	0.848747
462.901419	0.860289
463.273680	0.867700
463.645882	0.872949
464.018024	0.882239
464.390106	0.885330
464.762130	0.887820
465.134094	0.889397
465.505999	0.886247
465.877845	0.883128
466.249631	0.887043
466.621358	0.895857
466.993026	0.906989
467.364634	0.913864
467.736184	0.919476
468.107674	0.924781
468.479105	0.929516
468.850477	0.933475
469.221790	0.938767
469.593043	0.943320
469.964238	0.947563
470.335373	0.950662
470.706449	0.953175
471.077467	0.956996
471.448425	0.957076
471.819324	0.956929
472.190164	0.958714
472.560945	0.963492
472.931667	0.967500
473.302330	0.970424
473.672934	0.973334
474.043479	0.973757
474.413965	0.975432
474.784393	0.977066
475.154761	0.978555
475.525070	0.980148
475.895321	0.981733
476.265513	0.982597
476.635645	0.983235
477.005719	0.984622
477.375734	0.984942
477.745691	0.985361
478.115588	0.986671
478.485427	0.987726
478.855207	0.987877
479.224928	0.988196
479.594591	0.988187
479.964194	0.988854
480.333739	0.989520
480.703226	0.989757
481.072653	0.990104
481.442022	0.990828
481.811333	0.990726
482.180584	0.990895
482.549777	0.991686
482.918912	0.991279
483.287988	0.992469
483.657005	0.992008
484.025964	0.993249
484.394864	0.992648
484.763706	0.992714
485.132489	0.992937
485.501213	0.993651
485.869879	0.993599
486.238487	0.993098
486.607036	0.994285
486.975527	0.994195
487.343959	0.993473
487.712333	0.994188
488.080648	0.993912
488.448905	0.995053
488.817104	0.994017
489.185244	0.994365
489.553326	0.994546
489.921350	0.995237
490.289315	0.994296
490.657222	0.994172
491.025070	0.994448
491.392861	0.994736
491.760593	0.994086
492.128267	0.994554
492.495883	0.993829
492.863440	0.995017
493.230939	0.994898
493.598380	0.995388
493.965763	0.995116
494.333088	0.995205
494.700354	0.994957
495.067563	0.994869
495.434713	0.995823
495.801805	0.995573
496.168839	0.995798
496.535815	0.995680
496.902733	0.995515
497.269593	0.995419
497.636395	0.994643
498.003139	0.994921
498.369825	0.996233
498.736453	0.995573
499.103023	0.995966
499.469535	0.996431
499.835989	0.996140
500.202385	0.995822
500.568723	0.995357
500.935003	0.995628
501.301226	0.995809
501.667390	0.995758
502.033497	0.995972
502.399546	0.995199
502.765537	0.995546
503.131470	0.996373
503.497345	0.995653
503.863163	0.996004
504.228923	0.995836
504.594625	0.996424
504.960269	0.996332
505.325856	0.996814
505.691385	0.996437
506.056856	0.996161
506.422270	0.996247
506.787625	0.996226
507.152924	0.996164
507.518164	0.996301
507.883347	0.995561
508.248472	0.995896
508.613540	0.996435
508.978550	0.996372
509.343503	0.996164
509.708398	0.996400
510.073236	0.996908
510.438016	0.995786
510.802738	0.996304
511.167403	0.996008
511.532010	0.996336
511.896561	0.996149
512.261053	0.995663
512.625488	0.996334
512.989866	0.996390
513.354186	0.995677
513.718449	0.996508
514.082655	0.995231
514.446803	0.996090
514.810894	0.996397
515.174927	0.996266
515.538904	0.996571
515.902822	0.996927
516.266684	0.996795
516.630488	0.996315
516.994235	0.996638
517.357925	0.996604
517.721558	0.996358
518.085133	0.995815
518.448651	0.996756
518.812112	0.996503
519.175516	0.996131
519.538863	0.996007
519.902152	0.996883
520.265385	0.996116
520.628560	0.996004
520.991678	0.995958
521.354739	0.996640
521.717743	0.995839
522.080690	0.995874
522.443580	0.996678
522.806413	0.995835
523.169189	0.996540
523.531908	0.995863
523.894569	0.995871
524.257174	0.996245
524.619722	0.996268
524.982213	0.995895
525.344647	0.995501
525.707025	0.995527
526.069345	0.995786
526.431608	0.995931
526.793815	0.996425
527.155964	0.996323
527.518057	0.996846
527.880093	0.996036
528.242072	0.995989
528.603995	0.995553
528.965860	0.996673
529.327669	0.995900
529.689421	0.996054
530.051117	0.996547
530.412755	0.996816
530.774337	0.996060
531.135862	0.996636
531.497331	0.995346
531.858743	0.996136
532.220098	0.995461
532.581396	0.995715
532.942638	0.996588
533.303824	0.996538
533.664953	0.996023
534.026025	0.996583
534.387040	0.996021
534.747999	0.995833
535.108902	0.996246
535.469748	0.996899
535.830537	0.996174
536.191270	0.996134
536.551947	0.996039
536.912567	0.995675
537.273131	0.996755
537.633638	0.995842
537.994089	0.996020
538.354483	0.996169
538.714821	0.996067
539.075103	0.996103
539.435328	0.996357
539.795497	0.997001
540.155609	0.995810
540.515665	0.996599
540.875665	0.995814
541.235609	0.996609
541.595496	0.995482
541.955328	0.996253
542.315102	0.996967
542.674821	0.996783
543.034483	0.996500
543.394090	0.995961
543.753640	0.996594
544.113134	0.995600
544.472571	0.996643
544.831953	0.996563
545.191278	0.996192
545.550548	0.995810
545.909761	0.995380
546.268918	0.997258
546.628019	0.996457
546.987064	0.995589
547.346053	0.995590
547.704986	0.996057
548.063863	0.995455
548.422684	0.996230
548.781449	0.995807
549.140158	0.996483
549.498811	0.995600
549.857408	0.995453
550.215949	0.995263
550.574434	0.995297
550.932864	0.996115
551.291237	0.995939
551.649555	0.996230
552.007817	0.995780
552.366022	0.996272
552.724173	0.996370
553.082267	0.995919
553.440305	0.996264
553.798288	0.995347
554.156215	0.996504
554.514086	0.996294
554.871902	0.996483
555.229661	0.995768
555.587365	0.996398
555.945014	0.996671
556.302606	0.995800
556.660143	0.996215
557.017625	0.996302
557.375050	0.995715
557.732421	0.995621
558.089735	0.995493
558.446994	0.995462
558.804197	0.996199
559.161345	0.995360
559.518437	0.995460
559.875474	0.996106
560.232455	0.996006
560.589381	0.996480
560.946251	0.996263
561.303065	0.996407
561.659825	0.995717
562.016528	0.996332
562.373177	0.996345
562.729770	0.995694
563.086307	0.995041
563.442789	0.996269
563.799216	0.995174
564.155587	0.996565
564.511904	0.996502
564.868164	0.995621
565.224370	0.995958
565.580520	0.995527
565.936615	0.996149
566.292654	0.995664
566.648638	0.996035
567.004567	0.995147
567.360441	0.996017
567.716260	0.995917
568.072023	0.995616
568.427732	0.996563
568.783385	0.995877
569.138982	0.995842
569.494525	0.995456
569.850013	0.996401
570.205445	0.995977
570.560823	0.996176
570.916145	0.994994
571.271412	0.995795
571.626625	0.996345
571.981782	0.995756
572.336884	0.996100
572.691931	0.996100
573.046923	0.996414
573.401860	0.995669
573.756743	0.996308
574.111570	0.995923
574.466342	0.996690
574.821059	0.995570
575.175722	0.995981
575.530330	0.995608
575.884882	0.995410
576.239380	0.996164
576.593823	0.995694
576.948211	0.995964
577.302544	0.995840
577.656823	0.996028
578.011047	0.995390
578.365216	0.996484
578.719330	0.995705
579.073389	0.995439
579.427394	0.995634
579.781344	0.996374
580.135239	0.995018
580.489080	0.996102
580.842866	0.996160
581.196597	0.995604
581.550273	0.995702
581.903895	0.996092
582.257463	0.995807
582.610975	0.995258
582.964434	0.996544
583.317837	0.996126
583.671186	0.995960
584.024481	0.995533
584.377721	0.995475
584.730906	0.995682
585.084037	0.996698
585.437113	0.996357
585.790135	0.995555
586.143103	0.996036
586.496016	0.996102
586.848874	0.996228
587.201679	0.995916
587.554428	0.995933
587.907124	0.995939
588.259765	0.996875
588.612352	0.996987
588.964884	0.996095
589.317362	0.995813
589.669786	0.996325
590.022155	0.995734
590.374470	0.995614
590.726731	0.995110
591.078937	0.995791
591.431090	0.996830
591.783188	0.995428
592.135232	0.996093
592.487222	0.996047
592.839157	0.995293
593.191038	0.996351
593.542866	0.995959
593.894639	0.995209
594.246358	0.996095
594.598022	0.995967
594.949633	0.996110
595.301190	0.995564
595.652692	0.995284
596.004141	0.995556
596.355535	0.995389
596.706876	0.996068
597.058162	0.996226
597.409395	0.995820
597.760573	0.995679
598.111698	0.995734
598.462768	0.995192
598.813785	0.994958
599.164748	0.995207
599.515657	0.995693
599.866511	0.996029
600.217312	0.996250
600.568060	0.995454
600.918753	0.996455
601.269392	0.996141
601.619978	0.996448
601.970510	0.995522
602.320988	0.995704
602.671412	0.995827
603.021783	0.996554
603.372100	0.995666
603.722363	0.996685
604.072572	0.995636
604.422728	0.995013
604.772830	0.995591
605.122878	0.996073
605.472872	0.996819
605.822813	0.995449
606.172701	0.995647
606.522534	0.996414
606.872314	0.996470
607.222041	0.995956
607.571714	0.995969
607.921333	0.995610
608.270899	0.995510
608.620411	0.996564
608.969870	0.996741
609.319276	0.996244
609.668627	0.996589
610.017926	0.995978
610.367171	0.995538
610.716362	0.995547
611.065500	0.995813
611.414585	0.996674
611.763616	0.995732
612.112594	0.995339
612.461518	0.995801
612.810389	0.995892
613.159207	0.996008
613.507971	0.995193
613.856682	0.996791
614.205340	0.995190
614.553945	0.995795
614.902496	0.996585
615.250994	0.996277
615.599439	0.995043
615.947830	0.995445
616.296169	0.996086
616.644454	0.996236
616.992686	0.995419
617.340864	0.995863
617.688990	0.995556
618.037063	0.996209
618.385082	0.995556
618.733048	0.995728
619.080961	0.996169
619.428821	0.996076
619.776628	0.994431
620.124382	0.996549
620.472083	0.995576
620.819731	0.996515
621.167326	0.995902
621.514868	0.996366
621.862357	0.996196
622.209793	0.995388
622.557176	0.996255
622.904506	0.995210
623.251783	0.995565
623.599007	0.995986
623.946179	0.995739
624.293297	0.996068
624.640363	0.996465
624.987376	0.995847
625.334336	0.995700
625.681243	0.995858
626.028097	0.996220
626.374899	0.996107
626.721647	0.996406
627.068343	0.995808
627.414987	0.995998
627.761577	0.995283
628.108115	0.995660
628.454600	0.996290
628.801032	0.996264
629.147412	0.996615
629.493739	0.997153
629.840014	0.996032
630.186236	0.995917
630.532405	0.995551
630.878521	0.995682
631.224585	0.996395
631.570597	0.995398
631.916556	0.996496
632.262462	0.994692
632.608316	0.997096
632.954117	0.995652
633.299866	0.996111
633.645562	0.995886
633.991206	0.995593
634.336797	0.996063
634.682336	0.997113
635.027823	0.996000
635.373257	0.996006
635.718639	0.997113
636.063968	0.995593
636.409245	0.995670
636.754470	0.996251
637.099642	0.995783
637.444762	0.996514
637.789829	0.995737
638.134845	0.996064
638.479808	0.995241
638.824719	0.996783
639.169577	0.995700
639.514383	0.996085
639.859137	0.997095
640.203839	0.995407
640.548489	0.995713
640.893086	0.995943
641.237632	0.996340
641.582125	0.995977
641.926566	0.997335
642.270955	0.996083
642.615292	0.996460
642.959576	0.996900
643.303809	0.996687
643.647990	0.997081
643.992118	0.997132
644.336195	0.995868
644.680219	0.996560
645.024192	0.995987
645.368112	0.995896
645.711981	0.996413
646.055797	0.995944
646.399562	0.994756
646.743274	0.996548
647.086935	0.995564
647.430544	0.995311
647.774101	0.995246
648.117606	0.996577
648.461059	0.996554
648.804460	0.995997
649.147810	0.996519
649.491108	0.995934
649.834354	0.996181
650.177548	0.995981
650.520690	0.996153
650.863781	0.995581
651.206820	0.996639
651.549807	0.995547
651.892742	0.996948
652.235626	0.996608
652.578458	0.996230
652.921238	0.996411
653.263967	0.995972
653.606644	0.995737
653.949269	0.996567
654.291843	0.995960
654.634365	0.997253
654.976836	0.995852
655.319255	0.996600
655.661622	0.997204
656.003938	0.996041
656.346203	0.995798
656.688416	0.996302
657.030577	0.995760
657.372687	0.996684
657.714746	0.995687
658.056753	0.995943
658.398708	0.995318
658.740612	0.996696
659.082465	0.996849
659.424266	0.996883
659.766016	0.996072
660.107715	0.996441
660.449362	0.995873
660.790958	0.995722
661.132503	0.996574
661.473996	0.995745
661.815438	0.996899
662.156829	0.996601
662.498168	0.997057
662.839456	0.995623
663.180693	0.996390
663.521879	0.995878
663.863013	0.996441
664.204097	0.996793
664.545129	0.996367
664.886110	0.996612
665.227040	0.996388
665.567918	0.995893
665.908746	0.995826
666.249522	0.995677
666.590248	0.996332
666.930922	0.995689
667.271545	0.996815
667.612118	0.996268
667.952639	0.996078
668.293109	0.995578
668.633528	0.995946
668.973896	0.996142
669.314213	0.995963
669.654480	0.996297
669.994695	0.995262
670.334859	0.995423
670.674973	0.995607
671.015035	0.996439
671.355047	0.995988
671.695008	0.996003
672.034918	0.996475
672.374777	0.995863
672.714585	0.996605
673.054342	0.996631
673.394049	0.995662
673.733705	0.996037
674.073310	0.995905
674.412864	0.996048
674.752368	0.995897
675.091820	0.996879
675.431223	0.996295
675.770574	0.994997
676.109875	0.996480
676.449125	0.995307
676.788324	0.996117
677.127473	0.996763
677.466571	0.996362
677.805619	0.995992
678.144616	0.996164
678.483562	0.995469
678.822458	0.996172
679.161303	0.995558
679.500098	0.996271
679.838842	0.996678
680.177535	0.996709
680.516179	0.995772
680.854771	0.995993
681.193314	0.995915
681.531805	0.995530
681.870247	0.996146
682.208638	0.996541
682.546978	0.995244
682.885268	0.995243
683.223508	0.996254
683.561697	0.995877
683.899836	0.996289
684.237925	0.995883
684.575963	0.995682
684.913951	0.996058
685.251889	0.996047
685.589776	0.995888
685.927614	0.995864
686.265401	0.995360
686.603137	0.995079
686.940824	0.995760
687.278460	0.996652
687.616046	0.996776
687.953582	0.995978
688.291068	0.996469
688.628504	0.995424
688.965889	0.995159
689.303224	0.995085
689.640510	0.995232
689.977745	0.995804
690.314930	0.996108
690.652065	0.996144
690.989150	0.995990
691.326185	0.996015
691.663170	0.996128
692.000105	0.996114
692.336990	0.995940
692.673825	0.996040
693.010610	0.996028
693.347345	0.996016
693.684030	0.996357
694.020665	0.996751
694.357251	0.996137
694.693786	0.996055
695.030272	0.995198
695.366707	0.995948
695.703093	0.995551
696.039429	0.995781
696.375716	0.996501
696.711952	0.995684
697.048139	0.995849
697.384276	0.996480
697.720363	0.997107
698.056400	0.995455
698.392388	0.995822
698.728326	0.995209
699.064214	0.997518
699.400053	0.996531
699.735842	0.997269
700.071581	0.996659
700.407270	0.996044
700.742910	0.996533
701.078501	0.996115
701.414042	0.997797
701.749533	0.995318
702.084974	0.996116
702.420366	0.996619
702.755709	0.996252
703.091002	0.997526
703.426246	0.997399
703.761440	0.996117
704.096584	0.996711
704.431679	0.996161
704.766725	0.996223
705.101721	0.997637
705.436668	0.996236
705.771565	0.996800
706.106413	0.995396
706.441212	0.996386
706.775961	0.996817
707.110661	0.995981
707.445311	0.997016
707.779913	0.996545
708.114465	0.997678
708.448967	0.997273
708.783421	0.997544
709.117825	0.996746
709.452180	0.997051
709.786485	0.996670
710.120742	0.995574
710.454949	0.995653
710.789107	0.996965
711.123216	0.995323
711.457275	0.995641
711.791286	0.996503
712.125247	0.997011
712.459159	0.995610
712.793023	0.996676
713.126837	0.996710
713.460602	0.995530
713.794318	0.995232
714.127985	0.995828
714.461602	0.995908
714.795171	0.995532
715.128691	0.996190
715.462162	0.996940
715.795584	0.996101
716.128957	0.996161
716.462281	0.996649
716.795556	0.996355
717.128782	0.997428
717.461960	0.996361
717.795088	0.996005
718.128167	0.997356
718.461198	0.997349
718.794180	0.996846
719.127113	0.997122
719.459997	0.995917
719.792833	0.996700
720.125619	0.996015
720.458357	0.996736
720.791046	0.997670
721.123686	0.997273
721.456278	0.996698
721.788821	0.997032
722.121315	0.997552
722.453761	0.997731
722.786158	0.996355
723.118506	0.997086
723.450805	0.996782
723.783056	0.998505
724.115259	0.996846
724.447412	0.997476
724.779518	0.997206
725.111574	0.995530
725.443582	0.997149
725.775542	0.997418
726.107453	0.998009
726.439315	0.997778
726.771129	0.997753
727.102895	0.997033
727.434612	0.997041
727.766281	0.996938
728.097901	0.995034
728.429473	0.996764
728.760996	0.996191
729.092471	0.997103
729.423897	0.997333
729.755276	0.995902
730.086606	0.995745
730.417887	0.997522
730.749120	0.996771
731.080305	0.996912
731.411442	0.995719
731.742530	0.995772
732.073570	0.996378
732.404562	0.996323
732.735506	0.996970
733.066401	0.996516
733.397249	0.996689
733.728048	0.996546
734.058798	0.996150
734.389501	0.997242
734.720156	0.996577
735.050762	0.997270
735.381320	0.996651
735.711831	0.996848
736.042293	0.996577
736.372707	0.997748
736.703073	0.996362
737.033391	0.996837
737.363661	0.997624
737.693883	0.997614
738.024056	0.996571
738.354182	0.997518
738.684260	0.996888
739.014290	0.997406
739.344272	0.996691
739.674207	0.997218
740.004093	0.996592
740.333931	0.996607
740.663722	0.997056
740.993464	0.997478
741.323159	0.996728
741.652806	0.997199
741.982405	0.996993
742.311956	0.997316
742.641460	0.996869
742.970915	0.996276
743.300323	0.996314
743.629683	0.996799
743.958996	0.997727
744.288260	0.996390
744.617477	0.996596
744.946647	0.997113
745.275768	0.997312
745.604842	0.996676
745.933869	0.997107
746.262847	0.997976
746.591778	0.996590
746.920662	0.997514
747.249498	0.997104
747.578286	0.998536
747.907027	0.998504
748.235720	0.997468
748.564365	0.997738
748.892963	0.996731
749.221514	0.998029
749.550017	0.996502
749.878473	0.997258
750.206881	0.998365
750.535242	0.996940
750.863555	0.996848
751.191821	0.997535
751.520039	0.997030
751.848210	0.996357
752.176334	0.996898
752.504411	0.996929
752.832440	0.997677
753.160421	0.997744
753.488356	0.997694
753.816243	0.997342
754.144082	0.996724
754.471875	0.997272
754.799620	0.997382
755.127318	0.997569
755.454969	0.997311
755.782572	0.998830
756.110129	0.996661
756.437638	0.998091
756.765100	0.997630
757.092515	0.996531
757.419882	0.997714
757.747203	0.996732
758.074477	0.997790
758.401703	0.997089
758.728882	0.997827
759.056014	0.996637
759.383099	0.997589
759.710138	0.997139
760.037129	0.997429
760.364073	0.997531
760.690970	0.997796
761.017820	0.996542
761.344623	0.997861
761.671379	0.998261
761.998088	0.997693
762.324751	0.998130
762.651366	0.996754
762.977935	0.996788
763.304456	0.995491
763.630931	0.993753
763.957359	0.993222
764.283740	0.994512
764.610074	0.995614
764.936362	0.995504
765.262602	0.996928
765.588796	0.996954
765.914943	0.996400
766.241044	0.997053
766.567097	0.997019
766.893104	0.997553
767.219064	0.996393
767.544978	0.997124
767.870845	0.998010
768.196665	0.996378
768.522438	0.997882
768.848165	0.998725
769.173846	0.998270
769.499479	0.998818
769.825066	0.999089
770.150607	0.998781
770.476101	0.997707
770.801548	0.998830
771.126949	0.998717
771.452303	0.998040
771.777611	0.998461
772.102872	0.998734
772.428087	0.998263
772.753256	0.998845
773.078378	0.998133
773.403453	0.998065
773.728482	1.000164
774.053465	0.998979
774.378401	0.998295
774.703291	0.998919
775.028135	0.998993
775.352932	0.996954
775.677683	0.998530
776.002388	0.998795
776.327046	0.998362
776.651658	0.998940
776.976224	0.998674
777.300743	0.998293
777.625216	0.997582
777.949643	0.998135
778.274024	0.997566
778.598359	0.998290
778.922647	0.998878
779.246889	0.998048
779.571086	0.997874
779.895236	0.998053
780.219339	1.000197
780.543397	0.997704
780.867409	0.999160
781.191374	0.998389
781.515294	0.998477
781.839167	0.998823
782.162995	0.998688
782.486776	0.997471
782.810511	0.999387
783.134201	0.998024
783.457844	0.999684
783.781441	0.998172
784.104993	0.998659
784.428498	0.999378
784.751958	0.999455
785.075372	0.999576
785.398739	0.999100
785.722061	0.998710
786.045337	0.998189
786.368568	0.998755
786.691752	0.998827
787.014891	0.998340
787.337983	0.997035
787.661030	0.998346
787.984031	0.997904
788.306987	0.998231
788.629897	0.996477
788.952760	0.997396
789.275579	0.998890
789.598351	0.998088
789.921078	0.998904
790.243759	0.997912
790.566395	0.998682
790.888984	0.999173
791.211529	0.998839
791.534027	0.998994
791.856480	0.998842
792.178888	0.998665
792.501249	0.998267
792.823566	0.999935
793.145836	0.999377
793.468062	0.998583
793.790241	0.999531
794.112375	0.997113
794.434464	0.999551
794.756507	0.999079
795.078505	0.998751
795.400457	0.998750
795.722364	0.998545
796.044226	0.998995
796.366042	0.997690
796.687812	0.997167
797.009538	0.997894
797.331218	0.999168
797.652852	0.999283
797.974442	0.996908
798.295986	0.998475
798.617484	0.997883
798.938938	0.998943
799.260346	0.998027
799.581709	0.998189
799.903026	0.999654
800.224299	0.998336
800.545526	0.997729
800.866708	0.998579
801.187845	0.998888
801.508936	0.998816
801.829983	0.998814
802.150984	0.999082
802.471940	0.999223
802.792851	0.999021
803.113717	0.999353
803.434538	0.999416
803.755314	0.999624
804.076045	0.998458
804.396731	0.999155
804.717372	0.996624
805.037967	0.999419
805.358518	0.998691
805.679024	0.999199
805.999485	0.999850
806.319901	0.998347
806.640272	1.000488
806.960598	0.999218
807.280879	0.999636
807.601115	1.000096
807.921306	0.999057
808.241453	0.998548
808.561554	0.999039
808.881611	0.998798
809.201623	0.999051
809.521590	0.997634
809.841513	0.999246
810.161390	0.997756
810.481223	0.998508
810.801011	0.999965
811.120755	1.000117
811.440453	0.998146
811.760107	0.999521
812.079716	0.999358
812.399281	0.998817
812.718801	0.998468
813.038276	0.998821
813.357707	0.998452
813.677093	0.999326
813.996434	0.999664
814.315731	1.000282
814.634983	0.999119
814.954191	0.999223
815.273354	0.998428
815.592473	0.999018
815.911547	0.998915
816.230577	0.998583
816.549562	0.998414
816.868502	0.998318
817.187399	0.998795
817.506250	0.998936
817.825058	0.997587
818.143821	0.998323
818.462539	0.998695
818.781213	0.997524
819.099843	0.998378
819.418429	0.997847
819.736970	0.997924
820.055466	0.996104
820.373919	0.996738
820.692327	0.995683
821.010691	0.994566
821.329011	0.993150
821.647286	0.992073
821.965517	0.990407
822.283704	0.987874
822.601847	0.986859
822.919945	0.987280
823.237999	0.988677
823.556010	0.988972
823.873976	0.990296
824.191897	0.991153
824.509775	0.992667
824.827609	0.993246
825.145398	0.994417
825.463144	0.993350
825.780845	0.993919
826.098502	0.994117
826.416116	0.994234
826.733685	0.993344
827.051210	0.991149
827.368692	0.992563
827.686129	0.992275
828.003522	0.994276
828.320872	0.994696
828.638177	0.995303
828.955439	0.996705
829.272656	0.997252
829.589830	0.997146
829.906960	0.997804
830.224046	0.997115
830.541088	0.997185
830.858086	0.997487
831.175041	0.998650
831.491952	0.996620
831.808819	0.997396
832.125642	0.997552
832.442421	0.998444
832.759157	0.998113
833.075849	0.996342
833.392497	0.996880
833.709101	0.995397
834.025662	0.995272
834.342179	0.995117
834.658653	0.996255
834.975083	0.996772
835.291469	0.996070
835.607811	0.995929
835.924110	0.997350
836.240366	0.999144
836.556578	0.997486
836.872746	0.999626
837.188871	0.998878
837.504952	0.997570
837.820990	0.998430
838.136984	0.998928
838.452935	0.998854
838.768842	1.000126
839.084706	0.998747
839.400526	0.998523
839.716303	0.997010
840.032037	0.998292
840.347727	0.998131
840.663373	0.998186
840.978977	0.996420
841.294537	0.998079
841.610054	0.999896
841.925527	0.999277
842.240957	0.998997
842.556344	0.997942
842.871687	0.999165
843.186987	0.999335
843.502244	0.999084
843.817458	0.999547
844.132629	0.999104
844.447756	0.998978
844.762840	0.999039
845.077881	1.000575
845.392879	0.998183
845.707833	0.999098
846.022745	0.999691
846.337613	0.999668
846.652438	0.998846
846.967221	1.000517
847.281960	1.000436
847.596656	1.000506
847.911309	1.000922
848.225919	0.998472
848.540485	0.999681
848.855009	1.000737
849.169490	0.999679
849.483928	0.999837
849.798323	0.999423
850.112675	1.001337
850.426984	1.000398
850.741251	0.999539
851.055474	0.999518
851.369654	1.000307
851.683792	0.999068
851.997887	0.999865
852.311938	0.999996
852.625947	0.999768
852.939914	0.998823
853.253837	1.001260
853.567718	1.000848
853.881555	1.000142
854.195350	1.000543
854.509103	0.999423
854.822812	1.000131
855.136479	0.999219
855.450103	1.000207
855.763685	0.999801
856.077224	1.000538
856.390720	1.000112
856.704173	1.001415
857.017584	1.001306
857.330953	1.001068
857.644278	0.999755
857.957561	1.000359
858.270802	1.000185
858.584000	1.000530
858.897155	0.999583
859.210268	0.999376
859.523339	1.000275
859.836367	0.999296
860.149352	0.999671
860.462295	1.000253
860.775195	1.000641
861.088054	0.998600
861.400869	1.000099
861.713642	0.999518
862.026373	1.000593
862.339062	1.000386
862.651708	1.000084
862.964312	1.000431
863.276873	0.999935
863.589392	0.999619
863.901869	0.998986
864.214303	0.999685
864.526696	1.000217
864.839045	1.000440
865.151353	0.998791
865.463619	0.998701
865.775842	1.000066
866.088023	1.000194
866.400162	0.999968
866.712258	1.001242
867.024313	1.000280
867.336325	1.000565
867.648296	1.001216
867.960224	1.000451
868.272110	1.001072
868.583954	1.000519
868.895755	1.000251
869.207515	1.000163
869.519233	1.000523
869.830909	0.999156
870.142542	0.998628
870.454134	0.999896
870.765684	0.999467
871.077191	0.999944
871.388657	0.999164
871.700081	1.000405
872.011463	0.999618
872.322803	0.999692
872.634101	0.997952
872.945357	0.999079
873.256571	0.998647
873.567744	0.999964
873.878874	0.999034
874.189963	0.998945
874.501010	1.001152
874.812015	0.999479
875.122979	1.000118
875.433900	0.999119
875.744780	0.999882
876.055618	0.997900
876.366415	0.998763
876.677169	0.999366
876.987882	0.999645
877.298554	0.999965
877.609183	0.998499
877.919771	0.999451
878.230317	0.998590
878.540822	0.998783
878.851285	0.998968
879.161707	0.997674
879.472087	0.999690
879.782425	0.997167
880.092722	0.995614
880.402977	0.994642
880.713191	0.992750
881.023363	0.990405
881.333494	0.987741
881.643583	0.988757
881.953631	0.989033
882.263637	0.987451
882.573602	0.988786
882.883526	0.990942
883.193408	0.991882
883.503248	0.992145
883.813048	0.992439
884.122806	0.993972
884.432522	0.994924
884.742197	0.996752
885.051831	0.996471
885.361424	0.996994
885.670975	0.998758
885.980485	0.997164
886.289954	0.996584
886.599382	0.998124
886.908768	0.999154
887.218113	0.998102
887.527417	0.998068
887.836680	0.998365
888.145901	0.999343
888.455082	0.999828
888.764221	1.000241
889.073319	0.998493
889.382376	1.000246
889.691392	0.998232
890.000366	0.998648
890.309300	0.999545
890.618193	1.000180
890.927044	0.998119
891.235855	0.998832
891.544625	0.999737
891.853353	0.999230
892.162041	0.997993
892.470687	0.999588
892.779293	0.997905
893.087858	0.997274
893.396381	0.998521
893.704864	0.997621
894.013306	0.997662
894.321707	0.996967
894.630068	0.995430
894.938387	0.994211
895.246665	0.993881
895.554903	0.994203
895.863100	0.995740
896.171256	0.996325
896.479371	0.996405
896.787446	0.996842
897.095480	0.996607
897.403473	0.998469
897.711425	0.998030
898.019336	0.999245
898.327207	0.999047
898.635038	0.998127
898.942827	0.998762
899.250576	0.998056
899.558284	0.999403
899.865952	0.998392
900.173579	1.000117
900.481165	0.998571
900.788711	0.998681
901.096216	0.998603
901.403681	0.998739
901.711105	0.998063
902.018489	0.998628
902.325832	0.998917
902.633135	0.999619
902.940397	0.999002
903.247619	0.999267
903.554800	0.997654
903.861941	0.996161
904.169041	0.993936
904.476101	0.993742
904.783121	0.993026
905.090100	0.994453
905.397039	0.995144
905.703938	0.996510
906.010796	0.996298
906.317614	0.997239
906.624391	0.997712
906.931129	0.997393
907.237826	0.998493
907.544483	1.000044
907.851099	0.998491
908.157675	0.998897
908.464211	0.999584
908.770707	0.998360
909.077163	0.999150
909.383578	0.999833
909.689954	0.998966
909.996289	0.999463
910.302584	1.000041
910.608839	1.001023
910.915054	0.998789
911.221229	1.000604
911.527363	0.999418
911.833458	0.999771
912.139513	0.999829
912.445527	1.001480
912.751502	0.999319
913.057436	0.999435
913.363331	0.999669
913.669186	1.000299
913.975000	0.999293
914.280775	0.999562
914.586510	0.997879
914.892205	0.996979
915.197859	0.997061
915.503475	0.995480
915.809050	0.994895
916.114585	0.993258
916.420081	0.993322
916.725536	0.993744
917.030952	0.993974
917.336328	0.995170
917.641665	0.994503
917.946961	0.994855
918.252218	0.995664
918.557435	0.996384
918.862612	0.997271
919.167750	0.998050
919.472848	0.998578
919.777906	0.999120
920.082925	1.000062
920.387904	0.999626
920.692843	0.998309
920.997743	0.998549
921.302603	0.999075
921.607423	0.997974
921.912204	0.998701
922.216946	0.999923
922.521647	0.999204
922.826310	0.999645
923.130932	1.000113
923.435516	1.000952
923.740059	0.999342
924.044564	0.999682
924.349028	0.999003
924.653454	1.000006
924.957840	0.999512
925.262186	0.999713
925.566493	1.000071
925.870761	0.999475
926.174989	0.999523
926.479178	1.000730
926.783328	0.999605
927.087438	1.000228
927.391509	0.999069
927.695541	1.000273
927.999533	1.000761
928.303486	1.000210
928.607400	1.000710
928.911275	1.001040
929.215110	1.000973
929.518906	1.001215
929.822663	1.000411
930.126381	1.001221
930.430060	1.000013
930.733699	0.999390
931.037299	1.001350
931.340861	1.000139
931.644383	0.999720
931.947866	1.000058
932.251309	1.000071
932.554714	0.999711
932.858080	1.000835
933.161407	1.000532
933.464694	1.001435
933.767943	1.000091
934.071153	1.000040
934.374323	1.001240
934.677455	1.000330
934.980548	1.000948
935.283602	1.001166
935.586617	0.999922
935.889593	1.001878
936.192530	1.001357
936.495428	1.000139
936.798287	0.999938
937.101108	1.000798
937.403890	0.999628
937.706632	1.001893
938.009336	1.000678
938.312002	0.999884
938.614628	0.999849
938.917216	0.999506
939.219765	0.999944
939.522275	1.000606
939.824747	0.999104
940.127179	0.999812
940.429573	1.001130
940.731929	0.998040
941.034246	0.998737
941.336524	0.998914
941.638763	1.000586
941.940964	0.999201
942.243126	0.998683
942.545250	1.000162
942.847335	0.999517
943.149381	1.001431
943.451389	0.998442
943.753359	1.000324
944.055290	1.000993
944.357182	1.000516
944.659036	1.001111
944.960851	1.000801
945.262628	0.999963
945.564367	1.000703
945.866067	0.999664
946.167729	0.999752
946.469352	1.000472
946.770937	0.998901
947.072484	1.001189
947.373992	1.000040
947.675462	1.000028
947.976893	0.999593
948.278286	1.001219
948.579641	1.001630
948.880958	0.999861
949.182236	1.000312
949.483476	1.000999
949.784678	1.000692
950.085841	1.000423
950.386967	0.999308
950.688054	1.000712
950.989103	0.999148
951.290114	0.999513
951.591087	1.000559
951.892021	0.999341
952.192917	1.001188
952.493776	0.999812
952.794596	1.000716
953.095378	1.000260
953.396122	0.999203
953.696828	1.000174
953.997496	0.999766
954.298126	1.000611
954.598718	0.999190
954.899272	1.000360
955.199788	0.999053
955.500266	1.001811
955.800706	1.000356
956.101108	1.000223
956.401472	1.001820
956.701798	0.999216
957.002087	1.000023
957.302337	1.000798
957.602550	1.000975
957.902724	0.999725
958.202861	1.000149
958.502960	1.000275
958.803022	1.001534
959.103045	1.000744
959.403031	1.001192
959.702979	1.000983
960.002889	1.000610
960.302762	0.999858
960.602596	1.001525
960.902393	1.001496
961.202153	1.000271
961.501875	1.000827
961.801559	1.002394
962.101205	1.000665
962.400814	1.002008
962.700385	1.002628
962.999918	1.001047
963.299414	1.000610
963.598873	1.000829
963.898293	0.999627
964.197677	0.999110
964.497022	1.000740
964.796331	1.000411
965.095601	1.001762
965.394835	1.000753
965.694030	1.001307
965.993189	1.000003
966.292309	1.001123
966.591393	0.999447
966.890439	1.000768
967.189447	1.000640
967.488419	1.000161
967.787353	0.999980
968.086249	1.000969
968.385108	0.999815
968.683930	1.001284
968.982714	1.000397
969.281462	0.999533
969.580172	1.000840
969.878844	1.001312
970.177480	1.000607
970.476078	1.002158
970.774639	1.001025
971.073162	1.000180
971.371649	0.999807
971.670098	0.999204
971.968510	1.000510
972.266885	0.999793
972.565223	1.000092
972.863524	0.999631
973.161788	0.999945
973.460014	1.001226
973.758204	0.999811
974.056356	1.001616
974.354471	1.000576
974.652550	1.001871
974.950591	0.999905
975.248595	0.999304
975.546563	1.001190
975.844493	1.001614
976.142386	1.000743
976.440243	1.000883
976.738062	1.001619
977.035845	0.999996
977.333590	1.001366
977.631299	0.999891
977.928971	1.002148
978.226606	0.999651
978.524204	1.000127
978.821765	1.001157
979.119290	1.001084
979.416777	1.001466
979.714228	1.000659
980.011642	1.001000
980.309020	1.000806
980.606360	1.000228
980.903664	1.000225
981.200931	1.000082
981.498162	1.001286
981.795356	0.999475
982.092513	1.000010
982.389633	1.001453
982.686717	0.999182
982.983764	0.999859
983.280775	1.000412
983.577749	1.001118
983.874686	0.999676
984.171587	0.999473
984.468451	1.000895
984.765279	1.000766
985.062070	1.001160
985.358824	0.999302
985.655543	1.000527
985.952224	1.001050
986.248869	1.001541
986.545478	1.001080
986.842050	1.000448
987.138586	0.999486
987.435086	1.000260
987.731549	1.002746
988.027975	1.000811
988.324366	1.000058
988.620719	1.002639
988.917037	1.000733
989.213318	1.002211
989.509563	1.001474
989.805772	1.001502
990.101944	1.000288
990.398080	1.000998
990.694180	1.000858
990.990244	0.999721
991.286271	1.000530
991.582262	1.000712
991.878217	1.001693
992.174136	1.002362
992.470019	1.000811
992.765865	1.002625
993.061676	1.001425
993.357450	1.000476
993.653188	1.003239
993.948890	1.001147
994.244556	1.000499
994.540186	1.000624
994.835780	1.000285
995.131337	1.002042
995.426859	1.000143
995.722345	1.001610
996.017795	1.001287
996.313208	1.000058
996.608586	1.000010
996.903928	1.001800
997.199234	1.000881
997.494504	1.001382
997.789738	1.000226
998.084936	0.999838
998.380099	1.001158
998.675225	0.999683
998.970316	1.001498
999.265371	0.999854
999.560390	1.001812
999.855373	1.000771
1000.150320	1.001400
1000.445232	1.001740
1000.740108	1.000886
1001.034948	0.998699
1001.329752	1.001740
1001.624521	1.001929
1001.919254	0.999504
1002.213951	1.000114
1002.508613	1.000293
1002.803239	1.000604
1003.097829	1.000943
1003.392384	1.000786
1003.686903	1.000750
1003.981386	1.000424
1004.275834	1.002351
1004.570246	1.000243
1004.864623	1.001486
1005.158964	1.001198
1005.453270	0.999983
1005.747540	1.000776
1006.041775	1.000747
1006.335974	1.001736
1006.630138	1.001214
1006.924266	1.001410
1007.218359	0.999349
1007.512416	1.001026
1007.806438	1.000613
1008.100425	1.001351
1008.394376	1.001593
1008.688292	1.001019
1008.982172	1.000036
1009.276017	1.001552
1009.569827	1.001235
1009.863602	0.999940
1010.157341	1.000908
1010.451045	1.001118
1010.744714	1.001789
1011.038347	1.001868
1011.331945	0.999113
1011.625508	1.000413
1011.919036	1.000567
1012.212528	1.001581
1012.505986	1.001433
1012.799408	1.000747
1013.092795	1.002402
1013.386147	1.001959
1013.679464	1.001230
1013.972745	1.000965
1014.265992	1.001461
1014.559204	1.000256
1014.852380	1.001494
1015.145521	1.001060
1015.438628	0.999980
1015.731699	1.000137
1016.024736	1.002031
1016.317737	1.001520
1016.610703	1.001744
1016.903635	1.001227
1017.196531	1.000144
1017.489393	1.001180
1017.782219	0.999394
1018.075011	1.000547
1018.367768	1.000627
1018.660490	1.002385
1018.953177	1.002385
1019.245829	1.002385
