Dividing Wavelength (nm)	Counts (n)	Blue Motor Position (mm): 44.200000	Red Motor Position (mm): 0.000000	
326.493990	0.998483
326.888308	0.998483
327.282561	0.998483
327.676750	1.000725
328.070874	1.001157
328.464933	1.000752
328.858929	0.999922
329.252859	1.000157
329.646726	0.999513
330.040528	0.998833
330.434265	0.999999
330.827938	0.999227
331.221547	1.000192
331.615091	1.001290
332.008571	1.000339
332.401986	0.999063
332.795338	0.999111
333.188625	1.001210
333.581847	0.999621
333.975006	0.999781
334.368100	0.999849
334.761129	0.998708
335.154095	0.999814
335.546996	0.999644
335.939833	0.998631
336.332606	1.000488
336.725315	0.999846
337.117960	1.000429
337.510540	0.998760
337.903056	1.001015
338.295508	0.999853
338.687896	1.000707
339.080220	1.000598
339.472480	0.999412
339.864676	0.999387
340.256807	0.998320
340.648875	1.000752
341.040879	0.999984
341.432818	1.001134
341.824694	0.998625
342.216506	1.000373
342.608253	1.000120
342.999937	0.999269
343.391557	1.001347
343.783113	1.001173
344.174605	0.998347
344.566033	0.998701
344.957397	1.001046
345.348697	0.998698
345.739934	0.999881
346.131106	0.999644
346.522215	0.999469
346.913260	0.997970
347.304241	1.000335
347.695159	0.999260
348.086012	1.000334
348.476802	0.998413
348.867528	0.999736
349.258191	0.998792
349.648789	0.999877
350.039324	0.999385
350.429796	1.000065
350.820203	0.997991
351.210548	0.999495
351.600828	1.000421
351.991045	1.000605
352.381198	1.000156
352.771288	0.998785
353.161314	1.000427
353.551276	0.999121
353.941175	0.997782
354.331010	0.998912
354.720782	0.998556
355.110490	0.999072
355.500135	0.999912
355.889717	0.997525
356.279235	0.998346
356.668689	1.000217
357.058080	0.998207
357.447408	0.997636
357.836672	0.998120
358.225873	0.998645
358.615010	0.998573
359.004084	0.998380
359.393095	0.998666
359.782043	0.998841
360.170927	0.999095
360.559748	0.999907
360.948505	0.999513
361.337199	0.998809
361.725830	0.999635
362.114398	0.999070
362.502903	0.998141
362.891344	0.999286
363.279722	0.998583
363.668037	0.999809
364.056289	0.998648
364.444478	0.999442
364.832603	0.999429
365.220665	0.999281
365.608665	0.998815
365.996601	0.999132
366.384474	0.999346
366.772284	0.998140
367.160031	0.997973
367.547715	0.998390
367.935336	0.996992
368.322893	0.995871
368.710388	0.993738
369.097820	0.993050
369.485189	0.991170
369.872495	0.989917
370.259738	0.987837
370.646918	0.984874
371.034035	0.981976
371.421090	0.978290
371.808081	0.974811
372.195010	0.971802
372.581875	0.966251
372.968678	0.962778
373.355418	0.959062
373.742096	0.951632
374.128710	0.947600
374.515262	0.943527
374.901751	0.937729
375.288177	0.932973
375.674540	0.926569
376.060841	0.920634
376.447079	0.913535
376.833254	0.909403
377.219367	0.904408
377.605417	0.894521
377.991404	0.892967
378.377329	0.888384
378.763191	0.886646
379.148991	0.879043
379.534727	0.875399
379.920402	0.869630
380.306013	0.869187
380.691563	0.861459
381.077049	0.859816
381.462474	0.859175
381.847835	0.853676
382.233134	0.854373
382.618371	0.857363
383.003545	0.849056
383.388657	0.851688
383.773706	0.851668
384.158693	0.852840
384.543618	0.854631
384.928480	0.853451
385.313280	0.852831
385.698017	0.858610
386.082692	0.857152
386.467305	0.862229
386.851856	0.865802
387.236344	0.869284
387.620770	0.873268
388.005133	0.877637
388.389435	0.880816
388.773674	0.886025
389.157851	0.888876
389.541965	0.894744
389.926018	0.903140
390.310008	0.906185
390.693936	0.910265
391.077802	0.913199
391.461606	0.919792
391.845348	0.923109
392.229027	0.928527
392.612645	0.933780
392.996200	0.937035
393.379694	0.939877
393.763125	0.944440
394.146494	0.949011
394.529801	0.952635
394.913047	0.956473
395.296230	0.961304
395.679351	0.965132
396.062410	0.967754
396.445408	0.970887
396.828343	0.975171
397.211217	0.976485
397.594028	0.980334
397.976778	0.982827
398.359466	0.984927
398.742092	0.986350
399.124656	0.987173
399.507158	0.988572
399.889598	0.991365
400.271977	0.992520
400.654294	0.991657
401.036549	0.994464
401.418742	0.995324
401.800874	0.996060
402.182944	0.995334
402.564952	0.996395
402.946898	0.997510
403.328783	0.998638
403.710606	0.997498
404.092367	0.998096
404.474067	0.999218
404.855705	0.998920
405.237282	0.998495
405.618797	0.998660
406.000250	0.998933
406.381642	0.998410
406.762972	0.999836
407.144240	0.999351
407.525447	0.998163
407.906593	0.998559
408.287677	0.998815
408.668700	1.000027
409.049661	0.998948
409.430560	0.999005
409.811399	0.998809
410.192176	0.999531
410.572891	0.999865
410.953545	0.998225
411.334138	0.999740
411.714669	0.999332
412.095139	0.999509
412.475547	1.000231
412.855894	0.999874
413.236180	0.999087
413.616405	1.000175
413.996568	0.999151
414.376670	1.000047
414.756711	0.998540
415.136691	1.000132
415.516609	0.999306
415.896466	1.000337
416.276262	0.998492
416.655997	1.000115
417.035670	0.999453
417.415283	0.999308
417.794834	0.999485
418.174324	1.000183
418.553753	0.999698
418.933121	0.998940
419.312428	1.000534
419.691674	0.999431
420.070859	1.000069
420.449983	0.999419
420.829045	0.998667
421.208047	1.000032
421.586988	0.998411
421.965867	0.998007
422.344686	0.999092
422.723444	0.999192
423.102141	0.999299
423.480777	0.998477
423.859352	0.999169
424.237866	0.999544
424.616319	1.000068
424.994712	0.999747
425.373044	0.999794
425.751314	0.999822
426.129524	1.000081
426.507673	0.998998
426.885762	1.000099
427.263789	0.998777
427.641756	0.998795
428.019662	0.999532
428.397508	0.999417
428.775292	0.999379
429.153016	0.999916
429.530679	1.000354
429.908282	1.000021
430.285824	0.999493
430.663305	0.999324
431.040726	0.999266
431.418086	0.999571
431.795385	1.000867
432.172624	1.000477
432.549802	0.999484
432.926920	1.000602
433.303977	0.999211
433.680974	0.999775
434.057910	0.999978
434.434786	0.998988
434.811601	0.999352
435.188355	1.000154
435.565050	0.999031
435.941683	0.999383
436.318257	0.999371
436.694770	0.999620
437.071222	0.999945
437.447614	0.999289
437.823946	0.999418
438.200218	0.999910
438.576429	0.998427
438.952580	0.999979
439.328670	0.999233
439.704700	0.999320
440.080670	1.000329
440.456580	0.999716
440.832429	0.999751
441.208218	1.000015
441.583947	1.000313
441.959616	0.998463
442.335224	1.000143
442.710773	0.999523
443.086261	0.999644
443.461689	0.999025
443.837057	0.999180
444.212365	1.000064
444.587612	1.000380
444.962800	0.999742
445.337927	0.999914
445.712995	0.999610
446.088002	0.999480
446.462949	0.999436
446.837837	1.001397
447.212664	1.000167
447.587431	1.000518
447.962139	0.999713
448.336786	0.999172
448.711374	0.999569
449.085901	0.999201
449.460369	1.000375
449.834776	0.998962
450.209124	1.000215
450.583412	0.999386
450.957640	0.999285
451.331808	1.000399
451.705917	0.998633
452.079965	0.999957
452.453954	1.000608
452.827883	1.000010
453.201752	1.000352
453.575562	0.998905
453.949311	1.000043
454.323001	1.000140
454.696632	1.000110
455.070202	0.999629
455.443713	0.999212
455.817164	0.999351
456.190556	0.999710
456.563888	1.000263
456.937160	1.000642
457.310373	0.999914
457.683526	0.999433
458.056619	0.999756
458.429653	0.999885
458.802628	0.999696
459.175542	0.999936
459.548398	0.999596
459.921194	1.000448
460.293930	1.001044
460.666607	1.000308
461.039224	1.000037
461.411782	1.000074
461.784280	0.999607
462.156719	1.000520
462.529099	0.999737
462.901419	1.000218
463.273680	0.999690
463.645882	0.999395
464.018024	1.000276
464.390106	0.999923
464.762130	1.000178
465.134094	0.999730
465.505999	1.000547
465.877845	0.999660
466.249631	1.000101
466.621358	0.999062
466.993026	0.999627
467.364634	0.999616
467.736184	0.999890
468.107674	0.999356
468.479105	0.999597
468.850477	0.999960
469.221790	0.999908
469.593043	0.999241
469.964238	1.000223
470.335373	0.999761
470.706449	0.999771
471.077467	0.999831
471.448425	0.999636
471.819324	1.000483
472.190164	1.000105
472.560945	1.000127
472.931667	0.999725
473.302330	0.999690
473.672934	1.000522
474.043479	1.000195
474.413965	0.999980
474.784393	0.999718
475.154761	0.999535
475.525070	1.000416
475.895321	1.000422
476.265513	1.000717
476.635645	1.000018
477.005719	0.999747
477.375734	0.999969
477.745691	1.000492
478.115588	0.999608
478.485427	0.999651
478.855207	0.999477
479.224928	1.000009
479.594591	0.999851
479.964194	1.000183
480.333739	0.999642
480.703226	0.999322
481.072653	0.999497
481.442022	1.000321
481.811333	1.000137
482.180584	0.999830
482.549777	0.999562
482.918912	0.999704
483.287988	0.999865
483.657005	0.999432
484.025964	0.999897
484.394864	0.999165
484.763706	0.999454
485.132489	1.000099
485.501213	0.999829
485.869879	0.999305
486.238487	0.998995
486.607036	1.000862
486.975527	0.999234
487.343959	0.999306
487.712333	0.999626
488.080648	0.999783
488.448905	0.999961
488.817104	1.000028
489.185244	0.999921
489.553326	0.999853
489.921350	0.999509
490.289315	1.000411
490.657222	0.999528
491.025070	1.000446
491.392861	1.000049
491.760593	0.999813
492.128267	0.999752
492.495883	0.999010
492.863440	0.999740
493.230939	0.999824
493.598380	1.000575
493.965763	0.999585
494.333088	0.999197
494.700354	0.999261
495.067563	0.999473
495.434713	0.999699
495.801805	0.999899
496.168839	0.999393
496.535815	0.999716
496.902733	0.999363
497.269593	0.999688
497.636395	0.998924
498.003139	0.998863
498.369825	0.999573
498.736453	1.000078
499.103023	0.999714
499.469535	0.999516
499.835989	1.000093
500.202385	0.999649
500.568723	0.999229
500.935003	0.999525
501.301226	1.000025
501.667390	0.999335
502.033497	0.999959
502.399546	0.999805
502.765537	0.999408
503.131470	0.999994
503.497345	0.999816
503.863163	0.999705
504.228923	0.999860
504.594625	0.999370
504.960269	0.999941
505.325856	1.000750
505.691385	0.999829
506.056856	0.999660
506.422270	0.999256
506.787625	1.000195
507.152924	0.999849
507.518164	0.999347
507.883347	0.999913
508.248472	1.000491
508.613540	0.999060
508.978550	1.000017
509.343503	0.999048
509.708398	1.000575
510.073236	1.000439
510.438016	0.999169
510.802738	0.999785
511.167403	0.999611
511.532010	1.000327
511.896561	1.000234
512.261053	0.999310
512.625488	1.000063
512.989866	0.999938
513.354186	0.998904
513.718449	1.000089
514.082655	0.999314
514.446803	0.999274
514.810894	1.000068
515.174927	0.999845
515.538904	0.999926
515.902822	0.999860
516.266684	0.999983
516.630488	0.999852
516.994235	0.999868
517.357925	0.999978
517.721558	0.999361
518.085133	0.998902
518.448651	0.999977
518.812112	0.999918
519.175516	0.999502
519.538863	0.999729
519.902152	0.999664
520.265385	0.999575
520.628560	0.999299
520.991678	0.999332
521.354739	1.000027
521.717743	0.999583
522.080690	0.999769
522.443580	0.999775
522.806413	0.999433
523.169189	1.000291
523.531908	0.998979
523.894569	0.999349
524.257174	0.999662
524.619722	0.999975
524.982213	0.999946
525.344647	0.999913
525.707025	0.999563
526.069345	0.999848
526.431608	0.999904
526.793815	0.999521
527.155964	1.000195
527.518057	1.000147
527.880093	0.999640
528.242072	0.999143
528.603995	0.999346
528.965860	1.000254
529.327669	1.000328
529.689421	0.999818
530.051117	1.000156
530.412755	0.999945
530.774337	0.999918
531.135862	1.000070
531.497331	0.999464
531.858743	1.000548
532.220098	0.998976
532.581396	1.000034
532.942638	0.999979
533.303824	1.000521
533.664953	0.999295
534.026025	1.000785
534.387040	0.999890
534.747999	0.999717
535.108902	0.999742
535.469748	1.000733
535.830537	1.000124
536.191270	1.000113
536.551947	0.999768
536.912567	0.999853
537.273131	0.999820
537.633638	1.000322
537.994089	1.000013
538.354483	0.999764
538.714821	0.999932
539.075103	0.999915
539.435328	1.000387
539.795497	1.000085
540.155609	0.999678
540.515665	1.000525
540.875665	1.000152
541.235609	0.999783
541.595496	0.999818
541.955328	0.999533
542.315102	0.999917
542.674821	0.999950
543.034483	0.999941
543.394090	0.999518
543.753640	1.000029
544.113134	0.999076
544.472571	1.000246
544.831953	0.999455
545.191278	0.999979
545.550548	0.999626
545.909761	0.999571
546.268918	1.000447
546.628019	1.000527
546.987064	1.000165
547.346053	0.999646
547.704986	0.999647
548.063863	0.999254
548.422684	1.000233
548.781449	0.999753
549.140158	0.999963
549.498811	0.999271
549.857408	0.999630
550.215949	0.999290
550.574434	0.999428
550.932864	0.999933
551.291237	0.999772
551.649555	1.000771
552.007817	1.000346
552.366022	0.999970
552.724173	1.000582
553.082267	0.999665
553.440305	0.999450
553.798288	0.999390
554.156215	0.999498
554.514086	1.000169
554.871902	0.999909
555.229661	0.999583
555.587365	1.000159
555.945014	1.000213
556.302606	0.999023
556.660143	1.000302
557.017625	1.000335
557.375050	0.999895
557.732421	0.999494
558.089735	0.998893
558.446994	0.999396
558.804197	0.999786
559.161345	0.999444
559.518437	0.999726
559.875474	1.000209
560.232455	1.000209
560.589381	0.999895
560.946251	0.999917
561.303065	1.000207
561.659825	0.999489
562.016528	1.000534
562.373177	0.999463
562.729770	1.000013
563.086307	0.999015
563.442789	1.000328
563.799216	0.999529
564.155587	0.999825
564.511904	1.000531
564.868164	0.999178
565.224370	1.000026
565.580520	0.999989
565.936615	0.999564
566.292654	0.998979
566.648638	1.000183
567.004567	0.999631
567.360441	1.000536
567.716260	0.999828
568.072023	0.999085
568.427732	1.000185
568.783385	1.000138
569.138982	0.999944
569.494525	0.999718
569.850013	1.000383
570.205445	1.000201
570.560823	0.999658
570.916145	1.000142
571.271412	0.999716
571.626625	1.000067
571.981782	0.999472
572.336884	0.999905
572.691931	0.999968
573.046923	1.000645
573.401860	0.999474
573.756743	1.000285
574.111570	1.000072
574.466342	1.000185
574.821059	0.999609
575.175722	0.999715
575.530330	0.999941
575.884882	1.000155
576.239380	0.999684
576.593823	0.999046
576.948211	0.999993
577.302544	0.999704
577.656823	0.999978
578.011047	0.998249
578.365216	1.000135
578.719330	0.999536
579.073389	0.999153
579.427394	0.999724
579.781344	0.999690
580.135239	0.998962
580.489080	1.000444
580.842866	0.999834
581.196597	0.999873
581.550273	0.999010
581.903895	0.999990
582.257463	0.999761
582.610975	1.000301
582.964434	0.999458
583.317837	1.000086
583.671186	0.999894
584.024481	1.000011
584.377721	0.999478
584.730906	1.000270
585.084037	1.000427
585.437113	0.999938
585.790135	0.999648
586.143103	0.999582
586.496016	0.999962
586.848874	1.000353
587.201679	1.000100
587.554428	1.000136
587.907124	1.000282
588.259765	1.000844
588.612352	1.000206
588.964884	0.999683
589.317362	0.999868
589.669786	0.999836
590.022155	0.999525
590.374470	0.999972
590.726731	0.999683
591.078937	1.000180
591.431090	1.000063
591.783188	0.999962
592.135232	1.000336
592.487222	0.999451
592.839157	0.999803
593.191038	1.000189
593.542866	1.000282
593.894639	0.999215
594.246358	1.000178
594.598022	1.000206
594.949633	0.999678
595.301190	0.999935
595.652692	0.999062
596.004141	0.999160
596.355535	0.999161
596.706876	0.999527
597.058162	0.999461
597.409395	0.999380
597.760573	0.999610
598.111698	1.000025
598.462768	0.998722
598.813785	0.999073
599.164748	0.999729
599.515657	0.999327
599.866511	1.000535
600.217312	1.000029
600.568060	0.999179
600.918753	1.000039
601.269392	0.999963
601.619978	1.000045
601.970510	0.999781
602.320988	0.999386
602.671412	0.999910
603.021783	1.000062
603.372100	1.000685
603.722363	1.000206
604.072572	0.999646
604.422728	0.999479
604.772830	0.999655
605.122878	0.999659
605.472872	1.000390
605.822813	0.999227
606.172701	1.000159
606.522534	1.000074
606.872314	0.999901
607.222041	0.999237
607.571714	1.000154
607.921333	1.000482
608.270899	0.999340
608.620411	0.999737
608.969870	1.000238
609.319276	0.999827
609.668627	1.000289
610.017926	1.000101
610.367171	0.999846
610.716362	0.999885
611.065500	0.998929
611.414585	0.999685
611.763616	0.999101
612.112594	0.999484
612.461518	0.998887
612.810389	0.999566
613.159207	0.999681
613.507971	0.999054
613.856682	1.000441
614.205340	0.998746
614.553945	0.999713
614.902496	0.999389
615.250994	1.000293
615.599439	1.000485
615.947830	0.999811
616.296169	0.999549
616.644454	0.999476
616.992686	0.999822
617.340864	1.000700
617.688990	0.999981
618.037063	1.000675
618.385082	0.999790
618.733048	0.999881
619.080961	0.999450
619.428821	1.000402
619.776628	0.999221
620.124382	1.000307
620.472083	1.000456
620.819731	1.000762
621.167326	1.000346
621.514868	1.000193
621.862357	0.999913
622.209793	0.999685
622.557176	0.999599
622.904506	0.999608
623.251783	1.000797
623.599007	0.999926
623.946179	0.999843
624.293297	0.999870
624.640363	1.000697
624.987376	0.999637
625.334336	0.999563
625.681243	0.999807
626.028097	0.998972
626.374899	0.999278
626.721647	1.000415
627.068343	0.999939
627.414987	1.000067
627.761577	0.999233
628.108115	0.999685
628.454600	0.999926
628.801032	1.000890
629.147412	0.999997
629.493739	0.999865
629.840014	1.000249
630.186236	0.999770
630.532405	0.999950
630.878521	0.999177
631.224585	1.000207
631.570597	0.999190
631.916556	0.999528
632.262462	0.998485
632.608316	1.000209
632.954117	0.999776
633.299866	0.999996
633.645562	1.000206
633.991206	0.999777
634.336797	0.999295
634.682336	1.000659
635.027823	0.999738
635.373257	0.999989
635.718639	0.999874
636.063968	1.000458
636.409245	0.999265
636.754470	1.000236
637.099642	1.000255
637.444762	0.999269
637.789829	0.999159
638.134845	0.999271
638.479808	0.999232
638.824719	1.000291
639.169577	0.999756
639.514383	1.000191
639.859137	1.000832
640.203839	0.999096
640.548489	0.999107
640.893086	0.999320
641.237632	0.999183
641.582125	0.999817
641.926566	1.000092
642.270955	1.000332
642.615292	0.998821
642.959576	1.000155
643.303809	0.999595
643.647990	0.999726
643.992118	1.000187
644.336195	0.999021
644.680219	0.999539
645.024192	0.999090
645.368112	0.999571
645.711981	0.999455
646.055797	1.000064
646.399562	0.998311
646.743274	1.000473
647.086935	0.999159
647.430544	0.998606
647.774101	0.999425
648.117606	1.000548
648.461059	0.999562
648.804460	1.000193
649.147810	1.000035
649.491108	0.999301
649.834354	0.999130
650.177548	0.999616
650.520690	0.999925
650.863781	0.999603
651.206820	0.999407
651.549807	0.999698
651.892742	1.000128
652.235626	1.000427
652.578458	0.999516
652.921238	1.000238
653.263967	1.000243
653.606644	0.999221
653.949269	1.000144
654.291843	0.999216
654.634365	0.999984
654.976836	0.998948
655.319255	1.001012
655.661622	0.999901
656.003938	0.999446
656.346203	0.999189
656.688416	1.001102
657.030577	0.999844
657.372687	0.999788
657.714746	0.999428
658.056753	0.999267
658.398708	0.998581
658.740612	1.000225
659.082465	0.999477
659.424266	1.000009
659.766016	0.999462
660.107715	0.999274
660.449362	0.999775
660.790958	0.999536
661.132503	0.999684
661.473996	0.998458
661.815438	0.999916
662.156829	0.999215
662.498168	1.000000
662.839456	0.998742
663.180693	1.000307
663.521879	0.999541
663.863013	0.999638
664.204097	0.998889
664.545129	0.999406
664.886110	0.999125
665.227040	0.999209
665.567918	0.999123
665.908746	0.998468
666.249522	0.998791
666.590248	0.998946
666.930922	0.999052
667.271545	0.999397
667.612118	0.999981
667.952639	0.998999
668.293109	0.999910
668.633528	0.998421
668.973896	1.000223
669.314213	0.998925
669.654480	0.999685
669.994695	0.998584
670.334859	0.999997
670.674973	0.999617
671.015035	0.999416
671.355047	0.999475
671.695008	0.999114
672.034918	0.999439
672.374777	0.999313
672.714585	0.999135
673.054342	0.999444
673.394049	0.999079
673.733705	0.999997
674.073310	0.999133
674.412864	0.999869
674.752368	0.998699
675.091820	1.000567
675.431223	0.999859
675.770574	0.998740
676.109875	0.999800
676.449125	0.998706
676.788324	0.998974
677.127473	0.999309
677.466571	0.999332
677.805619	0.999180
678.144616	1.000224
678.483562	0.999218
678.822458	0.999763
679.161303	0.999282
679.500098	0.999062
679.838842	0.999435
680.177535	0.998879
680.516179	0.999304
680.854771	0.998792
681.193314	0.998623
681.531805	0.998110
681.870247	0.999406
682.208638	0.999272
682.546978	0.998650
682.885268	0.998700
683.223508	0.998462
683.561697	0.999547
683.899836	0.999856
684.237925	0.998405
684.575963	0.998546
684.913951	0.999690
685.251889	0.998803
685.589776	0.998993
685.927614	0.999045
686.265401	0.998692
686.603137	0.999213
686.940824	0.998922
687.278460	0.999196
687.616046	0.999311
687.953582	0.999153
688.291068	0.999814
688.628504	0.999500
688.965889	0.997951
689.303224	0.997457
689.640510	0.998837
689.977745	0.998158
690.314930	0.998986
690.652065	0.998677
690.989150	0.998781
691.326185	0.999596
691.663170	0.999263
692.000105	0.998775
692.336990	0.999080
692.673825	0.998542
693.010610	0.999077
693.347345	0.999169
693.684030	0.997820
694.020665	0.998826
694.357251	0.998441
694.693786	0.999409
695.030272	0.998150
695.366707	0.998553
695.703093	0.998058
696.039429	0.998237
696.375716	0.999690
696.711952	0.998656
697.048139	0.999486
697.384276	0.998880
697.720363	0.999127
698.056400	0.997063
698.392388	0.997881
698.728326	0.997892
699.064214	1.000652
699.400053	0.998146
699.735842	0.999930
700.071581	0.998292
700.407270	0.998043
700.742910	0.998635
701.078501	0.997681
701.414042	0.999074
701.749533	0.998244
702.084974	0.999033
702.420366	0.999233
702.755709	0.998589
703.091002	0.998816
703.426246	0.999478
703.761440	0.999026
704.096584	0.997165
704.431679	0.998841
704.766725	0.998516
705.101721	0.999525
705.436668	0.999950
705.771565	0.998445
706.106413	0.996990
706.441212	0.998221
706.775961	0.998518
707.110661	0.998096
707.445311	0.999719
707.779913	0.999225
708.114465	0.999461
708.448967	1.000260
708.783421	0.999339
709.117825	0.998639
709.452180	0.998350
709.786485	0.999071
710.120742	0.998020
710.454949	0.998339
710.789107	0.999900
711.123216	0.998096
711.457275	0.998368
711.791286	0.998164
712.125247	1.000393
712.459159	0.998306
712.793023	0.998866
713.126837	0.999139
713.460602	0.998174
713.794318	0.997838
714.127985	0.998639
714.461602	0.998837
714.795171	0.998263
715.128691	0.998405
715.462162	0.999371
715.795584	0.998709
716.128957	0.999150
716.462281	0.998841
716.795556	0.997554
717.128782	0.997681
717.461960	0.998211
717.795088	0.998587
718.128167	0.999338
718.461198	0.998083
718.794180	0.999608
719.127113	0.998492
719.459997	0.997122
719.792833	0.996952
720.125619	0.997948
720.458357	0.998649
720.791046	0.997796
721.123686	0.997363
721.456278	0.998324
721.788821	0.998347
722.121315	0.999339
722.453761	0.998819
722.786158	0.998319
723.118506	0.998506
723.450805	0.998397
723.783056	0.999251
724.115259	0.998630
724.447412	1.000088
724.779518	0.999110
725.111574	0.998472
725.443582	0.998726
725.775542	0.998856
726.107453	0.999807
726.439315	0.999922
726.771129	0.999116
727.102895	0.998926
727.434612	0.998653
727.766281	0.998613
728.097901	0.998992
728.429473	0.999988
728.760996	0.998485
729.092471	0.998448
729.423897	0.999273
729.755276	0.999418
730.086606	0.998316
730.417887	0.998695
730.749120	0.999057
731.080305	0.998941
731.411442	0.998687
731.742530	0.998223
732.073570	0.998827
732.404562	0.998637
732.735506	0.998802
733.066401	0.998451
733.397249	0.998173
733.728048	0.998215
734.058798	0.998329
734.389501	0.998899
734.720156	0.998612
735.050762	0.999001
735.381320	0.999160
735.711831	0.997543
736.042293	0.998333
736.372707	0.999827
736.703073	0.997767
737.033391	0.998198
737.363661	0.998705
737.693883	0.998676
738.024056	0.998513
738.354182	0.999008
738.684260	0.998966
739.014290	0.999124
739.344272	0.998593
739.674207	0.998870
740.004093	0.998857
740.333931	0.998212
740.663722	0.999180
740.993464	0.998472
741.323159	0.998559
741.652806	0.998310
741.982405	0.998830
742.311956	0.999194
742.641460	0.997714
742.970915	0.997925
743.300323	0.997470
743.629683	0.998771
743.958996	0.998777
744.288260	0.998578
744.617477	0.997470
744.946647	0.999138
745.275768	0.999521
745.604842	0.998542
745.933869	0.999481
746.262847	0.998758
746.591778	0.997655
746.920662	0.999117
747.249498	0.999168
747.578286	0.999709
747.907027	0.999297
748.235720	0.998489
748.564365	0.998458
748.892963	0.998631
749.221514	0.998654
749.550017	0.997749
749.878473	0.999653
750.206881	1.000008
750.535242	0.997616
750.863555	0.998400
751.191821	0.998970
751.520039	0.998269
751.848210	0.996701
752.176334	0.998457
752.504411	0.998694
752.832440	0.998658
753.160421	0.998746
753.488356	0.998545
753.816243	0.997568
754.144082	0.998239
754.471875	0.999010
754.799620	0.998629
755.127318	0.998142
755.454969	0.997948
755.782572	0.999660
756.110129	0.998425
756.437638	1.000516
756.765100	0.998915
757.092515	0.997483
757.419882	0.999197
757.747203	0.998540
758.074477	1.000759
758.401703	0.998352
758.728882	0.998678
759.056014	0.998183
759.383099	0.998440
759.710138	0.998868
760.037129	0.998507
760.364073	0.999059
760.690970	0.998191
761.017820	0.997593
761.344623	0.999456
761.671379	0.999519
761.998088	0.999094
762.324751	0.999443
762.651366	0.998587
762.977935	0.998577
763.304456	0.999530
763.630931	0.997608
763.957359	0.996551
764.283740	0.997664
764.610074	0.998167
764.936362	0.998428
765.262602	0.998996
765.588796	0.999782
765.914943	0.997972
766.241044	0.998019
766.567097	0.998193
766.893104	0.999061
767.219064	0.997471
767.544978	0.998368
767.870845	0.999429
768.196665	0.998867
768.522438	0.999680
768.848165	0.998613
769.173846	0.999534
769.499479	0.998887
769.825066	0.999095
770.150607	1.000661
770.476101	0.999665
770.801548	0.999536
771.126949	0.999986
771.452303	0.997947
771.777611	0.999056
772.102872	0.998015
772.428087	0.997902
772.753256	0.999286
773.078378	0.999224
773.403453	0.998661
773.728482	0.999826
774.053465	0.998901
774.378401	0.999133
774.703291	0.999658
775.028135	0.999815
775.352932	0.997928
775.677683	0.999609
776.002388	0.998703
776.327046	0.998577
776.651658	0.999511
776.976224	0.999430
777.300743	0.998113
777.625216	0.998727
777.949643	0.999907
778.274024	0.998797
778.598359	0.999320
778.922647	0.997779
779.246889	0.999423
779.571086	0.999197
779.895236	0.998745
780.219339	0.999554
780.543397	0.997736
780.867409	0.999241
781.191374	0.998227
781.515294	0.999274
781.839167	0.999233
782.162995	0.999213
782.486776	0.999796
782.810511	0.999890
783.134201	0.999739
783.457844	0.999596
783.781441	0.999213
784.104993	0.998422
784.428498	0.998336
784.751958	0.999787
785.075372	0.999385
785.398739	0.997934
785.722061	0.998122
786.045337	0.999883
786.368568	0.999200
786.691752	0.999728
787.014891	0.999170
787.337983	0.998791
787.661030	0.999128
787.984031	0.999638
788.306987	0.999610
788.629897	0.998318
788.952760	0.998787
789.275579	0.999587
789.598351	0.998765
789.921078	0.999924
790.243759	0.998275
790.566395	0.997785
790.888984	0.999946
791.211529	0.999383
791.534027	0.999786
791.856480	0.998788
792.178888	0.998034
792.501249	0.997970
792.823566	0.999892
793.145836	0.998145
793.468062	0.999319
793.790241	0.999530
794.112375	0.997501
794.434464	0.998767
794.756507	1.000073
795.078505	0.998572
795.400457	1.000173
795.722364	0.999230
796.044226	1.000259
796.366042	0.998922
796.687812	0.997992
797.009538	0.998608
797.331218	1.000018
797.652852	0.999416
797.974442	0.998529
798.295986	0.999734
798.617484	0.998783
798.938938	0.999625
799.260346	0.998842
799.581709	0.999167
799.903026	0.999562
800.224299	0.999262
800.545526	0.997803
800.866708	0.998270
801.187845	0.999471
801.508936	0.998810
801.829983	0.999029
802.150984	0.999675
802.471940	0.998973
802.792851	0.998192
803.113717	1.000535
803.434538	0.999173
803.755314	0.999762
804.076045	0.999078
804.396731	0.998983
804.717372	0.997980
805.037967	1.000920
805.358518	0.999679
805.679024	0.998976
805.999485	1.000229
806.319901	0.998977
806.640272	0.999847
806.960598	0.998508
807.280879	0.999251
807.601115	0.999148
807.921306	0.999247
808.241453	0.999127
808.561554	0.999901
808.881611	0.998678
809.201623	0.998271
809.521590	0.998684
809.841513	1.000150
810.161390	0.998930
810.481223	0.998174
810.801011	0.999911
811.120755	1.000825
811.440453	0.997815
811.760107	0.999676
812.079716	0.999045
812.399281	0.998965
812.718801	0.999243
813.038276	0.999996
813.357707	0.999553
813.677093	1.000759
813.996434	0.999277
814.315731	1.000440
814.634983	0.998832
814.954191	0.999460
815.273354	0.998140
815.592473	0.998302
815.911547	0.999763
816.230577	0.998766
816.549562	1.000385
816.868502	0.998634
817.187399	1.000469
817.506250	0.999377
817.825058	0.998537
818.143821	0.998628
818.462539	0.998958
818.781213	0.998560
819.099843	0.999027
819.418429	0.998659
819.736970	0.999036
820.055466	0.998771
820.373919	0.998283
820.692327	0.996959
821.010691	0.998501
821.329011	0.996715
821.647286	0.996525
821.965517	0.996850
822.283704	0.995811
822.601847	0.995741
822.919945	0.995324
823.237999	0.995862
823.556010	0.996219
823.873976	0.996092
824.191897	0.996599
824.509775	0.997436
824.827609	0.997516
825.145398	0.998290
825.463144	0.996033
825.780845	0.996902
826.098502	0.997539
826.416116	0.997850
826.733685	0.998152
827.051210	0.996540
827.368692	0.996193
827.686129	0.996804
828.003522	0.999305
828.320872	0.998166
828.638177	0.998338
828.955439	0.998492
829.272656	0.998762
829.589830	0.997618
829.906960	0.999538
830.224046	0.998590
830.541088	0.999536
830.858086	0.998930
831.175041	0.999500
831.491952	0.998582
831.808819	0.998671
832.125642	0.998876
832.442421	0.999720
832.759157	1.000710
833.075849	0.997818
833.392497	0.999125
833.709101	0.998144
834.025662	0.999036
834.342179	0.998640
834.658653	0.999234
834.975083	0.999496
835.291469	0.999462
835.607811	0.999330
835.924110	0.999340
836.240366	1.000888
836.556578	0.999709
836.872746	0.999708
837.188871	0.999362
837.504952	0.999410
837.820990	0.999207
838.136984	0.998593
838.452935	0.999311
838.768842	0.998616
839.084706	0.999045
839.400526	1.000153
839.716303	0.999198
840.032037	1.000438
840.347727	0.999156
840.663373	0.999559
840.978977	0.998713
841.294537	0.999089
841.610054	0.999416
841.925527	0.999812
842.240957	1.000366
842.556344	0.999252
842.871687	0.998536
843.186987	0.999258
843.502244	0.998988
843.817458	0.998515
844.132629	0.999755
844.447756	0.998775
844.762840	0.999186
845.077881	1.000884
845.392879	0.998736
845.707833	0.997958
846.022745	0.999460
846.337613	0.999838
846.652438	0.999864
846.967221	0.999519
847.281960	0.998640
847.596656	1.000523
847.911309	0.998957
848.225919	0.998463
848.540485	0.999388
848.855009	1.001840
849.169490	1.000286
849.483928	0.999183
849.798323	0.998085
850.112675	0.999471
850.426984	0.999203
850.741251	1.000160
851.055474	0.999158
851.369654	1.000171
851.683792	0.999593
851.997887	0.999295
852.311938	0.999533
852.625947	0.998033
852.939914	0.998554
853.253837	1.000967
853.567718	1.000040
853.881555	0.999536
854.195350	0.999652
854.509103	1.000052
854.822812	1.000415
855.136479	0.999165
855.450103	0.999133
855.763685	0.999531
856.077224	0.999742
856.390720	0.998993
856.704173	0.999733
857.017584	0.999928
857.330953	0.999473
857.644278	0.999730
857.957561	0.999539
858.270802	0.999600
858.584000	0.998699
858.897155	0.999185
859.210268	0.999462
859.523339	0.999901
859.836367	0.999309
860.149352	0.998905
860.462295	1.000122
860.775195	0.999272
861.088054	0.998420
861.400869	0.999535
861.713642	0.998055
862.026373	1.000021
862.339062	0.999986
862.651708	1.000161
862.964312	1.000186
863.276873	0.998957
863.589392	0.999707
863.901869	0.998889
864.214303	1.000137
864.526696	0.999782
864.839045	0.999778
865.151353	0.999477
865.463619	0.999172
865.775842	0.999802
866.088023	0.999898
866.400162	0.999126
866.712258	0.999849
867.024313	0.999521
867.336325	0.999447
867.648296	1.000232
867.960224	1.000133
868.272110	0.999853
868.583954	0.999598
868.895755	1.000117
869.207515	0.998776
869.519233	1.000130
869.830909	0.998509
870.142542	0.999475
870.454134	0.999211
870.765684	0.999332
871.077191	1.000062
871.388657	1.000425
871.700081	1.000003
872.011463	1.000887
872.322803	1.000040
872.634101	0.998563
872.945357	0.998379
873.256571	0.998808
873.567744	1.000065
873.878874	0.999968
874.189963	0.999485
874.501010	1.001470
874.812015	0.999125
875.122979	1.000074
875.433900	1.000367
875.744780	1.001095
876.055618	0.998976
876.366415	0.998216
876.677169	0.998955
876.987882	1.000260
877.298554	1.000249
877.609183	0.999637
877.919771	1.000064
878.230317	1.000085
878.540822	0.998801
878.851285	0.999893
879.161707	0.998479
879.472087	1.001521
879.782425	0.999534
880.092722	0.998712
880.402977	0.998396
880.713191	0.997640
881.023363	0.997881
881.333494	0.996820
881.643583	0.997760
881.953631	0.997171
882.263637	0.997948
882.573602	0.997338
882.883526	0.997808
883.193408	0.998330
883.503248	0.997144
883.813048	0.997189
884.122806	0.999039
884.432522	0.998378
884.742197	0.999313
885.051831	0.999157
885.361424	0.998705
885.670975	1.000317
885.980485	0.998526
886.289954	0.999185
886.599382	0.997996
886.908768	0.999511
887.218113	0.999451
887.527417	0.998758
887.836680	1.000389
888.145901	0.999026
888.455082	1.000947
888.764221	0.999924
889.073319	0.999453
889.382376	1.000686
889.691392	0.998128
890.000366	0.999891
890.309300	0.999900
890.618193	0.999730
890.927044	0.999130
891.235855	0.999289
891.544625	0.999097
891.853353	0.998566
892.162041	0.999577
892.470687	1.000706
892.779293	0.998913
893.087858	0.998134
893.396381	0.999224
893.704864	0.998232
894.013306	0.998832
894.321707	0.998580
894.630068	0.998738
894.938387	0.998774
895.246665	0.998474
895.554903	0.997474
895.863100	0.999587
896.171256	0.998236
896.479371	0.999043
896.787446	0.998980
897.095480	0.998239
897.403473	0.999166
897.711425	0.999949
898.019336	0.999111
898.327207	1.000502
898.635038	0.999377
898.942827	1.000086
899.250576	0.999163
899.558284	1.000279
899.865952	0.997976
900.173579	0.999000
900.481165	0.999194
900.788711	0.999163
901.096216	0.999355
901.403681	0.998940
901.711105	0.999000
902.018489	0.999644
902.325832	0.998295
902.633135	0.999528
902.940397	1.000495
903.247619	0.999438
903.554800	0.999021
903.861941	1.000078
904.169041	0.999067
904.476101	0.999022
904.783121	0.999149
905.090100	0.999807
905.397039	0.999006
905.703938	0.998303
906.010796	0.998911
906.317614	0.999164
906.624391	0.999082
906.931129	1.000164
907.237826	0.999844
907.544483	0.999850
907.851099	0.999923
908.157675	0.999959
908.464211	0.999917
908.770707	0.998778
909.077163	1.000758
909.383578	1.000243
909.689954	0.999385
909.996289	0.999471
910.302584	0.999702
910.608839	1.001571
910.915054	0.999205
911.221229	1.000171
911.527363	0.997654
911.833458	0.999662
912.139513	0.998607
912.445527	1.000335
912.751502	0.999342
913.057436	0.999747
913.363331	0.999783
913.669186	0.999563
913.975000	1.000524
914.280775	0.999706
914.586510	0.999242
914.892205	0.999545
915.197859	0.999295
915.503475	0.999291
915.809050	0.998462
916.114585	0.998084
916.420081	0.998527
916.725536	0.998891
917.030952	0.998646
917.336328	0.998650
917.641665	0.996935
917.946961	0.999633
918.252218	0.999036
918.557435	0.998575
918.862612	0.999241
919.167750	1.000127
919.472848	0.999962
919.777906	1.001019
920.082925	1.000661
920.387904	0.999116
920.692843	0.998823
920.997743	0.998791
921.302603	0.999955
921.607423	0.999196
921.912204	0.999792
922.216946	0.999661
922.521647	0.999094
922.826310	0.999745
923.130932	0.999715
923.435516	0.999477
923.740059	0.998293
924.044564	0.999123
924.349028	0.999717
924.653454	1.000155
924.957840	0.999869
925.262186	0.999903
925.566493	0.998423
925.870761	0.998592
926.174989	0.998966
926.479178	0.998930
926.783328	0.998914
927.087438	0.999067
927.391509	0.998540
927.695541	0.999928
927.999533	1.000437
928.303486	0.999803
928.607400	0.999004
928.911275	0.999038
929.215110	1.000322
929.518906	1.000251
929.822663	1.001734
930.126381	1.000864
930.430060	1.000457
930.733699	0.999983
931.037299	1.000952
931.340861	0.998785
931.644383	0.998283
931.947866	1.000591
932.251309	0.999859
932.554714	0.999016
932.858080	1.000005
933.161407	0.999065
933.464694	0.999903
933.767943	0.999928
934.071153	1.000688
934.374323	1.000319
934.677455	0.999431
934.980548	0.998696
935.283602	1.000686
935.586617	0.999452
935.889593	1.000538
936.192530	1.001022
936.495428	0.999570
936.798287	0.998774
937.101108	1.000490
937.403890	0.997893
937.706632	0.999118
938.009336	0.999457
938.312002	0.998560
938.614628	1.000323
938.917216	0.999702
939.219765	0.999693
939.522275	1.000041
939.824747	0.999699
940.127179	0.999886
940.429573	1.000774
940.731929	0.999757
941.034246	0.998892
941.336524	1.000145
941.638763	0.999337
941.940964	0.998265
942.243126	0.999456
942.545250	1.000444
942.847335	0.999535
943.149381	1.001086
943.451389	0.999210
943.753359	0.999700
944.055290	1.000803
944.357182	0.999735
944.659036	0.999955
944.960851	1.000435
945.262628	1.000878
945.564367	0.999862
945.866067	0.998970
946.167729	1.000960
946.469352	0.998987
946.770937	0.997928
947.072484	0.999611
947.373992	0.999742
947.675462	0.999678
947.976893	0.999355
948.278286	1.001812
948.579641	1.000815
948.880958	0.999862
949.182236	1.000437
949.483476	1.000825
949.784678	1.000489
950.085841	1.000261
950.386967	0.999278
950.688054	1.000362
950.989103	0.998482
951.290114	0.997865
951.591087	1.000906
951.892021	0.999511
952.192917	1.000230
952.493776	0.999687
952.794596	0.998589
953.095378	0.999238
953.396122	0.999486
953.696828	0.999319
953.997496	1.000789
954.298126	1.000861
954.598718	0.999460
954.899272	1.000361
955.199788	0.998998
955.500266	1.000648
955.800706	0.998917
956.101108	1.000612
956.401472	1.001109
956.701798	0.999504
957.002087	0.999432
957.302337	0.999402
957.602550	1.000442
957.902724	0.999347
958.202861	0.999673
958.502960	0.998461
958.803022	0.999936
959.103045	1.000009
959.403031	1.000203
959.702979	1.000702
960.002889	0.999237
960.302762	0.999579
960.602596	0.999585
960.902393	0.999565
961.202153	1.000502
961.501875	1.000233
961.801559	0.999713
962.101205	0.999381
962.400814	1.000764
962.700385	1.000133
962.999918	1.000795
963.299414	0.998976
963.598873	0.999653
963.898293	0.999749
964.197677	0.999225
964.497022	0.999239
964.796331	0.999140
965.095601	1.000293
965.394835	1.000252
965.694030	1.000781
965.993189	0.999853
966.292309	1.000517
966.591393	0.998896
966.890439	1.001001
967.189447	0.998752
967.488419	1.000122
967.787353	0.999533
968.086249	0.999401
968.385108	0.998440
968.683930	1.000762
968.982714	0.999831
969.281462	0.999574
969.580172	0.999985
969.878844	1.001514
970.177480	0.998737
970.476078	1.001215
970.774639	1.000788
971.073162	0.998420
971.371649	0.999691
971.670098	0.999121
971.968510	1.000573
972.266885	0.998796
972.565223	0.999455
972.863524	0.998881
973.161788	0.999507
973.460014	1.000554
973.758204	0.998848
974.056356	0.999677
974.354471	0.998820
974.652550	1.000586
974.950591	0.998406
975.248595	0.998414
975.546563	1.000754
975.844493	1.000447
976.142386	1.000017
976.440243	1.001092
976.738062	0.999082
977.035845	0.999379
977.333590	1.000147
977.631299	0.999221
977.928971	0.999981
978.226606	1.000597
978.524204	0.999733
978.821765	1.000815
979.119290	1.000055
979.416777	0.999465
979.714228	0.999893
980.011642	1.001122
980.309020	0.999346
980.606360	1.000169
980.903664	1.000272
981.200931	0.999227
981.498162	0.999419
981.795356	1.000051
982.092513	0.999309
982.389633	0.999992
982.686717	0.999331
982.983764	0.999690
983.280775	1.000608
983.577749	1.000243
983.874686	0.999630
984.171587	0.999496
984.468451	0.998838
984.765279	1.000951
985.062070	0.998995
985.358824	0.998975
985.655543	1.000127
985.952224	0.999755
986.248869	0.999833
986.545478	1.000800
986.842050	0.999625
987.138586	1.000103
987.435086	0.998925
987.731549	1.000858
988.027975	0.999818
988.324366	0.999661
988.620719	1.000848
988.917037	0.998819
989.213318	1.000420
989.509563	1.000530
989.805772	1.000243
990.101944	0.999939
990.398080	0.998614
990.694180	1.000711
990.990244	0.999139
991.286271	0.999642
991.582262	0.999234
991.878217	0.999414
992.174136	1.000344
992.470019	1.000016
992.765865	1.000055
993.061676	0.999428
993.357450	0.999733
993.653188	1.001538
993.948890	0.998501
994.244556	1.000083
994.540186	0.999737
994.835780	0.999639
995.131337	1.000961
995.426859	1.000000
995.722345	0.999830
996.017795	0.999399
996.313208	0.998277
996.608586	0.999445
996.903928	1.000320
997.199234	0.998659
997.494504	1.000361
997.789738	0.999469
998.084936	1.000619
998.380099	0.998439
998.675225	1.000142
998.970316	0.999607
999.265371	0.997985
999.560390	1.000219
999.855373	0.999722
1000.150320	0.999466
1000.445232	0.999719
1000.740108	1.000126
1001.034948	0.999446
1001.329752	1.001672
1001.624521	0.999472
1001.919254	0.999989
1002.213951	0.999914
1002.508613	0.998955
1002.803239	1.000553
1003.097829	1.000513
1003.392384	0.999360
1003.686903	0.999997
1003.981386	1.000269
1004.275834	1.000551
1004.570246	0.998199
1004.864623	1.000769
1005.158964	1.000355
1005.453270	0.999092
1005.747540	0.999410
1006.041775	1.000473
1006.335974	1.000417
1006.630138	0.999668
1006.924266	0.998454
1007.218359	0.999237
1007.512416	1.000407
1007.806438	1.000036
1008.100425	0.999361
1008.394376	1.000385
1008.688292	0.999220
1008.982172	1.000253
1009.276017	1.001038
1009.569827	0.999755
1009.863602	0.999210
1010.157341	1.000983
1010.451045	0.999781
1010.744714	1.000850
1011.038347	1.000903
1011.331945	0.999086
1011.625508	0.999521
1011.919036	0.998666
1012.212528	1.000649
1012.505986	0.999340
1012.799408	1.000109
1013.092795	1.000235
1013.386147	0.998981
1013.679464	1.000746
1013.972745	0.999358
1014.265992	0.999669
1014.559204	0.999788
1014.852380	1.000082
1015.145521	0.998922
1015.438628	1.000351
1015.731699	0.999576
1016.024736	0.999990
1016.317737	0.998994
1016.610703	0.999942
1016.903635	1.000267
1017.196531	0.999874
1017.489393	0.999615
1017.782219	0.999398
1018.075011	1.000131
1018.367768	0.999264
1018.660490	1.000545
1018.953177	1.000545
1019.245829	1.000545
