Dividing Wavelength (nm)	Counts (n)	Blue Motor Position (mm): 34.200000	Red Motor Position (mm): 0.000000	
326.493990	0.999131
326.888308	0.999131
327.282561	0.999131
327.676750	1.001605
328.070874	1.001598
328.464933	1.000826
328.858929	1.002116
329.252859	1.002167
329.646726	1.000464
330.040528	1.000907
330.434265	0.999650
330.827938	1.000014
331.221547	1.000663
331.615091	1.000867
332.008571	1.002173
332.401986	0.999065
332.795338	1.000485
333.188625	1.001835
333.581847	1.000613
333.975006	1.001142
334.368100	1.001424
334.761129	0.999098
335.154095	1.000812
335.546996	1.001322
335.939833	1.000163
336.332606	1.000099
336.725315	0.999913
337.117960	1.000429
337.510540	1.000038
337.903056	1.000412
338.295508	1.001986
338.687896	1.000798
339.080220	0.999925
339.472480	1.000391
339.864676	1.001365
340.256807	0.999164
340.648875	1.001033
341.040879	1.000378
341.432818	1.000378
341.824694	0.999760
342.216506	0.999852
342.608253	1.000833
342.999937	0.999379
343.391557	0.999481
343.783113	1.001103
344.174605	0.999736
344.566033	0.998401
344.957397	1.000831
345.348697	1.000825
345.739934	0.999814
346.131106	1.000191
346.522215	1.000365
346.913260	0.999641
347.304241	0.999526
347.695159	1.001352
348.086012	0.999383
348.476802	1.000621
348.867528	0.999195
349.258191	1.000191
349.648789	0.998983
350.039324	1.000040
350.429796	0.999488
350.820203	0.998628
351.210548	1.000221
351.600828	0.999378
351.991045	0.997749
352.381198	1.001077
352.771288	0.998863
353.161314	0.999687
353.551276	0.998418
353.941175	0.997675
354.331010	0.999571
354.720782	0.999791
355.110490	1.000222
355.500135	0.999746
355.889717	0.998617
356.279235	0.998958
356.668689	0.998746
357.058080	0.999321
357.447408	0.999285
357.836672	0.999634
358.225873	1.000207
358.615010	0.997895
359.004084	0.999419
359.393095	0.998743
359.782043	0.998675
360.170927	0.997968
360.559748	0.999360
360.948505	0.999043
361.337199	0.999256
361.725830	0.998947
362.114398	0.999437
362.502903	0.997787
362.891344	0.997018
363.279722	0.997600
363.668037	0.998043
364.056289	0.998144
364.444478	0.998974
364.832603	0.997638
365.220665	0.999084
365.608665	0.998551
365.996601	0.998840
366.384474	0.996793
366.772284	0.997326
367.160031	0.996628
367.547715	0.996309
367.935336	0.995865
368.322893	0.994778
368.710388	0.994322
369.097820	0.991050
369.485189	0.988958
369.872495	0.988679
370.259738	0.986865
370.646918	0.983536
371.034035	0.980536
371.421090	0.978902
371.808081	0.972537
372.195010	0.971463
372.581875	0.965016
372.968678	0.960616
373.355418	0.957904
373.742096	0.950165
374.128710	0.945196
374.515262	0.940276
374.901751	0.935075
375.288177	0.930400
375.674540	0.924121
376.060841	0.917625
376.447079	0.910263
376.833254	0.903576
377.219367	0.898928
377.605417	0.887415
377.991404	0.884520
378.377329	0.878079
378.763191	0.872548
379.148991	0.862329
379.534727	0.855099
379.920402	0.846778
380.306013	0.842506
380.691563	0.830739
381.077049	0.822781
381.462474	0.820483
381.847835	0.808339
382.233134	0.804300
382.618371	0.804477
383.003545	0.786819
383.388657	0.785064
383.773706	0.776592
384.158693	0.773207
384.543618	0.768318
384.928480	0.758665
385.313280	0.749999
385.698017	0.748432
386.082692	0.737293
386.467305	0.735417
386.851856	0.729860
387.236344	0.724628
387.620770	0.719034
388.005133	0.713454
388.389435	0.707316
388.773674	0.706062
389.157851	0.696778
389.541965	0.695186
389.926018	0.701870
390.310008	0.688541
390.693936	0.684988
391.077802	0.677177
391.461606	0.678518
391.845348	0.668386
392.229027	0.667338
392.612645	0.665571
392.996200	0.652735
393.379694	0.645622
393.763125	0.636459
394.146494	0.641550
394.529801	0.631543
394.913047	0.623486
395.296230	0.629400
395.679351	0.620800
396.062410	0.618064
396.445408	0.620861
396.828343	0.615248
397.211217	0.611078
397.594028	0.623431
397.976778	0.613326
398.359466	0.610101
398.742092	0.605225
399.124656	0.617652
399.507158	0.605492
399.889598	0.602385
400.271977	0.593930
400.654294	0.598232
401.036549	0.597314
401.418742	0.601631
401.800874	0.587287
402.182944	0.584696
402.564952	0.575701
402.946898	0.577952
403.328783	0.579445
403.710606	0.589834
404.092367	0.565443
404.474067	0.570711
404.855705	0.569656
405.237282	0.578896
405.618797	0.564905
406.000250	0.561167
406.381642	0.552600
406.762972	0.557652
407.144240	0.557173
407.525447	0.558136
407.906593	0.552103
408.287677	0.549297
408.668700	0.558548
409.049661	0.554021
409.430560	0.550630
409.811399	0.561344
410.192176	0.546098
410.572891	0.555863
410.953545	0.546387
411.334138	0.562139
411.714669	0.557552
412.095139	0.572070
412.475547	0.560678
412.855894	0.566014
413.236180	0.568488
413.616405	0.576695
413.996568	0.572365
414.376670	0.582096
414.756711	0.591129
415.136691	0.592203
415.516609	0.589589
415.896466	0.591997
416.276262	0.593623
416.655997	0.600929
417.035670	0.591585
417.415283	0.590648
417.794834	0.600807
418.174324	0.610758
418.553753	0.624647
418.933121	0.617467
419.312428	0.620232
419.691674	0.632253
420.070859	0.630875
420.449983	0.644573
420.829045	0.644452
421.208047	0.658653
421.586988	0.662830
421.965867	0.669741
422.344686	0.672736
422.723444	0.687545
423.102141	0.706702
423.480777	0.698334
423.859352	0.720066
424.237866	0.716490
424.616319	0.725837
424.994712	0.729491
425.373044	0.743726
425.751314	0.746843
426.129524	0.764499
426.507673	0.765583
426.885762	0.770090
427.263789	0.782904
427.641756	0.794329
428.019662	0.799469
428.397508	0.807798
428.775292	0.818676
429.153016	0.823307
429.530679	0.833612
429.908282	0.839875
430.285824	0.850030
430.663305	0.852111
431.040726	0.865196
431.418086	0.872191
431.795385	0.876689
432.172624	0.884577
432.549802	0.889933
432.926920	0.896349
433.303977	0.902651
433.680974	0.907446
434.057910	0.913939
434.434786	0.918623
434.811601	0.924345
435.188355	0.927197
435.565050	0.933560
435.941683	0.937509
436.318257	0.939733
436.694770	0.944435
437.071222	0.949598
437.447614	0.953837
437.823946	0.957331
438.200218	0.960241
438.576429	0.963758
438.952580	0.967094
439.328670	0.968106
439.704700	0.971215
440.080670	0.974612
440.456580	0.976353
440.832429	0.978835
441.208218	0.981388
441.583947	0.982072
441.959616	0.982728
442.335224	0.985737
442.710773	0.987186
443.086261	0.989240
443.461689	0.988262
443.837057	0.989726
444.212365	0.991530
444.587612	0.992202
444.962800	0.992155
445.337927	0.993134
445.712995	0.994157
446.088002	0.993203
446.462949	0.994647
446.837837	0.995971
447.212664	0.994655
447.587431	0.995497
447.962139	0.995955
448.336786	0.995243
448.711374	0.994920
449.085901	0.996216
449.460369	0.996602
449.834776	0.996097
450.209124	0.996610
450.583412	0.996862
450.957640	0.997276
451.331808	0.997418
451.705917	0.997208
452.079965	0.997460
452.453954	0.997260
452.827883	0.997958
453.201752	0.997764
453.575562	0.997762
453.949311	0.998562
454.323001	0.998249
454.696632	0.998376
455.070202	0.997993
455.443713	0.997637
455.817164	0.998062
456.190556	0.997237
456.563888	0.998913
456.937160	0.998320
457.310373	0.997461
457.683526	0.997784
458.056619	0.998144
458.429653	0.997715
458.802628	0.998338
459.175542	0.998292
459.548398	0.998041
459.921194	0.998934
460.293930	0.998669
460.666607	0.998880
461.039224	0.998449
461.411782	0.997921
461.784280	0.998332
462.156719	0.998361
462.529099	0.998363
462.901419	0.998045
463.273680	0.997568
463.645882	0.997680
464.018024	0.999064
464.390106	0.998184
464.762130	0.999115
465.134094	0.998337
465.505999	0.998241
465.877845	0.998113
466.249631	0.997089
466.621358	0.996787
466.993026	0.997699
467.364634	0.997327
467.736184	0.997413
468.107674	0.996992
468.479105	0.997183
468.850477	0.998427
469.221790	0.998175
469.593043	0.997551
469.964238	0.997071
470.335373	0.997076
470.706449	0.997594
471.077467	0.997744
471.448425	0.997856
471.819324	0.997762
472.190164	0.996846
472.560945	0.997486
472.931667	0.997833
473.302330	0.996888
473.672934	0.997878
474.043479	0.997962
474.413965	0.997581
474.784393	0.997092
475.154761	0.997249
475.525070	0.997563
475.895321	0.997903
476.265513	0.997660
476.635645	0.997811
477.005719	0.997583
477.375734	0.996786
477.745691	0.997142
478.115588	0.997275
478.485427	0.997406
478.855207	0.997487
479.224928	0.997164
479.594591	0.997324
479.964194	0.997062
480.333739	0.996832
480.703226	0.996863
481.072653	0.997093
481.442022	0.997541
481.811333	0.997224
482.180584	0.997145
482.549777	0.997069
482.918912	0.996928
483.287988	0.996761
483.657005	0.997356
484.025964	0.997618
484.394864	0.996639
484.763706	0.996832
485.132489	0.997480
485.501213	0.997236
485.869879	0.996517
486.238487	0.996956
486.607036	0.997539
486.975527	0.997632
487.343959	0.996648
487.712333	0.997383
488.080648	0.997112
488.448905	0.997522
488.817104	0.997462
489.185244	0.996841
489.553326	0.997517
489.921350	0.997400
490.289315	0.997044
490.657222	0.996581
491.025070	0.997917
491.392861	0.997117
491.760593	0.997656
492.128267	0.997443
492.495883	0.996891
492.863440	0.997246
493.230939	0.997542
493.598380	0.997993
493.965763	0.997377
494.333088	0.996781
494.700354	0.997306
495.067563	0.996921
495.434713	0.997856
495.801805	0.997507
496.168839	0.998393
496.535815	0.997667
496.902733	0.997327
497.269593	0.996943
497.636395	0.996441
498.003139	0.996844
498.369825	0.997772
498.736453	0.997520
499.103023	0.997410
499.469535	0.997562
499.835989	0.998015
500.202385	0.997171
500.568723	0.997517
500.935003	0.997589
501.301226	0.997415
501.667390	0.997013
502.033497	0.997606
502.399546	0.997348
502.765537	0.996990
503.131470	0.997890
503.497345	0.997143
503.863163	0.996919
504.228923	0.997213
504.594625	0.996999
504.960269	0.997650
505.325856	0.997548
505.691385	0.997398
506.056856	0.997861
506.422270	0.997875
506.787625	0.998043
507.152924	0.997540
507.518164	0.997785
507.883347	0.997110
508.248472	0.997359
508.613540	0.996775
508.978550	0.997338
509.343503	0.997408
509.708398	0.997917
510.073236	0.997008
510.438016	0.997083
510.802738	0.995809
511.167403	0.997065
511.532010	0.998041
511.896561	0.997651
512.261053	0.996806
512.625488	0.997579
512.989866	0.997150
513.354186	0.997042
513.718449	0.997433
514.082655	0.996546
514.446803	0.997318
514.810894	0.998410
515.174927	0.996731
515.538904	0.997870
515.902822	0.997481
516.266684	0.997593
516.630488	0.997209
516.994235	0.997004
517.357925	0.997690
517.721558	0.997243
518.085133	0.996918
518.448651	0.997804
518.812112	0.997897
519.175516	0.997205
519.538863	0.996985
519.902152	0.997876
520.265385	0.997571
520.628560	0.997062
520.991678	0.997282
521.354739	0.997830
521.717743	0.996953
522.080690	0.996540
522.443580	0.996952
522.806413	0.997245
523.169189	0.997517
523.531908	0.996904
523.894569	0.997661
524.257174	0.996578
524.619722	0.997384
524.982213	0.997334
525.344647	0.997063
525.707025	0.996598
526.069345	0.997152
526.431608	0.997249
526.793815	0.997164
527.155964	0.997114
527.518057	0.997353
527.880093	0.997231
528.242072	0.996973
528.603995	0.997085
528.965860	0.997670
529.327669	0.997767
529.689421	0.996965
530.051117	0.998032
530.412755	0.997462
530.774337	0.997425
531.135862	0.997751
531.497331	0.997566
531.858743	0.997248
532.220098	0.996756
532.581396	0.998096
532.942638	0.997519
533.303824	0.997827
533.664953	0.997038
534.026025	0.998021
534.387040	0.997085
534.747999	0.996850
535.108902	0.997172
535.469748	0.997711
535.830537	0.997730
536.191270	0.997533
536.551947	0.996931
536.912567	0.997528
537.273131	0.997982
537.633638	0.997176
537.994089	0.997567
538.354483	0.997832
538.714821	0.997382
539.075103	0.997430
539.435328	0.997639
539.795497	0.997867
540.155609	0.997386
540.515665	0.997699
540.875665	0.997198
541.235609	0.996964
541.595496	0.996738
541.955328	0.997331
542.315102	0.997507
542.674821	0.998251
543.034483	0.997669
543.394090	0.996667
543.753640	0.998095
544.113134	0.996775
544.472571	0.997600
544.831953	0.997413
545.191278	0.997694
545.550548	0.997508
545.909761	0.997026
546.268918	0.998863
546.628019	0.997852
546.987064	0.997399
547.346053	0.997690
547.704986	0.997026
548.063863	0.997315
548.422684	0.997591
548.781449	0.997432
549.140158	0.997826
549.498811	0.997162
549.857408	0.997200
550.215949	0.996884
550.574434	0.996646
550.932864	0.997823
551.291237	0.997060
551.649555	0.997719
552.007817	0.997339
552.366022	0.997545
552.724173	0.998111
553.082267	0.997594
553.440305	0.997036
553.798288	0.996854
554.156215	0.997424
554.514086	0.997596
554.871902	0.997022
555.229661	0.996656
555.587365	0.997399
555.945014	0.998017
556.302606	0.997134
556.660143	0.998271
557.017625	0.998766
557.375050	0.997322
557.732421	0.997569
558.089735	0.997023
558.446994	0.997207
558.804197	0.997525
559.161345	0.997407
559.518437	0.997725
559.875474	0.997684
560.232455	0.997638
560.589381	0.997929
560.946251	0.997506
561.303065	0.997686
561.659825	0.997639
562.016528	0.997920
562.373177	0.997557
562.729770	0.997008
563.086307	0.996770
563.442789	0.997984
563.799216	0.996675
564.155587	0.997243
564.511904	0.997685
564.868164	0.996845
565.224370	0.997088
565.580520	0.997378
565.936615	0.997638
566.292654	0.997411
566.648638	0.998024
567.004567	0.996917
567.360441	0.998255
567.716260	0.997473
568.072023	0.997393
568.427732	0.997899
568.783385	0.997556
569.138982	0.997925
569.494525	0.997278
569.850013	0.998101
570.205445	0.998407
570.560823	0.996987
570.916145	0.997146
571.271412	0.998146
571.626625	0.997241
571.981782	0.997250
572.336884	0.997664
572.691931	0.997412
573.046923	0.997512
573.401860	0.997296
573.756743	0.997787
574.111570	0.998021
574.466342	0.998569
574.821059	0.997278
575.175722	0.998168
575.530330	0.997762
575.884882	0.997632
576.239380	0.998074
576.593823	0.997675
576.948211	0.998480
577.302544	0.997567
577.656823	0.997463
578.011047	0.996935
578.365216	0.998237
578.719330	0.997750
579.073389	0.996874
579.427394	0.997703
579.781344	0.998170
580.135239	0.996353
580.489080	0.997961
580.842866	0.997757
581.196597	0.997487
581.550273	0.996714
581.903895	0.998155
582.257463	0.996864
582.610975	0.997019
582.964434	0.997996
583.317837	0.997986
583.671186	0.997874
584.024481	0.997777
584.377721	0.997468
584.730906	0.997641
585.084037	0.998512
585.437113	0.998431
585.790135	0.998160
586.143103	0.997985
586.496016	0.997368
586.848874	0.997679
587.201679	0.997295
587.554428	0.997309
587.907124	0.997860
588.259765	0.998561
588.612352	0.997990
588.964884	0.998312
589.317362	0.998082
589.669786	0.998121
590.022155	0.998181
590.374470	0.998116
590.726731	0.997271
591.078937	0.998362
591.431090	0.998064
591.783188	0.997098
592.135232	0.998405
592.487222	0.997685
592.839157	0.997757
593.191038	0.998231
593.542866	0.997444
593.894639	0.997060
594.246358	0.998134
594.598022	0.998287
594.949633	0.998187
595.301190	0.997546
595.652692	0.997492
596.004141	0.997220
596.355535	0.997809
596.706876	0.997779
597.058162	0.998231
597.409395	0.997913
597.760573	0.997583
598.111698	0.997737
598.462768	0.997148
598.813785	0.996903
599.164748	0.997631
599.515657	0.997288
599.866511	0.998403
600.217312	0.998893
600.568060	0.997674
600.918753	0.997866
601.269392	0.998093
601.619978	0.997875
601.970510	0.997297
602.320988	0.998107
602.671412	0.997533
603.021783	0.997878
603.372100	0.998525
603.722363	0.998434
604.072572	0.997978
604.422728	0.997233
604.772830	0.996658
605.122878	0.998449
605.472872	0.998483
605.822813	0.997572
606.172701	0.997598
606.522534	0.998134
606.872314	0.998465
607.222041	0.997681
607.571714	0.997828
607.921333	0.997894
608.270899	0.997580
608.620411	0.997995
608.969870	0.998908
609.319276	0.998194
609.668627	0.998717
610.017926	0.998282
610.367171	0.998659
610.716362	0.998775
611.065500	0.997773
611.414585	0.998394
611.763616	0.997610
612.112594	0.997567
612.461518	0.997635
612.810389	0.998435
613.159207	0.998365
613.507971	0.997917
613.856682	0.998721
614.205340	0.997196
614.553945	0.998304
614.902496	0.997775
615.250994	0.998395
615.599439	0.998688
615.947830	0.997553
616.296169	0.998175
616.644454	0.998381
616.992686	0.998030
617.340864	0.998684
617.688990	0.997583
618.037063	0.997719
618.385082	0.997849
618.733048	0.997515
619.080961	0.998051
619.428821	0.998162
619.776628	0.997749
620.124382	0.998956
620.472083	0.998344
620.819731	0.998932
621.167326	0.998236
621.514868	0.998287
621.862357	0.998019
622.209793	0.998789
622.557176	0.997309
622.904506	0.997846
623.251783	0.997914
623.599007	0.998712
623.946179	0.997678
624.293297	0.998147
624.640363	0.998529
624.987376	0.996861
625.334336	0.997096
625.681243	0.997231
626.028097	0.998763
626.374899	0.997517
626.721647	0.998296
627.068343	0.997673
627.414987	0.998293
627.761577	0.997723
628.108115	0.997604
628.454600	0.998448
628.801032	0.999189
629.147412	0.998121
629.493739	0.998473
629.840014	0.998127
630.186236	0.997540
630.532405	0.998672
630.878521	0.997594
631.224585	0.998176
631.570597	0.997743
631.916556	0.998340
632.262462	0.997291
632.608316	0.998456
632.954117	0.997246
633.299866	0.997638
633.645562	0.997741
633.991206	0.998535
634.336797	0.998406
634.682336	0.998416
635.027823	0.998066
635.373257	0.998579
635.718639	0.998680
636.063968	0.998137
636.409245	0.998436
636.754470	0.999140
637.099642	0.998406
637.444762	0.997937
637.789829	0.998895
638.134845	0.998501
638.479808	0.998282
638.824719	0.998238
639.169577	0.998638
639.514383	0.998155
639.859137	0.998727
640.203839	0.998687
640.548489	0.998372
640.893086	0.997972
641.237632	0.998574
641.582125	0.997473
641.926566	0.998620
642.270955	0.997741
642.615292	0.998029
642.959576	0.998602
643.303809	0.998284
643.647990	0.999252
643.992118	0.999065
644.336195	0.997818
644.680219	0.998538
645.024192	0.998218
645.368112	0.997370
645.711981	0.997317
646.055797	0.998068
646.399562	0.997301
646.743274	0.999051
647.086935	0.998336
647.430544	0.998010
647.774101	0.997716
648.117606	0.999139
648.461059	0.998213
648.804460	0.997650
649.147810	0.997863
649.491108	0.998201
649.834354	0.998740
650.177548	0.997894
650.520690	0.998137
650.863781	0.997896
651.206820	0.998889
651.549807	0.998001
651.892742	0.998049
652.235626	0.998567
652.578458	0.997548
652.921238	0.998929
653.263967	0.998819
653.606644	0.998416
653.949269	0.998139
654.291843	0.998282
654.634365	0.999025
654.976836	0.997817
655.319255	0.998277
655.661622	0.998583
656.003938	0.998183
656.346203	0.997431
656.688416	0.998880
657.030577	0.998680
657.372687	0.998688
657.714746	0.998486
658.056753	0.997849
658.398708	0.997901
658.740612	0.999168
659.082465	0.997750
659.424266	0.997821
659.766016	0.997760
660.107715	0.998158
660.449362	0.997889
660.790958	0.998127
661.132503	0.998935
661.473996	0.997921
661.815438	0.999122
662.156829	0.999240
662.498168	0.998199
662.839456	0.997016
663.180693	0.997905
663.521879	0.998193
663.863013	0.998506
664.204097	0.997749
664.545129	0.999039
664.886110	0.998593
665.227040	0.998076
665.567918	0.997218
665.908746	0.997751
666.249522	0.996976
666.590248	0.997793
666.930922	0.998351
667.271545	0.997736
667.612118	0.998354
667.952639	0.998054
668.293109	0.997389
668.633528	0.997645
668.973896	0.998086
669.314213	0.997630
669.654480	0.997874
669.994695	0.998074
670.334859	0.997769
670.674973	0.997996
671.015035	0.997598
671.355047	0.998289
671.695008	0.998002
672.034918	0.997647
672.374777	0.998046
672.714585	0.998401
673.054342	0.997933
673.394049	0.997865
673.733705	0.998503
674.073310	0.999055
674.412864	0.997657
674.752368	0.997730
675.091820	0.999198
675.431223	0.998210
675.770574	0.997204
676.109875	0.997771
676.449125	0.997314
676.788324	0.997302
677.127473	0.998652
677.466571	0.997981
677.805619	0.998309
678.144616	0.998515
678.483562	0.998018
678.822458	0.998345
679.161303	0.997331
679.500098	0.997357
679.838842	0.998326
680.177535	0.997660
680.516179	0.996937
680.854771	0.997346
681.193314	0.998439
681.531805	0.997370
681.870247	0.997974
682.208638	0.998069
682.546978	0.997747
682.885268	0.997942
683.223508	0.997379
683.561697	0.998267
683.899836	0.997788
684.237925	0.997134
684.575963	0.998479
684.913951	0.997797
685.251889	0.997738
685.589776	0.998389
685.927614	0.997958
686.265401	0.997854
686.603137	0.997398
686.940824	0.998260
687.278460	0.998062
687.616046	0.997426
687.953582	0.997537
688.291068	0.998130
688.628504	0.998278
688.965889	0.997669
689.303224	0.996893
689.640510	0.997255
689.977745	0.997168
690.314930	0.997217
690.652065	0.997236
690.989150	0.998195
691.326185	0.997618
691.663170	0.997958
692.000105	0.997934
692.336990	0.997873
692.673825	0.996599
693.010610	0.997654
693.347345	0.998084
693.684030	0.997244
694.020665	0.997678
694.357251	0.997698
694.693786	0.996778
695.030272	0.996957
695.366707	0.997395
695.703093	0.997451
696.039429	0.997134
696.375716	0.997689
696.711952	0.997654
697.048139	0.997775
697.384276	0.998562
697.720363	0.997397
698.056400	0.996570
698.392388	0.996853
698.728326	0.997891
699.064214	0.998432
699.400053	0.997321
699.735842	0.998223
700.071581	0.997071
700.407270	0.997924
700.742910	0.997517
701.078501	0.997396
701.414042	0.998581
701.749533	0.996665
702.084974	0.998114
702.420366	0.998035
702.755709	0.998018
703.091002	0.997669
703.426246	0.997568
703.761440	0.997843
704.096584	0.997338
704.431679	0.998737
704.766725	0.997244
705.101721	0.998123
705.436668	0.998216
705.771565	0.998140
706.106413	0.996465
706.441212	0.997762
706.775961	0.997994
707.110661	0.997178
707.445311	0.997981
707.779913	0.999057
708.114465	0.998881
708.448967	0.998753
708.783421	0.998006
709.117825	0.998495
709.452180	0.998399
709.786485	0.996666
710.120742	0.997829
710.454949	0.996529
710.789107	0.997532
711.123216	0.997483
711.457275	0.996930
711.791286	0.997955
712.125247	0.998736
712.459159	0.998015
712.793023	0.996659
713.126837	0.997649
713.460602	0.997236
713.794318	0.996354
714.127985	0.996633
714.461602	0.997992
714.795171	0.997778
715.128691	0.997858
715.462162	0.997580
715.795584	0.997230
716.128957	0.997415
716.462281	0.997897
716.795556	0.996355
717.128782	0.998584
717.461960	0.997852
717.795088	0.997618
718.128167	0.998145
718.461198	0.997914
718.794180	0.997212
719.127113	0.997369
719.459997	0.997427
719.792833	0.997854
720.125619	0.997410
720.458357	0.997426
720.791046	0.998003
721.123686	0.998171
721.456278	0.997268
721.788821	0.997469
722.121315	0.997795
722.453761	0.997722
722.786158	0.997013
723.118506	0.997570
723.450805	0.996758
723.783056	0.998298
724.115259	0.998042
724.447412	0.997909
724.779518	0.998127
725.111574	0.997813
725.443582	0.997030
725.775542	0.998097
726.107453	0.998739
726.439315	0.997196
726.771129	0.998433
727.102895	0.998419
727.434612	0.997839
727.766281	0.998744
728.097901	0.997675
728.429473	0.998204
728.760996	0.996963
729.092471	0.998173
729.423897	0.998402
729.755276	0.998321
730.086606	0.997352
730.417887	0.997449
730.749120	0.998786
731.080305	0.998465
731.411442	0.996906
731.742530	0.997615
732.073570	0.997758
732.404562	0.997570
732.735506	0.997174
733.066401	0.997894
733.397249	0.997652
733.728048	0.998571
734.058798	0.997612
734.389501	0.998209
734.720156	0.998222
735.050762	0.999188
735.381320	0.997514
735.711831	0.997299
736.042293	0.997953
736.372707	0.998846
736.703073	0.996878
737.033391	0.997778
737.363661	0.997853
737.693883	0.998553
738.024056	0.997849
738.354182	0.998479
738.684260	0.998501
739.014290	0.998958
739.344272	0.997957
739.674207	0.997797
740.004093	0.998860
740.333931	0.998630
740.663722	0.996776
740.993464	0.997824
741.323159	0.996713
741.652806	0.997819
741.982405	0.997568
742.311956	0.997596
742.641460	0.998237
742.970915	0.998216
743.300323	0.997457
743.629683	0.997552
743.958996	0.998113
744.288260	0.997080
744.617477	0.997677
744.946647	0.997891
745.275768	0.997571
745.604842	0.997864
745.933869	0.997693
746.262847	0.998217
746.591778	0.996581
746.920662	0.998797
747.249498	0.999919
747.578286	0.999165
747.907027	0.998521
748.235720	0.999097
748.564365	0.998447
748.892963	0.998116
749.221514	0.997861
749.550017	0.998062
749.878473	0.998534
750.206881	1.000379
750.535242	0.997629
750.863555	0.997815
751.191821	0.997323
751.520039	0.997689
751.848210	0.996460
752.176334	0.997859
752.504411	0.997877
752.832440	0.998082
753.160421	0.998427
753.488356	0.999073
753.816243	0.997402
754.144082	0.997572
754.471875	0.997798
754.799620	0.998129
755.127318	0.997919
755.454969	0.997846
755.782572	0.999484
756.110129	0.998435
756.437638	0.999288
756.765100	0.998775
757.092515	0.997365
757.419882	0.998231
757.747203	0.997736
758.074477	0.998821
758.401703	0.998354
758.728882	0.998129
759.056014	0.998358
759.383099	0.998400
759.710138	0.997686
760.037129	0.997759
760.364073	0.998438
760.690970	0.998014
761.017820	0.997655
761.344623	0.998400
761.671379	0.999506
761.998088	0.998287
762.324751	0.998821
762.651366	0.996985
762.977935	0.996601
763.304456	0.996926
763.630931	0.994832
763.957359	0.994795
764.283740	0.996148
764.610074	0.996645
764.936362	0.997007
765.262602	0.997683
765.588796	0.997654
765.914943	0.997851
766.241044	0.997114
766.567097	0.997454
766.893104	0.998541
767.219064	0.997349
767.544978	0.997695
767.870845	0.998651
768.196665	0.998523
768.522438	0.998099
768.848165	0.998047
769.173846	0.999050
769.499479	0.998109
769.825066	0.998558
770.150607	0.999148
770.476101	0.998571
770.801548	0.998848
771.126949	0.999433
771.452303	0.999252
771.777611	0.999435
772.102872	0.999291
772.428087	0.998521
772.753256	0.999839
773.078378	0.998515
773.403453	0.997525
773.728482	1.000207
774.053465	0.998123
774.378401	0.998222
774.703291	0.999414
775.028135	0.999960
775.352932	0.998834
775.677683	0.999024
776.002388	0.999324
776.327046	0.998895
776.651658	1.000655
776.976224	0.998138
777.300743	0.999184
777.625216	0.998830
777.949643	0.998691
778.274024	0.999380
778.598359	0.998949
778.922647	0.997985
779.246889	1.000624
779.571086	0.999025
779.895236	1.000028
780.219339	1.000645
780.543397	0.999180
780.867409	0.999355
781.191374	0.998720
781.515294	0.999431
781.839167	0.999595
782.162995	0.998379
782.486776	0.998050
782.810511	0.999491
783.134201	0.999826
783.457844	0.998258
783.781441	0.998391
784.104993	0.998312
784.428498	0.998914
784.751958	1.000911
785.075372	1.000515
785.398739	0.998952
785.722061	0.998903
786.045337	0.999291
786.368568	0.998789
786.691752	0.998669
787.014891	0.999610
787.337983	0.998738
787.661030	0.998384
787.984031	0.998829
788.306987	0.999030
788.629897	0.998283
788.952760	0.998947
789.275579	0.999235
789.598351	0.998404
789.921078	0.999601
790.243759	0.998468
790.566395	0.997873
790.888984	0.999292
791.211529	0.999424
791.534027	0.999102
791.856480	0.999579
792.178888	0.998833
792.501249	0.998528
792.823566	1.000422
793.145836	0.999448
793.468062	1.000209
793.790241	0.999429
794.112375	0.997664
794.434464	0.999039
794.756507	0.999993
795.078505	1.000177
795.400457	0.999378
795.722364	0.999205
796.044226	0.999354
796.366042	0.998278
796.687812	0.997326
797.009538	0.998826
797.331218	0.999571
797.652852	0.999806
797.974442	0.998224
798.295986	0.999335
798.617484	0.998661
798.938938	0.998979
799.260346	0.997787
799.581709	0.997975
799.903026	0.999343
800.224299	0.999042
800.545526	0.997632
800.866708	0.998581
801.187845	0.999726
801.508936	0.998858
801.829983	0.998982
802.150984	0.999066
802.471940	0.998640
802.792851	0.998894
803.113717	1.000211
803.434538	0.999348
803.755314	1.000037
804.076045	0.999131
804.396731	0.997854
804.717372	0.997259
805.037967	0.999932
805.358518	0.999395
805.679024	0.997921
805.999485	0.999548
806.319901	0.998886
806.640272	1.000025
806.960598	0.999154
807.280879	0.999141
807.601115	0.999397
807.921306	1.000097
808.241453	0.998341
808.561554	0.998210
808.881611	0.999744
809.201623	0.999309
809.521590	1.000069
809.841513	0.999300
810.161390	0.998462
810.481223	0.998722
810.801011	0.999071
811.120755	0.999909
811.440453	0.998837
811.760107	0.999240
812.079716	0.998862
812.399281	0.998907
812.718801	0.999246
813.038276	0.999625
813.357707	0.999188
813.677093	1.000255
813.996434	0.999995
814.315731	1.000080
814.634983	0.999851
814.954191	0.999746
815.273354	0.999564
815.592473	0.999125
815.911547	0.999258
816.230577	0.997634
816.549562	0.999594
816.868502	0.998292
817.187399	0.998908
817.506250	0.999349
817.825058	0.997231
818.143821	0.999525
818.462539	0.998403
818.781213	0.998452
819.099843	0.998861
819.418429	0.997627
819.736970	0.998229
820.055466	0.997821
820.373919	0.996951
820.692327	0.995962
821.010691	0.996632
821.329011	0.993755
821.647286	0.992524
821.965517	0.990685
822.283704	0.989781
822.601847	0.988565
822.919945	0.988684
823.237999	0.990754
823.556010	0.991720
823.873976	0.991569
824.191897	0.993108
824.509775	0.994308
824.827609	0.995870
825.145398	0.994704
825.463144	0.994482
825.780845	0.994152
826.098502	0.995229
826.416116	0.994722
826.733685	0.993350
827.051210	0.992459
827.368692	0.993247
827.686129	0.993104
828.003522	0.995493
828.320872	0.994815
828.638177	0.996177
828.955439	0.997656
829.272656	0.997610
829.589830	0.997049
829.906960	0.998417
830.224046	0.997440
830.541088	0.998546
830.858086	0.998579
831.175041	0.999107
831.491952	0.998395
831.808819	0.998822
832.125642	0.999188
832.442421	0.998539
832.759157	0.999951
833.075849	0.997275
833.392497	0.996537
833.709101	0.995956
834.025662	0.995567
834.342179	0.995073
834.658653	0.997051
834.975083	0.996034
835.291469	0.997547
835.607811	0.997123
835.924110	0.998689
836.240366	0.999273
836.556578	0.999199
836.872746	0.999558
837.188871	0.999168
837.504952	0.998150
837.820990	0.999074
838.136984	0.999015
838.452935	0.999505
838.768842	1.000283
839.084706	0.998532
839.400526	0.998924
839.716303	0.997612
840.032037	0.998286
840.347727	0.997634
840.663373	0.997992
840.978977	0.998693
841.294537	0.999425
841.610054	0.998660
841.925527	0.999857
842.240957	0.998292
842.556344	0.999287
842.871687	0.999839
843.186987	0.998880
843.502244	0.999362
843.817458	0.998752
844.132629	0.999317
844.447756	1.000137
844.762840	0.999901
845.077881	1.001359
845.392879	0.999198
845.707833	1.000132
846.022745	0.999448
846.337613	0.999625
846.652438	0.998943
846.967221	1.000640
847.281960	0.999990
847.596656	1.000991
847.911309	0.999046
848.225919	0.998382
848.540485	1.000163
848.855009	1.000593
849.169490	1.000606
849.483928	0.999173
849.798323	0.998692
850.112675	1.000802
850.426984	1.001828
850.741251	1.000780
851.055474	1.000439
851.369654	0.999585
851.683792	0.999151
851.997887	0.999618
852.311938	0.999336
852.625947	0.999857
852.939914	0.998501
853.253837	1.000633
853.567718	1.000357
853.881555	1.000087
854.195350	1.000126
854.509103	1.000040
854.822812	1.000653
855.136479	0.999993
855.450103	0.999362
855.763685	1.000681
856.077224	1.000066
856.390720	0.999195
856.704173	1.001306
857.017584	1.000859
857.330953	0.999849
857.644278	0.999958
857.957561	1.000015
858.270802	0.999340
858.584000	0.999883
858.897155	0.999703
859.210268	0.999516
859.523339	1.000335
859.836367	1.001199
860.149352	0.999677
860.462295	0.998778
860.775195	1.000630
861.088054	0.999024
861.400869	0.999856
861.713642	0.999756
862.026373	1.000201
862.339062	0.999688
862.651708	0.999967
862.964312	0.999810
863.276873	1.000202
863.589392	1.000299
863.901869	0.999620
864.214303	1.000001
864.526696	0.999644
864.839045	0.999511
865.151353	1.000088
865.463619	0.999714
865.775842	1.000171
866.088023	1.000726
866.400162	1.000533
866.712258	1.001171
867.024313	1.000335
867.336325	1.000551
867.648296	1.000257
867.960224	1.000577
868.272110	0.999752
868.583954	0.999754
868.895755	0.999804
869.207515	0.998950
869.519233	0.999609
869.830909	0.999004
870.142542	0.999121
870.454134	0.999326
870.765684	0.999461
871.077191	0.999774
871.388657	0.999620
871.700081	0.999769
872.011463	1.000476
872.322803	0.999187
872.634101	0.999103
872.945357	0.998801
873.256571	0.998365
873.567744	0.999951
873.878874	0.999645
874.189963	0.999851
874.501010	1.000846
874.812015	0.998817
875.122979	1.000205
875.433900	0.999946
875.744780	1.000729
876.055618	0.998073
876.366415	0.998617
876.677169	0.998436
876.987882	0.998837
877.298554	1.000983
877.609183	0.999442
877.919771	0.999468
878.230317	1.000662
878.540822	0.998088
878.851285	0.999419
879.161707	0.998415
879.472087	0.999601
879.782425	0.997148
880.092722	0.997224
880.402977	0.995121
880.713191	0.992160
881.023363	0.991679
881.333494	0.988857
881.643583	0.990876
881.953631	0.989776
882.263637	0.989989
882.573602	0.989731
882.883526	0.990665
883.193408	0.992838
883.503248	0.993085
883.813048	0.993623
884.122806	0.994779
884.432522	0.995451
884.742197	0.997466
885.051831	0.996841
885.361424	0.997703
885.670975	0.999616
885.980485	0.997258
886.289954	0.997968
886.599382	0.997249
886.908768	0.998325
887.218113	0.998488
887.527417	0.998710
887.836680	0.999092
888.145901	0.999351
888.455082	1.000368
888.764221	0.999623
889.073319	0.998361
889.382376	0.999296
889.691392	0.998878
890.000366	0.999343
890.309300	1.000210
890.618193	0.999651
890.927044	0.998872
891.235855	0.999023
891.544625	0.999471
891.853353	0.999113
892.162041	0.999074
892.470687	0.999872
892.779293	0.999159
893.087858	0.996912
893.396381	0.997873
893.704864	0.997836
894.013306	0.997095
894.321707	0.996052
894.630068	0.995293
894.938387	0.995779
895.246665	0.994608
895.554903	0.995345
895.863100	0.996522
896.171256	0.996213
896.479371	0.998082
896.787446	0.996883
897.095480	0.998531
897.403473	0.998071
897.711425	0.998942
898.019336	0.999064
898.327207	0.999117
898.635038	0.997991
898.942827	0.998847
899.250576	0.998890
899.558284	0.998950
899.865952	0.999030
900.173579	0.999660
900.481165	0.998545
900.788711	0.999603
901.096216	1.000362
901.403681	0.998932
901.711105	0.999036
902.018489	0.999734
902.325832	0.998426
902.633135	0.998986
902.940397	0.997741
903.247619	0.998367
903.554800	0.996861
903.861941	0.997248
904.169041	0.995095
904.476101	0.995244
904.783121	0.993868
905.090100	0.994724
905.397039	0.996009
905.703938	0.995850
906.010796	0.996412
906.317614	0.996939
906.624391	0.998041
906.931129	0.997625
907.237826	0.997819
907.544483	1.000295
907.851099	0.998145
908.157675	0.999338
908.464211	0.999160
908.770707	0.998392
909.077163	0.999470
909.383578	0.999950
909.689954	0.999443
909.996289	0.999551
910.302584	0.999262
910.608839	1.000260
910.915054	0.999717
911.221229	1.000583
911.527363	0.998944
911.833458	0.999531
912.139513	0.999808
912.445527	0.999446
912.751502	1.000293
913.057436	0.998722
913.363331	0.999162
913.669186	0.999928
913.975000	0.998805
914.280775	0.999493
914.586510	0.998175
914.892205	0.998059
915.197859	0.996465
915.503475	0.996663
915.809050	0.994187
916.114585	0.992957
916.420081	0.993231
916.725536	0.994377
917.030952	0.995532
917.336328	0.994990
917.641665	0.995805
917.946961	0.995380
918.252218	0.996303
918.557435	0.996592
918.862612	0.999294
919.167750	0.999320
919.472848	0.997835
919.777906	0.999099
920.082925	0.999735
920.387904	0.998666
920.692843	0.998646
920.997743	0.998346
921.302603	0.999917
921.607423	0.999204
921.912204	0.999583
922.216946	1.001266
922.521647	1.000222
922.826310	0.999119
923.130932	1.000662
923.435516	1.000642
923.740059	0.999054
924.044564	0.999910
924.349028	0.999896
924.653454	1.000270
924.957840	0.998763
925.262186	1.000420
925.566493	0.999487
925.870761	1.000431
926.174989	0.998580
926.479178	1.001307
926.783328	1.000320
927.087438	1.000223
927.391509	0.999702
927.695541	1.000154
927.999533	1.000708
928.303486	0.999164
928.607400	0.999222
928.911275	1.000459
929.215110	1.000311
929.518906	1.000819
929.822663	1.001711
930.126381	1.001532
930.430060	1.000738
930.733699	1.002466
931.037299	1.000416
931.340861	1.000088
931.644383	0.999428
931.947866	0.999045
932.251309	1.000309
932.554714	0.999065
932.858080	0.999881
933.161407	0.999413
933.464694	0.999554
933.767943	1.000351
934.071153	1.000448
934.374323	1.001093
934.677455	1.000762
934.980548	0.999800
935.283602	1.000951
935.586617	0.999230
935.889593	1.001720
936.192530	1.000930
936.495428	1.000337
936.798287	0.999155
937.101108	0.999785
937.403890	0.999708
937.706632	1.001580
938.009336	0.999938
938.312002	0.999051
938.614628	0.999638
938.917216	0.999605
939.219765	0.999430
939.522275	1.000411
939.824747	0.999338
940.127179	0.998218
940.429573	0.998881
940.731929	1.000865
941.034246	0.999624
941.336524	0.998965
941.638763	0.999956
941.940964	1.000012
942.243126	0.999328
942.545250	1.000816
942.847335	0.999972
943.149381	1.001194
943.451389	0.999530
943.753359	1.000818
944.055290	1.001286
944.357182	1.000788
944.659036	1.001811
944.960851	1.000255
945.262628	0.999814
945.564367	1.001042
945.866067	1.000841
946.167729	0.999837
946.469352	1.000595
946.770937	0.998836
947.072484	1.000621
947.373992	0.999187
947.675462	1.000240
947.976893	0.999615
948.278286	1.000313
948.579641	1.001166
948.880958	0.999469
949.182236	1.001543
949.483476	1.000557
949.784678	0.999192
950.085841	0.999706
950.386967	1.000044
950.688054	1.000670
950.989103	0.999315
951.290114	0.998997
951.591087	1.000587
951.892021	0.998842
952.192917	0.999399
952.493776	1.000439
952.794596	1.000238
953.095378	0.999709
953.396122	0.999884
953.696828	1.001255
953.997496	1.000701
954.298126	1.000491
954.598718	1.001206
954.899272	1.000087
955.199788	0.999383
955.500266	1.000924
955.800706	1.001505
956.101108	0.999241
956.401472	1.001861
956.701798	1.000221
957.002087	1.000823
957.302337	1.000430
957.602550	1.000409
957.902724	1.000296
958.202861	0.999621
958.502960	0.999347
958.803022	1.001569
959.103045	0.999999
959.403031	1.001721
959.702979	1.001418
960.002889	1.000428
960.302762	0.999933
960.602596	1.000810
960.902393	1.001152
961.202153	1.000691
961.501875	1.000207
961.801559	1.001108
962.101205	0.998778
962.400814	1.002448
962.700385	1.001130
962.999918	1.000941
963.299414	0.999785
963.598873	1.001069
963.898293	1.000220
964.197677	0.999500
964.497022	1.000832
964.796331	1.001071
965.095601	1.000937
965.394835	1.000245
965.694030	1.001437
965.993189	0.999769
966.292309	1.001211
966.591393	0.998504
966.890439	1.001098
967.189447	1.000731
967.488419	0.999360
967.787353	1.000403
968.086249	1.001676
968.385108	0.998983
968.683930	1.002099
968.982714	1.001782
969.281462	0.999490
969.580172	1.000657
969.878844	1.001828
970.177480	1.000714
970.476078	1.001753
970.774639	1.001040
971.073162	1.000079
971.371649	1.000327
971.670098	1.000742
971.968510	1.001574
972.266885	1.000059
972.565223	1.001145
972.863524	0.999584
973.161788	1.001034
973.460014	1.001035
973.758204	1.000453
974.056356	1.000779
974.354471	0.999946
974.652550	1.002462
974.950591	1.000887
975.248595	0.999918
975.546563	1.001222
975.844493	1.001013
976.142386	0.999428
976.440243	1.000830
976.738062	1.000417
977.035845	0.999817
977.333590	1.001183
977.631299	0.999663
977.928971	1.000697
978.226606	1.000450
978.524204	0.999796
978.821765	1.001905
979.119290	1.001997
979.416777	1.000237
979.714228	1.000820
980.011642	1.000642
980.309020	1.000743
980.606360	1.000778
980.903664	1.000931
981.200931	0.999994
981.498162	1.001093
981.795356	1.000422
982.092513	1.000226
982.389633	1.001914
982.686717	0.999910
982.983764	0.999400
983.280775	0.999466
983.577749	1.000555
983.874686	0.999488
984.171587	1.000070
984.468451	0.999689
984.765279	1.000780
985.062070	0.999829
985.358824	0.999978
985.655543	1.000437
985.952224	1.000786
986.248869	1.001249
986.545478	1.001988
986.842050	1.000098
987.138586	1.000147
987.435086	0.999175
987.731549	1.000667
988.027975	1.001970
988.324366	1.000165
988.620719	1.001826
988.917037	1.000372
989.213318	1.001123
989.509563	0.999756
989.805772	1.000362
990.101944	1.000202
990.398080	1.000046
990.694180	1.001452
990.990244	1.000857
991.286271	1.000414
991.582262	1.001333
991.878217	1.000253
992.174136	1.001429
992.470019	0.999971
992.765865	1.003079
993.061676	1.000537
993.357450	1.000826
993.653188	1.001963
993.948890	1.001878
994.244556	0.999222
994.540186	0.999829
994.835780	1.000337
995.131337	1.002071
995.426859	1.000416
995.722345	1.000497
996.017795	1.000553
996.313208	1.000294
996.608586	0.999502
996.903928	1.002090
997.199234	1.001156
997.494504	1.000683
997.789738	0.999504
998.084936	1.000774
998.380099	0.998812
998.675225	1.001836
998.970316	1.000434
999.265371	1.000944
999.560390	1.000873
999.855373	0.999689
1000.150320	1.000482
1000.445232	1.000405
1000.740108	1.000993
1001.034948	1.000331
1001.329752	1.000774
1001.624521	0.999466
1001.919254	1.000383
1002.213951	1.001498
1002.508613	0.999452
1002.803239	1.000229
1003.097829	1.001009
1003.392384	1.000934
1003.686903	0.999528
1003.981386	1.000527
1004.275834	1.002513
1004.570246	0.998822
1004.864623	1.000714
1005.158964	1.000802
1005.453270	0.999428
1005.747540	1.000465
1006.041775	1.000517
1006.335974	1.001752
1006.630138	1.001105
1006.924266	1.000443
1007.218359	0.999378
1007.512416	1.001460
1007.806438	1.001545
1008.100425	1.001280
1008.394376	1.001907
1008.688292	0.999279
1008.982172	1.000130
1009.276017	1.001742
1009.569827	1.001142
1009.863602	1.000272
1010.157341	1.001347
1010.451045	1.000493
1010.744714	1.002096
1011.038347	1.000760
1011.331945	0.999426
1011.625508	1.001185
1011.919036	1.001382
1012.212528	1.001102
1012.505986	1.000853
1012.799408	1.001405
1013.092795	1.001026
1013.386147	1.000743
1013.679464	1.001868
1013.972745	1.000803
1014.265992	1.000027
1014.559204	0.999707
1014.852380	1.000837
1015.145521	1.001121
1015.438628	1.000687
1015.731699	1.000140
1016.024736	1.001234
1016.317737	1.000820
1016.610703	1.000930
1016.903635	1.000641
1017.196531	0.999806
1017.489393	0.999654
1017.782219	0.999709
1018.075011	0.999907
1018.367768	0.999621
1018.660490	1.000463
1018.953177	1.000463
1019.245829	1.000463
