Dividing Wavelength (nm)	Counts (n)	Blue Motor Position (mm): 27.500000	Red Motor Position (mm): 0.000000	
326.493990	1.000412
326.888308	1.000412
327.282561	1.000412
327.676750	1.002846
328.070874	1.003076
328.464933	1.003041
328.858929	1.001584
329.252859	1.001980
329.646726	1.001030
330.040528	1.002596
330.434265	1.001708
330.827938	1.000374
331.221547	1.002489
331.615091	1.002702
332.008571	1.002115
332.401986	1.001002
332.795338	1.001610
333.188625	1.001962
333.581847	1.001119
333.975006	1.001100
334.368100	1.001496
334.761129	1.000358
335.154095	1.001457
335.546996	1.000246
335.939833	0.999904
336.332606	1.001175
336.725315	0.998625
337.117960	1.001165
337.510540	0.999501
337.903056	1.000722
338.295508	1.001431
338.687896	1.000325
339.080220	0.999928
339.472480	1.000014
339.864676	0.999303
340.256807	0.998105
340.648875	1.001395
341.040879	0.999975
341.432818	1.000929
341.824694	0.999760
342.216506	1.000490
342.608253	0.999852
342.999937	1.000390
343.391557	0.999950
343.783113	1.001830
344.174605	0.999709
344.566033	0.999791
344.957397	0.999971
345.348697	1.000245
345.739934	1.001223
346.131106	0.999958
346.522215	0.999380
346.913260	0.999760
347.304241	0.999322
347.695159	0.999238
348.086012	0.999170
348.476802	0.999498
348.867528	0.999061
349.258191	1.000435
349.648789	0.999657
350.039324	1.000064
350.429796	0.999558
350.820203	0.999010
351.210548	1.000524
351.600828	0.999590
351.991045	1.000985
352.381198	1.001079
352.771288	0.998981
353.161314	1.000254
353.551276	0.998344
353.941175	0.998530
354.331010	1.000239
354.720782	0.999071
355.110490	0.999263
355.500135	0.999020
355.889717	0.998048
356.279235	0.998824
356.668689	0.999495
357.058080	0.999751
357.447408	0.997883
357.836672	1.000104
358.225873	0.999011
358.615010	0.998883
359.004084	0.997858
359.393095	0.999155
359.782043	0.998921
360.170927	0.999537
360.559748	0.998461
360.948505	0.997664
361.337199	0.997753
361.725830	0.998643
362.114398	0.998356
362.502903	0.997942
362.891344	0.998128
363.279722	0.998309
363.668037	0.998640
364.056289	0.997878
364.444478	0.998794
364.832603	0.998501
365.220665	0.998019
365.608665	0.997822
365.996601	0.997318
366.384474	0.996434
366.772284	0.997880
367.160031	0.996100
367.547715	0.995962
367.935336	0.995750
368.322893	0.994168
368.710388	0.993664
369.097820	0.992361
369.485189	0.989280
369.872495	0.988659
370.259738	0.986922
370.646918	0.982404
371.034035	0.981033
371.421090	0.977772
371.808081	0.973175
372.195010	0.970813
372.581875	0.964376
372.968678	0.960314
373.355418	0.956961
373.742096	0.949849
374.128710	0.945469
374.515262	0.940311
374.901751	0.935216
375.288177	0.929915
375.674540	0.923075
376.060841	0.916956
376.447079	0.910996
376.833254	0.903898
377.219367	0.898693
377.605417	0.887188
377.991404	0.883611
378.377329	0.878078
378.763191	0.872056
379.148991	0.862316
379.534727	0.855353
379.920402	0.846197
380.306013	0.843761
380.691563	0.830683
381.077049	0.824041
381.462474	0.819507
381.847835	0.807704
382.233134	0.803610
382.618371	0.802841
383.003545	0.786973
383.388657	0.785565
383.773706	0.777034
384.158693	0.772688
384.543618	0.767836
384.928480	0.758345
385.313280	0.748411
385.698017	0.748139
386.082692	0.736890
386.467305	0.735366
386.851856	0.729406
387.236344	0.724593
387.620770	0.718677
388.005133	0.713349
388.389435	0.707226
388.773674	0.705878
389.157851	0.696900
389.541965	0.693995
389.926018	0.700631
390.310008	0.687148
390.693936	0.684776
391.077802	0.676775
391.461606	0.678062
391.845348	0.666901
392.229027	0.666810
392.612645	0.664825
392.996200	0.652095
393.379694	0.644736
393.763125	0.635050
394.146494	0.639805
394.529801	0.630432
394.913047	0.622703
395.296230	0.628698
395.679351	0.620013
396.062410	0.617209
396.445408	0.619531
396.828343	0.614618
397.211217	0.609997
397.594028	0.621895
397.976778	0.611820
398.359466	0.608615
398.742092	0.604406
399.124656	0.616348
399.507158	0.604372
399.889598	0.601617
400.271977	0.592731
400.654294	0.596625
401.036549	0.595634
401.418742	0.600221
401.800874	0.585596
402.182944	0.582792
402.564952	0.573969
402.946898	0.576307
403.328783	0.577210
403.710606	0.588475
404.092367	0.563044
404.474067	0.568033
404.855705	0.567427
405.237282	0.575599
405.618797	0.561672
406.000250	0.557475
406.381642	0.548025
406.762972	0.552383
407.144240	0.551575
407.525447	0.551186
407.906593	0.544060
408.287677	0.539365
408.668700	0.548519
409.049661	0.541819
409.430560	0.537165
409.811399	0.545757
410.192176	0.527172
410.572891	0.535263
410.953545	0.522850
411.334138	0.536246
411.714669	0.528380
412.095139	0.541155
412.475547	0.524842
412.855894	0.526859
413.236180	0.526648
413.616405	0.531469
413.996568	0.521688
414.376670	0.527718
414.756711	0.533296
415.136691	0.529588
415.516609	0.520958
415.896466	0.517238
416.276262	0.513574
416.655997	0.515493
417.035670	0.496922
417.415283	0.488560
417.794834	0.493617
418.174324	0.498890
418.553753	0.507958
418.933121	0.489685
419.312428	0.484286
419.691674	0.490055
420.070859	0.478096
420.449983	0.485993
420.829045	0.475319
421.208047	0.484638
421.586988	0.477641
421.965867	0.476511
422.344686	0.464841
422.723444	0.477941
423.102141	0.494691
423.480777	0.467038
423.859352	0.488582
424.237866	0.465626
424.616319	0.466440
424.994712	0.457181
425.373044	0.467698
425.751314	0.455504
426.129524	0.472494
426.507673	0.455905
426.885762	0.449149
427.263789	0.454747
427.641756	0.464653
428.019662	0.454544
428.397508	0.454319
428.775292	0.458193
429.153016	0.450563
429.530679	0.456628
429.908282	0.449686
430.285824	0.460505
430.663305	0.438496
431.040726	0.459679
431.418086	0.459500
431.795385	0.451625
432.172624	0.450402
432.549802	0.451061
432.926920	0.450158
433.303977	0.449426
433.680974	0.446841
434.057910	0.445539
434.434786	0.444973
434.811601	0.448091
435.188355	0.430670
435.565050	0.440272
435.941683	0.441983
436.318257	0.425826
436.694770	0.427312
437.071222	0.426156
437.447614	0.430780
437.823946	0.438161
438.200218	0.427793
438.576429	0.438048
438.952580	0.432616
439.328670	0.429254
439.704700	0.437118
440.080670	0.439099
440.456580	0.421541
440.832429	0.430772
441.208218	0.442851
441.583947	0.433445
441.959616	0.434579
442.335224	0.441244
442.710773	0.433754
443.086261	0.433572
443.461689	0.448653
443.837057	0.440319
444.212365	0.432850
444.587612	0.441772
444.962800	0.433945
445.337927	0.438048
445.712995	0.465863
446.088002	0.431295
446.462949	0.444589
446.837837	0.451886
447.212664	0.443253
447.587431	0.439622
447.962139	0.416471
448.336786	0.381634
448.711374	0.394008
449.085901	0.438386
449.460369	0.446167
449.834776	0.453264
450.209124	0.439232
450.583412	0.438553
450.957640	0.435236
451.331808	0.450259
451.705917	0.475355
452.079965	0.484446
452.453954	0.479437
452.827883	0.489954
453.201752	0.491267
453.575562	0.505818
453.949311	0.502434
454.323001	0.513447
454.696632	0.515562
455.070202	0.515931
455.443713	0.516010
455.817164	0.518616
456.190556	0.522722
456.563888	0.526855
456.937160	0.531045
457.310373	0.550637
457.683526	0.556872
458.056619	0.568961
458.429653	0.576338
458.802628	0.585940
459.175542	0.588915
459.548398	0.585728
459.921194	0.588411
460.293930	0.596656
460.666607	0.591662
461.039224	0.591576
461.411782	0.596959
461.784280	0.604546
462.156719	0.615105
462.529099	0.625894
462.901419	0.644058
463.273680	0.654356
463.645882	0.661711
464.018024	0.675689
464.390106	0.678112
464.762130	0.678487
465.134094	0.678996
465.505999	0.670480
465.877845	0.663353
466.249631	0.665131
466.621358	0.678710
466.993026	0.695471
467.364634	0.707017
467.736184	0.720310
468.107674	0.732557
468.479105	0.741556
468.850477	0.750970
469.221790	0.762065
469.593043	0.773772
469.964238	0.784544
470.335373	0.791271
470.706449	0.798112
471.077467	0.805009
471.448425	0.801329
471.819324	0.800770
472.190164	0.806316
472.560945	0.822683
472.931667	0.834678
473.302330	0.842541
473.672934	0.851281
474.043479	0.855166
474.413965	0.861034
474.784393	0.868218
475.154761	0.872694
475.525070	0.878012
475.895321	0.884595
476.265513	0.888135
476.635645	0.891950
477.005719	0.897916
477.375734	0.901759
477.745691	0.904608
478.115588	0.909018
478.485427	0.912926
478.855207	0.914323
479.224928	0.915614
479.594591	0.917884
479.964194	0.923301
480.333739	0.927615
480.703226	0.932304
481.072653	0.935724
481.442022	0.938673
481.811333	0.940559
482.180584	0.944856
482.549777	0.948651
482.918912	0.950933
483.287988	0.954289
483.657005	0.956345
484.025964	0.959423
484.394864	0.961731
484.763706	0.963780
485.132489	0.966467
485.501213	0.968640
485.869879	0.970086
486.238487	0.971628
486.607036	0.973591
486.975527	0.975450
487.343959	0.976381
487.712333	0.977728
488.080648	0.978734
488.448905	0.980520
488.817104	0.981209
489.185244	0.982158
489.553326	0.983156
489.921350	0.984003
490.289315	0.983508
490.657222	0.983831
491.025070	0.984792
491.392861	0.984962
491.760593	0.986104
492.128267	0.986940
492.495883	0.986661
492.863440	0.988662
493.230939	0.988725
493.598380	0.989334
493.965763	0.989653
494.333088	0.989547
494.700354	0.990531
495.067563	0.990128
495.434713	0.991550
495.801805	0.991054
496.168839	0.991513
496.535815	0.992003
496.902733	0.991682
497.269593	0.991740
497.636395	0.991707
498.003139	0.991652
498.369825	0.992477
498.736453	0.992323
499.103023	0.992809
499.469535	0.993255
499.835989	0.993134
500.202385	0.992717
500.568723	0.993215
500.935003	0.993164
501.301226	0.993255
501.667390	0.993335
502.033497	0.993468
502.399546	0.992783
502.765537	0.993138
503.131470	0.993445
503.497345	0.993922
503.863163	0.993824
504.228923	0.993668
504.594625	0.993868
504.960269	0.993955
505.325856	0.994750
505.691385	0.994354
506.056856	0.993819
506.422270	0.994753
506.787625	0.993762
507.152924	0.994464
507.518164	0.994491
507.883347	0.994063
508.248472	0.994748
508.613540	0.994187
508.978550	0.994707
509.343503	0.994178
509.708398	0.995684
510.073236	0.994809
510.438016	0.994317
510.802738	0.994603
511.167403	0.994245
511.532010	0.995422
511.896561	0.994315
512.261053	0.994321
512.625488	0.994616
512.989866	0.994253
513.354186	0.994794
513.718449	0.995185
514.082655	0.994113
514.446803	0.994365
514.810894	0.995645
515.174927	0.995118
515.538904	0.994957
515.902822	0.995044
516.266684	0.994826
516.630488	0.994948
516.994235	0.995650
517.357925	0.994924
517.721558	0.994952
518.085133	0.994894
518.448651	0.995128
518.812112	0.995298
519.175516	0.994850
519.538863	0.995566
519.902152	0.994852
520.265385	0.994977
520.628560	0.994443
520.991678	0.995411
521.354739	0.995888
521.717743	0.995498
522.080690	0.994511
522.443580	0.994830
522.806413	0.994658
523.169189	0.995590
523.531908	0.994402
523.894569	0.994952
524.257174	0.994935
524.619722	0.994666
524.982213	0.995076
525.344647	0.995126
525.707025	0.994323
526.069345	0.994716
526.431608	0.995417
526.793815	0.995466
527.155964	0.995657
527.518057	0.995393
527.880093	0.994447
528.242072	0.994600
528.603995	0.994712
528.965860	0.995752
529.327669	0.995275
529.689421	0.994499
530.051117	0.995501
530.412755	0.995179
530.774337	0.995121
531.135862	0.995536
531.497331	0.994934
531.858743	0.995380
532.220098	0.995164
532.581396	0.995281
532.942638	0.995442
533.303824	0.995801
533.664953	0.995200
534.026025	0.995530
534.387040	0.995543
534.747999	0.994885
535.108902	0.995102
535.469748	0.995579
535.830537	0.995394
536.191270	0.995745
536.551947	0.995251
536.912567	0.995529
537.273131	0.995805
537.633638	0.995147
537.994089	0.995880
538.354483	0.995231
538.714821	0.995018
539.075103	0.995400
539.435328	0.995218
539.795497	0.995333
540.155609	0.994947
540.515665	0.995692
540.875665	0.995310
541.235609	0.996029
541.595496	0.994373
541.955328	0.995223
542.315102	0.995223
542.674821	0.995594
543.034483	0.995646
543.394090	0.994939
543.753640	0.996033
544.113134	0.994704
544.472571	0.996011
544.831953	0.995309
545.191278	0.995658
545.550548	0.994750
545.909761	0.995134
546.268918	0.995876
546.628019	0.995740
546.987064	0.995524
547.346053	0.994065
547.704986	0.994309
548.063863	0.995269
548.422684	0.995813
548.781449	0.995273
549.140158	0.995420
549.498811	0.995282
549.857408	0.994858
550.215949	0.994946
550.574434	0.995403
550.932864	0.995243
551.291237	0.995029
551.649555	0.995782
552.007817	0.995098
552.366022	0.995420
552.724173	0.995625
553.082267	0.995667
553.440305	0.995202
553.798288	0.994597
554.156215	0.995469
554.514086	0.995484
554.871902	0.995590
555.229661	0.994870
555.587365	0.995401
555.945014	0.995547
556.302606	0.994747
556.660143	0.996044
557.017625	0.995138
557.375050	0.994881
557.732421	0.995129
558.089735	0.994783
558.446994	0.994969
558.804197	0.995098
559.161345	0.994186
559.518437	0.995142
559.875474	0.994847
560.232455	0.995349
560.589381	0.996380
560.946251	0.994542
561.303065	0.995792
561.659825	0.994954
562.016528	0.995286
562.373177	0.994930
562.729770	0.995316
563.086307	0.994196
563.442789	0.995466
563.799216	0.994496
564.155587	0.995550
564.511904	0.995939
564.868164	0.994512
565.224370	0.994444
565.580520	0.994731
565.936615	0.995279
566.292654	0.994843
566.648638	0.995769
567.004567	0.994505
567.360441	0.995195
567.716260	0.995313
568.072023	0.994686
568.427732	0.994727
568.783385	0.994912
569.138982	0.995350
569.494525	0.995236
569.850013	0.995712
570.205445	0.995703
570.560823	0.995643
570.916145	0.995151
571.271412	0.995876
571.626625	0.994762
571.981782	0.995716
572.336884	0.995265
572.691931	0.995379
573.046923	0.995895
573.401860	0.995001
573.756743	0.995593
574.111570	0.995935
574.466342	0.996045
574.821059	0.995668
575.175722	0.995616
575.530330	0.995259
575.884882	0.995213
576.239380	0.995657
576.593823	0.995191
576.948211	0.996024
577.302544	0.995459
577.656823	0.995911
578.011047	0.994545
578.365216	0.996116
578.719330	0.995638
579.073389	0.994772
579.427394	0.995733
579.781344	0.995039
580.135239	0.994387
580.489080	0.995006
580.842866	0.995483
581.196597	0.994607
581.550273	0.994609
581.903895	0.995354
582.257463	0.994809
582.610975	0.995627
582.964434	0.995385
583.317837	0.995694
583.671186	0.995859
584.024481	0.994870
584.377721	0.994858
584.730906	0.995622
585.084037	0.996273
585.437113	0.996178
585.790135	0.995315
586.143103	0.995862
586.496016	0.995681
586.848874	0.995509
587.201679	0.995147
587.554428	0.995129
587.907124	0.995585
588.259765	0.995970
588.612352	0.995980
588.964884	0.995884
589.317362	0.995258
589.669786	0.995387
590.022155	0.995283
590.374470	0.994977
590.726731	0.995363
591.078937	0.995656
591.431090	0.995692
591.783188	0.994770
592.135232	0.996155
592.487222	0.995613
592.839157	0.995297
593.191038	0.995086
593.542866	0.995038
593.894639	0.994807
594.246358	0.996233
594.598022	0.996241
594.949633	0.995487
595.301190	0.995378
595.652692	0.994645
596.004141	0.994954
596.355535	0.995518
596.706876	0.995808
597.058162	0.995994
597.409395	0.995456
597.760573	0.995289
598.111698	0.995632
598.462768	0.994701
598.813785	0.994633
599.164748	0.994970
599.515657	0.995083
599.866511	0.995405
600.217312	0.996005
600.568060	0.995337
600.918753	0.996233
601.269392	0.995699
601.619978	0.996071
601.970510	0.995569
602.320988	0.995319
602.671412	0.995070
603.021783	0.996451
603.372100	0.995693
603.722363	0.996264
604.072572	0.996383
604.422728	0.995774
604.772830	0.995454
605.122878	0.996301
605.472872	0.996074
605.822813	0.995421
606.172701	0.995496
606.522534	0.996633
606.872314	0.996263
607.222041	0.995170
607.571714	0.996099
607.921333	0.995269
608.270899	0.995677
608.620411	0.996007
608.969870	0.996040
609.319276	0.995969
609.668627	0.995890
610.017926	0.995399
610.367171	0.995876
610.716362	0.995511
611.065500	0.995771
611.414585	0.995558
611.763616	0.995136
612.112594	0.995799
612.461518	0.994829
612.810389	0.996178
613.159207	0.995403
613.507971	0.995289
613.856682	0.996410
614.205340	0.995075
614.553945	0.995671
614.902496	0.995637
615.250994	0.995502
615.599439	0.996436
615.947830	0.995120
616.296169	0.995361
616.644454	0.995926
616.992686	0.996030
617.340864	0.996171
617.688990	0.995230
618.037063	0.996291
618.385082	0.995269
618.733048	0.994844
619.080961	0.996143
619.428821	0.996201
619.776628	0.995755
620.124382	0.996431
620.472083	0.995643
620.819731	0.996733
621.167326	0.996048
621.514868	0.996644
621.862357	0.995007
622.209793	0.995744
622.557176	0.995045
622.904506	0.994883
623.251783	0.996187
623.599007	0.996287
623.946179	0.994907
624.293297	0.995874
624.640363	0.996404
624.987376	0.995660
625.334336	0.995452
625.681243	0.996011
626.028097	0.995868
626.374899	0.995706
626.721647	0.996667
627.068343	0.996769
627.414987	0.995551
627.761577	0.995148
628.108115	0.995550
628.454600	0.996418
628.801032	0.995613
629.147412	0.995608
629.493739	0.996840
629.840014	0.995414
630.186236	0.995613
630.532405	0.995809
630.878521	0.995380
631.224585	0.995982
631.570597	0.996014
631.916556	0.995726
632.262462	0.994846
632.608316	0.996638
632.954117	0.995089
633.299866	0.995707
633.645562	0.995693
633.991206	0.995800
634.336797	0.995444
634.682336	0.996771
635.027823	0.995276
635.373257	0.996185
635.718639	0.996297
636.063968	0.995615
636.409245	0.995153
636.754470	0.996448
637.099642	0.996548
637.444762	0.996372
637.789829	0.996070
638.134845	0.995383
638.479808	0.995162
638.824719	0.996341
639.169577	0.996110
639.514383	0.996824
639.859137	0.996503
640.203839	0.996068
640.548489	0.995633
640.893086	0.995226
641.237632	0.996087
641.582125	0.995389
641.926566	0.996639
642.270955	0.995669
642.615292	0.995271
642.959576	0.996326
643.303809	0.997055
643.647990	0.995565
643.992118	0.996673
644.336195	0.995819
644.680219	0.995404
645.024192	0.995653
645.368112	0.995519
645.711981	0.995331
646.055797	0.995946
646.399562	0.995910
646.743274	0.996694
647.086935	0.995183
647.430544	0.996341
647.774101	0.995699
648.117606	0.995759
648.461059	0.996813
648.804460	0.995553
649.147810	0.996062
649.491108	0.995943
649.834354	0.996703
650.177548	0.996625
650.520690	0.996493
650.863781	0.995777
651.206820	0.995761
651.549807	0.996192
651.892742	0.996255
652.235626	0.995633
652.578458	0.995545
652.921238	0.996369
653.263967	0.996234
653.606644	0.995209
653.949269	0.997064
654.291843	0.995360
654.634365	0.996434
654.976836	0.995409
655.319255	0.996685
655.661622	0.996148
656.003938	0.995410
656.346203	0.995720
656.688416	0.996583
657.030577	0.995897
657.372687	0.996204
657.714746	0.995538
658.056753	0.996289
658.398708	0.995956
658.740612	0.996684
659.082465	0.996260
659.424266	0.996734
659.766016	0.995380
660.107715	0.996914
660.449362	0.995857
660.790958	0.995866
661.132503	0.996642
661.473996	0.995775
661.815438	0.996171
662.156829	0.996108
662.498168	0.996938
662.839456	0.995247
663.180693	0.995691
663.521879	0.997038
663.863013	0.995307
664.204097	0.995511
664.545129	0.995644
664.886110	0.996335
665.227040	0.995435
665.567918	0.995390
665.908746	0.995589
666.249522	0.995386
666.590248	0.996360
666.930922	0.994830
667.271545	0.996209
667.612118	0.996028
667.952639	0.995680
668.293109	0.995753
668.633528	0.995111
668.973896	0.995818
669.314213	0.995251
669.654480	0.995546
669.994695	0.995168
670.334859	0.995924
670.674973	0.995453
671.015035	0.996223
671.355047	0.996072
671.695008	0.995447
672.034918	0.996156
672.374777	0.995768
672.714585	0.996149
673.054342	0.996396
673.394049	0.995330
673.733705	0.995539
674.073310	0.995838
674.412864	0.995418
674.752368	0.995699
675.091820	0.996387
675.431223	0.996456
675.770574	0.995707
676.109875	0.995602
676.449125	0.995770
676.788324	0.995319
677.127473	0.996171
677.466571	0.995297
677.805619	0.995906
678.144616	0.996171
678.483562	0.995909
678.822458	0.996682
679.161303	0.995385
679.500098	0.996275
679.838842	0.996357
680.177535	0.995721
680.516179	0.995144
680.854771	0.995951
681.193314	0.996041
681.531805	0.995216
681.870247	0.995860
682.208638	0.996003
682.546978	0.995141
682.885268	0.995309
683.223508	0.995276
683.561697	0.995562
683.899836	0.995338
684.237925	0.995500
684.575963	0.996076
684.913951	0.995189
685.251889	0.995190
685.589776	0.994991
685.927614	0.994716
686.265401	0.995498
686.603137	0.995114
686.940824	0.995290
687.278460	0.996286
687.616046	0.995181
687.953582	0.994940
688.291068	0.995029
688.628504	0.996086
688.965889	0.994660
689.303224	0.994796
689.640510	0.995463
689.977745	0.995491
690.314930	0.995275
690.652065	0.995288
690.989150	0.995126
691.326185	0.995473
691.663170	0.995287
692.000105	0.996367
692.336990	0.995317
692.673825	0.996193
693.010610	0.995962
693.347345	0.995370
693.684030	0.995956
694.020665	0.995339
694.357251	0.995208
694.693786	0.996289
695.030272	0.994801
695.366707	0.995378
695.703093	0.995358
696.039429	0.995269
696.375716	0.996089
696.711952	0.995556
697.048139	0.995909
697.384276	0.995984
697.720363	0.994678
698.056400	0.994861
698.392388	0.994984
698.728326	0.995758
699.064214	0.996445
699.400053	0.996281
699.735842	0.996692
700.071581	0.996081
700.407270	0.995925
700.742910	0.995838
701.078501	0.995736
701.414042	0.996936
701.749533	0.995597
702.084974	0.996694
702.420366	0.995971
702.755709	0.995453
703.091002	0.996669
703.426246	0.996427
703.761440	0.995466
704.096584	0.995924
704.431679	0.995751
704.766725	0.996736
705.101721	0.995896
705.436668	0.996474
705.771565	0.995679
706.106413	0.995162
706.441212	0.996719
706.775961	0.996603
707.110661	0.995578
707.445311	0.996288
707.779913	0.997229
708.114465	0.996848
708.448967	0.996480
708.783421	0.996669
709.117825	0.996753
709.452180	0.996054
709.786485	0.995908
710.120742	0.996315
710.454949	0.995214
710.789107	0.995380
711.123216	0.994364
711.457275	0.994918
711.791286	0.995055
712.125247	0.996717
712.459159	0.995144
712.793023	0.995275
713.126837	0.995764
713.460602	0.994253
713.794318	0.994593
714.127985	0.994838
714.461602	0.995381
714.795171	0.994804
715.128691	0.996041
715.462162	0.995788
715.795584	0.994589
716.128957	0.995711
716.462281	0.996558
716.795556	0.995668
717.128782	0.995985
717.461960	0.995695
717.795088	0.996803
718.128167	0.997622
718.461198	0.996046
718.794180	0.997164
719.127113	0.996589
719.459997	0.995551
719.792833	0.995969
720.125619	0.995379
720.458357	0.996514
720.791046	0.996709
721.123686	0.997230
721.456278	0.996966
721.788821	0.995449
722.121315	0.997241
722.453761	0.996361
722.786158	0.996072
723.118506	0.997088
723.450805	0.996066
723.783056	0.996798
724.115259	0.995785
724.447412	0.996924
724.779518	0.996341
725.111574	0.995989
725.443582	0.996167
725.775542	0.997596
726.107453	0.996555
726.439315	0.996926
726.771129	0.997562
727.102895	0.996687
727.434612	0.995557
727.766281	0.995931
728.097901	0.995123
728.429473	0.996341
728.760996	0.995391
729.092471	0.995672
729.423897	0.995866
729.755276	0.996096
730.086606	0.995716
730.417887	0.996728
730.749120	0.996826
731.080305	0.995694
731.411442	0.995895
731.742530	0.995124
732.073570	0.994333
732.404562	0.995450
732.735506	0.996159
733.066401	0.995238
733.397249	0.995086
733.728048	0.995080
734.058798	0.996079
734.389501	0.996607
734.720156	0.996406
735.050762	0.996340
735.381320	0.996127
735.711831	0.994840
736.042293	0.996286
736.372707	0.997290
736.703073	0.995472
737.033391	0.996294
737.363661	0.996553
737.693883	0.996374
738.024056	0.995557
738.354182	0.996303
738.684260	0.996104
739.014290	0.996396
739.344272	0.995369
739.674207	0.997258
740.004093	0.996130
740.333931	0.996976
740.663722	0.995983
740.993464	0.996179
741.323159	0.995447
741.652806	0.995985
741.982405	0.995683
742.311956	0.996513
742.641460	0.995881
742.970915	0.995615
743.300323	0.995296
743.629683	0.995708
743.958996	0.997089
744.288260	0.995371
744.617477	0.996811
744.946647	0.996408
745.275768	0.997310
745.604842	0.996212
745.933869	0.997040
746.262847	0.997444
746.591778	0.996679
746.920662	0.997047
747.249498	0.998151
747.578286	0.997819
747.907027	0.995942
748.235720	0.997532
748.564365	0.997485
748.892963	0.996478
749.221514	0.997132
749.550017	0.996155
749.878473	0.996977
750.206881	0.997713
750.535242	0.996224
750.863555	0.996344
751.191821	0.996220
751.520039	0.996389
751.848210	0.995565
752.176334	0.996116
752.504411	0.997629
752.832440	0.995780
753.160421	0.996618
753.488356	0.996427
753.816243	0.995931
754.144082	0.996099
754.471875	0.996950
754.799620	0.997674
755.127318	0.996442
755.454969	0.996395
755.782572	0.997816
756.110129	0.996310
756.437638	0.998362
756.765100	0.997223
757.092515	0.996623
757.419882	0.997530
757.747203	0.997166
758.074477	0.998081
758.401703	0.997636
758.728882	0.996631
759.056014	0.996159
759.383099	0.997557
759.710138	0.996546
760.037129	0.997329
760.364073	0.998148
760.690970	0.996568
761.017820	0.995965
761.344623	0.997441
761.671379	0.997081
761.998088	0.997565
762.324751	0.996387
762.651366	0.996590
762.977935	0.994744
763.304456	0.995382
763.630931	0.993196
763.957359	0.992538
764.283740	0.992878
764.610074	0.994960
764.936362	0.995296
765.262602	0.996093
765.588796	0.995606
765.914943	0.995576
766.241044	0.995961
766.567097	0.996400
766.893104	0.997258
767.219064	0.996586
767.544978	0.997169
767.870845	0.996518
768.196665	0.996627
768.522438	0.997756
768.848165	0.997064
769.173846	0.997730
769.499479	0.998831
769.825066	0.998066
770.150607	0.998057
770.476101	0.997207
770.801548	0.997862
771.126949	0.998542
771.452303	0.998115
771.777611	0.998013
772.102872	0.998130
772.428087	0.997385
772.753256	0.997466
773.078378	0.997235
773.403453	0.997578
773.728482	0.999383
774.053465	0.998237
774.378401	0.997771
774.703291	0.999016
775.028135	0.998324
775.352932	0.997622
775.677683	0.998408
776.002388	0.998915
776.327046	0.997996
776.651658	0.999088
776.976224	0.998287
777.300743	0.998476
777.625216	0.997054
777.949643	0.998498
778.274024	0.997074
778.598359	0.998242
778.922647	0.997847
779.246889	0.999030
779.571086	0.998612
779.895236	0.998891
780.219339	0.998866
780.543397	0.997474
780.867409	0.999252
781.191374	0.997950
781.515294	0.998709
781.839167	0.998963
782.162995	0.997904
782.486776	0.998372
782.810511	0.997764
783.134201	0.998546
783.457844	0.998799
783.781441	0.998145
784.104993	0.998663
784.428498	0.998271
784.751958	0.998668
785.075372	0.998654
785.398739	0.998593
785.722061	0.997813
786.045337	0.998084
786.368568	0.997707
786.691752	0.998004
787.014891	0.998622
787.337983	0.998173
787.661030	0.997755
787.984031	0.998175
788.306987	0.998079
788.629897	0.996513
788.952760	0.998048
789.275579	0.997623
789.598351	0.997573
789.921078	0.998516
790.243759	0.998490
790.566395	0.996529
790.888984	0.998755
791.211529	0.998997
791.534027	0.997811
791.856480	0.998489
792.178888	0.998217
792.501249	0.997978
792.823566	0.999231
793.145836	0.997828
793.468062	0.999007
793.790241	0.999226
794.112375	0.997531
794.434464	0.998562
794.756507	0.998557
795.078505	0.999279
795.400457	0.999670
795.722364	0.998338
796.044226	0.998038
796.366042	0.998169
796.687812	0.996823
797.009538	0.997382
797.331218	0.998900
797.652852	0.999353
797.974442	0.997616
798.295986	0.997791
798.617484	0.996698
798.938938	0.998525
799.260346	0.997897
799.581709	0.997194
799.903026	0.999237
800.224299	0.997094
800.545526	0.997697
800.866708	0.998187
801.187845	0.998899
801.508936	0.997761
801.829983	0.999254
802.150984	0.999363
802.471940	0.999462
802.792851	0.997972
803.113717	1.000137
803.434538	0.999358
803.755314	1.000525
804.076045	0.999154
804.396731	0.998073
804.717372	0.997104
805.037967	0.999379
805.358518	0.999444
805.679024	0.997662
805.999485	0.999272
806.319901	0.999330
806.640272	0.999990
806.960598	0.998832
807.280879	0.998340
807.601115	0.999749
807.921306	0.999438
808.241453	0.998459
808.561554	0.998194
808.881611	0.999365
809.201623	0.998080
809.521590	0.998629
809.841513	0.998818
810.161390	0.997638
810.481223	0.997696
810.801011	0.998246
811.120755	0.999554
811.440453	0.998079
811.760107	0.998249
812.079716	0.998956
812.399281	0.999377
812.718801	0.998434
813.038276	0.998833
813.357707	0.999679
813.677093	0.999267
813.996434	0.999209
814.315731	1.000556
814.634983	0.999119
814.954191	0.999946
815.273354	0.999182
815.592473	0.998129
815.911547	0.999119
816.230577	0.998045
816.549562	0.998118
816.868502	0.997454
817.187399	0.999473
817.506250	0.998066
817.825058	0.997130
818.143821	0.998191
818.462539	0.998174
818.781213	0.998487
819.099843	0.999241
819.418429	0.997787
819.736970	0.997361
820.055466	0.996013
820.373919	0.996209
820.692327	0.995098
821.010691	0.994350
821.329011	0.992560
821.647286	0.990670
821.965517	0.989428
822.283704	0.986626
822.601847	0.985200
822.919945	0.985068
823.237999	0.986128
823.556010	0.987356
823.873976	0.988013
824.191897	0.989656
824.509775	0.991020
824.827609	0.991882
825.145398	0.993195
825.463144	0.991730
825.780845	0.993508
826.098502	0.993450
826.416116	0.993076
826.733685	0.992054
827.051210	0.989845
827.368692	0.990940
827.686129	0.991565
828.003522	0.993623
828.320872	0.993735
828.638177	0.994426
828.955439	0.995908
829.272656	0.996502
829.589830	0.996685
829.906960	0.997630
830.224046	0.997588
830.541088	0.997617
830.858086	0.997612
831.175041	0.998098
831.491952	0.997552
831.808819	0.997985
832.125642	0.997459
832.442421	0.997889
832.759157	0.997808
833.075849	0.996687
833.392497	0.995321
833.709101	0.994252
834.025662	0.993886
834.342179	0.994576
834.658653	0.995908
834.975083	0.996193
835.291469	0.995721
835.607811	0.997253
835.924110	0.997174
836.240366	0.998511
836.556578	0.999088
836.872746	0.999995
837.188871	0.998880
837.504952	0.998636
837.820990	0.999629
838.136984	0.998361
838.452935	0.998193
838.768842	0.999014
839.084706	0.999226
839.400526	0.999072
839.716303	0.997518
840.032037	0.996548
840.347727	0.997182
840.663373	0.998285
840.978977	0.997443
841.294537	0.999197
841.610054	0.998780
841.925527	0.999451
842.240957	0.999754
842.556344	0.998375
842.871687	0.998796
843.186987	0.999188
843.502244	0.999326
843.817458	0.999368
844.132629	0.998929
844.447756	0.999713
844.762840	1.000207
845.077881	1.000855
845.392879	0.999166
845.707833	1.000129
846.022745	1.000254
846.337613	0.999482
846.652438	0.998979
846.967221	0.999560
847.281960	1.000115
847.596656	1.000672
847.911309	1.000008
848.225919	0.998255
848.540485	1.000329
848.855009	1.001224
849.169490	0.999931
849.483928	1.000414
849.798323	0.998614
850.112675	0.999839
850.426984	1.000121
850.741251	0.999922
851.055474	1.000025
851.369654	1.000965
851.683792	0.998943
851.997887	0.999764
852.311938	1.000893
852.625947	0.999785
852.939914	0.999212
853.253837	1.001102
853.567718	1.000970
853.881555	1.000867
854.195350	0.999911
854.509103	1.000225
854.822812	1.001133
855.136479	1.000605
855.450103	1.000239
855.763685	1.000007
856.077224	1.000393
856.390720	1.000596
856.704173	1.000400
857.017584	1.001172
857.330953	0.999828
857.644278	0.999611
857.957561	1.000649
858.270802	1.000531
858.584000	1.000904
858.897155	0.999772
859.210268	0.999970
859.523339	1.001050
859.836367	1.000017
860.149352	0.999947
860.462295	0.999354
860.775195	1.001593
861.088054	0.998854
861.400869	1.001001
861.713642	1.000146
862.026373	1.000629
862.339062	1.000486
862.651708	1.000192
862.964312	1.001129
863.276873	0.999604
863.589392	0.998916
863.901869	1.000482
864.214303	0.999971
864.526696	1.000280
864.839045	0.999569
865.151353	0.999401
865.463619	1.000509
865.775842	0.999979
866.088023	1.000807
866.400162	0.999904
866.712258	1.000026
867.024313	1.000190
867.336325	1.000961
867.648296	1.000042
867.960224	1.000209
868.272110	0.999944
868.583954	1.000820
868.895755	1.001012
869.207515	1.000255
869.519233	1.000970
869.830909	0.999117
870.142542	0.998005
870.454134	0.999756
870.765684	0.999399
871.077191	0.999837
871.388657	0.999533
871.700081	1.000765
872.011463	1.000517
872.322803	0.999949
872.634101	0.999196
872.945357	0.998797
873.256571	0.999440
873.567744	1.000481
873.878874	1.000216
874.189963	0.999160
874.501010	1.000321
874.812015	0.999680
875.122979	0.999614
875.433900	1.000206
875.744780	1.000520
876.055618	0.998814
876.366415	0.999289
876.677169	0.999207
876.987882	0.998236
877.298554	0.999721
877.609183	0.998676
877.919771	0.999835
878.230317	0.998922
878.540822	0.998266
878.851285	0.998719
879.161707	0.997448
879.472087	0.999798
879.782425	0.997138
880.092722	0.996216
880.402977	0.994229
880.713191	0.991960
881.023363	0.988866
881.333494	0.988179
881.643583	0.989890
881.953631	0.988727
882.263637	0.987658
882.573602	0.989194
882.883526	0.989757
883.193408	0.991428
883.503248	0.991965
883.813048	0.992127
884.122806	0.993612
884.432522	0.993838
884.742197	0.996389
885.051831	0.995727
885.361424	0.996408
885.670975	0.997808
885.980485	0.996827
886.289954	0.996517
886.599382	0.996803
886.908768	0.998241
887.218113	0.997141
887.527417	0.997734
887.836680	0.999301
888.145901	0.999408
888.455082	1.000540
888.764221	0.999162
889.073319	0.997449
889.382376	0.998718
889.691392	0.999124
890.000366	0.999331
890.309300	0.999368
890.618193	0.999545
890.927044	0.999024
891.235855	0.998983
891.544625	0.999033
891.853353	0.998212
892.162041	0.998532
892.470687	0.999642
892.779293	0.998484
893.087858	0.997387
893.396381	0.997243
893.704864	0.996745
894.013306	0.996516
894.321707	0.995962
894.630068	0.994593
894.938387	0.994890
895.246665	0.993322
895.554903	0.994045
895.863100	0.996805
896.171256	0.996713
896.479371	0.996524
896.787446	0.996548
897.095480	0.997322
897.403473	0.998467
897.711425	0.998731
898.019336	0.998469
898.327207	0.998585
898.635038	0.998171
898.942827	0.999281
899.250576	0.998784
899.558284	0.999675
899.865952	0.998207
900.173579	0.999025
900.481165	0.998607
900.788711	0.999200
901.096216	0.999283
901.403681	1.000469
901.711105	0.999333
902.018489	0.998191
902.325832	1.000033
902.633135	1.000188
902.940397	0.999964
903.247619	0.998756
903.554800	0.997087
903.861941	0.996322
904.169041	0.994366
904.476101	0.993053
904.783121	0.991671
905.090100	0.992894
905.397039	0.993762
905.703938	0.994891
906.010796	0.995858
906.317614	0.997826
906.624391	0.997555
906.931129	0.998483
907.237826	1.000192
907.544483	0.997985
907.851099	0.998714
908.157675	0.999833
908.464211	0.999337
908.770707	0.999177
909.077163	0.998555
909.383578	0.999619
909.689954	0.998959
909.996289	0.999739
910.302584	1.000230
910.608839	1.002019
910.915054	0.999692
911.221229	1.001446
911.527363	0.999094
911.833458	1.000112
912.139513	1.000517
912.445527	0.999942
912.751502	1.000217
913.057436	0.999438
913.363331	1.000115
913.669186	0.999755
913.975000	0.999610
914.280775	0.999659
914.586510	0.998666
914.892205	0.996708
915.197859	0.996903
915.503475	0.996096
915.809050	0.994534
916.114585	0.992623
916.420081	0.993327
916.725536	0.993188
917.030952	0.994551
917.336328	0.994344
917.641665	0.993954
917.946961	0.995184
918.252218	0.994846
918.557435	0.995839
918.862612	0.997073
919.167750	0.997067
919.472848	0.998305
919.777906	0.998651
920.082925	0.999136
920.387904	0.999490
920.692843	0.998988
920.997743	0.998142
921.302603	0.999936
921.607423	0.997389
921.912204	0.999322
922.216946	0.999652
922.521647	0.999030
922.826310	1.000203
923.130932	1.000559
923.435516	1.000327
923.740059	0.999508
924.044564	0.999713
924.349028	0.999131
924.653454	1.000540
924.957840	1.000318
925.262186	1.000758
925.566493	0.999878
925.870761	1.000823
926.174989	1.000569
926.479178	1.000368
926.783328	1.000848
927.087438	1.000783
927.391509	0.999558
927.695541	1.000097
927.999533	1.000664
928.303486	1.000197
928.607400	1.001659
928.911275	1.000811
929.215110	1.000944
929.518906	1.001279
929.822663	1.001618
930.126381	1.001577
930.430060	0.999923
930.733699	1.001412
931.037299	1.001798
931.340861	1.001375
931.644383	1.000332
931.947866	1.000329
932.251309	1.001113
932.554714	1.000742
932.858080	1.001206
933.161407	0.999121
933.464694	1.000655
933.767943	1.001176
934.071153	1.000722
934.374323	1.001305
934.677455	1.000632
934.980548	0.999887
935.283602	1.001197
935.586617	1.000570
935.889593	1.002076
936.192530	1.002244
936.495428	1.000904
936.798287	0.999918
937.101108	1.000722
937.403890	1.000420
937.706632	1.001149
938.009336	0.999821
938.312002	0.998533
938.614628	1.000544
938.917216	0.999760
939.219765	0.999681
939.522275	1.000647
939.824747	1.000641
940.127179	1.000354
940.429573	1.001836
940.731929	0.999427
941.034246	0.998897
941.336524	1.000555
941.638763	1.000132
941.940964	0.999375
942.243126	1.000226
942.545250	1.001486
942.847335	1.000367
943.149381	1.000839
943.451389	0.999727
943.753359	1.000688
944.055290	1.001763
944.357182	1.000304
944.659036	1.000998
944.960851	1.000634
945.262628	1.000901
945.564367	1.000754
945.866067	1.000806
946.167729	1.000520
946.469352	1.000875
946.770937	0.998525
947.072484	1.000853
947.373992	1.000598
947.675462	0.999775
947.976893	0.999760
948.278286	1.002444
948.579641	1.002347
948.880958	1.001163
949.182236	1.000524
949.483476	1.001330
949.784678	1.001858
950.085841	1.000844
950.386967	1.001229
950.688054	1.000520
950.989103	0.999594
951.290114	0.999802
951.591087	1.001502
951.892021	1.000650
952.192917	1.001010
952.493776	1.000940
952.794596	1.001454
953.095378	1.000101
953.396122	1.000182
953.696828	1.001111
953.997496	1.000216
954.298126	1.001420
954.598718	0.999597
954.899272	1.000060
955.199788	1.000434
955.500266	1.001440
955.800706	1.000675
956.101108	1.000335
956.401472	1.001921
956.701798	1.000281
957.002087	1.000965
957.302337	1.000654
957.602550	1.001291
957.902724	1.001224
958.202861	1.001142
958.502960	1.000634
958.803022	1.001812
959.103045	1.001392
959.403031	1.002001
959.702979	1.002689
960.002889	1.000270
960.302762	1.000470
960.602596	1.002295
960.902393	1.001358
961.202153	1.001171
961.501875	1.002246
961.801559	1.000881
962.101205	0.999813
962.400814	1.002460
962.700385	1.001604
962.999918	1.002180
963.299414	1.000918
963.598873	1.001047
963.898293	1.000845
964.197677	1.001552
964.497022	1.002602
964.796331	1.001265
965.095601	1.002580
965.394835	1.000678
965.694030	1.001921
965.993189	1.001868
966.292309	1.001543
966.591393	1.000533
966.890439	1.002686
967.189447	1.000882
967.488419	1.001954
967.787353	1.001700
968.086249	1.001685
968.385108	1.001268
968.683930	1.002272
968.982714	1.001071
969.281462	1.001048
969.580172	1.000549
969.878844	1.001160
970.177480	1.001768
970.476078	1.002488
970.774639	1.002594
971.073162	0.999254
971.371649	1.000838
971.670098	1.001024
971.968510	1.001541
972.266885	1.001127
972.565223	1.001020
972.863524	1.000833
973.161788	1.000787
973.460014	1.001435
973.758204	1.000405
974.056356	1.001157
974.354471	1.000303
974.652550	1.001602
974.950591	1.000205
975.248595	0.999970
975.546563	1.002318
975.844493	1.001254
976.142386	1.000697
976.440243	1.001142
976.738062	1.001845
977.035845	1.001143
977.333590	1.002019
977.631299	0.999892
977.928971	1.000720
978.226606	1.000574
978.524204	1.000283
978.821765	1.002483
979.119290	1.002564
979.416777	1.001746
979.714228	1.000889
980.011642	1.001419
980.309020	1.000424
980.606360	1.000934
980.903664	1.002125
981.200931	1.000286
981.498162	1.000514
981.795356	1.000725
982.092513	1.002160
982.389633	1.001200
982.686717	0.999767
982.983764	0.999977
983.280775	1.000771
983.577749	1.001800
983.874686	0.999769
984.171587	1.000378
984.468451	1.000907
984.765279	1.000602
985.062070	1.002386
985.358824	1.001625
985.655543	1.001709
985.952224	1.001288
986.248869	1.000610
986.545478	1.003045
986.842050	1.001044
987.138586	1.001131
987.435086	1.000539
987.731549	1.002095
988.027975	1.001415
988.324366	1.000740
988.620719	1.003050
988.917037	1.000327
989.213318	1.001163
989.509563	1.001392
989.805772	1.002275
990.101944	1.001730
990.398080	1.001882
990.694180	1.002375
990.990244	1.000393
991.286271	1.000019
991.582262	1.001545
991.878217	1.002021
992.174136	1.001565
992.470019	1.000695
992.765865	1.003054
993.061676	1.001202
993.357450	1.000898
993.653188	1.002891
993.948890	1.000923
994.244556	1.001461
994.540186	1.001025
994.835780	1.001436
995.131337	1.000745
995.426859	1.001389
995.722345	1.001572
996.017795	1.000271
996.313208	1.001185
996.608586	1.001055
996.903928	1.001608
997.199234	1.001034
997.494504	1.001724
997.789738	0.999923
998.084936	1.001504
998.380099	1.000154
998.675225	1.001288
998.970316	1.002133
999.265371	1.002120
999.560390	1.001587
999.855373	1.001112
1000.150320	1.002069
1000.445232	1.002278
1000.740108	1.001788
1001.034948	1.000342
1001.329752	1.001158
1001.624521	1.000846
1001.919254	1.000365
1002.213951	1.001998
1002.508613	0.999556
1002.803239	1.001175
1003.097829	1.001592
1003.392384	1.001309
1003.686903	1.001552
1003.981386	1.001469
1004.275834	1.001615
1004.570246	1.000278
1004.864623	1.001412
1005.158964	1.001632
1005.453270	1.000997
1005.747540	1.001562
1006.041775	1.002118
1006.335974	1.001655
1006.630138	1.003135
1006.924266	0.999712
1007.218359	0.999599
1007.512416	1.002006
1007.806438	1.001383
1008.100425	1.002137
1008.394376	1.002711
1008.688292	1.001182
1008.982172	1.000663
1009.276017	1.003096
1009.569827	1.002486
1009.863602	1.001085
1010.157341	1.001716
1010.451045	1.001220
1010.744714	1.002616
1011.038347	1.002423
1011.331945	1.000624
1011.625508	1.000955
1011.919036	1.001740
1012.212528	1.000337
1012.505986	1.001204
1012.799408	1.001350
1013.092795	1.001991
1013.386147	1.000833
1013.679464	1.002970
1013.972745	1.000171
1014.265992	1.001395
1014.559204	1.001067
1014.852380	1.003121
1015.145521	1.001852
1015.438628	1.001539
1015.731699	1.000769
1016.024736	1.002206
1016.317737	1.001415
1016.610703	1.001618
1016.903635	1.001467
1017.196531	1.001211
1017.489393	1.001535
1017.782219	1.000734
1018.075011	1.001327
1018.367768	1.001333
1018.660490	1.001336
1018.953177	1.001336
1019.245829	1.001336
