Dividing Wavelength (nm)	Counts (n)	Blue Motor Position (mm): 20.300000	Red Motor Position (mm): 0.000000	
326.493990	1.001497
326.888308	1.001497
327.282561	1.001497
327.676750	1.002720
328.070874	1.003300
328.464933	1.003090
328.858929	1.003230
329.252859	1.001669
329.646726	1.001634
330.040528	1.002003
330.434265	1.002601
330.827938	1.001203
331.221547	1.003165
331.615091	1.003084
332.008571	1.002536
332.401986	1.001236
332.795338	1.001368
333.188625	1.001855
333.581847	1.001633
333.975006	1.002594
334.368100	1.002143
334.761129	1.000957
335.154095	1.001966
335.546996	1.001377
335.939833	0.997570
336.332606	0.999227
336.725315	0.998123
337.117960	0.999516
337.510540	0.998895
337.903056	0.999872
338.295508	0.999570
338.687896	0.999323
339.080220	1.000172
339.472480	0.999514
339.864676	0.998795
340.256807	0.999249
340.648875	0.999567
341.040879	0.999570
341.432818	1.000899
341.824694	0.999821
342.216506	0.999564
342.608253	1.000016
342.999937	0.998619
343.391557	0.999653
343.783113	1.000826
344.174605	1.000200
344.566033	0.998906
344.957397	1.000368
345.348697	0.999291
345.739934	0.999686
346.131106	0.999016
346.522215	0.998030
346.913260	0.998658
347.304241	0.999515
347.695159	0.999447
348.086012	0.999411
348.476802	0.999284
348.867528	0.998850
349.258191	0.999109
349.648789	0.999716
350.039324	1.000057
350.429796	0.997693
350.820203	0.998158
351.210548	0.999757
351.600828	0.998956
351.991045	0.998495
352.381198	0.998646
352.771288	0.998007
353.161314	0.999163
353.551276	0.997726
353.941175	0.997250
354.331010	0.999309
354.720782	0.999830
355.110490	0.998522
355.500135	0.998310
355.889717	0.996388
356.279235	0.997505
356.668689	0.998966
357.058080	0.997894
357.447408	0.997820
357.836672	0.998055
358.225873	0.997889
358.615010	0.998890
359.004084	0.997208
359.393095	0.998914
359.782043	0.997724
360.170927	0.998634
360.559748	0.998169
360.948505	0.997434
361.337199	0.996857
361.725830	0.998155
362.114398	0.997598
362.502903	0.996410
362.891344	0.996285
363.279722	0.996744
363.668037	0.997777
364.056289	0.998594
364.444478	0.998768
364.832603	0.996865
365.220665	0.997309
365.608665	0.996878
365.996601	0.996676
366.384474	0.996432
366.772284	0.996218
367.160031	0.995346
367.547715	0.995900
367.935336	0.994680
368.322893	0.994014
368.710388	0.992109
369.097820	0.990574
369.485189	0.989023
369.872495	0.986905
370.259738	0.985076
370.646918	0.982745
371.034035	0.979115
371.421090	0.977064
371.808081	0.971643
372.195010	0.969812
372.581875	0.964294
372.968678	0.959671
373.355418	0.956378
373.742096	0.948749
374.128710	0.944450
374.515262	0.940153
374.901751	0.934100
375.288177	0.929049
375.674540	0.922762
376.060841	0.915544
376.447079	0.908767
376.833254	0.902245
377.219367	0.898350
377.605417	0.884987
377.991404	0.883594
378.377329	0.876045
378.763191	0.870252
379.148991	0.860907
379.534727	0.853506
379.920402	0.845532
380.306013	0.841618
380.691563	0.829632
381.077049	0.822203
381.462474	0.818713
381.847835	0.806786
382.233134	0.802557
382.618371	0.802634
383.003545	0.785946
383.388657	0.784109
383.773706	0.775928
384.158693	0.771953
384.543618	0.766579
384.928480	0.757433
385.313280	0.748118
385.698017	0.746510
386.082692	0.735505
386.467305	0.734037
386.851856	0.729111
387.236344	0.724262
387.620770	0.717131
388.005133	0.712080
388.389435	0.706657
388.773674	0.704306
389.157851	0.695960
389.541965	0.693735
389.926018	0.699883
390.310008	0.686964
390.693936	0.683591
391.077802	0.676450
391.461606	0.676950
391.845348	0.666462
392.229027	0.665993
392.612645	0.664920
392.996200	0.651105
393.379694	0.644025
393.763125	0.634024
394.146494	0.638533
394.529801	0.629532
394.913047	0.621263
395.296230	0.627855
395.679351	0.619613
396.062410	0.615947
396.445408	0.617679
396.828343	0.613661
397.211217	0.609249
397.594028	0.621024
397.976778	0.611360
398.359466	0.608050
398.742092	0.603136
399.124656	0.615177
399.507158	0.603090
399.889598	0.600489
400.271977	0.591556
400.654294	0.595838
401.036549	0.594686
401.418742	0.598675
401.800874	0.584681
402.182944	0.581341
402.564952	0.573131
402.946898	0.575648
403.328783	0.576470
403.710606	0.586900
404.092367	0.561661
404.474067	0.567512
404.855705	0.565477
405.237282	0.574587
405.618797	0.561496
406.000250	0.556425
406.381642	0.546655
406.762972	0.552158
407.144240	0.550516
407.525447	0.549976
407.906593	0.543152
408.287677	0.538688
408.668700	0.547022
409.049661	0.541529
409.430560	0.536683
409.811399	0.545185
410.192176	0.527414
410.572891	0.533446
410.953545	0.522021
411.334138	0.535834
411.714669	0.527406
412.095139	0.540253
412.475547	0.524003
412.855894	0.526176
413.236180	0.524364
413.616405	0.530086
413.996568	0.520766
414.376670	0.526579
414.756711	0.531383
415.136691	0.528786
415.516609	0.519827
415.896466	0.516574
416.276262	0.512456
416.655997	0.513913
417.035670	0.496282
417.415283	0.487691
417.794834	0.492270
418.174324	0.497914
418.553753	0.506386
418.933121	0.488614
419.312428	0.483088
419.691674	0.488777
420.070859	0.476941
420.449983	0.485259
420.829045	0.473879
421.208047	0.483508
421.586988	0.475806
421.965867	0.474783
422.344686	0.463757
422.723444	0.476204
423.102141	0.493463
423.480777	0.466259
423.859352	0.486761
424.237866	0.463664
424.616319	0.464671
424.994712	0.455785
425.373044	0.466036
425.751314	0.453833
426.129524	0.470626
426.507673	0.454238
426.885762	0.447760
427.263789	0.453629
427.641756	0.462608
428.019662	0.453148
428.397508	0.452565
428.775292	0.456111
429.153016	0.448438
429.530679	0.454629
429.908282	0.448115
430.285824	0.458217
430.663305	0.436677
431.040726	0.457484
431.418086	0.457734
431.795385	0.449215
432.172624	0.448477
432.549802	0.448606
432.926920	0.447312
433.303977	0.446837
433.680974	0.444411
434.057910	0.442554
434.434786	0.442380
434.811601	0.445378
435.188355	0.427480
435.565050	0.436645
435.941683	0.437749
436.318257	0.421295
436.694770	0.422984
437.071222	0.420963
437.447614	0.425495
437.823946	0.431954
438.200218	0.421510
438.576429	0.430320
438.952580	0.423854
439.328670	0.420190
439.704700	0.427160
440.080670	0.428367
440.456580	0.409258
440.832429	0.417455
441.208218	0.428166
441.583947	0.417477
441.959616	0.416866
442.335224	0.422380
442.710773	0.413144
443.086261	0.411305
443.461689	0.424442
443.837057	0.414956
444.212365	0.404618
444.587612	0.412152
444.962800	0.402065
445.337927	0.403869
445.712995	0.429409
446.088002	0.391748
446.462949	0.401910
446.837837	0.406874
447.212664	0.395107
447.587431	0.387090
447.962139	0.357399
448.336786	0.316253
448.711374	0.326936
449.085901	0.371427
449.460369	0.375668
449.834776	0.379018
450.209124	0.358052
450.583412	0.350949
450.957640	0.344147
451.331808	0.355579
451.705917	0.378793
452.079965	0.383382
452.453954	0.372092
452.827883	0.378522
453.201752	0.373050
453.575562	0.384269
453.949311	0.373195
454.323001	0.379076
454.696632	0.375477
455.070202	0.367954
455.443713	0.359485
455.817164	0.354205
456.190556	0.350035
456.563888	0.346902
456.937160	0.344368
457.310373	0.361474
457.683526	0.360933
458.056619	0.366333
458.429653	0.366775
458.802628	0.370548
459.175542	0.364683
459.548398	0.347230
459.921194	0.339812
460.293930	0.339811
460.666607	0.317272
461.039224	0.305673
461.411782	0.300965
461.784280	0.300321
462.156719	0.304637
462.529099	0.308789
462.901419	0.325189
463.273680	0.329551
463.645882	0.328795
464.018024	0.334852
464.390106	0.327569
464.762130	0.312232
465.134094	0.295148
465.505999	0.264210
465.877845	0.234335
466.249631	0.221449
466.621358	0.228993
466.993026	0.242853
467.364634	0.248684
467.736184	0.257947
468.107674	0.266821
468.479105	0.265753
468.850477	0.272568
469.221790	0.279550
469.593043	0.289520
469.964238	0.294395
470.335373	0.293910
470.706449	0.292186
471.077467	0.292661
471.448425	0.254618
471.819324	0.230138
472.190164	0.229657
472.560945	0.258808
472.931667	0.281409
473.302330	0.285350
473.672934	0.297021
474.043479	0.285043
474.413965	0.287037
474.784393	0.290546
475.154761	0.285580
475.525070	0.282704
475.895321	0.288704
476.265513	0.282463
476.635645	0.278025
477.005719	0.277993
477.375734	0.274662
477.745691	0.267863
478.115588	0.264272
478.485427	0.257517
478.855207	0.244668
479.224928	0.226822
479.594591	0.215229
479.964194	0.218728
480.333739	0.220083
480.703226	0.221643
481.072653	0.219885
481.442022	0.215748
481.811333	0.212733
482.180584	0.215996
482.549777	0.221701
482.918912	0.225087
483.287988	0.224885
483.657005	0.224517
484.025964	0.231236
484.394864	0.228730
484.763706	0.229726
485.132489	0.234761
485.501213	0.235869
485.869879	0.234309
486.238487	0.237888
486.607036	0.236066
486.975527	0.241298
487.343959	0.237460
487.712333	0.236579
488.080648	0.238321
488.448905	0.237942
488.817104	0.239703
489.185244	0.234650
489.553326	0.232039
489.921350	0.222490
490.289315	0.205772
490.657222	0.201249
491.025070	0.203394
491.392861	0.205877
491.760593	0.212352
492.128267	0.218446
492.495883	0.224617
492.863440	0.231694
493.230939	0.238763
493.598380	0.241154
493.965763	0.244299
494.333088	0.247063
494.700354	0.249524
495.067563	0.249456
495.434713	0.254347
495.801805	0.252990
496.168839	0.255667
496.535815	0.258409
496.902733	0.259115
497.269593	0.262092
497.636395	0.260587
498.003139	0.263392
498.369825	0.267419
498.736453	0.265593
499.103023	0.268536
499.469535	0.269834
499.835989	0.271565
500.202385	0.274031
500.568723	0.279429
500.935003	0.276173
501.301226	0.283236
501.667390	0.279062
502.033497	0.279667
502.399546	0.284166
502.765537	0.288285
503.131470	0.289135
503.497345	0.288378
503.863163	0.298603
504.228923	0.294699
504.594625	0.295591
504.960269	0.303590
505.325856	0.302088
505.691385	0.309138
506.056856	0.308298
506.422270	0.311447
506.787625	0.316264
507.152924	0.317334
507.518164	0.320153
507.883347	0.325376
508.248472	0.330151
508.613540	0.329015
508.978550	0.335053
509.343503	0.338620
509.708398	0.340677
510.073236	0.341851
510.438016	0.345283
510.802738	0.350314
511.167403	0.353412
511.532010	0.360130
511.896561	0.358606
512.261053	0.362060
512.625488	0.368494
512.989866	0.373244
513.354186	0.377438
513.718449	0.384765
514.082655	0.385086
514.446803	0.392326
514.810894	0.395129
515.174927	0.402718
515.538904	0.406309
515.902822	0.408912
516.266684	0.415673
516.630488	0.422321
516.994235	0.425394
517.357925	0.430629
517.721558	0.433606
518.085133	0.439076
518.448651	0.443224
518.812112	0.450798
519.175516	0.456378
519.538863	0.459596
519.902152	0.465558
520.265385	0.470203
520.628560	0.475046
520.991678	0.482423
521.354739	0.486343
521.717743	0.492203
522.080690	0.497904
522.443580	0.502733
522.806413	0.508918
523.169189	0.513885
523.531908	0.518568
523.894569	0.526940
524.257174	0.532898
524.619722	0.537291
524.982213	0.542871
525.344647	0.549450
525.707025	0.554769
526.069345	0.559253
526.431608	0.567385
526.793815	0.571338
527.155964	0.579891
527.518057	0.584302
527.880093	0.590956
528.242072	0.594969
528.603995	0.602954
528.965860	0.609511
529.327669	0.614304
529.689421	0.620207
530.051117	0.626534
530.412755	0.632568
530.774337	0.637570
531.135862	0.645718
531.497331	0.648808
531.858743	0.657132
532.220098	0.660385
532.581396	0.667940
532.942638	0.673556
533.303824	0.679562
533.664953	0.684633
534.026025	0.691454
534.387040	0.695424
534.747999	0.700610
535.108902	0.706041
535.469748	0.713530
535.830537	0.717421
536.191270	0.723007
536.551947	0.728531
536.912567	0.732940
537.273131	0.739362
537.633638	0.743805
537.994089	0.749945
538.354483	0.754235
538.714821	0.758417
539.075103	0.763133
539.435328	0.768307
539.795497	0.773929
540.155609	0.778448
540.515665	0.782160
540.875665	0.787792
541.235609	0.792555
541.595496	0.796388
541.955328	0.801307
542.315102	0.805579
542.674821	0.810221
543.034483	0.814444
543.394090	0.818368
543.753640	0.822851
544.113134	0.826319
544.472571	0.831057
544.831953	0.834649
545.191278	0.839383
545.550548	0.842673
545.909761	0.846026
546.268918	0.850732
546.628019	0.853537
546.987064	0.857730
547.346053	0.861048
547.704986	0.864370
548.063863	0.868274
548.422684	0.871381
548.781449	0.875214
549.140158	0.878280
549.498811	0.881533
549.857408	0.884583
550.215949	0.886928
550.574434	0.890982
550.932864	0.893992
551.291237	0.895839
551.649555	0.900204
552.007817	0.902506
552.366022	0.904694
552.724173	0.907840
553.082267	0.909392
553.440305	0.912249
553.798288	0.914216
554.156215	0.916929
554.514086	0.919736
554.871902	0.921930
555.229661	0.923627
555.587365	0.926133
555.945014	0.928406
556.302606	0.930304
556.660143	0.933181
557.017625	0.934694
557.375050	0.936530
557.732421	0.938681
558.089735	0.940172
558.446994	0.941798
558.804197	0.944172
559.161345	0.946032
559.518437	0.947309
559.875474	0.949306
560.232455	0.950841
560.589381	0.952318
560.946251	0.953646
561.303065	0.955280
561.659825	0.956357
562.016528	0.958330
562.373177	0.959156
562.729770	0.961008
563.086307	0.961055
563.442789	0.962654
563.799216	0.963355
564.155587	0.965469
564.511904	0.966790
564.868164	0.967004
565.224370	0.968374
565.580520	0.969665
565.936615	0.970675
566.292654	0.971433
566.648638	0.972256
567.004567	0.973165
567.360441	0.974097
567.716260	0.974537
568.072023	0.974748
568.427732	0.976276
568.783385	0.976561
569.138982	0.977926
569.494525	0.978198
569.850013	0.979737
570.205445	0.979811
570.560823	0.980548
570.916145	0.980626
571.271412	0.981139
571.626625	0.982135
571.981782	0.982602
572.336884	0.983347
572.691931	0.983600
573.046923	0.984393
573.401860	0.984306
573.756743	0.985076
574.111570	0.984503
574.466342	0.986026
574.821059	0.985357
575.175722	0.986095
575.530330	0.987142
575.884882	0.987154
576.239380	0.987406
576.593823	0.987120
576.948211	0.987860
577.302544	0.987590
577.656823	0.988620
578.011047	0.987368
578.365216	0.988991
578.719330	0.988658
579.073389	0.988137
579.427394	0.988457
579.781344	0.989865
580.135239	0.988279
580.489080	0.989515
580.842866	0.989352
581.196597	0.989113
581.550273	0.989527
581.903895	0.989995
582.257463	0.990156
582.610975	0.990571
582.964434	0.990211
583.317837	0.991102
583.671186	0.991017
584.024481	0.990912
584.377721	0.989852
584.730906	0.991393
585.084037	0.992102
585.437113	0.990725
585.790135	0.990921
586.143103	0.991299
586.496016	0.991094
586.848874	0.991706
587.201679	0.991849
587.554428	0.991976
587.907124	0.992110
588.259765	0.992613
588.612352	0.992557
588.964884	0.992595
589.317362	0.991778
589.669786	0.991692
590.022155	0.992536
590.374470	0.992151
590.726731	0.990973
591.078937	0.992712
591.431090	0.992543
591.783188	0.992126
592.135232	0.993144
592.487222	0.992469
592.839157	0.992315
593.191038	0.992285
593.542866	0.992981
593.894639	0.991925
594.246358	0.993218
594.598022	0.993046
594.949633	0.993542
595.301190	0.993037
595.652692	0.992680
596.004141	0.992879
596.355535	0.992755
596.706876	0.992935
597.058162	0.993334
597.409395	0.993888
597.760573	0.993184
598.111698	0.992385
598.462768	0.992550
598.813785	0.992605
599.164748	0.992767
599.515657	0.992547
599.866511	0.994024
600.217312	0.993479
600.568060	0.992900
600.918753	0.993165
601.269392	0.993171
601.619978	0.993663
601.970510	0.993767
602.320988	0.993290
602.671412	0.993184
603.021783	0.993957
603.372100	0.993944
603.722363	0.993490
604.072572	0.993834
604.422728	0.993068
604.772830	0.993426
605.122878	0.994083
605.472872	0.994732
605.822813	0.993477
606.172701	0.993763
606.522534	0.994068
606.872314	0.994581
607.222041	0.993656
607.571714	0.994411
607.921333	0.993805
608.270899	0.993325
608.620411	0.993984
608.969870	0.994027
609.319276	0.993953
609.668627	0.993269
610.017926	0.993119
610.367171	0.993702
610.716362	0.993779
611.065500	0.993458
611.414585	0.993575
611.763616	0.992618
612.112594	0.993376
612.461518	0.992748
612.810389	0.993596
613.159207	0.994083
613.507971	0.992855
613.856682	0.994709
614.205340	0.993049
614.553945	0.994014
614.902496	0.992917
615.250994	0.994033
615.599439	0.994270
615.947830	0.992789
616.296169	0.993746
616.644454	0.993970
616.992686	0.993611
617.340864	0.993586
617.688990	0.992806
618.037063	0.994142
618.385082	0.993280
618.733048	0.993625
619.080961	0.993594
619.428821	0.994140
619.776628	0.993229
620.124382	0.993752
620.472083	0.993751
620.819731	0.994257
621.167326	0.993913
621.514868	0.993420
621.862357	0.993115
622.209793	0.993623
622.557176	0.992967
622.904506	0.993355
623.251783	0.993635
623.599007	0.993991
623.946179	0.993229
624.293297	0.993918
624.640363	0.994591
624.987376	0.993420
625.334336	0.993406
625.681243	0.994021
626.028097	0.994206
626.374899	0.994208
626.721647	0.994663
627.068343	0.993806
627.414987	0.993944
627.761577	0.993331
628.108115	0.993583
628.454600	0.994192
628.801032	0.994154
629.147412	0.994320
629.493739	0.994638
629.840014	0.993801
630.186236	0.994229
630.532405	0.993888
630.878521	0.993174
631.224585	0.993546
631.570597	0.993707
631.916556	0.994440
632.262462	0.993634
632.608316	0.994266
632.954117	0.992719
633.299866	0.993251
633.645562	0.993416
633.991206	0.994270
634.336797	0.994315
634.682336	0.994797
635.027823	0.993910
635.373257	0.994588
635.718639	0.994463
636.063968	0.993998
636.409245	0.993259
636.754470	0.994032
637.099642	0.994356
637.444762	0.993732
637.789829	0.994182
638.134845	0.993620
638.479808	0.993917
638.824719	0.993989
639.169577	0.994331
639.514383	0.994781
639.859137	0.994688
640.203839	0.994583
640.548489	0.994110
640.893086	0.994091
641.237632	0.994762
641.582125	0.993685
641.926566	0.994386
642.270955	0.994203
642.615292	0.993785
642.959576	0.994867
643.303809	0.994244
643.647990	0.994312
643.992118	0.994051
644.336195	0.993937
644.680219	0.994870
645.024192	0.994133
645.368112	0.994631
645.711981	0.993401
646.055797	0.993933
646.399562	0.993625
646.743274	0.994231
647.086935	0.993678
647.430544	0.994336
647.774101	0.992725
648.117606	0.993643
648.461059	0.994735
648.804460	0.994019
649.147810	0.993521
649.491108	0.993375
649.834354	0.993428
650.177548	0.993327
650.520690	0.992914
650.863781	0.993320
651.206820	0.994189
651.549807	0.993731
651.892742	0.994327
652.235626	0.994865
652.578458	0.993710
652.921238	0.993570
653.263967	0.994136
653.606644	0.994238
653.949269	0.994389
654.291843	0.993833
654.634365	0.994848
654.976836	0.994076
655.319255	0.993967
655.661622	0.995435
656.003938	0.993969
656.346203	0.993725
656.688416	0.995216
657.030577	0.993461
657.372687	0.994087
657.714746	0.994256
658.056753	0.993744
658.398708	0.993459
658.740612	0.995215
659.082465	0.994152
659.424266	0.994325
659.766016	0.993337
660.107715	0.994203
660.449362	0.993384
660.790958	0.993895
661.132503	0.994274
661.473996	0.993500
661.815438	0.994201
662.156829	0.994117
662.498168	0.994803
662.839456	0.992740
663.180693	0.994349
663.521879	0.994097
663.863013	0.994203
664.204097	0.993945
664.545129	0.993901
664.886110	0.994297
665.227040	0.993609
665.567918	0.993785
665.908746	0.992747
666.249522	0.993242
666.590248	0.993983
666.930922	0.994191
667.271545	0.994267
667.612118	0.993360
667.952639	0.993667
668.293109	0.993697
668.633528	0.994146
668.973896	0.994455
669.314213	0.993653
669.654480	0.993614
669.994695	0.993267
670.334859	0.993582
670.674973	0.993342
671.015035	0.993556
671.355047	0.994162
671.695008	0.993346
672.034918	0.993448
672.374777	0.994285
672.714585	0.993463
673.054342	0.993830
673.394049	0.993116
673.733705	0.992727
674.073310	0.994375
674.412864	0.993877
674.752368	0.993381
675.091820	0.994358
675.431223	0.994455
675.770574	0.992871
676.109875	0.993945
676.449125	0.993283
676.788324	0.992686
677.127473	0.994142
677.466571	0.994108
677.805619	0.993317
678.144616	0.993876
678.483562	0.994555
678.822458	0.994437
679.161303	0.993873
679.500098	0.994181
679.838842	0.993767
680.177535	0.993975
680.516179	0.993275
680.854771	0.993036
681.193314	0.994209
681.531805	0.993517
681.870247	0.993760
682.208638	0.993509
682.546978	0.993111
682.885268	0.992609
683.223508	0.993202
683.561697	0.992912
683.899836	0.993323
684.237925	0.993277
684.575963	0.993956
684.913951	0.994109
685.251889	0.993494
685.589776	0.993158
685.927614	0.994426
686.265401	0.993311
686.603137	0.992541
686.940824	0.993373
687.278460	0.993735
687.616046	0.992384
687.953582	0.993021
688.291068	0.993675
688.628504	0.994154
688.965889	0.993194
689.303224	0.991929
689.640510	0.993546
689.977745	0.993150
690.314930	0.992343
690.652065	0.993250
690.989150	0.991897
691.326185	0.993075
691.663170	0.993799
692.000105	0.993381
692.336990	0.993443
692.673825	0.993250
693.010610	0.992907
693.347345	0.993128
693.684030	0.993007
694.020665	0.993149
694.357251	0.993298
694.693786	0.993389
695.030272	0.993009
695.366707	0.994450
695.703093	0.993026
696.039429	0.993658
696.375716	0.994481
696.711952	0.993212
697.048139	0.993923
697.384276	0.994527
697.720363	0.994325
698.056400	0.992599
698.392388	0.993084
698.728326	0.994637
699.064214	0.994466
699.400053	0.993818
699.735842	0.994719
700.071581	0.993089
700.407270	0.994478
700.742910	0.995309
701.078501	0.993951
701.414042	0.995199
701.749533	0.993315
702.084974	0.993723
702.420366	0.995136
702.755709	0.993589
703.091002	0.994750
703.426246	0.994412
703.761440	0.994224
704.096584	0.993750
704.431679	0.994085
704.766725	0.994057
705.101721	0.994837
705.436668	0.995042
705.771565	0.994098
706.106413	0.993412
706.441212	0.994665
706.775961	0.994720
707.110661	0.993640
707.445311	0.994337
707.779913	0.994582
708.114465	0.995104
708.448967	0.993829
708.783421	0.995054
709.117825	0.993733
709.452180	0.993816
709.786485	0.994273
710.120742	0.993481
710.454949	0.993171
710.789107	0.994056
711.123216	0.992650
711.457275	0.993460
711.791286	0.993492
712.125247	0.994452
712.459159	0.992819
712.793023	0.993437
713.126837	0.994175
713.460602	0.992335
713.794318	0.993147
714.127985	0.992279
714.461602	0.993752
714.795171	0.993473
715.128691	0.994063
715.462162	0.993976
715.795584	0.993333
716.128957	0.993917
716.462281	0.994686
716.795556	0.993212
717.128782	0.994561
717.461960	0.993475
717.795088	0.993837
718.128167	0.994979
718.461198	0.994385
718.794180	0.993902
719.127113	0.993909
719.459997	0.994605
719.792833	0.994077
720.125619	0.993678
720.458357	0.993911
720.791046	0.995569
721.123686	0.994356
721.456278	0.994277
721.788821	0.994901
722.121315	0.994624
722.453761	0.994466
722.786158	0.994778
723.118506	0.994468
723.450805	0.992935
723.783056	0.994638
724.115259	0.993054
724.447412	0.995187
724.779518	0.994351
725.111574	0.993456
725.443582	0.993566
725.775542	0.995257
726.107453	0.994868
726.439315	0.995061
726.771129	0.995044
727.102895	0.994942
727.434612	0.993917
727.766281	0.994151
728.097901	0.992832
728.429473	0.994143
728.760996	0.993243
729.092471	0.993332
729.423897	0.994465
729.755276	0.994290
730.086606	0.993163
730.417887	0.994118
730.749120	0.993669
731.080305	0.994207
731.411442	0.993353
731.742530	0.993171
732.073570	0.992858
732.404562	0.993431
732.735506	0.993455
733.066401	0.994045
733.397249	0.993480
733.728048	0.993009
734.058798	0.993957
734.389501	0.994978
734.720156	0.994475
735.050762	0.995051
735.381320	0.994506
735.711831	0.994129
736.042293	0.993778
736.372707	0.995807
736.703073	0.993752
737.033391	0.994458
737.363661	0.994992
737.693883	0.994437
738.024056	0.994158
738.354182	0.994797
738.684260	0.994737
739.014290	0.993639
739.344272	0.993885
739.674207	0.994592
740.004093	0.994477
740.333931	0.994473
740.663722	0.993145
740.993464	0.994337
741.323159	0.992755
741.652806	0.994273
741.982405	0.994010
742.311956	0.994794
742.641460	0.995100
742.970915	0.994358
743.300323	0.993730
743.629683	0.993965
743.958996	0.995484
744.288260	0.994881
744.617477	0.995246
744.946647	0.994542
745.275768	0.995409
745.604842	0.993473
745.933869	0.994892
746.262847	0.996037
746.591778	0.994082
746.920662	0.996373
747.249498	0.995553
747.578286	0.996903
747.907027	0.995558
748.235720	0.994743
748.564365	0.995132
748.892963	0.995064
749.221514	0.995073
749.550017	0.994350
749.878473	0.995076
750.206881	0.995389
750.535242	0.994888
750.863555	0.994973
751.191821	0.994452
751.520039	0.994206
751.848210	0.993290
752.176334	0.995867
752.504411	0.995112
752.832440	0.993726
753.160421	0.994669
753.488356	0.996044
753.816243	0.995297
754.144082	0.994687
754.471875	0.995453
754.799620	0.995750
755.127318	0.995218
755.454969	0.995147
755.782572	0.996433
756.110129	0.994857
756.437638	0.995749
756.765100	0.996213
757.092515	0.994765
757.419882	0.995488
757.747203	0.994970
758.074477	0.996798
758.401703	0.994713
758.728882	0.995583
759.056014	0.994468
759.383099	0.994328
759.710138	0.994855
760.037129	0.995212
760.364073	0.995231
760.690970	0.994372
761.017820	0.993977
761.344623	0.994903
761.671379	0.995679
761.998088	0.994502
762.324751	0.994357
762.651366	0.994199
762.977935	0.992638
763.304456	0.991637
763.630931	0.989138
763.957359	0.988284
764.283740	0.990207
764.610074	0.991541
764.936362	0.991604
765.262602	0.993523
765.588796	0.993899
765.914943	0.993637
766.241044	0.994596
766.567097	0.995306
766.893104	0.994628
767.219064	0.994547
767.544978	0.995279
767.870845	0.995526
768.196665	0.994783
768.522438	0.995900
768.848165	0.996028
769.173846	0.996103
769.499479	0.997532
769.825066	0.996714
770.150607	0.996209
770.476101	0.996382
770.801548	0.996560
771.126949	0.996173
771.452303	0.996441
771.777611	0.996181
772.102872	0.996228
772.428087	0.995735
772.753256	0.996687
773.078378	0.996156
773.403453	0.995294
773.728482	0.998004
774.053465	0.995904
774.378401	0.995905
774.703291	0.996815
775.028135	0.998418
775.352932	0.995405
775.677683	0.997620
776.002388	0.997488
776.327046	0.996088
776.651658	0.997686
776.976224	0.996811
777.300743	0.996558
777.625216	0.996014
777.949643	0.997399
778.274024	0.996670
778.598359	0.997129
778.922647	0.997788
779.246889	0.997759
779.571086	0.997276
779.895236	0.996941
780.219339	0.997564
780.543397	0.997000
780.867409	0.997497
781.191374	0.996643
781.515294	0.998762
781.839167	0.997594
782.162995	0.997154
782.486776	0.997344
782.810511	0.998250
783.134201	0.997569
783.457844	0.998171
783.781441	0.996906
784.104993	0.997311
784.428498	0.997726
784.751958	0.998437
785.075372	0.999084
785.398739	0.996985
785.722061	0.996743
786.045337	0.997790
786.368568	0.997314
786.691752	0.997294
787.014891	0.997268
787.337983	0.995548
787.661030	0.996297
787.984031	0.996651
788.306987	0.997426
788.629897	0.994815
788.952760	0.996539
789.275579	0.996965
789.598351	0.995619
789.921078	0.997750
790.243759	0.996925
790.566395	0.995797
790.888984	0.997831
791.211529	0.997480
791.534027	0.997546
791.856480	0.997451
792.178888	0.996984
792.501249	0.997811
792.823566	0.999199
793.145836	0.997503
793.468062	0.998145
793.790241	0.998379
794.112375	0.996953
794.434464	0.996769
794.756507	0.997174
795.078505	0.998312
795.400457	0.997288
795.722364	0.997055
796.044226	0.997364
796.366042	0.995985
796.687812	0.996153
797.009538	0.996855
797.331218	0.996841
797.652852	0.996573
797.974442	0.995847
798.295986	0.997039
798.617484	0.996124
798.938938	0.996683
799.260346	0.996937
799.581709	0.996851
799.903026	0.996486
800.224299	0.996239
800.545526	0.996227
800.866708	0.997059
801.187845	0.997152
801.508936	0.997391
801.829983	0.998262
802.150984	0.997690
802.471940	0.997978
802.792851	0.997277
803.113717	0.998257
803.434538	0.998815
803.755314	0.999079
804.076045	0.997657
804.396731	0.996630
804.717372	0.996207
805.037967	0.997972
805.358518	0.997513
805.679024	0.997602
805.999485	0.997269
806.319901	0.997940
806.640272	0.998358
806.960598	0.997064
807.280879	0.997406
807.601115	0.998356
807.921306	0.998284
808.241453	0.997055
808.561554	0.997464
808.881611	0.997192
809.201623	0.998044
809.521590	0.996947
809.841513	0.997851
810.161390	0.996704
810.481223	0.997210
810.801011	0.997691
811.120755	0.999423
811.440453	0.997788
811.760107	0.997706
812.079716	0.996749
812.399281	0.997608
812.718801	0.997749
813.038276	0.997779
813.357707	0.998046
813.677093	0.997721
813.996434	0.997562
814.315731	0.999413
814.634983	0.998899
814.954191	0.998076
815.273354	0.996999
815.592473	0.998173
815.911547	0.998769
816.230577	0.997711
816.549562	0.996767
816.868502	0.996976
817.187399	0.998304
817.506250	0.997738
817.825058	0.996177
818.143821	0.997218
818.462539	0.996359
818.781213	0.995850
819.099843	0.996645
819.418429	0.995338
819.736970	0.995165
820.055466	0.993741
820.373919	0.992474
820.692327	0.992715
821.010691	0.991318
821.329011	0.987678
821.647286	0.984547
821.965517	0.981150
822.283704	0.976296
822.601847	0.975397
822.919945	0.976149
823.237999	0.978240
823.556010	0.979311
823.873976	0.982309
824.191897	0.984384
824.509775	0.986330
824.827609	0.988164
825.145398	0.988970
825.463144	0.987363
825.780845	0.987951
826.098502	0.989016
826.416116	0.988325
826.733685	0.985077
827.051210	0.983110
827.368692	0.983182
827.686129	0.984809
828.003522	0.988248
828.320872	0.988433
828.638177	0.991543
828.955439	0.993438
829.272656	0.993330
829.589830	0.994039
829.906960	0.994655
830.224046	0.995768
830.541088	0.996356
830.858086	0.995591
831.175041	0.997989
831.491952	0.996708
831.808819	0.995451
832.125642	0.996267
832.442421	0.996188
832.759157	0.996494
833.075849	0.991685
833.392497	0.991996
833.709101	0.987946
834.025662	0.988359
834.342179	0.989713
834.658653	0.992065
834.975083	0.992580
835.291469	0.993407
835.607811	0.995210
835.924110	0.995576
836.240366	0.997494
836.556578	0.996301
836.872746	0.997542
837.188871	0.996654
837.504952	0.997367
837.820990	0.998620
838.136984	0.997845
838.452935	0.997587
838.768842	0.998357
839.084706	0.997642
839.400526	0.997461
839.716303	0.994839
840.032037	0.995735
840.347727	0.993717
840.663373	0.995511
840.978977	0.995774
841.294537	0.997929
841.610054	0.996869
841.925527	0.998085
842.240957	0.998719
842.556344	0.997664
842.871687	0.998406
843.186987	0.999550
843.502244	0.999082
843.817458	0.998162
844.132629	0.997262
844.447756	0.999395
844.762840	0.998271
845.077881	0.999830
845.392879	0.997338
845.707833	0.998801
846.022745	0.999145
846.337613	0.999575
846.652438	0.999289
846.967221	1.000213
847.281960	1.000573
847.596656	0.999872
847.911309	0.999530
848.225919	0.999604
848.540485	0.999439
848.855009	1.000873
849.169490	0.999634
849.483928	0.998961
849.798323	0.998080
850.112675	1.000488
850.426984	1.000389
850.741251	1.000133
851.055474	1.000195
851.369654	0.999929
851.683792	0.998959
851.997887	1.000138
852.311938	1.000770
852.625947	0.998789
852.939914	0.999582
853.253837	1.000606
853.567718	0.999913
853.881555	0.998503
854.195350	0.999780
854.509103	0.999134
854.822812	0.999364
855.136479	0.999530
855.450103	0.999548
855.763685	0.999408
856.077224	1.000060
856.390720	0.998684
856.704173	1.000810
857.017584	1.000892
857.330953	0.999761
857.644278	0.999637
857.957561	0.998894
858.270802	0.999606
858.584000	0.999908
858.897155	0.998680
859.210268	1.000092
859.523339	1.000039
859.836367	0.999659
860.149352	1.000381
860.462295	1.000323
860.775195	0.999923
861.088054	0.998317
861.400869	0.999399
861.713642	0.998509
862.026373	0.999924
862.339062	0.999642
862.651708	0.999369
862.964312	0.999631
863.276873	0.999285
863.589392	1.000284
863.901869	0.999474
864.214303	0.999523
864.526696	0.998705
864.839045	0.999191
865.151353	0.999834
865.463619	0.998553
865.775842	0.999501
866.088023	1.000239
866.400162	0.999666
866.712258	1.001119
867.024313	0.999641
867.336325	1.000959
867.648296	1.000511
867.960224	0.999828
868.272110	1.000522
868.583954	0.998919
868.895755	1.000855
869.207515	0.999154
869.519233	0.999229
869.830909	0.998816
870.142542	0.998423
870.454134	0.998489
870.765684	0.999421
871.077191	0.999262
871.388657	0.999221
871.700081	0.999601
872.011463	1.000729
872.322803	0.999085
872.634101	0.998170
872.945357	0.998200
873.256571	0.998138
873.567744	0.998333
873.878874	0.999224
874.189963	0.998109
874.501010	1.000780
874.812015	0.998620
875.122979	0.998923
875.433900	0.997994
875.744780	0.998435
876.055618	0.998195
876.366415	0.998284
876.677169	0.998467
876.987882	0.997739
877.298554	0.999290
877.609183	0.998167
877.919771	0.998369
878.230317	0.998431
878.540822	0.996919
878.851285	0.997237
879.161707	0.996762
879.472087	0.996896
879.782425	0.993287
880.092722	0.992184
880.402977	0.989178
880.713191	0.984817
881.023363	0.980333
881.333494	0.978397
881.643583	0.978264
881.953631	0.977313
882.263637	0.977852
882.573602	0.979916
882.883526	0.981543
883.193408	0.984575
883.503248	0.985437
883.813048	0.987026
884.122806	0.988520
884.432522	0.989303
884.742197	0.992909
885.051831	0.992082
885.361424	0.993161
885.670975	0.995536
885.980485	0.994874
886.289954	0.995559
886.599382	0.994789
886.908768	0.997598
887.218113	0.996045
887.527417	0.997493
887.836680	0.997909
888.145901	0.998025
888.455082	0.998916
888.764221	0.997210
889.073319	0.997742
889.382376	0.998164
889.691392	0.997218
890.000366	0.998503
890.309300	0.998317
890.618193	0.998001
890.927044	0.997244
891.235855	0.997241
891.544625	0.998478
891.853353	0.997745
892.162041	0.997690
892.470687	0.998359
892.779293	0.997042
893.087858	0.995538
893.396381	0.995808
893.704864	0.994526
894.013306	0.993982
894.321707	0.991673
894.630068	0.989560
894.938387	0.988395
895.246665	0.989198
895.554903	0.989695
895.863100	0.992044
896.171256	0.991592
896.479371	0.992887
896.787446	0.994038
897.095480	0.995029
897.403473	0.995970
897.711425	0.995675
898.019336	0.997674
898.327207	0.996683
898.635038	0.996843
898.942827	0.998583
899.250576	0.997196
899.558284	0.998373
899.865952	0.997252
900.173579	0.997701
900.481165	0.997653
900.788711	0.997872
901.096216	0.998619
901.403681	0.998855
901.711105	0.998154
902.018489	0.997779
902.325832	0.997608
902.633135	0.998725
902.940397	0.997471
903.247619	0.996447
903.554800	0.995046
903.861941	0.992324
904.169041	0.989355
904.476101	0.986171
904.783121	0.985835
905.090100	0.988218
905.397039	0.990093
905.703938	0.991013
906.010796	0.993437
906.317614	0.993491
906.624391	0.995439
906.931129	0.996480
907.237826	0.997705
907.544483	0.997841
907.851099	0.997471
908.157675	0.997629
908.464211	0.998421
908.770707	0.997494
909.077163	0.999129
909.383578	0.999405
909.689954	0.998788
909.996289	0.999644
910.302584	0.999229
910.608839	1.000156
910.915054	0.999819
911.221229	0.999911
911.527363	0.998678
911.833458	0.998690
912.139513	0.999051
912.445527	0.999824
912.751502	0.998609
913.057436	0.999092
913.363331	0.999534
913.669186	0.998991
913.975000	0.998123
914.280775	0.998453
914.586510	0.996876
914.892205	0.994624
915.197859	0.993091
915.503475	0.991956
915.809050	0.989612
916.114585	0.987346
916.420081	0.987711
916.725536	0.988349
917.030952	0.989182
917.336328	0.988571
917.641665	0.989365
917.946961	0.990584
918.252218	0.991880
918.557435	0.993247
918.862612	0.994767
919.167750	0.995788
919.472848	0.996292
919.777906	0.997288
920.082925	0.997371
920.387904	0.997681
920.692843	0.997454
920.997743	0.996768
921.302603	0.998900
921.607423	0.997257
921.912204	0.997777
922.216946	0.999410
922.521647	0.999023
922.826310	0.998065
923.130932	1.000397
923.435516	0.999158
923.740059	0.998771
924.044564	0.999358
924.349028	0.998280
924.653454	0.999490
924.957840	0.999286
925.262186	0.999894
925.566493	0.999775
925.870761	0.999368
926.174989	0.998981
926.479178	0.999709
926.783328	1.000596
927.087438	1.000355
927.391509	0.999743
927.695541	1.000114
927.999533	1.001392
928.303486	1.001029
928.607400	1.000885
928.911275	1.001813
929.215110	1.001511
929.518906	1.001671
929.822663	1.002300
930.126381	1.001480
930.430060	1.000658
930.733699	1.001919
931.037299	1.001057
931.340861	1.000980
931.644383	0.999616
931.947866	1.000984
932.251309	1.000614
932.554714	1.000020
932.858080	1.000017
933.161407	1.000081
933.464694	1.000532
933.767943	1.000351
934.071153	1.000297
934.374323	1.000759
934.677455	1.001634
934.980548	1.000013
935.283602	1.001163
935.586617	1.000721
935.889593	1.001475
936.192530	1.000778
936.495428	1.000960
936.798287	0.999779
937.101108	1.000236
937.403890	1.000754
937.706632	1.001423
938.009336	0.999431
938.312002	0.999864
938.614628	1.000692
938.917216	0.998847
939.219765	0.999185
939.522275	1.000304
939.824747	0.999970
940.127179	1.000330
940.429573	1.000734
940.731929	0.998991
941.034246	0.998797
941.336524	0.998429
941.638763	1.000020
941.940964	0.999329
942.243126	0.999062
942.545250	1.000891
942.847335	0.999567
943.149381	1.000228
943.451389	0.999104
943.753359	1.000495
944.055290	1.000814
944.357182	1.000484
944.659036	1.000432
944.960851	0.999711
945.262628	1.000033
945.564367	1.001179
945.866067	0.999946
946.167729	1.000080
946.469352	1.001025
946.770937	0.998757
947.072484	1.000412
947.373992	1.000108
947.675462	1.000085
947.976893	0.999542
948.278286	1.001260
948.579641	1.000989
948.880958	0.999401
949.182236	0.999988
949.483476	1.002088
949.784678	1.000487
950.085841	1.000500
950.386967	0.999182
950.688054	1.001429
950.989103	0.999793
951.290114	0.999707
951.591087	1.002027
951.892021	0.999313
952.192917	1.000790
952.493776	1.000353
952.794596	0.999538
953.095378	1.000561
953.396122	0.999382
953.696828	1.001324
953.997496	0.999945
954.298126	1.001471
954.598718	1.001176
954.899272	1.000040
955.199788	1.000113
955.500266	1.000818
955.800706	1.001178
956.101108	0.999878
956.401472	1.001816
956.701798	0.999732
957.002087	1.001055
957.302337	1.000057
957.602550	1.001556
957.902724	1.000870
958.202861	1.000952
958.502960	1.001013
958.803022	1.001029
959.103045	1.001252
959.403031	1.001586
959.702979	1.002125
960.002889	1.001569
960.302762	1.001290
960.602596	1.000342
960.902393	1.002088
961.202153	1.001271
961.501875	1.002047
961.801559	1.002022
962.101205	1.001476
962.400814	1.002746
962.700385	1.002232
962.999918	1.002981
963.299414	1.000603
963.598873	1.001649
963.898293	1.001778
964.197677	1.000236
964.497022	1.001773
964.796331	1.001920
965.095601	1.002604
965.394835	1.001884
965.694030	1.003098
965.993189	1.001136
966.292309	1.001403
966.591393	1.000171
966.890439	1.003077
967.189447	1.001543
967.488419	1.000873
967.787353	1.001173
968.086249	1.000562
968.385108	1.000513
968.683930	1.003030
968.982714	1.001483
969.281462	1.001528
969.580172	1.001394
969.878844	1.002366
970.177480	1.002237
970.476078	1.002681
970.774639	1.002054
971.073162	1.001189
971.371649	1.000939
971.670098	1.000297
971.968510	1.003173
972.266885	1.001177
972.565223	1.001721
972.863524	1.000191
973.161788	1.000920
973.460014	1.001750
973.758204	1.001384
974.056356	1.001985
974.354471	1.001693
974.652550	1.001923
974.950591	1.001268
975.248595	1.001804
975.546563	1.001322
975.844493	1.001790
976.142386	0.999982
976.440243	1.001468
976.738062	1.000972
977.035845	1.000968
977.333590	1.001861
977.631299	1.000939
977.928971	1.002008
978.226606	1.002171
978.524204	1.001089
978.821765	1.002642
979.119290	1.002849
979.416777	1.002113
979.714228	1.000782
980.011642	1.002540
980.309020	1.000656
980.606360	1.001258
980.903664	1.001654
981.200931	1.001569
981.498162	1.001127
981.795356	1.000798
982.092513	1.001436
982.389633	1.001795
982.686717	1.000881
982.983764	1.001038
983.280775	1.001231
983.577749	1.002547
983.874686	1.000362
984.171587	1.000323
984.468451	1.000198
984.765279	1.002400
985.062070	1.001315
985.358824	1.001394
985.655543	1.001310
985.952224	1.001932
986.248869	1.001373
986.545478	1.003364
986.842050	1.001141
987.138586	1.000972
987.435086	1.000457
987.731549	1.002263
988.027975	1.001983
988.324366	1.000814
988.620719	1.002291
988.917037	1.001015
989.213318	1.001268
989.509563	1.002209
989.805772	1.002803
990.101944	1.002612
990.398080	1.001640
990.694180	1.001687
990.990244	1.000928
991.286271	1.001311
991.582262	1.001831
991.878217	1.000915
992.174136	1.002236
992.470019	1.002849
992.765865	1.002875
993.061676	1.001584
993.357450	1.001815
993.653188	1.002953
993.948890	1.001256
994.244556	1.002079
994.540186	1.001050
994.835780	1.000636
995.131337	1.002277
995.426859	1.003033
995.722345	1.001775
996.017795	1.001775
996.313208	1.001692
996.608586	1.001423
996.903928	1.002872
997.199234	1.000332
997.494504	1.001287
997.789738	1.000872
998.084936	1.001968
998.380099	1.000611
998.675225	1.001721
998.970316	1.002758
999.265371	1.002240
999.560390	1.001225
999.855373	1.001029
1000.150320	1.001754
1000.445232	1.000910
1000.740108	1.001407
1001.034948	1.000713
1001.329752	1.002562
1001.624521	1.002090
1001.919254	1.001006
1002.213951	1.003519
1002.508613	1.001699
1002.803239	1.002262
1003.097829	1.002217
1003.392384	1.001540
1003.686903	1.002117
1003.981386	1.001293
1004.275834	1.002979
1004.570246	1.002081
1004.864623	1.002827
1005.158964	1.002179
1005.453270	1.001429
1005.747540	1.002129
1006.041775	1.002609
1006.335974	1.001298
1006.630138	1.002026
1006.924266	1.001603
1007.218359	1.000695
1007.512416	1.001834
1007.806438	1.000563
1008.100425	1.001490
1008.394376	1.003355
1008.688292	1.001650
1008.982172	1.002167
1009.276017	1.002186
1009.569827	1.002679
1009.863602	1.000704
1010.157341	1.001819
1010.451045	1.001009
1010.744714	1.003763
1011.038347	1.002398
1011.331945	1.001414
1011.625508	1.001782
1011.919036	1.001725
1012.212528	1.002138
1012.505986	1.002443
1012.799408	1.003055
1013.092795	1.002471
1013.386147	1.001809
1013.679464	1.003069
1013.972745	1.002292
1014.265992	1.000865
1014.559204	1.002167
1014.852380	1.001802
1015.145521	1.002061
1015.438628	1.001527
1015.731699	1.002129
1016.024736	1.003231
1016.317737	1.002411
1016.610703	1.001860
1016.903635	1.002335
1017.196531	1.002458
1017.489393	1.001272
1017.782219	1.001587
1018.075011	1.000613
1018.367768	1.001218
1018.660490	1.002453
1018.953177	1.002453
1019.245829	1.002453
