Dividing Wavelength (nm)	Counts (n)	Blue Motor Position (mm): 18.600000	Red Motor Position (mm): 0.000000	
326.493990	1.001730
326.888308	1.001730
327.282561	1.001730
327.676750	1.003180
328.070874	1.002725
328.464933	1.003986
328.858929	1.004760
329.252859	1.002992
329.646726	1.001784
330.040528	1.002556
330.434265	1.002897
330.827938	1.002173
331.221547	1.003237
331.615091	1.002689
332.008571	1.003195
332.401986	1.001301
332.795338	1.002110
333.188625	1.003010
333.581847	1.002067
333.975006	1.002385
334.368100	1.003835
334.761129	1.000341
335.154095	1.003389
335.546996	1.001659
335.939833	0.998910
336.332606	0.999124
336.725315	0.996531
337.117960	1.000956
337.510540	0.998452
337.903056	0.999059
338.295508	0.999039
338.687896	0.999589
339.080220	0.999660
339.472480	0.998278
339.864676	0.999715
340.256807	0.998049
340.648875	0.998890
341.040879	0.998657
341.432818	0.999634
341.824694	0.999433
342.216506	0.999503
342.608253	0.998640
342.999937	0.998143
343.391557	0.998822
343.783113	1.000959
344.174605	0.998974
344.566033	0.998423
344.957397	0.999295
345.348697	0.999224
345.739934	0.999776
346.131106	0.998696
346.522215	0.998641
346.913260	0.998733
347.304241	0.997988
347.695159	0.998619
348.086012	0.998369
348.476802	0.999023
348.867528	0.998591
349.258191	0.999233
349.648789	0.998857
350.039324	0.999879
350.429796	0.998805
350.820203	0.996435
351.210548	0.999280
351.600828	0.998830
351.991045	0.998341
352.381198	0.998498
352.771288	0.997812
353.161314	0.998850
353.551276	0.997682
353.941175	0.997446
354.331010	0.999521
354.720782	0.997477
355.110490	0.998046
355.500135	0.997637
355.889717	0.997030
356.279235	0.998334
356.668689	0.999169
357.058080	0.998558
357.447408	0.998420
357.836672	0.997691
358.225873	0.997256
358.615010	0.997224
359.004084	0.996226
359.393095	0.998567
359.782043	0.997432
360.170927	0.998427
360.559748	0.998661
360.948505	0.998347
361.337199	0.997758
361.725830	0.997987
362.114398	0.997643
362.502903	0.997265
362.891344	0.997093
363.279722	0.997183
363.668037	0.998059
364.056289	0.995977
364.444478	0.997296
364.832603	0.996331
365.220665	0.997145
365.608665	0.996505
365.996601	0.996236
366.384474	0.995266
366.772284	0.995740
367.160031	0.994409
367.547715	0.994956
367.935336	0.993648
368.322893	0.993142
368.710388	0.991747
369.097820	0.990551
369.485189	0.988182
369.872495	0.985972
370.259738	0.984884
370.646918	0.981295
371.034035	0.980254
371.421090	0.976451
371.808081	0.970839
372.195010	0.969232
372.581875	0.963974
372.968678	0.960010
373.355418	0.954235
373.742096	0.948377
374.128710	0.944497
374.515262	0.939671
374.901751	0.933429
375.288177	0.929676
375.674540	0.922859
376.060841	0.916289
376.447079	0.909817
376.833254	0.902927
377.219367	0.898406
377.605417	0.886454
377.991404	0.882571
378.377329	0.875975
378.763191	0.870443
379.148991	0.860960
379.534727	0.853819
379.920402	0.844832
380.306013	0.842203
380.691563	0.829414
381.077049	0.822539
381.462474	0.817929
381.847835	0.806486
382.233134	0.801939
382.618371	0.802604
383.003545	0.785673
383.388657	0.782573
383.773706	0.775429
384.158693	0.771951
384.543618	0.766021
384.928480	0.757746
385.313280	0.747051
385.698017	0.746742
386.082692	0.735244
386.467305	0.733545
386.851856	0.728746
387.236344	0.722924
387.620770	0.717564
388.005133	0.712007
388.389435	0.706376
388.773674	0.703922
389.157851	0.695791
389.541965	0.693229
389.926018	0.699426
390.310008	0.686094
390.693936	0.683849
391.077802	0.676227
391.461606	0.676842
391.845348	0.665946
392.229027	0.665787
392.612645	0.664505
392.996200	0.651542
393.379694	0.644639
393.763125	0.633491
394.146494	0.639139
394.529801	0.629134
394.913047	0.621958
395.296230	0.627726
395.679351	0.618437
396.062410	0.615362
396.445408	0.618477
396.828343	0.613871
397.211217	0.608238
397.594028	0.620961
397.976778	0.610709
398.359466	0.608085
398.742092	0.602792
399.124656	0.615489
399.507158	0.603344
399.889598	0.600676
400.271977	0.591691
400.654294	0.595513
401.036549	0.594528
401.418742	0.599405
401.800874	0.584085
402.182944	0.581335
402.564952	0.573082
402.946898	0.574927
403.328783	0.575645
403.710606	0.587052
404.092367	0.562066
404.474067	0.567455
404.855705	0.565385
405.237282	0.574278
405.618797	0.560798
406.000250	0.556868
406.381642	0.546771
406.762972	0.551132
407.144240	0.550447
407.525447	0.549926
407.906593	0.542551
408.287677	0.538013
408.668700	0.546967
409.049661	0.540948
409.430560	0.535680
409.811399	0.543948
410.192176	0.526248
410.572891	0.533262
410.953545	0.521296
411.334138	0.534928
411.714669	0.527772
412.095139	0.539819
412.475547	0.523596
412.855894	0.525923
413.236180	0.525528
413.616405	0.529908
413.996568	0.520697
414.376670	0.526460
414.756711	0.531752
415.136691	0.528898
415.516609	0.519400
415.896466	0.516152
416.276262	0.512225
416.655997	0.513537
417.035670	0.495805
417.415283	0.487097
417.794834	0.492279
418.174324	0.497209
418.553753	0.506694
418.933121	0.488533
419.312428	0.482929
419.691674	0.488321
420.070859	0.476845
420.449983	0.484760
420.829045	0.473517
421.208047	0.482453
421.586988	0.475754
421.965867	0.474986
422.344686	0.463318
422.723444	0.476245
423.102141	0.492957
423.480777	0.465545
423.859352	0.486304
424.237866	0.463939
424.616319	0.464728
424.994712	0.455476
425.373044	0.465894
425.751314	0.454147
426.129524	0.470222
426.507673	0.454302
426.885762	0.447500
427.263789	0.453144
427.641756	0.462522
428.019662	0.453038
428.397508	0.452398
428.775292	0.456633
429.153016	0.448248
429.530679	0.454613
429.908282	0.447619
430.285824	0.458169
430.663305	0.436436
431.040726	0.457524
431.418086	0.457447
431.795385	0.449020
432.172624	0.447839
432.549802	0.448866
432.926920	0.447035
433.303977	0.446954
433.680974	0.443939
434.057910	0.442316
434.434786	0.442151
434.811601	0.444686
435.188355	0.426708
435.565050	0.436897
435.941683	0.437254
436.318257	0.421442
436.694770	0.422574
437.071222	0.420909
437.447614	0.425235
437.823946	0.431808
438.200218	0.420832
438.576429	0.430482
438.952580	0.423390
439.328670	0.420578
439.704700	0.426615
440.080670	0.428124
440.456580	0.409162
440.832429	0.417271
441.208218	0.428466
441.583947	0.417213
441.959616	0.416160
442.335224	0.422133
442.710773	0.413198
443.086261	0.410929
443.461689	0.424784
443.837057	0.414922
444.212365	0.404273
444.587612	0.411750
444.962800	0.401523
445.337927	0.403203
445.712995	0.429709
446.088002	0.391193
446.462949	0.401758
446.837837	0.406864
447.212664	0.395452
447.587431	0.386495
447.962139	0.357638
448.336786	0.315938
448.711374	0.326569
449.085901	0.371182
449.460369	0.375618
449.834776	0.378879
450.209124	0.358058
450.583412	0.350541
450.957640	0.343678
451.331808	0.355352
451.705917	0.378433
452.079965	0.383257
452.453954	0.371554
452.827883	0.378201
453.201752	0.373035
453.575562	0.383747
453.949311	0.372726
454.323001	0.378880
454.696632	0.374921
455.070202	0.367286
455.443713	0.359149
455.817164	0.353632
456.190556	0.349538
456.563888	0.346510
456.937160	0.343905
457.310373	0.361650
457.683526	0.360698
458.056619	0.366331
458.429653	0.366591
458.802628	0.370175
459.175542	0.364178
459.548398	0.346843
459.921194	0.339285
460.293930	0.339710
460.666607	0.317101
461.039224	0.304968
461.411782	0.300945
461.784280	0.300056
462.156719	0.304463
462.529099	0.308572
462.901419	0.324513
463.273680	0.329053
463.645882	0.328334
464.018024	0.334578
464.390106	0.327514
464.762130	0.311721
465.134094	0.294865
465.505999	0.263443
465.877845	0.234265
466.249631	0.221038
466.621358	0.228681
466.993026	0.242382
467.364634	0.248867
467.736184	0.257596
468.107674	0.266511
468.479105	0.265443
468.850477	0.272433
469.221790	0.278869
469.593043	0.289643
469.964238	0.293941
470.335373	0.293648
470.706449	0.291512
471.077467	0.292014
471.448425	0.254316
471.819324	0.229817
472.190164	0.229362
472.560945	0.258199
472.931667	0.280722
473.302330	0.284826
473.672934	0.296824
474.043479	0.284589
474.413965	0.286596
474.784393	0.289916
475.154761	0.285152
475.525070	0.282306
475.895321	0.288006
476.265513	0.282037
476.635645	0.277573
477.005719	0.277303
477.375734	0.274167
477.745691	0.267087
478.115588	0.263537
478.485427	0.257124
478.855207	0.243798
479.224928	0.226409
479.594591	0.214392
479.964194	0.218097
480.333739	0.218969
480.703226	0.220717
481.072653	0.218978
481.442022	0.214887
481.811333	0.211240
482.180584	0.214834
482.549777	0.220315
482.918912	0.223386
483.287988	0.223067
483.657005	0.223045
484.025964	0.229347
484.394864	0.226742
484.763706	0.227129
485.132489	0.232446
485.501213	0.233211
485.869879	0.231458
486.238487	0.234761
486.607036	0.232760
486.975527	0.237290
487.343959	0.232891
487.712333	0.232353
488.080648	0.233373
488.448905	0.232840
488.817104	0.234129
489.185244	0.228799
489.553326	0.225486
489.921350	0.215269
490.289315	0.197862
490.657222	0.192818
491.025070	0.194324
491.392861	0.196057
491.760593	0.202183
492.128267	0.207804
492.495883	0.213133
492.863440	0.219622
493.230939	0.225919
493.598380	0.227497
493.965763	0.229744
494.333088	0.231655
494.700354	0.233665
495.067563	0.232477
495.434713	0.235937
495.801805	0.233883
496.168839	0.235139
496.535815	0.236842
496.902733	0.236703
497.269593	0.238415
497.636395	0.236342
498.003139	0.236634
498.369825	0.239868
498.736453	0.236527
499.103023	0.238168
499.469535	0.237602
499.835989	0.238131
500.202385	0.238989
500.568723	0.242398
500.935003	0.237809
501.301226	0.242092
501.667390	0.236853
502.033497	0.235282
502.399546	0.238261
502.765537	0.240445
503.131470	0.239301
503.497345	0.236066
503.863163	0.244667
504.228923	0.238172
504.594625	0.237112
504.960269	0.242953
505.325856	0.238994
505.691385	0.243357
506.056856	0.240826
506.422270	0.240735
506.787625	0.243731
507.152924	0.241636
507.518164	0.242593
507.883347	0.244741
508.248472	0.247192
508.613540	0.242565
508.978550	0.245844
509.343503	0.246883
509.708398	0.245347
510.073236	0.243582
510.438016	0.244232
510.802738	0.245924
511.167403	0.245736
511.532010	0.248786
511.896561	0.245164
512.261053	0.244578
512.625488	0.247818
512.989866	0.249399
513.354186	0.250552
513.718449	0.253622
514.082655	0.250779
514.446803	0.254604
514.810894	0.253369
515.174927	0.257320
515.538904	0.257984
515.902822	0.256353
516.266684	0.259908
516.630488	0.262786
516.994235	0.263060
517.357925	0.263652
517.721558	0.263069
518.085133	0.264270
518.448651	0.265908
518.812112	0.270126
519.175516	0.271543
519.538863	0.270980
519.902152	0.274687
520.265385	0.273874
520.628560	0.276661
520.991678	0.279974
521.354739	0.280734
521.717743	0.283726
522.080690	0.285764
522.443580	0.286408
522.806413	0.289444
523.169189	0.291112
523.531908	0.292286
523.894569	0.298482
524.257174	0.301047
524.619722	0.301706
524.982213	0.304921
525.344647	0.307261
525.707025	0.310436
526.069345	0.311713
526.431608	0.317008
526.793815	0.317913
527.155964	0.324960
527.518057	0.326382
527.880093	0.330692
528.242072	0.332364
528.603995	0.337802
528.965860	0.342704
529.327669	0.344896
529.689421	0.348978
530.051117	0.352997
530.412755	0.355851
530.774337	0.360005
531.135862	0.365257
531.497331	0.367473
531.858743	0.374635
532.220098	0.375343
532.581396	0.381256
532.942638	0.385309
533.303824	0.390291
533.664953	0.394508
534.026025	0.400037
534.387040	0.402157
534.747999	0.405516
535.108902	0.409606
535.469748	0.417672
535.830537	0.419628
536.191270	0.424359
536.551947	0.428405
536.912567	0.432634
537.273131	0.438044
537.633638	0.442133
537.994089	0.447359
538.354483	0.452583
538.714821	0.453808
539.075103	0.458608
539.435328	0.464030
539.795497	0.470428
540.155609	0.473812
540.515665	0.476579
540.875665	0.485132
541.235609	0.489625
541.595496	0.493378
541.955328	0.496832
542.315102	0.502898
542.674821	0.508287
543.034483	0.512988
543.394090	0.517103
543.753640	0.523232
544.113134	0.525309
544.472571	0.532409
544.831953	0.535340
545.191278	0.543087
545.550548	0.547364
545.909761	0.549688
546.268918	0.555934
546.628019	0.559319
546.987064	0.566834
547.346053	0.570620
547.704986	0.575688
548.063863	0.579899
548.422684	0.584250
548.781449	0.590694
549.140158	0.594180
549.498811	0.600227
549.857408	0.605577
550.215949	0.608653
550.574434	0.614854
550.932864	0.619673
551.291237	0.622529
551.649555	0.629990
552.007817	0.633291
552.366022	0.638292
552.724173	0.643522
553.082267	0.647146
553.440305	0.652307
553.798288	0.656836
554.156215	0.662038
554.514086	0.666860
554.871902	0.672757
555.229661	0.676722
555.587365	0.681604
555.945014	0.686420
556.302606	0.691809
556.660143	0.695857
557.017625	0.700891
557.375050	0.705171
557.732421	0.709107
558.089735	0.713823
558.446994	0.718188
558.804197	0.722918
559.161345	0.727162
559.518437	0.732127
559.875474	0.737084
560.232455	0.741566
560.589381	0.745607
560.946251	0.751433
561.303065	0.752531
561.659825	0.758283
562.016528	0.762560
562.373177	0.766631
562.729770	0.772026
563.086307	0.775104
563.442789	0.778207
563.799216	0.784300
564.155587	0.787396
564.511904	0.792355
564.868164	0.795212
565.224370	0.798339
565.580520	0.804301
565.936615	0.805734
566.292654	0.811162
566.648638	0.813860
567.004567	0.817742
567.360441	0.821291
567.716260	0.824886
568.072023	0.827535
568.427732	0.832255
568.783385	0.834877
569.138982	0.839200
569.494525	0.840993
569.850013	0.845657
570.205445	0.848911
570.560823	0.850990
570.916145	0.855536
571.271412	0.857795
571.626625	0.860959
571.981782	0.863719
572.336884	0.868189
572.691931	0.869810
573.046923	0.873473
573.401860	0.876580
573.756743	0.879832
574.111570	0.881215
574.466342	0.884649
574.821059	0.886595
575.175722	0.890205
575.530330	0.892557
575.884882	0.894098
576.239380	0.897532
576.593823	0.899569
576.948211	0.902494
577.302544	0.904568
577.656823	0.908166
578.011047	0.908750
578.365216	0.912134
578.719330	0.914529
579.073389	0.915915
579.427394	0.918287
579.781344	0.920661
580.135239	0.921595
580.489080	0.923278
580.842866	0.926136
581.196597	0.927050
581.550273	0.929133
581.903895	0.931504
582.257463	0.931959
582.610975	0.934048
582.964434	0.935940
583.317837	0.937721
583.671186	0.939510
584.024481	0.939784
584.377721	0.941495
584.730906	0.944177
585.084037	0.946103
585.437113	0.947124
585.790135	0.948597
586.143103	0.948601
586.496016	0.951157
586.848874	0.952179
587.201679	0.952869
587.554428	0.954661
587.907124	0.955643
588.259765	0.956844
588.612352	0.958319
588.964884	0.959336
589.317362	0.960343
589.669786	0.961168
590.022155	0.961225
590.374470	0.962714
590.726731	0.963291
591.078937	0.965218
591.431090	0.966571
591.783188	0.966762
592.135232	0.969689
592.487222	0.968707
592.839157	0.968462
593.191038	0.970600
593.542866	0.970948
593.894639	0.970787
594.246358	0.972095
594.598022	0.973770
594.949633	0.974849
595.301190	0.974626
595.652692	0.974718
596.004141	0.975381
596.355535	0.976316
596.706876	0.977059
597.058162	0.978126
597.409395	0.978241
597.760573	0.978392
598.111698	0.979569
598.462768	0.979406
598.813785	0.979779
599.164748	0.980423
599.515657	0.981109
599.866511	0.982248
600.217312	0.981767
600.568060	0.982332
600.918753	0.983062
601.269392	0.983389
601.619978	0.983729
601.970510	0.983519
602.320988	0.983863
602.671412	0.984506
603.021783	0.985592
603.372100	0.986359
603.722363	0.985761
604.072572	0.985913
604.422728	0.985581
604.772830	0.986361
605.122878	0.986719
605.472872	0.987464
605.822813	0.986863
606.172701	0.987356
606.522534	0.988109
606.872314	0.988820
607.222041	0.987265
607.571714	0.988637
607.921333	0.987992
608.270899	0.988283
608.620411	0.988713
608.969870	0.989995
609.319276	0.989156
609.668627	0.989328
610.017926	0.988817
610.367171	0.989127
610.716362	0.989323
611.065500	0.989625
611.414585	0.989811
611.763616	0.988695
612.112594	0.989885
612.461518	0.989119
612.810389	0.990115
613.159207	0.990149
613.507971	0.989668
613.856682	0.991341
614.205340	0.989632
614.553945	0.990807
614.902496	0.989949
615.250994	0.990366
615.599439	0.990648
615.947830	0.990467
616.296169	0.990831
616.644454	0.991447
616.992686	0.990901
617.340864	0.991328
617.688990	0.990687
618.037063	0.990947
618.385082	0.990980
618.733048	0.990201
619.080961	0.990808
619.428821	0.991075
619.776628	0.990909
620.124382	0.991375
620.472083	0.991214
620.819731	0.992355
621.167326	0.991978
621.514868	0.991778
621.862357	0.991390
622.209793	0.991615
622.557176	0.991763
622.904506	0.991628
623.251783	0.992406
623.599007	0.992504
623.946179	0.991703
624.293297	0.992474
624.640363	0.993126
624.987376	0.991134
625.334336	0.991634
625.681243	0.992498
626.028097	0.992649
626.374899	0.993252
626.721647	0.992903
627.068343	0.992497
627.414987	0.992720
627.761577	0.992221
628.108115	0.992332
628.454600	0.993119
628.801032	0.992504
629.147412	0.992863
629.493739	0.993076
629.840014	0.992921
630.186236	0.991757
630.532405	0.992793
630.878521	0.993009
631.224585	0.993668
631.570597	0.992605
631.916556	0.993314
632.262462	0.992319
632.608316	0.993630
632.954117	0.992134
633.299866	0.992987
633.645562	0.993350
633.991206	0.993317
634.336797	0.993188
634.682336	0.993704
635.027823	0.993108
635.373257	0.993140
635.718639	0.993469
636.063968	0.992789
636.409245	0.993001
636.754470	0.993968
637.099642	0.993853
637.444762	0.994364
637.789829	0.993250
638.134845	0.992913
638.479808	0.993822
638.824719	0.993456
639.169577	0.993462
639.514383	0.993981
639.859137	0.994560
640.203839	0.993418
640.548489	0.993212
640.893086	0.993101
641.237632	0.994299
641.582125	0.993579
641.926566	0.994893
642.270955	0.994074
642.615292	0.993413
642.959576	0.994151
643.303809	0.994224
643.647990	0.994670
643.992118	0.993804
644.336195	0.993424
644.680219	0.993379
645.024192	0.993949
645.368112	0.993032
645.711981	0.993783
646.055797	0.993945
646.399562	0.992677
646.743274	0.994730
647.086935	0.993500
647.430544	0.993396
647.774101	0.992934
648.117606	0.994024
648.461059	0.994447
648.804460	0.993418
649.147810	0.993457
649.491108	0.992929
649.834354	0.993537
650.177548	0.993065
650.520690	0.993201
650.863781	0.992776
651.206820	0.993493
651.549807	0.993256
651.892742	0.994412
652.235626	0.993718
652.578458	0.994427
652.921238	0.994644
653.263967	0.994190
653.606644	0.993841
653.949269	0.994525
654.291843	0.993790
654.634365	0.993799
654.976836	0.993394
655.319255	0.994385
655.661622	0.994770
656.003938	0.994631
656.346203	0.992956
656.688416	0.994332
657.030577	0.994249
657.372687	0.993398
657.714746	0.993787
658.056753	0.993560
658.398708	0.993082
658.740612	0.994824
659.082465	0.994229
659.424266	0.994438
659.766016	0.993755
660.107715	0.994250
660.449362	0.993912
660.790958	0.992857
661.132503	0.994193
661.473996	0.993342
661.815438	0.994227
662.156829	0.994130
662.498168	0.994339
662.839456	0.992731
663.180693	0.994178
663.521879	0.993879
663.863013	0.993849
664.204097	0.994015
664.545129	0.993357
664.886110	0.993910
665.227040	0.993862
665.567918	0.994136
665.908746	0.993482
666.249522	0.993521
666.590248	0.993746
666.930922	0.993252
667.271545	0.992951
667.612118	0.993069
667.952639	0.993617
668.293109	0.993802
668.633528	0.992636
668.973896	0.993761
669.314213	0.992905
669.654480	0.993809
669.994695	0.993156
670.334859	0.993679
670.674973	0.993550
671.015035	0.994087
671.355047	0.993133
671.695008	0.992947
672.034918	0.993237
672.374777	0.992670
672.714585	0.993125
673.054342	0.994569
673.394049	0.993511
673.733705	0.993068
674.073310	0.992975
674.412864	0.993536
674.752368	0.992808
675.091820	0.994605
675.431223	0.994004
675.770574	0.992634
676.109875	0.993918
676.449125	0.993520
676.788324	0.992534
677.127473	0.993482
677.466571	0.993851
677.805619	0.993456
678.144616	0.993712
678.483562	0.993553
678.822458	0.994624
679.161303	0.993433
679.500098	0.994258
679.838842	0.993271
680.177535	0.992929
680.516179	0.992703
680.854771	0.993761
681.193314	0.993670
681.531805	0.993154
681.870247	0.993143
682.208638	0.993739
682.546978	0.992796
682.885268	0.992455
683.223508	0.993186
683.561697	0.992929
683.899836	0.992662
684.237925	0.992784
684.575963	0.992706
684.913951	0.993595
685.251889	0.993662
685.589776	0.993520
685.927614	0.993298
686.265401	0.992951
686.603137	0.992530
686.940824	0.993464
687.278460	0.993622
687.616046	0.993036
687.953582	0.992513
688.291068	0.992381
688.628504	0.992904
688.965889	0.992829
689.303224	0.991691
689.640510	0.993045
689.977745	0.991882
690.314930	0.992550
690.652065	0.992735
690.989150	0.992329
691.326185	0.992797
691.663170	0.993828
692.000105	0.993853
692.336990	0.992295
692.673825	0.992963
693.010610	0.993111
693.347345	0.993333
693.684030	0.993396
694.020665	0.993398
694.357251	0.993118
694.693786	0.994240
695.030272	0.991924
695.366707	0.992566
695.703093	0.992768
696.039429	0.992775
696.375716	0.993259
696.711952	0.993453
697.048139	0.993655
697.384276	0.993921
697.720363	0.994268
698.056400	0.992940
698.392388	0.992677
698.728326	0.993076
699.064214	0.994221
699.400053	0.993054
699.735842	0.994326
700.071581	0.993213
700.407270	0.994676
700.742910	0.993958
701.078501	0.993201
701.414042	0.994568
701.749533	0.992694
702.084974	0.993892
702.420366	0.994323
702.755709	0.993312
703.091002	0.994370
703.426246	0.993947
703.761440	0.993726
704.096584	0.992902
704.431679	0.993419
704.766725	0.994318
705.101721	0.994450
705.436668	0.994005
705.771565	0.993314
706.106413	0.993662
706.441212	0.994639
706.775961	0.994699
707.110661	0.993404
707.445311	0.993659
707.779913	0.994857
708.114465	0.994269
708.448967	0.994623
708.783421	0.994365
709.117825	0.993594
709.452180	0.993667
709.786485	0.993874
710.120742	0.993137
710.454949	0.993468
710.789107	0.993273
711.123216	0.992071
711.457275	0.992244
711.791286	0.993145
712.125247	0.993438
712.459159	0.992520
712.793023	0.993072
713.126837	0.993527
713.460602	0.992021
713.794318	0.992338
714.127985	0.992045
714.461602	0.993236
714.795171	0.992020
715.128691	0.992860
715.462162	0.993189
715.795584	0.993481
716.128957	0.994224
716.462281	0.993584
716.795556	0.993001
717.128782	0.993559
717.461960	0.993492
717.795088	0.994108
718.128167	0.994902
718.461198	0.993411
718.794180	0.994226
719.127113	0.993719
719.459997	0.993266
719.792833	0.993055
720.125619	0.993166
720.458357	0.993687
720.791046	0.994806
721.123686	0.993822
721.456278	0.993730
721.788821	0.993860
722.121315	0.994760
722.453761	0.994237
722.786158	0.993162
723.118506	0.994697
723.450805	0.993108
723.783056	0.994236
724.115259	0.993479
724.447412	0.993930
724.779518	0.993955
725.111574	0.993429
725.443582	0.993862
725.775542	0.994925
726.107453	0.995310
726.439315	0.994862
726.771129	0.994570
727.102895	0.994717
727.434612	0.993241
727.766281	0.993743
728.097901	0.992821
728.429473	0.994088
728.760996	0.992550
729.092471	0.992751
729.423897	0.994330
729.755276	0.994182
730.086606	0.993294
730.417887	0.993070
730.749120	0.993604
731.080305	0.993087
731.411442	0.991958
731.742530	0.993145
732.073570	0.993816
732.404562	0.993789
732.735506	0.992451
733.066401	0.993045
733.397249	0.992791
733.728048	0.993003
734.058798	0.994093
734.389501	0.994664
734.720156	0.994115
735.050762	0.994230
735.381320	0.993361
735.711831	0.992708
736.042293	0.994754
736.372707	0.995640
736.703073	0.992467
737.033391	0.993628
737.363661	0.993991
737.693883	0.994100
738.024056	0.993406
738.354182	0.994552
738.684260	0.993441
739.014290	0.993886
739.344272	0.993352
739.674207	0.993915
740.004093	0.993816
740.333931	0.993957
740.663722	0.993079
740.993464	0.994142
741.323159	0.993056
741.652806	0.993077
741.982405	0.993340
742.311956	0.993960
742.641460	0.995370
742.970915	0.993292
743.300323	0.992899
743.629683	0.992679
743.958996	0.994644
744.288260	0.993508
744.617477	0.993618
744.946647	0.994363
745.275768	0.994432
745.604842	0.993948
745.933869	0.994562
746.262847	0.994622
746.591778	0.993591
746.920662	0.994205
747.249498	0.996137
747.578286	0.995337
747.907027	0.994449
748.235720	0.994237
748.564365	0.994662
748.892963	0.993745
749.221514	0.994999
749.550017	0.994767
749.878473	0.994890
750.206881	0.995096
750.535242	0.994375
750.863555	0.994144
751.191821	0.994354
751.520039	0.993815
751.848210	0.993074
752.176334	0.993653
752.504411	0.994191
752.832440	0.993034
753.160421	0.994327
753.488356	0.994591
753.816243	0.993720
754.144082	0.994691
754.471875	0.994397
754.799620	0.994850
755.127318	0.993923
755.454969	0.994490
755.782572	0.994820
756.110129	0.994371
756.437638	0.996360
756.765100	0.995220
757.092515	0.994261
757.419882	0.995092
757.747203	0.994929
758.074477	0.995718
758.401703	0.994361
758.728882	0.994265
759.056014	0.995012
759.383099	0.994603
759.710138	0.993752
760.037129	0.994488
760.364073	0.994569
760.690970	0.994481
761.017820	0.993036
761.344623	0.994129
761.671379	0.995101
761.998088	0.995004
762.324751	0.993673
762.651366	0.993137
762.977935	0.991840
763.304456	0.990615
763.630931	0.987828
763.957359	0.988044
764.283740	0.989749
764.610074	0.991156
764.936362	0.992570
765.262602	0.992833
765.588796	0.993833
765.914943	0.994049
766.241044	0.994149
766.567097	0.993883
766.893104	0.993872
767.219064	0.994189
767.544978	0.995648
767.870845	0.996037
768.196665	0.993981
768.522438	0.995277
768.848165	0.995935
769.173846	0.995779
769.499479	0.997433
769.825066	0.996615
770.150607	0.996971
770.476101	0.995814
770.801548	0.996488
771.126949	0.996426
771.452303	0.996140
771.777611	0.996049
772.102872	0.995666
772.428087	0.995974
772.753256	0.997212
773.078378	0.996773
773.403453	0.994943
773.728482	0.997967
774.053465	0.996435
774.378401	0.995902
774.703291	0.996759
775.028135	0.998138
775.352932	0.995367
775.677683	0.997712
776.002388	0.996040
776.327046	0.996977
776.651658	0.997088
776.976224	0.997449
777.300743	0.996272
777.625216	0.997348
777.949643	0.997083
778.274024	0.996539
778.598359	0.997622
778.922647	0.996480
779.246889	0.998119
779.571086	0.996679
779.895236	0.996916
780.219339	0.998894
780.543397	0.996306
780.867409	0.997873
781.191374	0.996465
781.515294	0.998329
781.839167	0.997123
782.162995	0.996930
782.486776	0.996220
782.810511	0.996513
783.134201	0.997784
783.457844	0.997338
783.781441	0.996142
784.104993	0.996859
784.428498	0.996541
784.751958	0.998835
785.075372	0.997836
785.398739	0.996441
785.722061	0.996441
786.045337	0.996871
786.368568	0.996686
786.691752	0.996965
787.014891	0.996875
787.337983	0.996520
787.661030	0.996420
787.984031	0.997420
788.306987	0.996587
788.629897	0.994462
788.952760	0.995184
789.275579	0.996152
789.598351	0.996136
789.921078	0.998178
790.243759	0.995892
790.566395	0.996406
790.888984	0.996426
791.211529	0.996657
791.534027	0.995680
791.856480	0.996769
792.178888	0.996205
792.501249	0.996424
792.823566	0.999762
793.145836	0.996705
793.468062	0.997617
793.790241	0.997588
794.112375	0.996423
794.434464	0.996996
794.756507	0.996733
795.078505	0.997622
795.400457	0.996637
795.722364	0.997023
796.044226	0.996203
796.366042	0.996417
796.687812	0.995434
797.009538	0.995495
797.331218	0.996548
797.652852	0.997506
797.974442	0.996655
798.295986	0.997202
798.617484	0.996056
798.938938	0.996900
799.260346	0.995858
799.581709	0.995083
799.903026	0.997251
800.224299	0.995543
800.545526	0.996950
800.866708	0.995978
801.187845	0.996744
801.508936	0.997120
801.829983	0.996997
802.150984	0.995617
802.471940	0.998069
802.792851	0.997916
803.113717	0.998597
803.434538	0.998107
803.755314	0.998091
804.076045	0.997379
804.396731	0.997891
804.717372	0.996112
805.037967	0.997932
805.358518	0.997483
805.679024	0.996852
805.999485	0.996964
806.319901	0.997965
806.640272	0.997593
806.960598	0.998390
807.280879	0.997837
807.601115	0.998773
807.921306	0.997980
808.241453	0.997465
808.561554	0.996802
808.881611	0.997299
809.201623	0.996467
809.521590	0.997855
809.841513	0.996986
810.161390	0.996771
810.481223	0.997036
810.801011	0.997812
811.120755	0.999256
811.440453	0.997386
811.760107	0.998056
812.079716	0.996377
812.399281	0.997516
812.718801	0.997331
813.038276	0.997885
813.357707	0.997362
813.677093	0.998267
813.996434	0.997192
814.315731	0.998713
814.634983	0.996818
814.954191	0.998689
815.273354	0.997480
815.592473	0.996953
815.911547	0.997619
816.230577	0.997243
816.549562	0.997584
816.868502	0.996344
817.187399	0.997680
817.506250	0.997021
817.825058	0.995695
818.143821	0.996913
818.462539	0.995791
818.781213	0.996395
819.099843	0.995570
819.418429	0.995266
819.736970	0.994820
820.055466	0.993971
820.373919	0.991621
820.692327	0.991226
821.010691	0.990872
821.329011	0.986614
821.647286	0.982771
821.965517	0.980146
822.283704	0.976378
822.601847	0.973665
822.919945	0.974829
823.237999	0.976184
823.556010	0.978528
823.873976	0.980850
824.191897	0.982841
824.509775	0.985325
824.827609	0.987168
825.145398	0.987862
825.463144	0.986887
825.780845	0.987495
826.098502	0.987828
826.416116	0.987536
826.733685	0.984010
827.051210	0.981363
827.368692	0.983649
827.686129	0.984177
828.003522	0.987173
828.320872	0.988384
828.638177	0.990105
828.955439	0.992820
829.272656	0.993557
829.589830	0.993633
829.906960	0.994983
830.224046	0.994413
830.541088	0.995609
830.858086	0.995567
831.175041	0.996370
831.491952	0.995404
831.808819	0.995654
832.125642	0.995840
832.442421	0.995888
832.759157	0.994842
833.075849	0.991974
833.392497	0.990566
833.709101	0.988035
834.025662	0.988770
834.342179	0.989013
834.658653	0.991676
834.975083	0.992780
835.291469	0.992791
835.607811	0.993808
835.924110	0.994423
836.240366	0.996615
836.556578	0.996580
836.872746	0.997207
837.188871	0.996387
837.504952	0.996854
837.820990	0.998108
838.136984	0.996634
838.452935	0.997535
838.768842	0.998225
839.084706	0.997570
839.400526	0.998129
839.716303	0.994463
840.032037	0.994244
840.347727	0.992511
840.663373	0.993828
840.978977	0.994584
841.294537	0.997926
841.610054	0.996644
841.925527	0.997689
842.240957	0.997314
842.556344	0.997766
842.871687	0.997640
843.186987	0.998266
843.502244	0.999521
843.817458	0.997703
844.132629	0.998450
844.447756	0.999224
844.762840	0.998741
845.077881	0.999859
845.392879	0.998490
845.707833	0.998749
846.022745	1.000310
846.337613	1.001035
846.652438	0.998734
846.967221	1.000713
847.281960	0.999658
847.596656	1.000527
847.911309	1.000542
848.225919	0.998847
848.540485	0.999198
848.855009	1.000013
849.169490	0.999454
849.483928	0.999217
849.798323	0.999036
850.112675	1.000689
850.426984	0.999594
850.741251	1.000246
851.055474	0.999585
851.369654	0.999611
851.683792	0.999474
851.997887	0.999377
852.311938	0.999580
852.625947	0.998540
852.939914	0.999015
853.253837	1.000386
853.567718	1.000703
853.881555	1.000233
854.195350	0.999244
854.509103	0.999218
854.822812	1.000489
855.136479	1.000918
855.450103	0.999375
855.763685	0.999558
856.077224	0.999726
856.390720	1.000152
856.704173	1.000778
857.017584	0.999939
857.330953	0.999526
857.644278	0.999929
857.957561	1.000314
858.270802	0.999689
858.584000	0.999502
858.897155	0.998356
859.210268	0.999549
859.523339	1.000609
859.836367	0.999208
860.149352	0.999651
860.462295	0.999477
860.775195	1.000684
861.088054	0.999188
861.400869	0.998732
861.713642	0.998961
862.026373	0.999739
862.339062	1.000200
862.651708	0.999651
862.964312	0.999007
863.276873	0.999155
863.589392	0.998969
863.901869	0.998464
864.214303	1.000028
864.526696	1.000519
864.839045	0.999827
865.151353	0.998989
865.463619	0.998848
865.775842	0.999426
866.088023	1.000883
866.400162	0.999218
866.712258	0.999713
867.024313	1.000235
867.336325	1.000557
867.648296	0.998248
867.960224	0.998985
868.272110	0.998619
868.583954	0.998831
868.895755	0.999175
869.207515	0.999279
869.519233	1.000007
869.830909	0.997392
870.142542	0.997843
870.454134	0.998412
870.765684	0.998971
871.077191	0.998414
871.388657	0.998974
871.700081	0.999184
872.011463	0.999800
872.322803	0.998334
872.634101	0.997445
872.945357	0.998675
873.256571	0.998579
873.567744	0.998392
873.878874	0.998376
874.189963	0.998303
874.501010	1.000315
874.812015	0.999174
875.122979	0.998763
875.433900	0.998423
875.744780	0.998682
876.055618	0.997107
876.366415	0.997937
876.677169	0.997979
876.987882	0.998055
877.298554	0.999295
877.609183	0.998101
877.919771	0.998697
878.230317	0.998317
878.540822	0.996714
878.851285	0.996970
879.161707	0.996511
879.472087	0.995804
879.782425	0.993134
880.092722	0.991741
880.402977	0.988929
880.713191	0.984622
881.023363	0.980202
881.333494	0.977609
881.643583	0.977765
881.953631	0.977723
882.263637	0.976653
882.573602	0.979087
882.883526	0.980590
883.193408	0.982965
883.503248	0.984734
883.813048	0.984957
884.122806	0.987382
884.432522	0.989518
884.742197	0.990701
885.051831	0.992822
885.361424	0.992771
885.670975	0.995725
885.980485	0.994927
886.289954	0.995420
886.599382	0.994603
886.908768	0.996656
887.218113	0.995495
887.527417	0.996998
887.836680	0.997647
888.145901	0.998298
888.455082	0.998638
888.764221	0.997799
889.073319	0.996719
889.382376	0.998359
889.691392	0.998156
890.000366	0.998852
890.309300	0.997886
890.618193	0.998121
890.927044	0.998389
891.235855	0.997355
891.544625	0.998210
891.853353	0.997493
892.162041	0.997283
892.470687	0.997991
892.779293	0.997702
893.087858	0.994419
893.396381	0.995146
893.704864	0.993722
894.013306	0.992862
894.321707	0.991399
894.630068	0.989235
894.938387	0.988033
895.246665	0.987998
895.554903	0.990167
895.863100	0.990862
896.171256	0.992317
896.479371	0.992762
896.787446	0.993574
897.095480	0.994856
897.403473	0.995796
897.711425	0.994737
898.019336	0.996982
898.327207	0.996396
898.635038	0.996048
898.942827	0.997051
899.250576	0.997066
899.558284	0.997446
899.865952	0.996294
900.173579	0.997234
900.481165	0.997677
900.788711	0.998000
901.096216	0.998629
901.403681	0.998231
901.711105	0.997353
902.018489	0.998433
902.325832	0.997796
902.633135	0.997859
902.940397	0.997716
903.247619	0.996374
903.554800	0.994343
903.861941	0.990995
904.169041	0.988054
904.476101	0.985709
904.783121	0.985346
905.090100	0.987067
905.397039	0.988451
905.703938	0.990452
906.010796	0.991636
906.317614	0.993523
906.624391	0.995489
906.931129	0.996658
907.237826	0.997610
907.544483	0.997263
907.851099	0.997818
908.157675	0.998578
908.464211	0.999090
908.770707	0.998523
909.077163	0.999224
909.383578	0.998886
909.689954	0.998020
909.996289	0.999010
910.302584	0.999367
910.608839	1.000312
910.915054	0.998409
911.221229	1.001361
911.527363	0.999180
911.833458	1.000164
912.139513	1.000097
912.445527	1.000139
912.751502	0.998340
913.057436	0.998533
913.363331	0.999413
913.669186	1.000014
913.975000	0.997969
914.280775	0.998014
914.586510	0.995525
914.892205	0.992967
915.197859	0.991552
915.503475	0.991114
915.809050	0.988771
916.114585	0.986354
916.420081	0.985540
916.725536	0.986824
917.030952	0.987679
917.336328	0.987947
917.641665	0.988452
917.946961	0.990134
918.252218	0.991646
918.557435	0.993003
918.862612	0.994897
919.167750	0.995370
919.472848	0.995985
919.777906	0.997811
920.082925	0.997760
920.387904	0.998081
920.692843	0.996593
920.997743	0.997158
921.302603	0.998906
921.607423	0.996929
921.912204	0.998046
922.216946	1.000004
922.521647	0.999186
922.826310	0.997515
923.130932	0.999987
923.435516	0.999806
923.740059	0.999111
924.044564	0.999606
924.349028	0.998970
924.653454	1.000772
924.957840	1.000064
925.262186	0.998708
925.566493	1.000386
925.870761	0.999840
926.174989	0.999496
926.479178	0.999518
926.783328	1.000120
927.087438	1.000045
927.391509	0.999847
927.695541	1.000937
927.999533	0.999734
928.303486	1.000807
928.607400	1.000618
928.911275	1.000818
929.215110	1.001236
929.518906	1.000084
929.822663	1.001531
930.126381	1.000819
930.430060	1.000016
930.733699	1.001655
931.037299	1.000530
931.340861	1.002214
931.644383	0.998635
931.947866	1.001147
932.251309	1.000852
932.554714	0.999771
932.858080	1.001022
933.161407	1.000099
933.464694	1.000934
933.767943	1.001762
934.071153	1.001370
934.374323	1.000117
934.677455	0.999319
934.980548	0.999944
935.283602	1.001623
935.586617	1.000858
935.889593	1.000439
936.192530	1.001636
936.495428	1.001192
936.798287	0.999727
937.101108	1.000810
937.403890	0.999762
937.706632	1.002174
938.009336	1.000543
938.312002	0.999221
938.614628	1.001141
938.917216	0.999252
939.219765	0.999172
939.522275	0.999577
939.824747	0.999208
940.127179	0.999474
940.429573	1.000537
940.731929	0.998637
941.034246	0.999496
941.336524	0.998357
941.638763	0.999546
941.940964	0.999508
942.243126	0.999500
942.545250	1.000742
942.847335	1.000284
943.149381	0.999924
943.451389	0.999003
943.753359	1.000170
944.055290	1.001588
944.357182	1.001086
944.659036	1.000803
944.960851	1.001392
945.262628	1.000238
945.564367	1.000481
945.866067	0.999940
946.167729	1.001021
946.469352	1.000153
946.770937	0.998762
947.072484	1.000488
947.373992	1.000477
947.675462	0.999894
947.976893	0.999001
948.278286	1.002594
948.579641	1.001067
948.880958	0.999900
949.182236	1.000284
949.483476	1.001938
949.784678	1.000659
950.085841	0.999793
950.386967	0.999621
950.688054	1.000629
950.989103	0.999217
951.290114	0.999014
951.591087	1.000345
951.892021	0.999877
952.192917	1.000587
952.493776	0.999763
952.794596	0.999550
953.095378	0.999468
953.396122	0.999511
953.696828	1.000178
953.997496	1.000760
954.298126	1.001853
954.598718	1.001131
954.899272	1.001002
955.199788	1.001215
955.500266	1.000789
955.800706	1.001524
956.101108	1.000087
956.401472	1.001205
956.701798	0.999447
957.002087	1.001268
957.302337	1.000555
957.602550	1.000867
957.902724	1.000243
958.202861	1.001109
958.502960	1.000293
958.803022	1.002543
959.103045	1.001092
959.403031	1.001546
959.702979	1.002108
960.002889	1.001389
960.302762	1.000500
960.602596	1.002556
960.902393	1.001272
961.202153	1.002763
961.501875	1.000918
961.801559	1.001817
962.101205	1.000052
962.400814	1.002206
962.700385	1.001850
962.999918	1.001691
963.299414	1.000741
963.598873	1.002037
963.898293	1.001420
964.197677	1.000533
964.497022	1.001157
964.796331	1.001404
965.095601	1.003173
965.394835	1.002145
965.694030	1.002824
965.993189	1.000022
966.292309	1.002302
966.591393	1.000388
966.890439	1.002225
967.189447	1.001461
967.488419	1.000369
967.787353	1.001980
968.086249	1.001342
968.385108	1.001175
968.683930	1.003282
968.982714	1.002074
969.281462	1.001842
969.580172	1.000740
969.878844	1.002980
970.177480	1.001321
970.476078	1.002974
970.774639	1.000957
971.073162	1.001363
971.371649	1.001449
971.670098	1.001738
971.968510	1.000717
972.266885	1.001122
972.565223	1.000589
972.863524	1.000308
973.161788	1.001365
973.460014	1.002900
973.758204	1.001146
974.056356	1.001559
974.354471	1.000718
974.652550	1.002108
974.950591	1.001830
975.248595	1.000089
975.546563	1.002327
975.844493	1.002742
976.142386	1.001475
976.440243	1.000585
976.738062	1.001812
977.035845	1.001192
977.333590	1.002684
977.631299	1.001582
977.928971	0.999959
978.226606	1.001793
978.524204	1.000211
978.821765	1.002353
979.119290	1.002532
979.416777	1.001404
979.714228	1.001513
980.011642	1.003209
980.309020	1.000724
980.606360	1.000828
980.903664	1.001618
981.200931	1.000258
981.498162	1.001021
981.795356	1.001624
982.092513	1.001689
982.389633	1.002433
982.686717	0.999656
982.983764	0.999958
983.280775	0.999705
983.577749	1.001429
983.874686	0.999125
984.171587	0.999847
984.468451	1.001161
984.765279	1.002832
985.062070	1.001177
985.358824	1.001304
985.655543	1.000817
985.952224	1.001163
986.248869	1.001376
986.545478	1.003293
986.842050	1.001052
987.138586	1.001090
987.435086	1.000281
987.731549	1.002099
988.027975	1.002176
988.324366	1.000730
988.620719	1.002205
988.917037	1.000984
989.213318	1.002682
989.509563	1.001288
989.805772	1.002550
990.101944	1.002523
990.398080	1.002234
990.694180	1.002988
990.990244	1.001616
991.286271	1.001175
991.582262	1.002459
991.878217	1.001520
992.174136	1.002400
992.470019	1.002812
992.765865	1.002443
993.061676	1.002673
993.357450	1.002791
993.653188	1.002154
993.948890	1.001321
994.244556	1.001710
994.540186	1.001640
994.835780	1.000966
995.131337	1.002623
995.426859	1.001511
995.722345	1.000542
996.017795	1.001131
996.313208	1.001640
996.608586	1.002395
996.903928	1.001398
997.199234	1.001550
997.494504	1.002037
997.789738	1.001096
998.084936	1.001865
998.380099	1.001742
998.675225	1.002317
998.970316	1.002426
999.265371	1.001770
999.560390	1.002335
999.855373	1.001797
1000.150320	1.001599
1000.445232	1.001955
1000.740108	1.001379
1001.034948	1.001345
1001.329752	1.003449
1001.624521	1.001936
1001.919254	1.000798
1002.213951	1.002203
1002.508613	1.002643
1002.803239	1.001993
1003.097829	1.001850
1003.392384	1.002059
1003.686903	1.002045
1003.981386	1.001206
1004.275834	1.003255
1004.570246	1.001165
1004.864623	1.002397
1005.158964	1.001843
1005.453270	1.000996
1005.747540	1.002316
1006.041775	1.001223
1006.335974	1.001497
1006.630138	1.002392
1006.924266	1.002005
1007.218359	0.999850
1007.512416	1.003160
1007.806438	1.001582
1008.100425	1.001370
1008.394376	1.002598
1008.688292	1.001994
1008.982172	1.000394
1009.276017	1.001562
1009.569827	1.002946
1009.863602	1.001489
1010.157341	1.002715
1010.451045	1.001280
1010.744714	1.003105
1011.038347	1.002125
1011.331945	1.001011
1011.625508	1.000775
1011.919036	1.001259
1012.212528	1.002315
1012.505986	1.001846
1012.799408	1.001131
1013.092795	1.001463
1013.386147	1.001486
1013.679464	1.003037
1013.972745	1.001556
1014.265992	1.002087
1014.559204	1.001740
1014.852380	1.002595
1015.145521	1.002175
1015.438628	1.002751
1015.731699	1.001753
1016.024736	1.002584
1016.317737	1.002607
1016.610703	1.002120
1016.903635	1.002769
1017.196531	1.001480
1017.489393	1.001570
1017.782219	1.001835
1018.075011	1.001125
1018.367768	1.001632
1018.660490	1.001462
1018.953177	1.001462
1019.245829	1.001462
