Dividing Wavelength (nm)	Counts (n)	Blue Motor Position (mm): 35.900000	Red Motor Position (mm): 0.000000	
326.493990	0.999523
326.888308	0.999523
327.282561	0.999523
327.676750	1.001518
328.070874	1.001958
328.464933	1.000587
328.858929	1.001776
329.252859	1.000343
329.646726	1.000450
330.040528	1.000106
330.434265	1.000638
330.827938	0.999802
331.221547	1.000146
331.615091	1.001385
332.008571	1.000525
332.401986	1.001069
332.795338	1.000532
333.188625	1.001070
333.581847	1.000472
333.975006	1.000678
334.368100	1.001320
334.761129	1.000034
335.154095	0.999548
335.546996	1.000578
335.939833	0.999766
336.332606	1.001089
336.725315	0.999032
337.117960	1.000895
337.510540	0.998890
337.903056	0.999936
338.295508	1.001786
338.687896	1.000759
339.080220	1.000219
339.472480	1.000256
339.864676	0.999714
340.256807	0.998342
340.648875	0.999935
341.040879	1.000634
341.432818	1.001268
341.824694	0.999854
342.216506	1.000298
342.608253	1.000257
342.999937	0.999548
343.391557	1.000767
343.783113	1.001334
344.174605	0.999841
344.566033	1.000119
344.957397	1.000869
345.348697	0.999779
345.739934	1.000697
346.131106	0.999639
346.522215	0.998892
346.913260	1.000295
347.304241	0.999110
347.695159	0.999911
348.086012	1.000071
348.476802	1.000531
348.867528	1.000315
349.258191	1.001157
349.648789	0.999460
350.039324	0.998793
350.429796	0.998169
350.820203	0.998354
351.210548	0.999592
351.600828	0.999027
351.991045	0.998221
352.381198	1.000459
352.771288	0.999089
353.161314	1.000586
353.551276	0.999166
353.941175	0.997492
354.331010	1.000129
354.720782	0.999589
355.110490	0.999158
355.500135	1.000520
355.889717	0.998303
356.279235	0.999533
356.668689	0.999027
357.058080	0.998717
357.447408	0.997904
357.836672	0.998858
358.225873	0.998249
358.615010	0.999908
359.004084	0.997261
359.393095	0.999228
359.782043	0.998011
360.170927	0.998792
360.559748	0.998488
360.948505	0.997922
361.337199	0.997805
361.725830	0.998791
362.114398	0.998585
362.502903	0.996665
362.891344	0.997917
363.279722	0.997383
363.668037	0.998663
364.056289	0.997254
364.444478	0.999499
364.832603	0.997501
365.220665	0.997331
365.608665	0.998243
365.996601	0.997325
366.384474	0.997013
366.772284	0.997711
367.160031	0.996439
367.547715	0.996480
367.935336	0.994903
368.322893	0.995121
368.710388	0.993151
369.097820	0.992137
369.485189	0.989712
369.872495	0.988427
370.259738	0.985974
370.646918	0.982300
371.034035	0.982801
371.421090	0.978493
371.808081	0.972483
372.195010	0.970652
372.581875	0.964657
372.968678	0.961432
373.355418	0.956828
373.742096	0.950258
374.128710	0.946270
374.515262	0.941367
374.901751	0.935561
375.288177	0.930571
375.674540	0.924016
376.060841	0.917236
376.447079	0.910118
376.833254	0.903586
377.219367	0.899818
377.605417	0.887839
377.991404	0.884739
378.377329	0.877840
378.763191	0.871490
379.148991	0.862969
379.534727	0.854831
379.920402	0.846991
380.306013	0.843026
380.691563	0.830543
381.077049	0.823594
381.462474	0.820258
381.847835	0.808313
382.233134	0.803620
382.618371	0.804369
383.003545	0.787141
383.388657	0.785020
383.773706	0.777076
384.158693	0.772951
384.543618	0.767952
384.928480	0.759194
385.313280	0.749287
385.698017	0.748794
386.082692	0.737580
386.467305	0.735622
386.851856	0.730906
387.236344	0.725304
387.620770	0.719380
388.005133	0.713733
388.389435	0.708472
388.773674	0.706189
389.157851	0.698051
389.541965	0.694932
389.926018	0.701771
390.310008	0.688774
390.693936	0.686052
391.077802	0.677226
391.461606	0.679422
391.845348	0.668668
392.229027	0.668672
392.612645	0.665738
392.996200	0.654205
393.379694	0.646364
393.763125	0.636660
394.146494	0.642101
394.529801	0.632149
394.913047	0.624630
395.296230	0.629769
395.679351	0.621057
396.062410	0.618397
396.445408	0.621601
396.828343	0.617210
397.211217	0.612485
397.594028	0.624533
397.976778	0.614627
398.359466	0.610937
398.742092	0.607026
399.124656	0.618693
399.507158	0.607037
399.889598	0.604943
400.271977	0.596970
400.654294	0.601429
401.036549	0.600910
401.418742	0.606153
401.800874	0.593890
402.182944	0.591355
402.564952	0.584578
402.946898	0.589183
403.328783	0.592376
403.710606	0.605052
404.092367	0.583565
404.474067	0.590376
404.855705	0.592768
405.237282	0.603675
405.618797	0.594341
406.000250	0.593720
406.381642	0.588805
406.762972	0.597893
407.144240	0.600433
407.525447	0.603980
407.906593	0.603367
408.287677	0.603659
408.668700	0.616391
409.049661	0.616748
409.430560	0.618699
409.811399	0.632088
410.192176	0.622674
410.572891	0.634511
410.953545	0.632251
411.334138	0.649514
411.714669	0.650527
412.095139	0.666791
412.475547	0.662861
412.855894	0.671186
413.236180	0.678685
413.616405	0.689586
413.996568	0.691304
414.376670	0.703887
414.756711	0.714434
415.136691	0.720718
415.516609	0.724520
415.896466	0.730110
416.276262	0.736731
416.655997	0.747239
417.035670	0.745614
417.415283	0.750319
417.794834	0.761912
418.174324	0.773214
418.553753	0.784735
418.933121	0.786122
419.312428	0.793185
419.691674	0.805263
420.070859	0.808285
420.449983	0.820362
420.829045	0.824347
421.208047	0.836432
421.586988	0.841449
421.965867	0.849148
422.344686	0.855086
422.723444	0.865444
423.102141	0.877198
423.480777	0.876995
423.859352	0.889602
424.237866	0.891242
424.616319	0.898423
424.994712	0.902678
425.373044	0.911003
425.751314	0.914722
426.129524	0.924075
426.507673	0.926290
426.885762	0.929840
427.263789	0.936806
427.641756	0.941602
428.019662	0.944877
428.397508	0.948997
428.775292	0.953608
429.153016	0.956322
429.530679	0.960718
429.908282	0.964054
430.285824	0.967203
430.663305	0.969145
431.040726	0.973211
431.418086	0.976065
431.795385	0.978293
432.172624	0.980324
432.549802	0.981434
432.926920	0.983566
433.303977	0.984902
433.680974	0.986126
434.057910	0.988396
434.434786	0.988820
434.811601	0.990062
435.188355	0.990326
435.565050	0.991622
435.941683	0.992191
436.318257	0.992024
436.694770	0.993341
437.071222	0.995046
437.447614	0.994773
437.823946	0.995198
438.200218	0.994929
438.576429	0.995318
438.952580	0.996223
439.328670	0.995451
439.704700	0.995779
440.080670	0.996985
440.456580	0.997101
440.832429	0.996788
441.208218	0.997762
441.583947	0.997360
441.959616	0.995817
442.335224	0.998430
442.710773	0.998024
443.086261	0.997608
443.461689	0.997426
443.837057	0.997608
444.212365	0.997901
444.587612	0.998539
444.962800	0.997839
445.337927	0.998196
445.712995	0.997755
446.088002	0.997272
446.462949	0.998108
446.837837	0.999223
447.212664	0.997828
447.587431	0.998611
447.962139	0.998585
448.336786	0.996958
448.711374	0.997324
449.085901	0.997509
449.460369	0.998652
449.834776	0.997789
450.209124	0.998256
450.583412	0.998838
450.957640	0.997576
451.331808	0.999173
451.705917	0.997871
452.079965	0.998873
452.453954	0.998441
452.827883	0.997484
453.201752	0.998180
453.575562	0.998243
453.949311	0.999004
454.323001	0.998270
454.696632	0.998511
455.070202	0.998454
455.443713	0.998348
455.817164	0.998079
456.190556	0.999031
456.563888	0.998737
456.937160	0.997939
457.310373	0.997625
457.683526	0.998084
458.056619	0.998318
458.429653	0.998227
458.802628	0.998091
459.175542	0.998363
459.548398	0.998307
459.921194	0.998705
460.293930	0.998052
460.666607	0.998324
461.039224	0.998592
461.411782	0.998596
461.784280	0.998124
462.156719	0.998605
462.529099	0.998159
462.901419	0.998342
463.273680	0.997580
463.645882	0.997242
464.018024	0.998606
464.390106	0.997795
464.762130	0.997942
465.134094	0.998596
465.505999	0.998242
465.877845	0.998329
466.249631	0.998157
466.621358	0.997335
466.993026	0.997036
467.364634	0.997310
467.736184	0.997721
468.107674	0.997480
468.479105	0.997134
468.850477	0.997437
469.221790	0.997303
469.593043	0.997476
469.964238	0.997899
470.335373	0.996345
470.706449	0.997401
471.077467	0.997100
471.448425	0.998342
471.819324	0.997646
472.190164	0.997158
472.560945	0.996618
472.931667	0.997430
473.302330	0.997743
473.672934	0.997676
474.043479	0.997363
474.413965	0.997792
474.784393	0.996954
475.154761	0.997101
475.525070	0.997437
475.895321	0.997745
476.265513	0.997756
476.635645	0.997720
477.005719	0.996984
477.375734	0.997103
477.745691	0.996246
478.115588	0.997381
478.485427	0.996951
478.855207	0.997001
479.224928	0.997656
479.594591	0.997057
479.964194	0.996802
480.333739	0.997517
480.703226	0.996722
481.072653	0.996123
481.442022	0.997016
481.811333	0.997225
482.180584	0.996828
482.549777	0.997156
482.918912	0.997459
483.287988	0.996851
483.657005	0.996789
484.025964	0.997195
484.394864	0.996798
484.763706	0.996392
485.132489	0.997013
485.501213	0.997281
485.869879	0.997197
486.238487	0.995990
486.607036	0.997508
486.975527	0.997420
487.343959	0.996297
487.712333	0.997367
488.080648	0.996662
488.448905	0.997323
488.817104	0.997114
489.185244	0.997343
489.553326	0.997920
489.921350	0.997723
490.289315	0.997468
490.657222	0.996512
491.025070	0.997636
491.392861	0.997335
491.760593	0.997322
492.128267	0.997040
492.495883	0.996425
492.863440	0.997471
493.230939	0.997085
493.598380	0.997584
493.965763	0.996809
494.333088	0.996934
494.700354	0.996997
495.067563	0.996766
495.434713	0.997149
495.801805	0.997314
496.168839	0.998012
496.535815	0.996794
496.902733	0.996938
497.269593	0.996612
497.636395	0.996129
498.003139	0.997070
498.369825	0.997698
498.736453	0.996744
499.103023	0.997203
499.469535	0.997200
499.835989	0.997274
500.202385	0.997120
500.568723	0.996768
500.935003	0.997198
501.301226	0.997233
501.667390	0.996651
502.033497	0.997422
502.399546	0.996831
502.765537	0.997618
503.131470	0.996811
503.497345	0.997476
503.863163	0.997170
504.228923	0.997185
504.594625	0.996738
504.960269	0.997531
505.325856	0.997374
505.691385	0.997545
506.056856	0.997025
506.422270	0.996791
506.787625	0.997059
507.152924	0.997737
507.518164	0.997196
507.883347	0.996382
508.248472	0.997157
508.613540	0.997009
508.978550	0.996846
509.343503	0.996790
509.708398	0.997231
510.073236	0.997877
510.438016	0.996414
510.802738	0.997139
511.167403	0.997099
511.532010	0.997024
511.896561	0.997229
512.261053	0.996217
512.625488	0.996895
512.989866	0.996816
513.354186	0.996520
513.718449	0.997766
514.082655	0.996596
514.446803	0.996547
514.810894	0.997436
515.174927	0.997463
515.538904	0.997393
515.902822	0.996993
516.266684	0.997451
516.630488	0.997292
516.994235	0.997603
517.357925	0.997421
517.721558	0.997534
518.085133	0.996630
518.448651	0.996948
518.812112	0.997762
519.175516	0.997120
519.538863	0.996694
519.902152	0.997716
520.265385	0.997209
520.628560	0.997263
520.991678	0.996854
521.354739	0.998295
521.717743	0.997380
522.080690	0.997063
522.443580	0.997032
522.806413	0.996582
523.169189	0.997720
523.531908	0.996679
523.894569	0.997317
524.257174	0.997108
524.619722	0.997223
524.982213	0.996993
525.344647	0.996626
525.707025	0.996312
526.069345	0.996979
526.431608	0.997486
526.793815	0.997514
527.155964	0.997444
527.518057	0.997334
527.880093	0.996754
528.242072	0.997367
528.603995	0.996907
528.965860	0.997904
529.327669	0.997385
529.689421	0.997157
530.051117	0.997233
530.412755	0.997776
530.774337	0.997441
531.135862	0.998398
531.497331	0.996909
531.858743	0.997552
532.220098	0.996256
532.581396	0.997362
532.942638	0.997341
533.303824	0.997994
533.664953	0.997401
534.026025	0.998465
534.387040	0.997569
534.747999	0.997668
535.108902	0.997704
535.469748	0.997926
535.830537	0.997818
536.191270	0.997880
536.551947	0.997258
536.912567	0.997680
537.273131	0.997772
537.633638	0.997182
537.994089	0.997465
538.354483	0.997459
538.714821	0.997640
539.075103	0.997844
539.435328	0.997453
539.795497	0.997918
540.155609	0.997216
540.515665	0.997745
540.875665	0.997129
541.235609	0.997953
541.595496	0.997007
541.955328	0.997269
542.315102	0.997350
542.674821	0.997907
543.034483	0.998328
543.394090	0.996767
543.753640	0.997245
544.113134	0.997303
544.472571	0.997792
544.831953	0.997927
545.191278	0.997387
545.550548	0.996633
545.909761	0.997558
546.268918	0.997762
546.628019	0.997635
546.987064	0.997326
547.346053	0.997622
547.704986	0.997227
548.063863	0.997387
548.422684	0.997991
548.781449	0.997967
549.140158	0.997392
549.498811	0.996652
549.857408	0.996599
550.215949	0.996692
550.574434	0.997561
550.932864	0.997731
551.291237	0.997198
551.649555	0.998177
552.007817	0.997054
552.366022	0.997878
552.724173	0.997967
553.082267	0.997356
553.440305	0.997455
553.798288	0.996553
554.156215	0.997206
554.514086	0.996984
554.871902	0.997546
555.229661	0.996850
555.587365	0.997437
555.945014	0.998001
556.302606	0.997404
556.660143	0.997796
557.017625	0.998039
557.375050	0.997583
557.732421	0.997253
558.089735	0.997178
558.446994	0.996981
558.804197	0.997841
559.161345	0.997399
559.518437	0.997216
559.875474	0.997340
560.232455	0.997784
560.589381	0.997762
560.946251	0.997545
561.303065	0.997848
561.659825	0.997614
562.016528	0.998020
562.373177	0.997690
562.729770	0.997322
563.086307	0.997284
563.442789	0.997743
563.799216	0.997355
564.155587	0.997409
564.511904	0.998129
564.868164	0.997042
565.224370	0.997353
565.580520	0.997658
565.936615	0.997496
566.292654	0.997649
566.648638	0.998080
567.004567	0.997476
567.360441	0.998218
567.716260	0.997601
568.072023	0.997365
568.427732	0.997556
568.783385	0.997542
569.138982	0.997814
569.494525	0.997127
569.850013	0.998301
570.205445	0.997797
570.560823	0.997913
570.916145	0.997338
571.271412	0.997546
571.626625	0.997289
571.981782	0.996829
572.336884	0.998115
572.691931	0.997632
573.046923	0.997355
573.401860	0.996920
573.756743	0.997583
574.111570	0.997689
574.466342	0.998253
574.821059	0.997691
575.175722	0.998562
575.530330	0.997102
575.884882	0.997896
576.239380	0.998172
576.593823	0.997787
576.948211	0.997587
577.302544	0.998250
577.656823	0.997682
578.011047	0.996893
578.365216	0.998007
578.719330	0.998149
579.073389	0.996876
579.427394	0.997405
579.781344	0.998056
580.135239	0.997361
580.489080	0.997579
580.842866	0.997349
581.196597	0.997218
581.550273	0.997603
581.903895	0.998552
582.257463	0.997457
582.610975	0.997250
582.964434	0.997811
583.317837	0.998000
583.671186	0.997838
584.024481	0.998108
584.377721	0.997143
584.730906	0.997420
585.084037	0.998260
585.437113	0.998650
585.790135	0.998050
586.143103	0.997529
586.496016	0.997536
586.848874	0.997549
587.201679	0.997853
587.554428	0.997587
587.907124	0.997975
588.259765	0.998248
588.612352	0.998542
588.964884	0.998036
589.317362	0.997701
589.669786	0.997397
590.022155	0.998154
590.374470	0.997774
590.726731	0.997932
591.078937	0.997916
591.431090	0.998311
591.783188	0.997782
592.135232	0.998107
592.487222	0.997533
592.839157	0.997877
593.191038	0.997032
593.542866	0.997991
593.894639	0.997475
594.246358	0.997492
594.598022	0.997731
594.949633	0.998194
595.301190	0.997275
595.652692	0.997883
596.004141	0.997721
596.355535	0.997910
596.706876	0.998143
597.058162	0.997719
597.409395	0.997265
597.760573	0.996686
598.111698	0.997274
598.462768	0.996844
598.813785	0.997381
599.164748	0.997598
599.515657	0.997148
599.866511	0.997500
600.217312	0.998060
600.568060	0.997822
600.918753	0.998048
601.269392	0.997901
601.619978	0.997270
601.970510	0.997459
602.320988	0.998424
602.671412	0.997969
603.021783	0.998075
603.372100	0.997632
603.722363	0.997542
604.072572	0.998051
604.422728	0.996898
604.772830	0.997235
605.122878	0.997315
605.472872	0.997958
605.822813	0.997109
606.172701	0.997919
606.522534	0.998075
606.872314	0.998414
607.222041	0.997775
607.571714	0.998252
607.921333	0.997482
608.270899	0.997556
608.620411	0.997666
608.969870	0.998311
609.319276	0.998574
609.668627	0.998059
610.017926	0.997826
610.367171	0.997655
610.716362	0.997612
611.065500	0.997526
611.414585	0.997870
611.763616	0.996968
612.112594	0.998394
612.461518	0.997091
612.810389	0.997664
613.159207	0.997443
613.507971	0.997063
613.856682	0.998832
614.205340	0.996726
614.553945	0.998510
614.902496	0.997546
615.250994	0.997849
615.599439	0.998062
615.947830	0.997669
616.296169	0.997754
616.644454	0.997392
616.992686	0.997676
617.340864	0.998761
617.688990	0.997349
618.037063	0.997763
618.385082	0.996962
618.733048	0.997398
619.080961	0.997873
619.428821	0.998728
619.776628	0.997730
620.124382	0.998351
620.472083	0.997640
620.819731	0.998507
621.167326	0.998639
621.514868	0.997939
621.862357	0.997906
622.209793	0.997577
622.557176	0.997446
622.904506	0.997860
623.251783	0.997204
623.599007	0.998021
623.946179	0.997168
624.293297	0.998465
624.640363	0.998094
624.987376	0.997412
625.334336	0.997477
625.681243	0.997145
626.028097	0.997354
626.374899	0.997365
626.721647	0.998217
627.068343	0.997728
627.414987	0.997691
627.761577	0.997779
628.108115	0.996919
628.454600	0.997999
628.801032	0.998324
629.147412	0.997308
629.493739	0.998475
629.840014	0.998577
630.186236	0.997590
630.532405	0.997820
630.878521	0.997417
631.224585	0.997667
631.570597	0.997812
631.916556	0.997871
632.262462	0.997151
632.608316	0.997778
632.954117	0.997969
633.299866	0.998407
633.645562	0.997361
633.991206	0.998045
634.336797	0.997717
634.682336	0.997988
635.027823	0.997845
635.373257	0.997445
635.718639	0.998184
636.063968	0.997513
636.409245	0.997799
636.754470	0.997716
637.099642	0.998087
637.444762	0.997994
637.789829	0.997647
638.134845	0.997413
638.479808	0.998138
638.824719	0.997764
639.169577	0.998220
639.514383	0.997915
639.859137	0.997867
640.203839	0.997532
640.548489	0.997298
640.893086	0.996758
641.237632	0.998144
641.582125	0.997832
641.926566	0.998522
642.270955	0.997463
642.615292	0.998248
642.959576	0.997750
643.303809	0.998667
643.647990	0.997796
643.992118	0.997676
644.336195	0.997102
644.680219	0.997437
645.024192	0.997657
645.368112	0.997659
645.711981	0.997437
646.055797	0.997795
646.399562	0.997265
646.743274	0.997926
647.086935	0.997609
647.430544	0.997346
647.774101	0.997202
648.117606	0.998259
648.461059	0.998711
648.804460	0.997477
649.147810	0.997873
649.491108	0.998279
649.834354	0.997876
650.177548	0.997230
650.520690	0.997424
650.863781	0.997252
651.206820	0.997952
651.549807	0.997371
651.892742	0.998355
652.235626	0.997978
652.578458	0.997630
652.921238	0.997655
653.263967	0.997863
653.606644	0.998032
653.949269	0.997940
654.291843	0.996868
654.634365	0.998604
654.976836	0.997217
655.319255	0.997910
655.661622	0.997805
656.003938	0.996731
656.346203	0.996651
656.688416	0.997395
657.030577	0.997358
657.372687	0.997658
657.714746	0.997389
658.056753	0.998042
658.398708	0.996979
658.740612	0.997768
659.082465	0.997280
659.424266	0.997356
659.766016	0.996852
660.107715	0.998157
660.449362	0.996988
660.790958	0.997416
661.132503	0.997410
661.473996	0.996784
661.815438	0.997656
662.156829	0.997392
662.498168	0.998237
662.839456	0.997074
663.180693	0.997329
663.521879	0.997813
663.863013	0.997816
664.204097	0.997553
664.545129	0.997601
664.886110	0.997804
665.227040	0.998339
665.567918	0.997955
665.908746	0.996754
666.249522	0.997257
666.590248	0.997362
666.930922	0.997287
667.271545	0.998002
667.612118	0.997432
667.952639	0.997835
668.293109	0.997460
668.633528	0.996678
668.973896	0.997535
669.314213	0.996959
669.654480	0.997952
669.994695	0.996844
670.334859	0.997397
670.674973	0.997227
671.015035	0.997289
671.355047	0.996885
671.695008	0.996862
672.034918	0.997442
672.374777	0.997773
672.714585	0.997832
673.054342	0.997283
673.394049	0.997214
673.733705	0.997203
674.073310	0.997702
674.412864	0.997045
674.752368	0.996224
675.091820	0.997490
675.431223	0.997649
675.770574	0.996427
676.109875	0.997265
676.449125	0.996824
676.788324	0.997074
677.127473	0.997928
677.466571	0.997706
677.805619	0.996951
678.144616	0.997932
678.483562	0.998230
678.822458	0.997385
679.161303	0.996217
679.500098	0.997300
679.838842	0.998007
680.177535	0.997195
680.516179	0.996068
680.854771	0.996846
681.193314	0.996861
681.531805	0.997578
681.870247	0.996612
682.208638	0.997764
682.546978	0.996620
682.885268	0.997638
683.223508	0.997247
683.561697	0.997153
683.899836	0.996741
684.237925	0.996784
684.575963	0.996908
684.913951	0.996655
685.251889	0.997323
685.589776	0.996898
685.927614	0.997438
686.265401	0.996939
686.603137	0.996525
686.940824	0.996740
687.278460	0.997269
687.616046	0.996763
687.953582	0.997150
688.291068	0.997697
688.628504	0.997334
688.965889	0.996818
689.303224	0.996018
689.640510	0.996310
689.977745	0.995591
690.314930	0.996564
690.652065	0.996797
690.989150	0.996247
691.326185	0.996905
691.663170	0.996395
692.000105	0.997123
692.336990	0.997362
692.673825	0.996549
693.010610	0.997066
693.347345	0.997100
693.684030	0.997128
694.020665	0.996796
694.357251	0.997004
694.693786	0.997444
695.030272	0.995525
695.366707	0.996322
695.703093	0.996330
696.039429	0.996312
696.375716	0.997121
696.711952	0.996974
697.048139	0.996703
697.384276	0.996448
697.720363	0.996613
698.056400	0.994935
698.392388	0.996822
698.728326	0.996943
699.064214	0.997525
699.400053	0.996955
699.735842	0.998158
700.071581	0.996918
700.407270	0.996527
700.742910	0.998108
701.078501	0.996471
701.414042	0.998170
701.749533	0.995823
702.084974	0.996225
702.420366	0.996871
702.755709	0.996431
703.091002	0.996756
703.426246	0.997752
703.761440	0.997103
704.096584	0.996302
704.431679	0.997155
704.766725	0.996225
705.101721	0.997135
705.436668	0.996927
705.771565	0.996939
706.106413	0.996767
706.441212	0.997220
706.775961	0.996929
707.110661	0.996740
707.445311	0.997096
707.779913	0.997960
708.114465	0.997917
708.448967	0.998359
708.783421	0.997222
709.117825	0.996154
709.452180	0.997252
709.786485	0.997030
710.120742	0.996544
710.454949	0.996735
710.789107	0.997666
711.123216	0.996588
711.457275	0.996082
711.791286	0.997355
712.125247	0.998014
712.459159	0.996753
712.793023	0.996910
713.126837	0.996924
713.460602	0.996419
713.794318	0.995601
714.127985	0.996534
714.461602	0.996145
714.795171	0.996814
715.128691	0.996285
715.462162	0.997707
715.795584	0.996024
716.128957	0.996834
716.462281	0.996495
716.795556	0.996728
717.128782	0.997285
717.461960	0.996847
717.795088	0.996791
718.128167	0.997906
718.461198	0.996108
718.794180	0.996249
719.127113	0.996720
719.459997	0.996913
719.792833	0.996286
720.125619	0.996603
720.458357	0.997408
720.791046	0.997425
721.123686	0.996913
721.456278	0.997535
721.788821	0.996666
722.121315	0.997551
722.453761	0.997530
722.786158	0.996762
723.118506	0.997133
723.450805	0.996817
723.783056	0.997958
724.115259	0.997339
724.447412	0.998152
724.779518	0.997027
725.111574	0.996616
725.443582	0.996627
725.775542	0.998043
726.107453	0.998056
726.439315	0.997899
726.771129	0.997437
727.102895	0.997692
727.434612	0.997288
727.766281	0.997545
728.097901	0.996912
728.429473	0.997346
728.760996	0.996588
729.092471	0.997964
729.423897	0.998112
729.755276	0.996997
730.086606	0.997038
730.417887	0.997896
730.749120	0.997272
731.080305	0.996787
731.411442	0.997581
731.742530	0.996412
732.073570	0.996761
732.404562	0.996759
732.735506	0.997230
733.066401	0.996525
733.397249	0.996488
733.728048	0.996931
734.058798	0.996655
734.389501	0.997703
734.720156	0.997675
735.050762	0.997171
735.381320	0.997167
735.711831	0.996691
736.042293	0.996667
736.372707	0.997368
736.703073	0.996582
737.033391	0.997031
737.363661	0.997675
737.693883	0.997384
738.024056	0.996400
738.354182	0.997626
738.684260	0.997438
739.014290	0.997843
739.344272	0.997048
739.674207	0.997518
740.004093	0.996951
740.333931	0.997436
740.663722	0.996891
740.993464	0.997395
741.323159	0.996760
741.652806	0.997123
741.982405	0.997050
742.311956	0.997528
742.641460	0.997567
742.970915	0.996873
743.300323	0.996708
743.629683	0.996562
743.958996	0.998031
744.288260	0.996806
744.617477	0.996931
744.946647	0.997067
745.275768	0.997805
745.604842	0.996237
745.933869	0.997514
746.262847	0.998220
746.591778	0.995715
746.920662	0.997126
747.249498	0.997953
747.578286	0.997837
747.907027	0.996657
748.235720	0.998380
748.564365	0.997782
748.892963	0.996740
749.221514	0.996990
749.550017	0.996872
749.878473	0.998028
750.206881	0.998203
750.535242	0.996918
750.863555	0.996757
751.191821	0.997175
751.520039	0.996953
751.848210	0.996663
752.176334	0.998065
752.504411	0.997374
752.832440	0.996174
753.160421	0.996308
753.488356	0.997946
753.816243	0.997288
754.144082	0.996806
754.471875	0.997656
754.799620	0.997907
755.127318	0.996893
755.454969	0.997537
755.782572	0.998007
756.110129	0.997465
756.437638	0.999097
756.765100	0.998050
757.092515	0.997347
757.419882	0.997882
757.747203	0.997495
758.074477	0.999093
758.401703	0.997541
758.728882	0.997386
759.056014	0.997281
759.383099	0.997835
759.710138	0.997171
760.037129	0.997871
760.364073	0.997981
760.690970	0.997503
761.017820	0.996765
761.344623	0.998159
761.671379	0.997888
761.998088	0.997966
762.324751	0.997611
762.651366	0.996684
762.977935	0.996490
763.304456	0.996920
763.630931	0.994537
763.957359	0.994244
764.283740	0.994983
764.610074	0.995706
764.936362	0.996545
765.262602	0.997330
765.588796	0.997702
765.914943	0.996486
766.241044	0.997754
766.567097	0.997438
766.893104	0.997568
767.219064	0.996922
767.544978	0.998332
767.870845	0.997364
768.196665	0.997398
768.522438	0.997485
768.848165	0.998303
769.173846	0.998535
769.499479	0.999240
769.825066	0.998923
770.150607	0.998821
770.476101	0.997989
770.801548	0.997787
771.126949	0.999473
771.452303	0.997933
771.777611	0.998684
772.102872	0.998373
772.428087	0.997800
772.753256	0.999173
773.078378	0.997728
773.403453	0.998069
773.728482	0.999681
774.053465	0.996821
774.378401	0.998191
774.703291	0.999369
775.028135	0.999972
775.352932	0.997267
775.677683	0.998572
776.002388	0.998169
776.327046	0.997244
776.651658	0.998887
776.976224	0.999113
777.300743	0.997943
777.625216	0.997917
777.949643	0.998015
778.274024	0.997965
778.598359	0.999389
778.922647	0.999380
779.246889	0.998766
779.571086	0.998938
779.895236	0.998402
780.219339	0.998923
780.543397	0.997372
780.867409	0.998961
781.191374	0.998911
781.515294	0.998958
781.839167	0.998929
782.162995	0.998803
782.486776	0.997754
782.810511	0.999084
783.134201	0.999441
783.457844	0.998378
783.781441	0.998611
784.104993	0.998195
784.428498	0.998862
784.751958	1.000556
785.075372	0.999704
785.398739	0.998075
785.722061	0.998272
786.045337	0.998277
786.368568	0.998592
786.691752	0.999187
787.014891	0.998893
787.337983	0.997906
787.661030	0.998305
787.984031	0.998620
788.306987	0.998155
788.629897	0.997020
788.952760	0.997823
789.275579	0.998334
789.598351	0.997389
789.921078	0.999116
790.243759	0.998807
790.566395	0.997597
790.888984	0.998459
791.211529	0.998413
791.534027	0.997926
791.856480	0.998239
792.178888	0.999332
792.501249	0.998757
792.823566	0.998803
793.145836	0.998341
793.468062	0.998841
793.790241	0.999517
794.112375	0.997578
794.434464	0.998084
794.756507	0.999222
795.078505	0.998868
795.400457	0.998894
795.722364	0.997955
796.044226	0.999402
796.366042	0.997728
796.687812	0.996929
797.009538	0.997940
797.331218	0.998961
797.652852	0.998275
797.974442	0.998218
798.295986	0.998126
798.617484	0.997297
798.938938	0.998210
799.260346	0.998771
799.581709	0.997643
799.903026	0.999582
800.224299	0.998009
800.545526	0.996905
800.866708	0.997992
801.187845	0.997998
801.508936	0.998288
801.829983	0.998691
802.150984	0.998708
802.471940	0.998798
802.792851	0.998470
803.113717	0.998945
803.434538	1.000071
803.755314	0.999770
804.076045	0.999308
804.396731	0.998705
804.717372	0.997819
805.037967	0.998787
805.358518	1.000169
805.679024	0.997591
805.999485	0.999342
806.319901	0.999218
806.640272	0.999469
806.960598	0.998948
807.280879	0.998976
807.601115	0.999556
807.921306	0.999286
808.241453	1.000023
808.561554	0.998789
808.881611	0.999155
809.201623	0.997659
809.521590	0.999438
809.841513	0.998555
810.161390	0.998347
810.481223	0.998247
810.801011	0.998525
811.120755	1.000025
811.440453	0.998247
811.760107	0.999091
812.079716	0.998847
812.399281	0.998504
812.718801	0.998313
813.038276	0.998194
813.357707	0.999028
813.677093	0.999434
813.996434	0.998645
814.315731	0.999385
814.634983	0.998961
814.954191	0.999813
815.273354	0.998826
815.592473	0.999216
815.911547	0.999106
816.230577	0.998771
816.549562	0.998957
816.868502	0.998361
817.187399	0.999418
817.506250	0.999236
817.825058	0.996402
818.143821	0.998690
818.462539	0.998273
818.781213	0.997618
819.099843	0.998581
819.418429	0.997552
819.736970	0.999299
820.055466	0.996839
820.373919	0.996804
820.692327	0.996428
821.010691	0.995466
821.329011	0.994755
821.647286	0.993525
821.965517	0.992241
822.283704	0.990577
822.601847	0.989628
822.919945	0.989373
823.237999	0.990855
823.556010	0.992375
823.873976	0.991872
824.191897	0.992654
824.509775	0.994041
824.827609	0.994585
825.145398	0.995209
825.463144	0.993391
825.780845	0.993022
826.098502	0.994121
826.416116	0.995028
826.733685	0.995033
827.051210	0.992815
827.368692	0.992698
827.686129	0.993231
828.003522	0.995071
828.320872	0.995345
828.638177	0.995598
828.955439	0.997605
829.272656	0.998439
829.589830	0.996430
829.906960	0.997209
830.224046	0.997000
830.541088	0.998014
830.858086	0.997555
831.175041	0.998981
831.491952	0.997708
831.808819	0.998207
832.125642	0.997562
832.442421	0.997794
832.759157	0.998445
833.075849	0.996835
833.392497	0.996090
833.709101	0.995286
834.025662	0.994905
834.342179	0.995155
834.658653	0.996268
834.975083	0.997290
835.291469	0.996855
835.607811	0.996516
835.924110	0.998380
836.240366	0.998712
836.556578	0.998972
836.872746	0.998214
837.188871	0.998889
837.504952	0.997914
837.820990	0.997923
838.136984	0.997598
838.452935	0.998364
838.768842	0.998795
839.084706	0.999114
839.400526	0.998933
839.716303	0.996995
840.032037	0.998049
840.347727	0.998419
840.663373	0.998098
840.978977	0.997863
841.294537	0.998805
841.610054	0.999548
841.925527	0.999407
842.240957	0.999691
842.556344	0.998384
842.871687	0.999028
843.186987	0.999125
843.502244	1.000759
843.817458	0.998722
844.132629	0.998640
844.447756	0.999492
844.762840	0.998803
845.077881	1.000492
845.392879	0.998494
845.707833	0.998950
846.022745	0.999222
846.337613	0.999602
846.652438	0.999315
846.967221	0.999633
847.281960	1.000541
847.596656	1.000850
847.911309	1.000627
848.225919	0.998466
848.540485	0.999630
848.855009	1.000788
849.169490	1.000172
849.483928	0.998802
849.798323	0.998508
850.112675	1.000150
850.426984	1.000884
850.741251	0.999433
851.055474	0.999440
851.369654	1.000514
851.683792	0.998882
851.997887	1.000386
852.311938	1.000102
852.625947	0.999492
852.939914	0.998273
853.253837	1.000989
853.567718	1.000246
853.881555	1.000039
854.195350	1.000678
854.509103	1.000114
854.822812	0.999898
855.136479	1.000556
855.450103	0.999757
855.763685	1.000568
856.077224	0.998323
856.390720	0.999651
856.704173	1.000404
857.017584	0.999573
857.330953	1.000417
857.644278	1.000075
857.957561	0.999852
858.270802	0.999945
858.584000	0.999390
858.897155	0.999182
859.210268	0.999177
859.523339	1.000889
859.836367	1.000038
860.149352	1.000069
860.462295	0.999651
860.775195	1.000157
861.088054	0.999255
861.400869	1.000325
861.713642	0.998506
862.026373	1.000416
862.339062	1.000854
862.651708	0.998984
862.964312	0.999616
863.276873	0.999593
863.589392	1.000481
863.901869	0.999147
864.214303	1.000575
864.526696	1.000392
864.839045	1.000687
865.151353	0.999990
865.463619	0.998479
865.775842	0.999865
866.088023	1.000281
866.400162	0.999852
866.712258	1.000000
867.024313	0.999720
867.336325	1.000107
867.648296	1.000132
867.960224	0.999906
868.272110	1.000537
868.583954	0.999253
868.895755	1.000602
869.207515	0.999777
869.519233	1.000209
869.830909	0.999075
870.142542	0.998420
870.454134	0.999376
870.765684	0.999549
871.077191	1.000175
871.388657	0.999551
871.700081	0.999526
872.011463	0.999701
872.322803	0.999735
872.634101	0.998606
872.945357	0.999333
873.256571	0.999784
873.567744	0.999216
873.878874	0.999701
874.189963	0.999525
874.501010	1.000883
874.812015	0.999475
875.122979	0.999683
875.433900	0.999499
875.744780	1.000394
876.055618	0.998108
876.366415	0.999330
876.677169	0.999108
876.987882	0.999163
877.298554	1.001088
877.609183	0.999093
877.919771	1.000071
878.230317	0.999914
878.540822	0.997939
878.851285	0.998700
879.161707	0.998622
879.472087	0.999839
879.782425	0.997817
880.092722	0.997303
880.402977	0.995492
880.713191	0.993703
881.023363	0.992866
881.333494	0.990984
881.643583	0.992912
881.953631	0.991218
882.263637	0.991367
882.573602	0.992339
882.883526	0.992220
883.193408	0.993576
883.503248	0.993987
883.813048	0.993767
884.122806	0.995653
884.432522	0.995712
884.742197	0.997273
885.051831	0.996874
885.361424	0.997396
885.670975	0.999583
885.980485	0.997291
886.289954	0.997215
886.599382	0.997838
886.908768	0.999383
887.218113	0.998017
887.527417	0.998970
887.836680	0.999647
888.145901	0.999486
888.455082	0.999396
888.764221	1.000162
889.073319	0.997900
889.382376	0.999311
889.691392	0.998689
890.000366	1.000570
890.309300	0.998761
890.618193	0.998579
890.927044	0.999290
891.235855	0.998407
891.544625	0.998746
891.853353	0.999041
892.162041	0.998669
892.470687	0.999465
892.779293	0.997390
893.087858	0.997813
893.396381	0.998823
893.704864	0.996621
894.013306	0.997027
894.321707	0.996710
894.630068	0.996395
894.938387	0.995924
895.246665	0.996266
895.554903	0.996034
895.863100	0.996280
896.171256	0.996436
896.479371	0.998382
896.787446	0.997500
897.095480	0.997589
897.403473	0.997803
897.711425	0.997833
898.019336	0.999146
898.327207	0.999988
898.635038	0.998084
898.942827	0.999862
899.250576	0.998899
899.558284	0.999001
899.865952	0.998405
900.173579	0.998380
900.481165	0.997899
900.788711	0.999011
901.096216	0.999172
901.403681	0.999129
901.711105	0.998664
902.018489	0.998975
902.325832	0.999782
902.633135	0.998341
902.940397	0.999271
903.247619	0.998565
903.554800	0.997887
903.861941	0.997463
904.169041	0.995748
904.476101	0.994485
904.783121	0.994777
905.090100	0.995665
905.397039	0.995834
905.703938	0.996656
906.010796	0.996660
906.317614	0.997436
906.624391	0.997925
906.931129	0.998535
907.237826	0.997929
907.544483	0.998502
907.851099	0.999200
908.157675	0.998255
908.464211	0.999426
908.770707	0.998155
909.077163	0.999255
909.383578	0.998518
909.689954	0.999509
909.996289	0.999875
910.302584	0.999961
910.608839	1.000241
910.915054	0.999664
911.221229	1.001427
911.527363	0.999591
911.833458	0.999843
912.139513	0.999793
912.445527	0.999877
912.751502	0.999602
913.057436	0.998374
913.363331	0.999916
913.669186	0.999516
913.975000	1.000526
914.280775	0.999741
914.586510	0.997829
914.892205	0.996845
915.197859	0.996958
915.503475	0.996502
915.809050	0.996062
916.114585	0.995011
916.420081	0.995507
916.725536	0.994884
917.030952	0.995233
917.336328	0.996719
917.641665	0.995798
917.946961	0.995696
918.252218	0.996372
918.557435	0.996541
918.862612	0.997590
919.167750	0.998425
919.472848	0.997997
919.777906	0.999646
920.082925	0.998882
920.387904	1.000212
920.692843	0.998558
920.997743	0.998714
921.302603	0.999492
921.607423	0.999369
921.912204	0.998960
922.216946	1.000736
922.521647	0.999210
922.826310	0.998384
923.130932	1.000357
923.435516	0.999792
923.740059	1.000381
924.044564	0.999985
924.349028	0.998411
924.653454	1.000378
924.957840	0.998435
925.262186	0.999750
925.566493	0.999335
925.870761	0.998874
926.174989	0.999376
926.479178	1.000508
926.783328	0.999858
927.087438	1.000340
927.391509	0.999042
927.695541	1.000195
927.999533	0.999850
928.303486	0.999368
928.607400	1.001163
928.911275	0.999181
929.215110	1.000964
929.518906	1.000439
929.822663	1.001085
930.126381	1.000117
930.430060	1.000844
930.733699	1.000558
931.037299	1.000795
931.340861	1.000877
931.644383	0.999268
931.947866	0.999909
932.251309	1.001421
932.554714	1.000516
932.858080	1.000113
933.161407	0.999346
933.464694	1.000245
933.767943	1.000448
934.071153	1.000231
934.374323	1.000126
934.677455	0.999826
934.980548	1.000567
935.283602	1.000356
935.586617	1.000268
935.889593	1.001081
936.192530	0.999790
936.495428	0.999575
936.798287	1.000142
937.101108	1.000188
937.403890	0.998989
937.706632	1.001256
938.009336	0.999795
938.312002	0.999125
938.614628	0.999967
938.917216	0.999787
939.219765	0.999457
939.522275	1.000291
939.824747	1.000637
940.127179	0.999881
940.429573	1.001221
940.731929	0.998786
941.034246	0.999886
941.336524	0.998970
941.638763	0.999755
941.940964	0.999293
942.243126	0.998682
942.545250	1.000942
942.847335	1.000312
943.149381	1.000353
943.451389	1.000118
943.753359	0.999797
944.055290	1.000834
944.357182	0.999946
944.659036	0.999562
944.960851	1.000094
945.262628	1.000906
945.564367	1.000216
945.866067	1.000303
946.167729	1.000717
946.469352	1.001111
946.770937	0.997896
947.072484	1.000866
947.373992	0.999993
947.675462	0.999895
947.976893	0.999191
948.278286	1.001812
948.579641	0.999848
948.880958	0.999911
949.182236	1.000616
949.483476	1.000108
949.784678	1.000098
950.085841	1.000612
950.386967	0.998967
950.688054	1.000941
950.989103	0.999556
951.290114	0.998347
951.591087	0.999599
951.892021	0.998603
952.192917	0.999841
952.493776	1.000270
952.794596	0.999915
953.095378	1.000374
953.396122	0.998768
953.696828	1.000836
953.997496	0.999965
954.298126	1.000508
954.598718	0.999615
954.899272	1.000836
955.199788	0.999985
955.500266	1.000361
955.800706	1.000702
956.101108	0.998860
956.401472	1.001385
956.701798	0.999146
957.002087	0.998692
957.302337	0.999251
957.602550	1.000754
957.902724	0.999367
958.202861	1.000143
958.502960	0.999502
958.803022	1.001045
959.103045	0.999791
959.403031	1.000830
959.702979	1.000799
960.002889	0.999779
960.302762	0.998420
960.602596	1.001166
960.902393	0.999942
961.202153	1.000488
961.501875	1.000772
961.801559	1.000884
962.101205	0.999827
962.400814	1.001418
962.700385	1.000926
962.999918	1.000296
963.299414	1.000226
963.598873	1.000853
963.898293	0.999820
964.197677	1.000777
964.497022	0.999067
964.796331	0.999597
965.095601	1.002221
965.394835	1.000618
965.694030	1.001369
965.993189	0.999526
966.292309	1.000427
966.591393	0.999524
966.890439	1.000446
967.189447	1.000652
967.488419	1.000057
967.787353	0.999482
968.086249	1.001277
968.385108	0.999339
968.683930	1.001398
968.982714	0.999007
969.281462	1.001164
969.580172	1.000066
969.878844	1.000850
970.177480	1.000275
970.476078	1.001103
970.774639	1.000833
971.073162	1.001015
971.371649	1.000669
971.670098	0.999764
971.968510	1.000440
972.266885	0.999605
972.565223	0.999016
972.863524	0.999825
973.161788	0.998903
973.460014	1.001539
973.758204	1.000396
974.056356	1.000734
974.354471	0.999069
974.652550	1.001667
974.950591	0.999975
975.248595	0.999342
975.546563	1.001257
975.844493	1.001527
976.142386	0.999792
976.440243	1.000995
976.738062	0.999856
977.035845	1.000432
977.333590	1.001219
977.631299	0.999294
977.928971	0.999537
978.226606	0.998939
978.524204	0.999518
978.821765	1.000253
979.119290	1.000871
979.416777	0.999993
979.714228	1.000982
980.011642	0.999653
980.309020	1.000277
980.606360	1.000600
980.903664	0.999952
981.200931	1.000007
981.498162	0.999591
981.795356	0.999924
982.092513	1.000687
982.389633	1.001127
982.686717	1.000086
982.983764	1.000796
983.280775	1.000870
983.577749	1.001331
983.874686	0.999138
984.171587	0.998881
984.468451	1.000567
984.765279	1.000512
985.062070	1.000159
985.358824	1.000305
985.655543	1.001686
985.952224	1.001965
986.248869	1.000062
986.545478	1.002008
986.842050	0.999853
987.138586	0.999972
987.435086	0.999915
987.731549	1.001135
988.027975	1.001393
988.324366	1.000057
988.620719	1.000583
988.917037	1.001123
989.213318	1.000249
989.509563	1.001191
989.805772	1.000902
990.101944	1.000870
990.398080	1.001430
990.694180	1.001234
990.990244	0.999968
991.286271	0.999999
991.582262	1.001354
991.878217	0.999800
992.174136	1.001416
992.470019	1.000991
992.765865	1.001817
993.061676	1.000596
993.357450	1.000187
993.653188	1.001420
993.948890	1.001289
994.244556	1.000440
994.540186	1.000251
994.835780	0.999493
995.131337	1.000302
995.426859	1.000894
995.722345	1.001369
996.017795	1.000098
996.313208	1.000351
996.608586	1.000242
996.903928	0.999817
997.199234	1.001539
997.494504	1.000607
997.789738	0.999220
998.084936	1.000926
998.380099	1.000673
998.675225	1.001151
998.970316	1.000973
999.265371	1.001051
999.560390	1.000986
999.855373	1.000545
1000.150320	1.000028
1000.445232	1.000729
1000.740108	1.000687
1001.034948	1.000290
1001.329752	1.000917
1001.624521	1.000603
1001.919254	0.999128
1002.213951	0.998803
1002.508613	1.000075
1002.803239	1.000727
1003.097829	1.001414
1003.392384	0.999981
1003.686903	1.000677
1003.981386	1.000468
1004.275834	1.000754
1004.570246	1.000990
1004.864623	1.000166
1005.158964	1.000630
1005.453270	1.000381
1005.747540	1.000617
1006.041775	0.999882
1006.335974	1.001201
1006.630138	1.000698
1006.924266	1.000026
1007.218359	0.998992
1007.512416	1.001116
1007.806438	1.000885
1008.100425	0.999819
1008.394376	1.001350
1008.688292	0.999358
1008.982172	1.001034
1009.276017	1.000138
1009.569827	1.001597
1009.863602	0.999658
1010.157341	1.000614
1010.451045	0.999975
1010.744714	1.002090
1011.038347	1.000817
1011.331945	0.999165
1011.625508	1.000750
1011.919036	1.000284
1012.212528	1.000712
1012.505986	1.000674
1012.799408	1.000290
1013.092795	0.999846
1013.386147	1.000454
1013.679464	1.001368
1013.972745	1.001274
1014.265992	1.000123
1014.559204	1.000243
1014.852380	1.000679
1015.145521	1.000777
1015.438628	1.000358
1015.731699	1.000844
1016.024736	1.001341
1016.317737	1.001374
1016.610703	0.999276
1016.903635	1.000729
1017.196531	0.999371
1017.489393	0.999005
1017.782219	0.998540
1018.075011	1.000558
1018.367768	1.000284
1018.660490	1.000616
1018.953177	1.000616
1019.245829	1.000616
