Dividing Wavelength (nm)	Counts (n)	Blue Motor Position (mm): 40.700000	Red Motor Position (mm): 0.000000	
326.493990	0.998819
326.888308	0.998819
327.282561	0.998819
327.676750	0.999590
328.070874	0.999859
328.464933	1.000500
328.858929	0.999763
329.252859	1.000159
329.646726	0.999854
330.040528	0.999714
330.434265	1.000001
330.827938	1.000602
331.221547	1.000168
331.615091	1.000842
332.008571	1.000467
332.401986	0.999065
332.795338	0.999603
333.188625	1.000745
333.581847	0.999264
333.975006	0.999993
334.368100	1.000535
334.761129	0.997862
335.154095	1.000276
335.546996	0.999159
335.939833	0.999834
336.332606	1.000169
336.725315	0.998435
337.117960	1.000957
337.510540	0.998649
337.903056	0.999854
338.295508	1.000366
338.687896	0.999530
339.080220	0.999994
339.472480	0.999081
339.864676	0.999785
340.256807	0.999561
340.648875	0.999912
341.040879	0.999606
341.432818	1.000374
341.824694	0.999650
342.216506	0.999881
342.608253	0.999824
342.999937	0.999097
343.391557	0.999622
343.783113	1.000024
344.174605	0.999422
344.566033	0.998585
344.957397	0.999732
345.348697	0.999149
345.739934	1.000152
346.131106	0.998471
346.522215	0.999276
346.913260	1.000330
347.304241	0.998592
347.695159	0.999358
348.086012	0.998919
348.476802	0.999164
348.867528	0.999238
349.258191	1.000630
349.648789	0.999465
350.039324	1.000217
350.429796	0.998379
350.820203	0.997641
351.210548	0.999077
351.600828	0.999677
351.991045	0.998697
352.381198	0.999745
352.771288	0.998420
353.161314	0.999996
353.551276	0.998943
353.941175	0.996850
354.331010	0.999787
354.720782	0.998944
355.110490	0.999805
355.500135	0.999745
355.889717	0.997721
356.279235	0.998488
356.668689	0.998757
357.058080	0.998191
357.447408	0.998134
357.836672	0.998008
358.225873	0.998513
358.615010	0.997748
359.004084	0.997920
359.393095	0.999061
359.782043	0.998651
360.170927	0.998498
360.559748	0.998484
360.948505	0.997994
361.337199	0.998328
361.725830	0.999101
362.114398	0.998090
362.502903	0.996999
362.891344	0.998150
363.279722	0.997332
363.668037	0.998995
364.056289	0.997771
364.444478	0.999108
364.832603	0.997803
365.220665	0.997625
365.608665	0.997207
365.996601	0.998046
366.384474	0.997022
366.772284	0.998236
367.160031	0.996275
367.547715	0.996409
367.935336	0.995686
368.322893	0.995203
368.710388	0.993407
369.097820	0.991617
369.485189	0.990015
369.872495	0.987341
370.259738	0.986425
370.646918	0.982796
371.034035	0.981481
371.421090	0.977879
371.808081	0.972933
372.195010	0.972659
372.581875	0.966213
372.968678	0.961696
373.355418	0.958774
373.742096	0.949867
374.128710	0.946065
374.515262	0.941536
374.901751	0.935895
375.288177	0.930766
375.674540	0.924639
376.060841	0.918644
376.447079	0.910414
376.833254	0.904562
377.219367	0.899677
377.605417	0.888783
377.991404	0.885348
378.377329	0.878566
378.763191	0.872960
379.148991	0.864245
379.534727	0.856503
379.920402	0.848746
380.306013	0.845791
380.691563	0.832294
381.077049	0.825848
381.462474	0.821952
381.847835	0.810159
382.233134	0.805418
382.618371	0.805247
383.003545	0.787892
383.388657	0.787096
383.773706	0.779059
384.158693	0.774402
384.543618	0.770661
384.928480	0.762102
385.313280	0.751751
385.698017	0.752328
386.082692	0.742017
386.467305	0.741253
386.851856	0.737461
387.236344	0.734116
387.620770	0.729996
388.005133	0.727272
388.389435	0.724547
388.773674	0.724599
389.157851	0.720198
389.541965	0.721907
389.926018	0.731063
390.310008	0.722985
390.693936	0.724104
391.077802	0.722111
391.461606	0.728285
391.845348	0.723760
392.229027	0.728325
392.612645	0.732797
392.996200	0.727761
393.379694	0.727571
393.763125	0.727669
394.146494	0.738039
394.529801	0.737599
394.913047	0.739685
395.296230	0.751312
395.679351	0.752290
396.062410	0.759074
396.445408	0.768457
396.828343	0.774210
397.211217	0.778193
397.594028	0.792839
397.976778	0.797865
398.359466	0.803084
398.742092	0.810974
399.124656	0.823917
399.507158	0.827174
399.889598	0.833934
400.271977	0.837968
400.654294	0.848108
401.036549	0.857225
401.418742	0.865898
401.800874	0.869462
402.182944	0.874939
402.564952	0.880388
402.946898	0.888787
403.328783	0.896765
403.710606	0.906412
404.092367	0.907073
404.474067	0.914786
404.855705	0.920709
405.237282	0.927587
405.618797	0.931469
406.000250	0.935468
406.381642	0.938742
406.762972	0.945763
407.144240	0.949515
407.525447	0.953084
407.906593	0.956754
408.287677	0.960777
408.668700	0.965665
409.049661	0.968921
409.430560	0.970501
409.811399	0.973843
410.192176	0.976759
410.572891	0.979174
410.953545	0.981202
411.334138	0.983343
411.714669	0.984400
412.095139	0.987165
412.475547	0.987772
412.855894	0.990029
413.236180	0.991236
413.616405	0.991408
413.996568	0.992897
414.376670	0.993724
414.756711	0.993695
415.136691	0.994732
415.516609	0.994675
415.896466	0.995719
416.276262	0.995178
416.655997	0.996644
417.035670	0.996614
417.415283	0.996220
417.794834	0.996837
418.174324	0.997986
418.553753	0.997990
418.933121	0.997069
419.312428	0.998666
419.691674	0.998258
420.070859	0.997300
420.449983	0.998044
420.829045	0.997699
421.208047	0.998195
421.586988	0.996898
421.965867	0.996677
422.344686	0.997657
422.723444	0.997751
423.102141	0.998584
423.480777	0.997613
423.859352	0.997932
424.237866	0.998060
424.616319	0.998704
424.994712	0.999285
425.373044	0.998931
425.751314	0.999148
426.129524	0.999037
426.507673	0.997957
426.885762	0.998363
427.263789	0.998350
427.641756	0.998394
428.019662	0.998225
428.397508	0.998729
428.775292	0.998345
429.153016	0.998400
429.530679	0.998778
429.908282	0.998704
430.285824	0.998384
430.663305	0.997522
431.040726	0.999371
431.418086	0.999121
431.795385	0.999297
432.172624	0.999924
432.549802	0.998759
432.926920	0.999330
433.303977	0.998223
433.680974	0.999505
434.057910	0.998468
434.434786	0.997678
434.811601	0.998516
435.188355	0.998851
435.565050	0.999339
435.941683	0.997905
436.318257	0.998476
436.694770	0.998990
437.071222	0.999711
437.447614	0.999230
437.823946	0.999827
438.200218	0.998869
438.576429	0.997675
438.952580	0.999197
439.328670	0.998121
439.704700	0.998052
440.080670	0.998522
440.456580	0.999366
440.832429	0.998336
441.208218	0.999021
441.583947	0.999152
441.959616	0.997259
442.335224	0.999522
442.710773	0.999069
443.086261	0.998729
443.461689	0.997743
443.837057	0.999087
444.212365	0.999892
444.587612	0.999530
444.962800	0.998538
445.337927	0.999586
445.712995	0.998719
446.088002	0.998285
446.462949	0.998340
446.837837	0.999979
447.212664	0.998450
447.587431	0.998898
447.962139	0.998974
448.336786	0.998791
448.711374	0.998169
449.085901	0.998574
449.460369	0.999563
449.834776	0.998310
450.209124	0.999492
450.583412	0.998810
450.957640	0.998392
451.331808	0.999255
451.705917	0.998933
452.079965	0.998862
452.453954	0.998843
452.827883	0.998501
453.201752	0.999626
453.575562	0.998427
453.949311	0.998938
454.323001	0.998657
454.696632	0.999178
455.070202	0.998549
455.443713	0.998294
455.817164	0.998148
456.190556	0.999381
456.563888	0.999549
456.937160	0.998996
457.310373	0.998084
457.683526	0.999123
458.056619	0.999214
458.429653	0.998459
458.802628	0.999117
459.175542	0.999063
459.548398	0.999091
459.921194	0.998991
460.293930	1.000204
460.666607	0.999850
461.039224	0.999200
461.411782	0.998814
461.784280	0.998753
462.156719	0.999217
462.529099	0.999611
462.901419	0.999257
463.273680	0.998442
463.645882	0.998371
464.018024	0.999590
464.390106	0.998891
464.762130	0.999024
465.134094	0.998563
465.505999	0.999245
465.877845	0.998681
466.249631	0.999093
466.621358	0.997572
466.993026	0.997643
467.364634	0.999016
467.736184	0.998781
468.107674	0.998847
468.479105	0.997825
468.850477	0.998634
469.221790	0.998480
469.593043	0.998118
469.964238	0.998894
470.335373	0.998058
470.706449	0.999090
471.077467	0.998309
471.448425	0.998349
471.819324	0.999239
472.190164	0.998732
472.560945	0.999011
472.931667	0.998208
473.302330	0.998761
473.672934	0.999516
474.043479	0.998779
474.413965	0.998590
474.784393	0.998901
475.154761	0.998061
475.525070	0.998453
475.895321	0.999491
476.265513	0.998867
476.635645	0.999280
477.005719	0.998587
477.375734	0.998499
477.745691	0.998553
478.115588	0.998394
478.485427	0.998072
478.855207	0.998916
479.224928	0.998475
479.594591	0.998979
479.964194	0.998834
480.333739	0.998700
480.703226	0.998031
481.072653	0.998323
481.442022	0.998744
481.811333	0.998535
482.180584	0.999053
482.549777	0.998417
482.918912	0.998127
483.287988	0.998641
483.657005	0.998113
484.025964	0.998715
484.394864	0.998122
484.763706	0.998531
485.132489	0.998634
485.501213	0.998825
485.869879	0.998328
486.238487	0.997604
486.607036	0.999357
486.975527	0.998344
487.343959	0.998057
487.712333	0.998892
488.080648	0.998173
488.448905	0.999291
488.817104	0.998167
489.185244	0.998138
489.553326	0.998185
489.921350	0.998881
490.289315	0.998357
490.657222	0.998053
491.025070	0.999375
491.392861	0.998813
491.760593	0.998837
492.128267	0.998173
492.495883	0.997977
492.863440	0.999130
493.230939	0.998770
493.598380	0.999520
493.965763	0.998091
494.333088	0.998319
494.700354	0.998293
495.067563	0.997969
495.434713	0.998869
495.801805	0.998182
496.168839	0.998388
496.535815	0.998242
496.902733	0.997947
497.269593	0.997802
497.636395	0.996644
498.003139	0.997859
498.369825	0.998922
498.736453	0.998536
499.103023	0.998607
499.469535	0.998572
499.835989	0.998975
500.202385	0.997654
500.568723	0.998582
500.935003	0.998471
501.301226	0.999253
501.667390	0.998115
502.033497	0.998008
502.399546	0.998202
502.765537	0.998679
503.131470	0.998611
503.497345	0.998795
503.863163	0.998356
504.228923	0.998318
504.594625	0.998301
504.960269	0.998180
505.325856	0.998915
505.691385	0.998451
506.056856	0.998301
506.422270	0.998594
506.787625	0.999154
507.152924	0.998548
507.518164	0.998020
507.883347	0.997903
508.248472	0.998737
508.613540	0.997547
508.978550	0.998149
509.343503	0.998770
509.708398	0.998746
510.073236	0.998709
510.438016	0.997467
510.802738	0.997533
511.167403	0.998379
511.532010	0.998283
511.896561	0.998508
512.261053	0.998672
512.625488	0.997779
512.989866	0.998176
513.354186	0.997683
513.718449	0.998753
514.082655	0.997846
514.446803	0.997937
514.810894	0.998901
515.174927	0.998546
515.538904	0.999276
515.902822	0.998905
516.266684	0.998779
516.630488	0.998944
516.994235	0.998531
517.357925	0.999170
517.721558	0.998693
518.085133	0.998303
518.448651	0.998452
518.812112	0.999017
519.175516	0.998563
519.538863	0.998471
519.902152	0.998837
520.265385	0.999113
520.628560	0.998190
520.991678	0.998642
521.354739	0.998782
521.717743	0.998361
522.080690	0.998178
522.443580	0.998917
522.806413	0.998644
523.169189	0.999040
523.531908	0.998376
523.894569	0.998505
524.257174	0.998043
524.619722	0.998427
524.982213	0.998551
525.344647	0.998550
525.707025	0.997888
526.069345	0.998441
526.431608	0.999324
526.793815	0.999003
527.155964	0.998805
527.518057	0.998836
527.880093	0.998745
528.242072	0.998714
528.603995	0.998468
528.965860	0.998761
529.327669	0.998761
529.689421	0.998424
530.051117	0.999250
530.412755	0.998737
530.774337	0.998189
531.135862	0.998563
531.497331	0.998227
531.858743	0.999194
532.220098	0.998252
532.581396	0.997962
532.942638	0.998279
533.303824	0.999371
533.664953	0.998236
534.026025	0.999133
534.387040	0.999040
534.747999	0.998438
535.108902	0.998676
535.469748	0.999068
535.830537	0.998931
536.191270	0.999310
536.551947	0.998192
536.912567	0.998693
537.273131	0.999288
537.633638	0.998517
537.994089	0.999165
538.354483	0.998439
538.714821	0.998996
539.075103	0.998543
539.435328	0.998836
539.795497	0.998564
540.155609	0.998508
540.515665	0.998740
540.875665	0.999047
541.235609	0.998675
541.595496	0.998804
541.955328	0.999132
542.315102	0.998789
542.674821	0.998581
543.034483	0.998640
543.394090	0.998274
543.753640	0.998607
544.113134	0.998972
544.472571	0.998872
544.831953	0.998996
545.191278	0.999420
545.550548	0.998350
545.909761	0.998339
546.268918	0.999177
546.628019	0.999518
546.987064	0.998817
547.346053	0.998517
547.704986	0.998905
548.063863	0.998164
548.422684	0.999613
548.781449	0.998617
549.140158	0.998941
549.498811	0.998067
549.857408	0.998432
550.215949	0.998453
550.574434	0.998436
550.932864	0.998859
551.291237	0.998265
551.649555	0.999490
552.007817	0.998374
552.366022	0.999034
552.724173	0.998795
553.082267	0.998054
553.440305	0.998914
553.798288	0.997948
554.156215	0.998701
554.514086	0.998580
554.871902	0.998773
555.229661	0.998158
555.587365	0.998702
555.945014	0.999201
556.302606	0.997759
556.660143	0.999652
557.017625	0.998666
557.375050	0.998590
557.732421	0.998782
558.089735	0.998340
558.446994	0.998624
558.804197	0.998805
559.161345	0.998619
559.518437	0.998434
559.875474	0.998820
560.232455	0.998984
560.589381	0.998801
560.946251	0.998405
561.303065	0.998839
561.659825	0.998225
562.016528	0.998826
562.373177	0.999265
562.729770	0.998732
563.086307	0.998123
563.442789	0.999453
563.799216	0.997975
564.155587	0.998410
564.511904	0.999591
564.868164	0.998218
565.224370	0.998764
565.580520	0.999099
565.936615	0.998639
566.292654	0.998645
566.648638	0.999453
567.004567	0.998458
567.360441	0.999902
567.716260	0.998450
568.072023	0.998321
568.427732	0.999022
568.783385	0.998224
569.138982	0.998835
569.494525	0.998559
569.850013	0.999023
570.205445	0.999110
570.560823	0.998657
570.916145	0.998457
571.271412	0.998605
571.626625	0.998961
571.981782	0.999043
572.336884	0.999477
572.691931	0.998884
573.046923	0.999412
573.401860	0.998749
573.756743	0.999201
574.111570	0.998693
574.466342	0.999679
574.821059	0.998555
575.175722	0.999465
575.530330	0.998438
575.884882	0.998758
576.239380	0.999137
576.593823	0.998478
576.948211	0.998778
577.302544	0.998544
577.656823	0.999460
578.011047	0.998530
578.365216	0.999339
578.719330	0.999080
579.073389	0.998531
579.427394	0.998380
579.781344	0.999728
580.135239	0.998506
580.489080	0.999048
580.842866	0.999074
581.196597	0.998579
581.550273	0.998754
581.903895	0.998846
582.257463	0.998336
582.610975	0.998814
582.964434	0.999380
583.317837	0.999225
583.671186	0.999189
584.024481	0.999380
584.377721	0.998587
584.730906	0.999540
585.084037	0.999704
585.437113	0.999335
585.790135	0.998620
586.143103	0.998935
586.496016	0.999186
586.848874	0.998979
587.201679	0.999603
587.554428	0.998491
587.907124	0.999387
588.259765	0.999427
588.612352	1.000262
588.964884	0.999026
589.317362	0.999029
589.669786	0.998917
590.022155	0.999327
590.374470	0.999245
590.726731	0.998663
591.078937	0.999571
591.431090	0.999148
591.783188	0.998370
592.135232	0.998999
592.487222	0.999197
592.839157	0.999142
593.191038	0.999360
593.542866	0.998799
593.894639	0.998420
594.246358	0.999225
594.598022	0.998758
594.949633	0.999440
595.301190	0.999507
595.652692	0.998765
596.004141	0.999212
596.355535	0.998637
596.706876	0.999318
597.058162	0.999789
597.409395	0.999121
597.760573	0.999305
598.111698	0.999080
598.462768	0.998673
598.813785	0.998445
599.164748	0.998406
599.515657	0.998661
599.866511	0.999767
600.217312	1.000072
600.568060	0.999144
600.918753	0.998971
601.269392	0.999618
601.619978	0.999339
601.970510	0.999031
602.320988	0.999252
602.671412	0.999403
603.021783	0.998453
603.372100	0.999590
603.722363	0.999532
604.072572	0.999115
604.422728	0.998299
604.772830	0.999541
605.122878	0.999018
605.472872	0.999852
605.822813	0.998665
606.172701	0.999298
606.522534	0.999073
606.872314	0.999754
607.222041	0.999275
607.571714	0.999844
607.921333	0.999438
608.270899	0.998600
608.620411	0.999911
608.969870	0.999981
609.319276	0.999206
609.668627	0.999671
610.017926	0.999771
610.367171	1.000108
610.716362	0.998721
611.065500	0.999081
611.414585	0.999756
611.763616	0.999068
612.112594	0.999123
612.461518	0.998473
612.810389	0.999669
613.159207	0.998788
613.507971	0.998580
613.856682	0.999824
614.205340	0.998874
614.553945	0.999751
614.902496	0.999161
615.250994	0.999270
615.599439	0.999863
615.947830	0.998743
616.296169	0.999210
616.644454	1.000192
616.992686	0.998780
617.340864	0.999381
617.688990	0.999172
618.037063	0.999417
618.385082	0.999420
618.733048	0.998698
619.080961	0.999810
619.428821	1.000262
619.776628	0.998561
620.124382	0.999915
620.472083	0.999838
620.819731	1.000708
621.167326	1.000094
621.514868	0.999036
621.862357	0.998920
622.209793	0.998825
622.557176	0.999329
622.904506	0.998359
623.251783	0.999760
623.599007	0.999480
623.946179	0.999219
624.293297	0.999483
624.640363	0.999912
624.987376	0.998380
625.334336	0.999533
625.681243	0.998963
626.028097	0.999177
626.374899	0.999363
626.721647	1.000209
627.068343	0.999100
627.414987	0.999821
627.761577	0.998451
628.108115	0.998320
628.454600	0.999450
628.801032	1.000237
629.147412	0.999808
629.493739	1.000163
629.840014	0.999710
630.186236	0.999651
630.532405	0.999383
630.878521	0.998160
631.224585	0.999614
631.570597	0.999627
631.916556	0.999741
632.262462	0.998906
632.608316	0.999705
632.954117	0.999120
633.299866	0.999229
633.645562	0.999336
633.991206	0.998992
634.336797	0.999098
634.682336	0.999549
635.027823	0.999581
635.373257	0.999511
635.718639	0.999991
636.063968	0.999095
636.409245	0.998853
636.754470	1.000142
637.099642	0.999107
637.444762	0.999429
637.789829	0.999317
638.134845	0.998706
638.479808	0.999159
638.824719	0.999940
639.169577	0.999109
639.514383	0.999597
639.859137	0.999310
640.203839	0.999120
640.548489	0.998709
640.893086	0.999122
641.237632	0.999439
641.582125	0.999201
641.926566	0.999649
642.270955	0.999267
642.615292	0.999069
642.959576	0.999700
643.303809	0.999323
643.647990	0.999816
643.992118	0.999434
644.336195	0.999211
644.680219	0.999543
645.024192	0.999757
645.368112	0.998617
645.711981	0.998607
646.055797	0.999024
646.399562	0.998044
646.743274	1.000253
647.086935	0.999137
647.430544	0.999058
647.774101	0.999351
648.117606	1.000223
648.461059	1.000414
648.804460	0.998751
649.147810	0.999199
649.491108	0.999325
649.834354	0.999407
650.177548	0.998821
650.520690	0.999608
650.863781	0.998707
651.206820	0.999341
651.549807	0.999180
651.892742	1.000184
652.235626	0.999688
652.578458	0.999653
652.921238	0.999795
653.263967	0.999535
653.606644	0.998643
653.949269	0.999311
654.291843	0.998696
654.634365	0.999690
654.976836	0.998587
655.319255	0.999913
655.661622	0.999798
656.003938	0.998747
656.346203	0.998772
656.688416	1.000148
657.030577	0.999205
657.372687	0.999329
657.714746	0.998866
658.056753	0.998703
658.398708	0.999383
658.740612	0.999787
659.082465	0.999060
659.424266	0.999480
659.766016	0.998529
660.107715	0.999628
660.449362	0.999777
660.790958	0.999792
661.132503	0.999532
661.473996	0.998436
661.815438	0.999604
662.156829	0.999314
662.498168	1.000320
662.839456	0.998603
663.180693	0.998816
663.521879	0.999246
663.863013	0.999282
664.204097	0.998302
664.545129	0.999020
664.886110	0.999211
665.227040	0.999085
665.567918	0.998569
665.908746	0.998897
666.249522	0.998354
666.590248	0.998815
666.930922	0.998271
667.271545	0.999354
667.612118	0.999021
667.952639	0.999271
668.293109	0.999063
668.633528	0.998942
668.973896	0.999380
669.314213	0.998892
669.654480	0.999186
669.994695	0.998942
670.334859	0.999066
670.674973	0.998364
671.015035	0.998537
671.355047	0.999150
671.695008	0.998356
672.034918	0.998847
672.374777	0.999132
672.714585	0.999045
673.054342	0.999949
673.394049	0.999004
673.733705	0.998546
674.073310	0.999315
674.412864	0.999109
674.752368	0.998616
675.091820	1.000735
675.431223	0.999342
675.770574	0.998789
676.109875	0.998977
676.449125	0.998152
676.788324	0.999120
677.127473	0.999465
677.466571	0.999859
677.805619	0.998836
678.144616	0.998791
678.483562	0.999299
678.822458	0.999683
679.161303	0.999034
679.500098	0.998768
679.838842	0.999845
680.177535	0.998441
680.516179	0.999091
680.854771	0.999231
681.193314	0.999092
681.531805	0.999127
681.870247	0.999700
682.208638	0.999024
682.546978	0.998281
682.885268	0.998978
683.223508	0.998195
683.561697	0.998389
683.899836	0.998713
684.237925	0.998099
684.575963	0.999096
684.913951	0.998593
685.251889	0.998263
685.589776	0.998645
685.927614	0.998281
686.265401	0.998526
686.603137	0.998032
686.940824	0.998685
687.278460	0.999711
687.616046	0.997866
687.953582	0.998529
688.291068	0.999247
688.628504	0.998701
688.965889	0.998719
689.303224	0.997844
689.640510	0.998193
689.977745	0.998448
690.314930	0.997706
690.652065	0.997884
690.989150	0.998251
691.326185	0.998946
691.663170	0.997939
692.000105	0.998329
692.336990	0.998041
692.673825	0.998587
693.010610	0.998231
693.347345	0.998546
693.684030	0.997898
694.020665	0.997633
694.357251	0.997349
694.693786	0.998232
695.030272	0.997253
695.366707	0.997685
695.703093	0.998535
696.039429	0.997548
696.375716	0.998236
696.711952	0.998746
697.048139	0.998283
697.384276	0.997969
697.720363	0.998630
698.056400	0.997910
698.392388	0.997493
698.728326	0.998240
699.064214	0.998888
699.400053	0.998109
699.735842	0.998912
700.071581	0.997160
700.407270	0.997913
700.742910	0.997980
701.078501	0.998743
701.414042	0.998013
701.749533	0.996498
702.084974	0.998131
702.420366	0.999224
702.755709	0.998379
703.091002	0.998649
703.426246	0.998469
703.761440	0.997981
704.096584	0.997398
704.431679	0.997920
704.766725	0.997710
705.101721	0.998594
705.436668	0.997896
705.771565	0.998559
706.106413	0.997713
706.441212	0.998814
706.775961	0.998477
707.110661	0.997728
707.445311	0.998407
707.779913	0.998765
708.114465	0.998757
708.448967	0.998103
708.783421	0.998720
709.117825	0.997963
709.452180	0.998437
709.786485	0.998483
710.120742	0.998029
710.454949	0.996722
710.789107	0.998424
711.123216	0.997261
711.457275	0.996708
711.791286	0.998341
712.125247	0.999901
712.459159	0.997968
712.793023	0.997063
713.126837	0.998348
713.460602	0.997331
713.794318	0.996678
714.127985	0.997643
714.461602	0.998321
714.795171	0.996399
715.128691	0.997774
715.462162	0.997222
715.795584	0.998185
716.128957	0.998416
716.462281	0.998075
716.795556	0.997367
717.128782	0.998479
717.461960	0.997652
717.795088	0.998533
718.128167	0.998160
718.461198	0.997884
718.794180	0.999061
719.127113	0.997917
719.459997	0.997003
719.792833	0.997179
720.125619	0.997202
720.458357	0.997740
720.791046	0.998607
721.123686	0.998215
721.456278	0.997659
721.788821	0.996780
722.121315	0.998817
722.453761	0.998534
722.786158	0.997955
723.118506	0.998566
723.450805	0.996779
723.783056	0.998647
724.115259	0.997410
724.447412	0.998079
724.779518	0.998338
725.111574	0.997424
725.443582	0.997475
725.775542	0.998203
726.107453	0.997389
726.439315	0.998300
726.771129	0.997845
727.102895	0.997975
727.434612	0.998339
727.766281	0.997019
728.097901	0.998042
728.429473	0.997908
728.760996	0.997450
729.092471	0.997213
729.423897	0.997632
729.755276	0.997993
730.086606	0.996645
730.417887	0.998077
730.749120	0.998276
731.080305	0.997397
731.411442	0.997644
731.742530	0.996462
732.073570	0.997291
732.404562	0.997135
732.735506	0.998081
733.066401	0.997493
733.397249	0.996895
733.728048	0.997264
734.058798	0.998510
734.389501	0.998106
734.720156	0.997286
735.050762	0.997681
735.381320	0.998175
735.711831	0.997737
736.042293	0.997221
736.372707	0.998467
736.703073	0.997224
737.033391	0.997315
737.363661	0.998100
737.693883	0.997343
738.024056	0.996953
738.354182	0.998108
738.684260	0.997418
739.014290	0.997416
739.344272	0.998240
739.674207	0.997767
740.004093	0.998236
740.333931	0.997780
740.663722	0.998066
740.993464	0.998423
741.323159	0.997418
741.652806	0.997375
741.982405	0.998351
742.311956	0.998093
742.641460	0.997429
742.970915	0.996416
743.300323	0.996829
743.629683	0.998730
743.958996	0.998518
744.288260	0.997487
744.617477	0.997995
744.946647	0.997066
745.275768	0.997765
745.604842	0.996541
745.933869	0.997954
746.262847	0.998447
746.591778	0.996174
746.920662	0.998868
747.249498	0.998213
747.578286	0.997955
747.907027	0.998140
748.235720	0.997925
748.564365	0.997740
748.892963	0.997904
749.221514	0.997284
749.550017	0.996894
749.878473	0.998242
750.206881	0.999166
750.535242	0.997465
750.863555	0.996409
751.191821	0.996636
751.520039	0.997126
751.848210	0.995963
752.176334	0.997354
752.504411	0.997608
752.832440	0.997245
753.160421	0.997604
753.488356	0.997754
753.816243	0.997045
754.144082	0.997065
754.471875	0.997979
754.799620	0.998410
755.127318	0.997516
755.454969	0.997639
755.782572	0.998623
756.110129	0.997921
756.437638	0.999294
756.765100	0.998217
757.092515	0.997010
757.419882	0.997860
757.747203	0.997320
758.074477	0.998735
758.401703	0.998667
758.728882	0.997860
759.056014	0.998170
759.383099	0.998545
759.710138	0.997277
760.037129	0.997361
760.364073	0.998045
760.690970	0.998409
761.017820	0.996780
761.344623	0.998588
761.671379	0.997668
761.998088	0.997334
762.324751	0.998707
762.651366	0.997195
762.977935	0.996804
763.304456	0.996797
763.630931	0.994967
763.957359	0.995081
764.283740	0.996477
764.610074	0.996441
764.936362	0.996684
765.262602	0.996526
765.588796	0.997332
765.914943	0.996578
766.241044	0.997038
766.567097	0.997852
766.893104	0.997488
767.219064	0.997351
767.544978	0.997030
767.870845	0.998278
768.196665	0.996956
768.522438	0.998013
768.848165	0.996557
769.173846	0.998256
769.499479	0.998626
769.825066	0.998838
770.150607	0.998895
770.476101	0.998341
770.801548	0.998430
771.126949	0.998799
771.452303	0.997592
771.777611	0.997361
772.102872	0.997808
772.428087	0.998225
772.753256	0.997678
773.078378	0.998020
773.403453	0.997341
773.728482	0.998653
774.053465	0.998222
774.378401	0.997745
774.703291	0.998918
775.028135	0.998792
775.352932	0.997081
775.677683	0.999565
776.002388	0.998419
776.327046	0.997983
776.651658	0.999764
776.976224	0.999113
777.300743	0.997977
777.625216	0.998016
777.949643	0.999120
778.274024	0.998839
778.598359	0.999892
778.922647	0.998380
779.246889	0.998375
779.571086	0.998470
779.895236	0.997502
780.219339	0.998091
780.543397	0.997344
780.867409	0.999166
781.191374	0.998464
781.515294	0.999443
781.839167	0.998601
782.162995	0.998184
782.486776	0.996769
782.810511	0.998363
783.134201	0.999226
783.457844	0.998993
783.781441	0.999082
784.104993	0.998016
784.428498	0.999550
784.751958	0.999602
785.075372	0.999354
785.398739	0.998165
785.722061	0.997654
786.045337	0.998739
786.368568	0.998417
786.691752	0.998073
787.014891	0.997450
787.337983	0.997736
787.661030	0.997616
787.984031	0.998261
788.306987	0.998496
788.629897	0.996939
788.952760	0.997561
789.275579	0.998475
789.598351	0.998968
789.921078	0.999005
790.243759	0.997864
790.566395	0.997723
790.888984	0.998697
791.211529	0.999690
791.534027	0.998036
791.856480	0.998128
792.178888	0.998452
792.501249	0.998378
792.823566	0.999168
793.145836	0.998190
793.468062	0.997711
793.790241	0.999115
794.112375	0.998014
794.434464	0.998098
794.756507	0.999574
795.078505	0.998720
795.400457	0.998869
795.722364	0.999191
796.044226	0.999084
796.366042	0.998720
796.687812	0.997266
797.009538	0.998315
797.331218	0.998659
797.652852	0.998851
797.974442	0.997644
798.295986	0.997025
798.617484	0.997239
798.938938	0.998405
799.260346	0.997904
799.581709	0.998045
799.903026	0.998090
800.224299	0.997761
800.545526	0.996770
800.866708	0.997228
801.187845	0.998443
801.508936	0.997862
801.829983	0.998304
802.150984	0.998257
802.471940	0.998898
802.792851	0.998998
803.113717	0.998903
803.434538	0.998010
803.755314	0.998824
804.076045	0.998896
804.396731	0.998007
804.717372	0.997519
805.037967	0.998840
805.358518	0.998854
805.679024	0.997626
805.999485	0.998257
806.319901	0.998616
806.640272	0.998862
806.960598	0.997720
807.280879	0.998188
807.601115	0.999751
807.921306	0.998687
808.241453	0.998499
808.561554	0.997931
808.881611	0.999057
809.201623	0.998669
809.521590	0.998425
809.841513	0.998964
810.161390	0.997404
810.481223	0.997434
810.801011	0.999141
811.120755	0.998828
811.440453	0.997348
811.760107	0.998982
812.079716	0.998540
812.399281	0.999235
812.718801	0.997798
813.038276	0.998272
813.357707	0.998368
813.677093	0.999383
813.996434	0.998850
814.315731	1.000236
814.634983	0.998015
814.954191	0.998524
815.273354	0.998253
815.592473	0.998086
815.911547	0.998928
816.230577	0.998372
816.549562	0.998427
816.868502	0.997698
817.187399	0.998730
817.506250	0.997691
817.825058	0.996899
818.143821	0.998167
818.462539	0.997500
818.781213	0.998970
819.099843	0.998073
819.418429	0.997585
819.736970	0.998363
820.055466	0.996830
820.373919	0.996509
820.692327	0.996272
821.010691	0.997051
821.329011	0.995104
821.647286	0.995140
821.965517	0.994398
822.283704	0.993562
822.601847	0.992401
822.919945	0.992395
823.237999	0.993359
823.556010	0.992435
823.873976	0.994144
824.191897	0.994721
824.509775	0.996000
824.827609	0.995323
825.145398	0.996212
825.463144	0.995013
825.780845	0.994950
826.098502	0.995142
826.416116	0.995869
826.733685	0.994992
827.051210	0.994827
827.368692	0.994940
827.686129	0.995028
828.003522	0.995707
828.320872	0.996154
828.638177	0.996862
828.955439	0.997213
829.272656	0.996981
829.589830	0.996292
829.906960	0.996589
830.224046	0.997137
830.541088	0.997505
830.858086	0.996800
831.175041	0.998058
831.491952	0.998130
831.808819	0.997486
832.125642	0.998337
832.442421	0.998816
832.759157	0.999080
833.075849	0.996977
833.392497	0.996042
833.709101	0.995806
834.025662	0.996079
834.342179	0.996309
834.658653	0.997733
834.975083	0.996523
835.291469	0.997495
835.607811	0.997331
835.924110	0.997638
836.240366	0.999151
836.556578	0.998542
836.872746	0.997933
837.188871	0.997976
837.504952	0.997458
837.820990	0.998119
838.136984	0.997743
838.452935	0.999160
838.768842	0.999109
839.084706	0.998912
839.400526	0.998712
839.716303	0.997408
840.032037	0.998403
840.347727	0.997040
840.663373	0.997933
840.978977	0.998358
841.294537	0.998595
841.610054	0.998911
841.925527	0.999249
842.240957	0.998543
842.556344	0.998487
842.871687	0.999359
843.186987	0.998756
843.502244	0.999208
843.817458	0.998157
844.132629	0.999089
844.447756	0.999079
844.762840	0.998778
845.077881	1.000143
845.392879	0.997537
845.707833	0.997764
846.022745	0.999543
846.337613	0.998660
846.652438	0.997605
846.967221	0.999019
847.281960	0.999446
847.596656	0.999929
847.911309	0.999228
848.225919	0.998685
848.540485	1.000081
848.855009	1.000671
849.169490	0.999244
849.483928	0.998271
849.798323	0.997438
850.112675	0.999364
850.426984	0.999707
850.741251	0.999212
851.055474	0.999936
851.369654	0.999403
851.683792	0.998366
851.997887	0.999725
852.311938	0.999896
852.625947	0.998632
852.939914	0.999165
853.253837	1.000712
853.567718	0.998917
853.881555	0.999099
854.195350	0.999370
854.509103	0.999329
854.822812	0.999103
855.136479	0.999256
855.450103	0.999067
855.763685	0.998502
856.077224	0.998143
856.390720	0.998705
856.704173	0.999719
857.017584	0.999850
857.330953	0.998906
857.644278	0.999002
857.957561	0.999534
858.270802	0.999811
858.584000	0.999012
858.897155	0.999265
859.210268	0.999271
859.523339	1.000211
859.836367	0.999470
860.149352	0.999000
860.462295	0.999840
860.775195	0.999374
861.088054	0.997265
861.400869	0.998640
861.713642	0.998561
862.026373	1.000241
862.339062	1.000195
862.651708	0.998819
862.964312	0.999480
863.276873	0.999427
863.589392	0.998604
863.901869	0.999795
864.214303	0.999217
864.526696	0.998523
864.839045	0.999591
865.151353	0.999176
865.463619	0.998701
865.775842	0.998970
866.088023	0.999648
866.400162	1.000215
866.712258	1.000402
867.024313	0.999788
867.336325	0.999416
867.648296	0.999840
867.960224	0.999352
868.272110	0.999533
868.583954	0.999115
868.895755	0.999538
869.207515	0.998789
869.519233	0.999701
869.830909	0.998874
870.142542	0.998825
870.454134	0.998870
870.765684	0.999648
871.077191	0.998887
871.388657	0.997919
871.700081	0.998776
872.011463	0.999614
872.322803	0.998387
872.634101	0.997721
872.945357	0.998017
873.256571	0.998016
873.567744	0.998692
873.878874	0.999337
874.189963	0.999288
874.501010	1.000878
874.812015	0.997757
875.122979	0.999508
875.433900	0.998856
875.744780	0.999854
876.055618	0.998127
876.366415	0.997967
876.677169	0.999287
876.987882	0.999011
877.298554	1.000262
877.609183	0.998788
877.919771	0.998531
878.230317	0.998971
878.540822	0.998892
878.851285	0.998114
879.161707	0.997750
879.472087	1.000075
879.782425	0.998478
880.092722	0.997492
880.402977	0.996705
880.713191	0.996281
881.023363	0.995554
881.333494	0.994909
881.643583	0.995643
881.953631	0.994913
882.263637	0.993761
882.573602	0.994652
882.883526	0.995187
883.193408	0.996352
883.503248	0.995409
883.813048	0.995754
884.122806	0.996850
884.432522	0.996434
884.742197	0.998507
885.051831	0.998325
885.361424	0.997602
885.670975	0.998908
885.980485	0.997967
886.289954	0.997681
886.599382	0.998266
886.908768	0.998706
887.218113	0.997969
887.527417	0.999709
887.836680	0.999730
888.145901	0.998828
888.455082	1.000480
888.764221	0.999592
889.073319	0.998650
889.382376	0.999671
889.691392	0.997920
890.000366	1.000016
890.309300	0.998885
890.618193	0.999399
890.927044	0.998936
891.235855	0.998629
891.544625	0.998713
891.853353	0.999004
892.162041	0.997717
892.470687	0.998652
892.779293	0.997271
893.087858	0.998151
893.396381	0.999022
893.704864	0.998783
894.013306	0.998614
894.321707	0.997286
894.630068	0.997851
894.938387	0.996717
895.246665	0.996362
895.554903	0.996503
895.863100	0.998247
896.171256	0.996778
896.479371	0.997573
896.787446	0.998298
897.095480	0.998310
897.403473	0.998428
897.711425	0.998877
898.019336	0.998258
898.327207	0.999741
898.635038	0.997879
898.942827	0.999739
899.250576	0.998636
899.558284	1.000127
899.865952	0.996867
900.173579	0.997870
900.481165	0.998172
900.788711	0.998747
901.096216	0.997936
901.403681	0.998987
901.711105	0.998808
902.018489	0.998746
902.325832	0.999132
902.633135	0.998387
902.940397	0.999239
903.247619	0.998731
903.554800	0.998230
903.861941	0.998643
904.169041	0.996470
904.476101	0.997175
904.783121	0.996791
905.090100	0.996726
905.397039	0.997072
905.703938	0.996742
906.010796	0.997602
906.317614	0.997701
906.624391	0.998913
906.931129	0.998968
907.237826	0.999133
907.544483	0.998675
907.851099	0.997804
908.157675	0.998691
908.464211	0.998849
908.770707	0.997944
909.077163	0.999468
909.383578	0.998554
909.689954	0.998311
909.996289	0.998925
910.302584	0.998759
910.608839	0.999699
910.915054	0.998418
911.221229	1.000588
911.527363	0.998241
911.833458	0.998768
912.139513	0.998447
912.445527	0.999497
912.751502	0.998409
913.057436	0.998263
913.363331	1.000424
913.669186	0.999637
913.975000	0.999583
914.280775	0.999896
914.586510	0.997497
914.892205	0.998243
915.197859	0.997413
915.503475	0.998247
915.809050	0.997227
916.114585	0.996671
916.420081	0.998123
916.725536	0.997117
917.030952	0.997578
917.336328	0.997516
917.641665	0.996239
917.946961	0.996758
918.252218	0.996933
918.557435	0.997339
918.862612	0.998349
919.167750	0.998264
919.472848	0.999005
919.777906	0.999326
920.082925	0.999387
920.387904	0.998727
920.692843	0.999150
920.997743	0.998464
921.302603	0.999111
921.607423	0.999023
921.912204	0.999985
922.216946	1.000556
922.521647	1.000616
922.826310	0.998834
923.130932	0.999069
923.435516	0.999249
923.740059	0.999084
924.044564	0.999330
924.349028	0.999205
924.653454	0.999612
924.957840	0.999504
925.262186	0.998642
925.566493	0.999494
925.870761	0.998869
926.174989	0.998373
926.479178	1.000098
926.783328	0.998429
927.087438	0.999025
927.391509	0.999073
927.695541	1.000146
927.999533	0.999377
928.303486	0.998904
928.607400	0.998776
928.911275	0.999594
929.215110	0.999702
929.518906	0.999698
929.822663	0.999749
930.126381	1.000052
930.430060	0.999428
930.733699	1.000632
931.037299	1.000519
931.340861	0.998720
931.644383	0.997441
931.947866	0.998592
932.251309	1.000540
932.554714	0.999779
932.858080	0.999540
933.161407	0.998011
933.464694	0.999428
933.767943	0.999399
934.071153	0.999592
934.374323	0.999781
934.677455	0.999210
934.980548	0.999284
935.283602	1.000691
935.586617	0.998508
935.889593	0.999650
936.192530	0.998915
936.495428	1.000134
936.798287	0.997855
937.101108	0.999580
937.403890	0.999164
937.706632	1.001116
938.009336	1.000085
938.312002	0.998878
938.614628	1.000810
938.917216	0.998942
939.219765	0.999088
939.522275	1.000913
939.824747	0.999362
940.127179	0.999726
940.429573	1.000568
940.731929	0.998893
941.034246	0.998213
941.336524	0.998292
941.638763	0.998526
941.940964	0.999425
942.243126	0.999378
942.545250	1.000965
942.847335	0.999107
943.149381	0.999791
943.451389	1.000147
943.753359	0.998718
944.055290	1.000023
944.357182	0.999783
944.659036	0.999679
944.960851	1.000348
945.262628	1.000159
945.564367	0.999008
945.866067	0.999678
946.167729	0.999656
946.469352	0.999034
946.770937	0.998214
947.072484	1.000352
947.373992	1.000263
947.675462	0.999150
947.976893	0.999030
948.278286	1.001096
948.579641	0.999826
948.880958	0.999563
949.182236	0.999727
949.483476	1.000034
949.784678	0.999715
950.085841	0.998447
950.386967	0.999081
950.688054	0.999008
950.989103	0.998718
951.290114	0.998030
951.591087	1.001124
951.892021	0.999132
952.192917	0.999177
952.493776	0.999900
952.794596	0.999337
953.095378	0.999976
953.396122	0.999439
953.696828	1.000228
953.997496	0.999569
954.298126	0.999478
954.598718	0.999134
954.899272	0.999090
955.199788	0.997725
955.500266	0.999287
955.800706	0.999035
956.101108	1.000339
956.401472	1.000676
956.701798	0.998804
957.002087	0.998648
957.302337	0.999457
957.602550	1.000373
957.902724	1.000030
958.202861	0.999179
958.502960	0.998965
958.803022	1.001671
959.103045	1.000163
959.403031	0.999394
959.702979	1.000872
960.002889	0.999639
960.302762	0.998560
960.602596	1.000025
960.902393	0.999556
961.202153	1.000523
961.501875	0.999361
961.801559	0.999135
962.101205	0.998924
962.400814	0.998605
962.700385	1.001300
962.999918	1.000585
963.299414	0.998715
963.598873	1.000175
963.898293	0.999650
964.197677	0.998753
964.497022	0.999191
964.796331	0.998805
965.095601	1.000124
965.394835	0.998332
965.694030	1.000685
965.993189	0.998397
966.292309	1.000923
966.591393	0.998053
966.890439	0.999347
967.189447	0.999228
967.488419	0.999319
967.787353	1.000208
968.086249	0.999332
968.385108	1.000185
968.683930	1.000124
968.982714	0.999310
969.281462	0.999719
969.580172	1.000082
969.878844	1.000450
970.177480	0.999899
970.476078	1.000212
970.774639	1.000889
971.073162	0.999748
971.371649	0.999301
971.670098	0.999291
971.968510	1.000551
972.266885	0.998932
972.565223	0.999637
972.863524	0.998202
973.161788	0.999110
973.460014	0.999918
973.758204	0.999765
974.056356	0.999322
974.354471	0.999051
974.652550	1.001201
974.950591	0.999018
975.248595	0.999027
975.546563	1.000140
975.844493	1.000383
976.142386	0.998063
976.440243	1.000225
976.738062	1.000587
977.035845	0.999353
977.333590	0.999845
977.631299	0.998915
977.928971	0.999138
978.226606	0.999056
978.524204	0.999718
978.821765	0.999673
979.119290	1.000749
979.416777	1.000169
979.714228	0.998823
980.011642	1.000133
980.309020	0.999221
980.606360	0.999452
980.903664	0.999305
981.200931	0.999539
981.498162	1.000556
981.795356	0.999589
982.092513	0.999978
982.389633	1.000852
982.686717	0.998609
982.983764	0.999606
983.280775	0.999911
983.577749	1.000504
983.874686	0.998318
984.171587	0.999351
984.468451	0.998474
984.765279	1.000226
985.062070	0.998947
985.358824	0.999898
985.655543	1.000154
985.952224	0.999426
986.248869	0.998913
986.545478	1.000990
986.842050	0.999034
987.138586	0.998121
987.435086	0.999025
987.731549	1.000575
988.027975	1.000185
988.324366	0.999499
988.620719	1.000601
988.917037	0.998339
989.213318	0.999904
989.509563	0.999830
989.805772	1.000420
990.101944	0.999552
990.398080	1.000258
990.694180	1.000035
990.990244	0.998695
991.286271	0.999994
991.582262	0.999577
991.878217	0.999844
992.174136	1.000702
992.470019	1.000147
992.765865	1.000553
993.061676	0.999849
993.357450	0.999549
993.653188	0.999981
993.948890	0.999535
994.244556	0.999047
994.540186	0.999267
994.835780	0.998634
995.131337	1.000212
995.426859	0.999549
995.722345	0.999885
996.017795	0.999667
996.313208	0.999303
996.608586	1.000318
996.903928	0.999998
997.199234	1.000082
997.494504	1.001124
997.789738	0.998407
998.084936	0.999565
998.380099	0.999472
998.675225	0.999911
998.970316	0.998859
999.265371	0.999429
999.560390	0.999195
999.855373	0.999166
1000.150320	1.000868
1000.445232	0.999444
1000.740108	0.999079
1001.034948	0.998838
1001.329752	1.001201
1001.624521	0.998526
1001.919254	0.998374
1002.213951	1.001010
1002.508613	0.998480
1002.803239	0.998994
1003.097829	1.000441
1003.392384	0.999569
1003.686903	0.999557
1003.981386	0.998987
1004.275834	0.999935
1004.570246	0.999611
1004.864623	1.000818
1005.158964	1.000092
1005.453270	0.999113
1005.747540	0.998838
1006.041775	0.999649
1006.335974	1.000090
1006.630138	1.000201
1006.924266	0.999570
1007.218359	0.998584
1007.512416	1.001523
1007.806438	0.999377
1008.100425	0.999351
1008.394376	1.000115
1008.688292	0.999061
1008.982172	0.999412
1009.276017	0.999995
1009.569827	1.001483
1009.863602	0.999026
1010.157341	0.999694
1010.451045	1.000711
1010.744714	1.000916
1011.038347	1.000574
1011.331945	0.999282
1011.625508	0.999065
1011.919036	0.999962
1012.212528	1.000044
1012.505986	0.999422
1012.799408	1.000140
1013.092795	1.000926
1013.386147	0.999906
1013.679464	1.000156
1013.972745	0.999251
1014.265992	0.999964
1014.559204	0.999510
1014.852380	1.000402
1015.145521	0.998790
1015.438628	0.999748
1015.731699	1.000129
1016.024736	0.999740
1016.317737	1.000199
1016.610703	0.999797
1016.903635	0.999404
1017.196531	0.998260
1017.489393	0.999734
1017.782219	0.999566
1018.075011	0.998782
1018.367768	0.999699
1018.660490	0.999589
1018.953177	0.999589
1019.245829	0.999589
