Dividing Wavelength (nm)	Counts (n)	Blue Motor Position (mm): 0.600000	Red Motor Position (mm): 0.000000	
326.493990	1.005715
326.888308	1.005715
327.282561	1.005715
327.676750	1.008045
328.070874	1.008972
328.464933	1.007164
328.858929	1.008523
329.252859	1.007575
329.646726	1.006578
330.040528	1.007869
330.434265	1.008092
330.827938	1.005827
331.221547	1.007499
331.615091	1.008026
332.008571	1.007372
332.401986	1.006492
332.795338	1.006585
333.188625	1.008494
333.581847	1.006335
333.975006	1.007244
334.368100	1.006927
334.761129	1.006845
335.154095	1.008109
335.546996	1.005635
335.939833	0.999950
336.332606	1.001171
336.725315	0.998657
337.117960	1.000696
337.510540	0.999908
337.903056	0.999715
338.295508	1.001206
338.687896	1.000932
339.080220	1.001082
339.472480	0.998651
339.864676	1.000556
340.256807	0.999320
340.648875	0.999966
341.040879	0.999724
341.432818	1.001071
341.824694	0.999751
342.216506	1.000549
342.608253	1.000460
342.999937	0.999621
343.391557	1.000382
343.783113	1.001210
344.174605	1.000162
344.566033	1.000265
344.957397	1.000958
345.348697	0.999752
345.739934	1.000281
346.131106	1.000319
346.522215	0.999609
346.913260	1.000023
347.304241	0.998605
347.695159	1.000960
348.086012	0.999495
348.476802	0.999910
348.867528	0.998714
349.258191	1.001019
349.648789	1.000595
350.039324	1.000220
350.429796	0.999815
350.820203	0.997586
351.210548	0.999443
351.600828	1.000076
351.991045	0.999091
352.381198	1.000644
352.771288	0.999001
353.161314	1.000318
353.551276	0.999697
353.941175	0.997141
354.331010	0.999189
354.720782	0.999691
355.110490	0.999491
355.500135	0.999893
355.889717	0.998633
356.279235	0.998891
356.668689	1.000067
357.058080	0.998241
357.447408	0.999800
357.836672	1.000022
358.225873	0.999270
358.615010	0.998774
359.004084	0.998818
359.393095	0.999446
359.782043	0.997195
360.170927	0.999056
360.559748	0.999722
360.948505	0.998299
361.337199	0.997969
361.725830	0.998550
362.114398	0.998883
362.502903	0.997084
362.891344	0.998193
363.279722	0.997669
363.668037	0.998914
364.056289	0.997550
364.444478	0.999295
364.832603	0.997779
365.220665	0.997443
365.608665	0.997740
365.996601	0.997485
366.384474	0.997732
366.772284	0.997325
367.160031	0.996494
367.547715	0.995375
367.935336	0.995053
368.322893	0.994944
368.710388	0.993372
369.097820	0.990700
369.485189	0.989873
369.872495	0.988030
370.259738	0.986080
370.646918	0.983567
371.034035	0.979290
371.421090	0.976632
371.808081	0.972793
372.195010	0.970713
372.581875	0.963944
372.968678	0.959714
373.355418	0.957322
373.742096	0.949572
374.128710	0.945703
374.515262	0.939774
374.901751	0.934667
375.288177	0.929614
375.674540	0.922888
376.060841	0.916841
376.447079	0.909743
376.833254	0.904387
377.219367	0.898121
377.605417	0.887524
377.991404	0.883831
378.377329	0.878031
378.763191	0.870202
379.148991	0.861740
379.534727	0.853758
379.920402	0.846158
380.306013	0.841942
380.691563	0.829805
381.077049	0.822809
381.462474	0.819984
381.847835	0.807438
382.233134	0.802530
382.618371	0.802884
383.003545	0.786660
383.388657	0.784191
383.773706	0.776403
384.158693	0.772363
384.543618	0.767064
384.928480	0.757117
385.313280	0.748636
385.698017	0.746722
386.082692	0.735784
386.467305	0.735352
386.851856	0.729052
387.236344	0.724196
387.620770	0.718053
388.005133	0.712602
388.389435	0.706650
388.773674	0.704468
389.157851	0.696465
389.541965	0.693900
389.926018	0.700691
390.310008	0.687021
390.693936	0.683745
391.077802	0.676280
391.461606	0.677778
391.845348	0.666396
392.229027	0.667304
392.612645	0.664689
392.996200	0.652081
393.379694	0.644446
393.763125	0.635679
394.146494	0.639530
394.529801	0.629746
394.913047	0.621997
395.296230	0.628188
395.679351	0.618788
396.062410	0.615946
396.445408	0.618673
396.828343	0.613959
397.211217	0.609575
397.594028	0.621677
397.976778	0.611879
398.359466	0.607611
398.742092	0.603243
399.124656	0.615519
399.507158	0.603326
399.889598	0.601288
400.271977	0.592387
400.654294	0.595889
401.036549	0.595282
401.418742	0.598972
401.800874	0.585688
402.182944	0.582010
402.564952	0.573134
402.946898	0.575012
403.328783	0.575999
403.710606	0.587325
404.092367	0.563023
404.474067	0.567926
404.855705	0.566250
405.237282	0.575132
405.618797	0.560655
406.000250	0.557576
406.381642	0.547107
406.762972	0.552704
407.144240	0.550586
407.525447	0.550587
407.906593	0.543678
408.287677	0.538783
408.668700	0.546827
409.049661	0.542325
409.430560	0.536501
409.811399	0.545312
410.192176	0.526642
410.572891	0.534209
410.953545	0.522717
411.334138	0.535909
411.714669	0.527818
412.095139	0.540767
412.475547	0.523563
412.855894	0.526027
413.236180	0.525318
413.616405	0.530672
413.996568	0.521039
414.376670	0.527304
414.756711	0.531790
415.136691	0.528826
415.516609	0.519665
415.896466	0.516961
416.276262	0.512481
416.655997	0.514502
417.035670	0.496063
417.415283	0.487831
417.794834	0.491974
418.174324	0.497824
418.553753	0.507114
418.933121	0.489443
419.312428	0.483262
419.691674	0.488847
420.070859	0.477208
420.449983	0.485207
420.829045	0.474279
421.208047	0.483410
421.586988	0.476668
421.965867	0.475615
422.344686	0.463692
422.723444	0.476104
423.102141	0.493611
423.480777	0.466078
423.859352	0.487469
424.237866	0.464306
424.616319	0.464904
424.994712	0.455909
425.373044	0.466249
425.751314	0.454255
426.129524	0.471226
426.507673	0.454622
426.885762	0.447580
427.263789	0.453436
427.641756	0.462893
428.019662	0.452872
428.397508	0.452646
428.775292	0.456947
429.153016	0.448723
429.530679	0.455211
429.908282	0.448617
430.285824	0.458704
430.663305	0.436931
431.040726	0.457796
431.418086	0.457571
431.795385	0.449522
432.172624	0.448592
432.549802	0.449248
432.926920	0.448105
433.303977	0.447509
433.680974	0.444181
434.057910	0.443319
434.434786	0.442450
434.811601	0.445478
435.188355	0.427485
435.565050	0.436772
435.941683	0.438440
436.318257	0.421543
436.694770	0.422831
437.071222	0.420759
437.447614	0.425391
437.823946	0.431813
438.200218	0.421153
438.576429	0.431117
438.952580	0.424442
439.328670	0.420733
439.704700	0.426479
440.080670	0.428184
440.456580	0.409827
440.832429	0.417202
441.208218	0.428444
441.583947	0.417717
441.959616	0.416253
442.335224	0.422899
442.710773	0.412927
443.086261	0.411487
443.461689	0.425140
443.837057	0.414844
444.212365	0.405181
444.587612	0.412004
444.962800	0.401779
445.337927	0.403476
445.712995	0.429672
446.088002	0.391543
446.462949	0.401724
446.837837	0.407200
447.212664	0.395028
447.587431	0.387247
447.962139	0.357519
448.336786	0.316486
448.711374	0.326922
449.085901	0.371274
449.460369	0.375427
449.834776	0.379337
450.209124	0.358297
450.583412	0.350861
450.957640	0.343825
451.331808	0.355093
451.705917	0.378331
452.079965	0.383456
452.453954	0.371512
452.827883	0.377882
453.201752	0.372798
453.575562	0.384186
453.949311	0.373102
454.323001	0.378971
454.696632	0.375316
455.070202	0.367533
455.443713	0.359098
455.817164	0.354022
456.190556	0.349700
456.563888	0.346637
456.937160	0.344262
457.310373	0.361789
457.683526	0.360501
458.056619	0.366079
458.429653	0.366489
458.802628	0.370303
459.175542	0.364327
459.548398	0.346531
459.921194	0.339420
460.293930	0.339556
460.666607	0.316495
461.039224	0.305191
461.411782	0.300310
461.784280	0.299818
462.156719	0.304004
462.529099	0.308754
462.901419	0.324954
463.273680	0.328689
463.645882	0.328836
464.018024	0.334875
464.390106	0.326830
464.762130	0.311561
465.134094	0.294785
465.505999	0.263725
465.877845	0.234060
466.249631	0.220846
466.621358	0.228088
466.993026	0.242507
467.364634	0.248749
467.736184	0.257299
468.107674	0.266033
468.479105	0.265440
468.850477	0.272013
469.221790	0.278938
469.593043	0.289086
469.964238	0.293845
470.335373	0.293393
470.706449	0.291513
471.077467	0.291858
471.448425	0.253822
471.819324	0.229562
472.190164	0.229288
472.560945	0.257911
472.931667	0.280512
473.302330	0.284722
473.672934	0.296343
474.043479	0.284537
474.413965	0.286529
474.784393	0.289756
475.154761	0.284762
475.525070	0.281998
475.895321	0.287980
476.265513	0.281802
476.635645	0.277228
477.005719	0.276962
477.375734	0.273568
477.745691	0.266620
478.115588	0.263152
478.485427	0.256714
478.855207	0.243645
479.224928	0.225962
479.594591	0.214196
479.964194	0.217515
480.333739	0.218677
480.703226	0.220271
481.072653	0.218501
481.442022	0.214354
481.811333	0.210866
482.180584	0.214134
482.549777	0.219714
482.918912	0.223218
483.287988	0.222652
483.657005	0.222527
484.025964	0.228923
484.394864	0.225918
484.763706	0.226781
485.132489	0.231946
485.501213	0.232462
485.869879	0.230928
486.238487	0.233916
486.607036	0.232086
486.975527	0.236595
487.343959	0.232371
487.712333	0.231420
488.080648	0.232753
488.448905	0.232418
488.817104	0.233200
489.185244	0.227783
489.553326	0.224774
489.921350	0.214481
490.289315	0.196938
490.657222	0.191987
491.025070	0.193062
491.392861	0.195208
491.760593	0.201112
492.128267	0.206626
492.495883	0.212367
492.863440	0.218382
493.230939	0.225120
493.598380	0.226339
493.965763	0.228783
494.333088	0.230745
494.700354	0.232433
495.067563	0.231148
495.434713	0.234835
495.801805	0.232379
496.168839	0.233929
496.535815	0.235511
496.902733	0.235275
497.269593	0.236595
497.636395	0.234721
498.003139	0.234844
498.369825	0.237865
498.736453	0.234229
499.103023	0.236028
499.469535	0.235135
499.835989	0.235276
500.202385	0.236243
500.568723	0.239634
500.935003	0.234888
501.301226	0.239019
501.667390	0.233347
502.033497	0.231379
502.399546	0.234044
502.765537	0.236273
503.131470	0.234893
503.497345	0.231150
503.863163	0.239497
504.228923	0.232414
504.594625	0.231293
504.960269	0.237011
505.325856	0.232192
505.691385	0.236449
506.056856	0.233168
506.422270	0.232571
506.787625	0.235068
507.152924	0.232546
507.518164	0.232909
507.883347	0.234602
508.248472	0.236483
508.613540	0.231234
508.978550	0.233732
509.343503	0.234202
509.708398	0.231964
510.073236	0.229511
510.438016	0.229130
510.802738	0.230539
511.167403	0.228850
511.532010	0.231427
511.896561	0.226705
512.261053	0.225414
512.625488	0.227684
512.989866	0.228024
513.354186	0.228137
513.718449	0.230057
514.082655	0.226365
514.446803	0.228644
514.810894	0.226367
515.174927	0.229194
515.538904	0.228577
515.902822	0.225282
516.266684	0.227721
516.630488	0.228650
516.994235	0.227642
517.357925	0.226868
517.721558	0.224771
518.085133	0.224262
518.448651	0.224080
518.812112	0.226827
519.175516	0.226373
519.538863	0.223924
519.902152	0.225637
520.265385	0.222499
520.628560	0.224307
520.991678	0.224546
521.354739	0.223440
521.717743	0.224557
522.080690	0.225117
522.443580	0.222516
522.806413	0.223358
523.169189	0.222937
523.531908	0.221436
523.894569	0.225143
524.257174	0.225147
524.619722	0.222708
524.982213	0.223749
525.344647	0.222736
525.707025	0.223707
526.069345	0.221625
526.431608	0.223564
526.793815	0.221448
527.155964	0.225497
527.518057	0.224362
527.880093	0.225695
528.242072	0.224054
528.603995	0.225969
528.965860	0.227701
529.327669	0.226564
529.689421	0.227523
530.051117	0.228344
530.412755	0.226218
530.774337	0.228183
531.135862	0.228807
531.497331	0.227996
531.858743	0.230800
532.220098	0.227412
532.581396	0.230264
532.942638	0.230744
533.303824	0.231727
533.664953	0.231303
534.026025	0.233451
534.387040	0.231293
534.747999	0.230871
535.108902	0.229892
535.469748	0.235095
535.830537	0.232882
536.191270	0.233158
536.551947	0.232543
536.912567	0.233027
537.273131	0.234422
537.633638	0.234835
537.994089	0.235230
538.354483	0.236276
538.714821	0.232863
539.075103	0.232874
539.435328	0.233675
539.795497	0.237458
540.155609	0.233973
540.515665	0.232183
540.875665	0.237503
541.235609	0.236342
541.595496	0.236181
541.955328	0.233034
542.315102	0.235458
542.674821	0.236883
543.034483	0.236766
543.394090	0.236421
543.753640	0.238255
544.113134	0.233060
544.472571	0.236679
544.831953	0.233410
545.191278	0.237536
545.550548	0.236821
545.909761	0.233766
546.268918	0.234718
546.628019	0.232808
546.987064	0.235449
547.346053	0.237305
547.704986	0.234827
548.063863	0.235454
548.422684	0.235795
548.781449	0.237296
549.140158	0.235213
549.498811	0.237841
549.857408	0.241120
550.215949	0.235743
550.574434	0.239019
550.932864	0.236882
551.291237	0.235299
551.649555	0.237177
552.007817	0.236664
552.366022	0.237685
552.724173	0.237507
553.082267	0.237937
553.440305	0.234902
553.798288	0.239345
554.156215	0.235912
554.514086	0.236487
554.871902	0.239958
555.229661	0.238801
555.587365	0.239512
555.945014	0.241952
556.302606	0.239015
556.660143	0.241887
557.017625	0.238097
557.375050	0.240239
557.732421	0.237630
558.089735	0.239267
558.446994	0.239096
558.804197	0.238392
559.161345	0.238415
559.518437	0.241759
559.875474	0.240142
560.232455	0.239246
560.589381	0.240236
560.946251	0.240437
561.303065	0.238165
561.659825	0.239242
562.016528	0.240849
562.373177	0.244051
562.729770	0.241002
563.086307	0.242960
563.442789	0.240958
563.799216	0.243602
564.155587	0.242628
564.511904	0.243901
564.868164	0.243929
565.224370	0.243417
565.580520	0.245444
565.936615	0.244986
566.292654	0.248016
566.648638	0.245234
567.004567	0.246229
567.360441	0.246654
567.716260	0.248700
568.072023	0.246282
568.427732	0.247172
568.783385	0.249670
569.138982	0.247424
569.494525	0.247468
569.850013	0.250408
570.205445	0.249092
570.560823	0.251226
570.916145	0.253175
571.271412	0.251465
571.626625	0.253078
571.981782	0.253570
572.336884	0.254271
572.691931	0.254136
573.046923	0.255428
573.401860	0.256461
573.756743	0.258476
574.111570	0.257069
574.466342	0.257637
574.821059	0.256788
575.175722	0.259811
575.530330	0.259357
575.884882	0.259627
576.239380	0.261427
576.593823	0.262320
576.948211	0.261673
577.302544	0.265050
577.656823	0.264854
578.011047	0.264496
578.365216	0.265510
578.719330	0.267413
579.073389	0.267021
579.427394	0.268281
579.781344	0.269173
580.135239	0.270484
580.489080	0.270197
580.842866	0.273257
581.196597	0.273214
581.550273	0.271672
581.903895	0.272543
582.257463	0.270841
582.610975	0.274330
582.964434	0.273790
583.317837	0.276220
583.671186	0.276545
584.024481	0.276578
584.377721	0.278678
584.730906	0.279872
585.084037	0.278928
585.437113	0.281073
585.790135	0.280477
586.143103	0.283208
586.496016	0.284379
586.848874	0.281991
587.201679	0.282428
587.554428	0.285774
587.907124	0.284666
588.259765	0.285115
588.612352	0.286182
588.964884	0.289725
589.317362	0.289200
589.669786	0.289220
590.022155	0.287834
590.374470	0.287356
590.726731	0.289088
591.078937	0.294119
591.431090	0.290329
591.783188	0.294710
592.135232	0.295123
592.487222	0.295011
592.839157	0.292947
593.191038	0.295564
593.542866	0.297039
593.894639	0.300560
594.246358	0.299038
594.598022	0.298339
594.949633	0.302237
595.301190	0.302874
595.652692	0.302036
596.004141	0.297809
596.355535	0.305961
596.706876	0.306696
597.058162	0.308850
597.409395	0.305862
597.760573	0.303949
598.111698	0.307267
598.462768	0.307279
598.813785	0.308892
599.164748	0.310108
599.515657	0.310583
599.866511	0.314182
600.217312	0.309653
600.568060	0.314732
600.918753	0.310903
601.269392	0.311868
601.619978	0.315166
601.970510	0.312642
602.320988	0.312765
602.671412	0.310606
603.021783	0.313391
603.372100	0.314340
603.722363	0.314219
604.072572	0.314981
604.422728	0.314591
604.772830	0.316934
605.122878	0.316704
605.472872	0.316899
605.822813	0.315821
606.172701	0.318411
606.522534	0.315200
606.872314	0.316012
607.222041	0.316738
607.571714	0.314877
607.921333	0.315967
608.270899	0.315758
608.620411	0.312140
608.969870	0.316268
609.319276	0.316472
609.668627	0.316396
610.017926	0.314938
610.367171	0.313569
610.716362	0.314306
611.065500	0.314273
611.414585	0.312905
611.763616	0.313337
612.112594	0.313955
612.461518	0.313419
612.810389	0.310926
613.159207	0.313779
613.507971	0.315504
613.856682	0.311316
614.205340	0.312026
614.553945	0.309799
614.902496	0.313452
615.250994	0.310935
615.599439	0.312226
615.947830	0.311485
616.296169	0.312702
616.644454	0.312145
616.992686	0.312091
617.340864	0.309925
617.688990	0.313533
618.037063	0.310230
618.385082	0.312119
618.733048	0.308610
619.080961	0.310849
619.428821	0.310555
619.776628	0.310122
620.124382	0.312662
620.472083	0.313009
620.819731	0.312075
621.167326	0.315858
621.514868	0.315613
621.862357	0.320077
622.209793	0.319302
622.557176	0.321781
622.904506	0.322757
623.251783	0.325281
623.599007	0.327557
623.946179	0.327067
624.293297	0.329261
624.640363	0.332897
624.987376	0.333550
625.334336	0.335686
625.681243	0.338085
626.028097	0.338717
626.374899	0.339543
626.721647	0.340545
627.068343	0.343085
627.414987	0.344450
627.761577	0.346690
628.108115	0.344758
628.454600	0.350045
628.801032	0.347415
629.147412	0.349490
629.493739	0.350679
629.840014	0.352976
630.186236	0.350133
630.532405	0.356098
630.878521	0.353373
631.224585	0.355776
631.570597	0.358923
631.916556	0.357438
632.262462	0.357587
632.608316	0.359852
632.954117	0.360378
633.299866	0.361568
633.645562	0.362099
633.991206	0.366114
634.336797	0.369314
634.682336	0.371739
635.027823	0.372812
635.373257	0.373750
635.718639	0.377653
636.063968	0.376339
636.409245	0.382496
636.754470	0.382918
637.099642	0.385534
637.444762	0.388895
637.789829	0.387804
638.134845	0.391675
638.479808	0.392147
638.824719	0.392390
639.169577	0.396287
639.514383	0.395372
639.859137	0.399839
640.203839	0.399677
640.548489	0.399966
640.893086	0.400675
641.237632	0.402788
641.582125	0.401456
641.926566	0.403380
642.270955	0.402701
642.615292	0.403092
642.959576	0.402345
643.303809	0.403181
643.647990	0.402586
643.992118	0.403636
644.336195	0.406364
644.680219	0.404658
645.024192	0.405467
645.368112	0.399063
645.711981	0.397762
646.055797	0.393420
646.399562	0.395785
646.743274	0.388346
647.086935	0.384855
647.430544	0.385233
647.774101	0.384149
648.117606	0.384588
648.461059	0.384701
648.804460	0.386554
649.147810	0.392144
649.491108	0.393807
649.834354	0.395594
650.177548	0.400736
650.520690	0.405970
650.863781	0.407421
651.206820	0.406545
651.549807	0.411238
651.892742	0.415288
652.235626	0.415079
652.578458	0.415403
652.921238	0.422447
653.263967	0.419982
653.606644	0.423518
653.949269	0.423275
654.291843	0.427196
654.634365	0.424413
654.976836	0.426956
655.319255	0.427783
655.661622	0.428915
656.003938	0.428833
656.346203	0.431582
656.688416	0.429884
657.030577	0.433213
657.372687	0.435728
657.714746	0.436220
658.056753	0.433418
658.398708	0.436991
658.740612	0.438061
659.082465	0.434235
659.424266	0.434871
659.766016	0.434253
660.107715	0.437735
660.449362	0.435852
660.790958	0.436205
661.132503	0.437757
661.473996	0.434686
661.815438	0.436326
662.156829	0.436277
662.498168	0.436953
662.839456	0.438002
663.180693	0.435870
663.521879	0.435746
663.863013	0.436235
664.204097	0.434983
664.545129	0.431904
664.886110	0.432488
665.227040	0.429907
665.567918	0.432123
665.908746	0.429620
666.249522	0.429790
666.590248	0.430571
666.930922	0.428872
667.271545	0.427181
667.612118	0.427816
667.952639	0.429918
668.293109	0.428289
668.633528	0.431358
668.973896	0.430791
669.314213	0.431376
669.654480	0.433153
669.994695	0.433416
670.334859	0.433633
670.674973	0.434338
671.015035	0.434320
671.355047	0.434853
671.695008	0.435712
672.034918	0.437005
672.374777	0.436814
672.714585	0.437888
673.054342	0.437811
673.394049	0.437988
673.733705	0.435901
674.073310	0.436605
674.412864	0.439985
674.752368	0.440239
675.091820	0.440352
675.431223	0.445269
675.770574	0.444604
676.109875	0.448056
676.449125	0.447507
676.788324	0.450278
677.127473	0.455195
677.466571	0.455584
677.805619	0.456715
678.144616	0.458436
678.483562	0.460223
678.822458	0.462645
679.161303	0.462516
679.500098	0.463127
679.838842	0.465044
680.177535	0.464725
680.516179	0.462952
680.854771	0.462117
681.193314	0.455308
681.531805	0.446966
681.870247	0.435566
682.208638	0.428286
682.546978	0.426819
682.885268	0.428630
683.223508	0.434897
683.561697	0.439100
683.899836	0.441530
684.237925	0.444450
684.575963	0.447290
684.913951	0.450644
685.251889	0.445876
685.589776	0.448019
685.927614	0.450599
686.265401	0.444871
686.603137	0.446114
686.940824	0.440318
687.278460	0.439198
687.616046	0.438070
687.953582	0.433079
688.291068	0.434699
688.628504	0.429441
688.965889	0.432367
689.303224	0.435904
689.640510	0.439451
689.977745	0.445631
690.314930	0.453461
690.652065	0.458639
690.989150	0.465329
691.326185	0.472484
691.663170	0.476880
692.000105	0.484814
692.336990	0.491276
692.673825	0.493870
693.010610	0.500695
693.347345	0.506634
693.684030	0.508337
694.020665	0.512225
694.357251	0.521420
694.693786	0.521410
695.030272	0.524874
695.366707	0.528837
695.703093	0.532445
696.039429	0.529548
696.375716	0.532296
696.711952	0.534404
697.048139	0.536289
697.384276	0.538515
697.720363	0.537761
698.056400	0.534667
698.392388	0.541255
698.728326	0.543853
699.064214	0.547226
699.400053	0.547524
699.735842	0.551350
700.071581	0.553783
700.407270	0.557187
700.742910	0.560634
701.078501	0.565623
701.414042	0.567268
701.749533	0.569910
702.084974	0.579218
702.420366	0.571349
702.755709	0.578863
703.091002	0.586288
703.426246	0.579728
703.761440	0.585165
704.096584	0.590967
704.431679	0.587478
704.766725	0.590056
705.101721	0.591699
705.436668	0.587791
705.771565	0.594891
706.106413	0.590339
706.441212	0.585946
706.775961	0.585574
707.110661	0.587467
707.445311	0.584625
707.779913	0.582095
708.114465	0.580088
708.448967	0.577333
708.783421	0.569250
709.117825	0.563448
709.452180	0.563084
709.786485	0.557596
710.120742	0.546512
710.454949	0.548886
710.789107	0.541056
711.123216	0.531676
711.457275	0.532219
711.791286	0.524866
712.125247	0.523985
712.459159	0.534750
712.793023	0.526329
713.126837	0.530219
713.460602	0.531034
713.794318	0.539903
714.127985	0.538822
714.461602	0.549322
714.795171	0.553047
715.128691	0.560910
715.462162	0.568226
715.795584	0.573993
716.128957	0.577060
716.462281	0.583529
716.795556	0.586816
717.128782	0.592342
717.461960	0.601364
717.795088	0.600174
718.128167	0.605630
718.461198	0.615059
718.794180	0.616137
719.127113	0.618424
719.459997	0.621499
719.792833	0.627977
720.125619	0.629084
720.458357	0.635127
720.791046	0.635138
721.123686	0.639070
721.456278	0.645902
721.788821	0.642123
722.121315	0.647720
722.453761	0.651755
722.786158	0.649258
723.118506	0.644771
723.450805	0.652713
723.783056	0.650114
724.115259	0.646743
724.447412	0.647527
724.779518	0.647523
725.111574	0.646851
725.443582	0.642407
725.775542	0.644533
726.107453	0.636209
726.439315	0.636667
726.771129	0.635267
727.102895	0.628282
727.434612	0.621246
727.766281	0.618833
728.097901	0.617760
728.429473	0.617076
728.760996	0.615994
729.092471	0.616707
729.423897	0.620280
729.755276	0.619316
730.086606	0.618705
730.417887	0.614533
730.749120	0.604451
731.080305	0.595671
731.411442	0.590919
731.742530	0.595345
732.073570	0.594371
732.404562	0.587848
732.735506	0.588891
733.066401	0.593316
733.397249	0.603254
733.728048	0.613804
734.058798	0.627625
734.389501	0.638346
734.720156	0.648078
735.050762	0.655572
735.381320	0.657221
735.711831	0.664483
736.042293	0.670240
736.372707	0.667003
736.703073	0.670697
737.033391	0.672605
737.363661	0.669881
737.693883	0.664967
738.024056	0.664107
738.354182	0.664832
738.684260	0.653465
739.014290	0.650834
739.344272	0.650935
739.674207	0.644532
740.004093	0.644149
740.333931	0.644508
740.663722	0.644271
740.993464	0.644741
741.323159	0.648767
741.652806	0.652962
741.982405	0.658252
742.311956	0.664234
742.641460	0.666010
742.970915	0.668954
743.300323	0.676298
743.629683	0.683514
743.958996	0.685161
744.288260	0.688971
744.617477	0.696172
744.946647	0.696798
745.275768	0.702757
745.604842	0.702197
745.933869	0.712314
746.262847	0.714323
746.591778	0.706522
746.920662	0.713305
747.249498	0.719946
747.578286	0.710992
747.907027	0.706193
748.235720	0.707864
748.564365	0.702600
748.892963	0.701807
749.221514	0.705692
749.550017	0.709894
749.878473	0.710413
750.206881	0.717519
750.535242	0.717010
750.863555	0.716401
751.191821	0.717435
751.520039	0.721312
751.848210	0.724488
752.176334	0.719045
752.504411	0.717466
752.832440	0.725487
753.160421	0.729592
753.488356	0.728282
753.816243	0.725045
754.144082	0.734426
754.471875	0.737775
754.799620	0.733954
755.127318	0.734525
755.454969	0.735096
755.782572	0.734644
756.110129	0.738678
756.437638	0.742298
756.765100	0.737529
757.092515	0.736036
757.419882	0.734723
757.747203	0.740481
758.074477	0.740432
758.401703	0.736019
758.728882	0.732496
759.056014	0.729977
759.383099	0.730114
759.710138	0.729913
760.037129	0.726973
760.364073	0.721701
760.690970	0.722839
761.017820	0.727384
761.344623	0.724144
761.671379	0.715892
761.998088	0.703908
762.324751	0.680266
762.651366	0.637813
762.977935	0.570146
763.304456	0.518086
763.630931	0.509037
763.957359	0.547191
764.283740	0.591776
764.610074	0.619107
764.936362	0.651994
765.262602	0.679426
765.588796	0.700296
765.914943	0.717496
766.241044	0.736503
766.567097	0.742545
766.893104	0.753493
767.219064	0.759136
767.544978	0.766400
767.870845	0.779537
768.196665	0.784109
768.522438	0.781879
768.848165	0.782987
769.173846	0.791897
769.499479	0.796529
769.825066	0.801271
770.150607	0.805392
770.476101	0.800575
770.801548	0.803626
771.126949	0.813788
771.452303	0.817914
771.777611	0.816316
772.102872	0.815774
772.428087	0.820854
772.753256	0.823332
773.078378	0.826961
773.403453	0.835126
773.728482	0.839329
774.053465	0.832160
774.378401	0.836157
774.703291	0.845124
775.028135	0.846030
775.352932	0.844484
775.677683	0.850114
776.002388	0.850462
776.327046	0.849341
776.651658	0.854303
776.976224	0.856131
777.300743	0.856334
777.625216	0.858238
777.949643	0.860249
778.274024	0.860004
778.598359	0.861814
778.922647	0.860191
779.246889	0.860642
779.571086	0.864404
779.895236	0.867369
780.219339	0.865669
780.543397	0.860325
780.867409	0.860717
781.191374	0.863497
781.515294	0.864228
781.839167	0.863149
782.162995	0.865211
782.486776	0.863093
782.810511	0.863453
783.134201	0.868064
783.457844	0.865363
783.781441	0.868009
784.104993	0.872306
784.428498	0.874105
784.751958	0.871016
785.075372	0.872817
785.398739	0.876446
785.722061	0.871487
786.045337	0.867550
786.368568	0.873233
786.691752	0.875102
787.014891	0.860643
787.337983	0.852142
787.661030	0.843978
787.984031	0.826609
788.306987	0.813552
788.629897	0.813947
788.952760	0.819947
789.275579	0.823623
789.598351	0.840857
789.921078	0.852617
790.243759	0.855450
790.566395	0.859684
790.888984	0.867594
791.211529	0.871767
791.534027	0.874081
791.856480	0.878688
792.178888	0.881699
792.501249	0.884273
792.823566	0.888182
793.145836	0.886292
793.468062	0.888808
793.790241	0.889396
794.112375	0.886028
794.434464	0.884174
794.756507	0.882565
795.078505	0.880606
795.400457	0.875854
795.722364	0.864242
796.044226	0.857290
796.366042	0.855455
796.687812	0.856902
797.009538	0.853506
797.331218	0.858544
797.652852	0.864050
797.974442	0.867020
798.295986	0.867915
798.617484	0.869870
798.938938	0.874809
799.260346	0.878673
799.581709	0.880604
799.903026	0.884036
800.224299	0.883967
800.545526	0.887523
800.866708	0.892789
801.187845	0.896784
801.508936	0.895125
801.829983	0.893858
802.150984	0.898360
802.471940	0.901154
802.792851	0.901075
803.113717	0.902335
803.434538	0.899614
803.755314	0.902502
804.076045	0.903713
804.396731	0.903980
804.717372	0.901563
805.037967	0.906015
805.358518	0.903148
805.679024	0.899266
805.999485	0.900743
806.319901	0.899507
806.640272	0.903088
806.960598	0.900827
807.280879	0.897074
807.601115	0.895908
807.921306	0.899395
808.241453	0.900710
808.561554	0.897899
808.881611	0.898255
809.201623	0.899972
809.521590	0.899759
809.841513	0.901240
810.161390	0.898903
810.481223	0.901011
810.801011	0.905232
811.120755	0.906477
811.440453	0.904523
811.760107	0.905059
812.079716	0.904696
812.399281	0.907750
812.718801	0.909570
813.038276	0.910572
813.357707	0.910242
813.677093	0.909046
813.996434	0.910178
814.315731	0.913176
814.634983	0.913995
814.954191	0.913212
815.273354	0.907118
815.592473	0.905261
815.911547	0.906217
816.230577	0.902580
816.549562	0.898650
816.868502	0.899249
817.187399	0.897553
817.506250	0.891406
817.825058	0.892743
818.143821	0.890009
818.462539	0.883741
818.781213	0.876663
819.099843	0.865246
819.418429	0.848568
819.736970	0.830997
820.055466	0.810635
820.373919	0.784918
820.692327	0.751940
821.010691	0.715919
821.329011	0.634987
821.647286	0.517519
821.965517	0.403356
822.283704	0.359395
822.601847	0.360111
822.919945	0.395899
823.237999	0.431120
823.556010	0.479521
823.873976	0.535931
824.191897	0.587279
824.509775	0.631615
824.827609	0.676391
825.145398	0.700572
825.463144	0.702413
825.780845	0.685411
826.098502	0.665910
826.416116	0.620383
826.733685	0.574875
827.051210	0.566016
827.368692	0.581248
827.686129	0.619372
828.003522	0.674433
828.320872	0.723395
828.638177	0.767312
828.955439	0.800722
829.272656	0.822544
829.589830	0.839746
829.906960	0.856581
830.224046	0.869368
830.541088	0.879732
830.858086	0.884836
831.175041	0.892129
831.491952	0.889793
831.808819	0.885220
832.125642	0.878369
832.442421	0.865356
832.759157	0.842669
833.075849	0.793654
833.392497	0.729276
833.709101	0.687666
834.025662	0.697429
834.342179	0.730011
834.658653	0.769847
834.975083	0.806881
835.291469	0.833120
835.607811	0.856146
835.924110	0.874010
836.240366	0.891230
836.556578	0.903873
836.872746	0.912050
837.188871	0.918664
837.504952	0.924108
837.820990	0.928383
838.136984	0.931710
838.452935	0.934663
838.768842	0.936233
839.084706	0.928784
839.400526	0.902853
839.716303	0.860913
840.032037	0.837839
840.347727	0.841944
840.663373	0.860334
840.978977	0.882414
841.294537	0.906302
841.610054	0.921600
841.925527	0.930152
842.240957	0.936845
842.556344	0.943769
842.871687	0.950013
843.186987	0.954009
843.502244	0.955517
843.817458	0.956040
844.132629	0.960857
844.447756	0.964375
844.762840	0.965164
845.077881	0.967200
845.392879	0.964554
845.707833	0.967014
846.022745	0.968983
846.337613	0.970005
846.652438	0.970190
846.967221	0.970236
847.281960	0.970756
847.596656	0.972667
847.911309	0.972206
848.225919	0.972317
848.540485	0.973639
848.855009	0.975356
849.169490	0.975238
849.483928	0.973617
849.798323	0.973305
850.112675	0.976294
850.426984	0.974395
850.741251	0.975156
851.055474	0.974810
851.369654	0.973572
851.683792	0.972864
851.997887	0.975828
852.311938	0.976096
852.625947	0.973441
852.939914	0.973340
853.253837	0.974340
853.567718	0.974962
853.881555	0.975574
854.195350	0.973631
854.509103	0.974463
854.822812	0.975070
855.136479	0.976422
855.450103	0.974325
855.763685	0.973910
856.077224	0.976263
856.390720	0.975173
856.704173	0.975310
857.017584	0.973987
857.330953	0.973867
857.644278	0.972279
857.957561	0.972908
858.270802	0.974934
858.584000	0.974093
858.897155	0.972571
859.210268	0.971947
859.523339	0.975681
859.836367	0.976256
860.149352	0.975669
860.462295	0.974571
860.775195	0.975679
861.088054	0.974659
861.400869	0.975108
861.713642	0.976164
862.026373	0.976794
862.339062	0.975764
862.651708	0.974382
862.964312	0.973410
863.276873	0.974448
863.589392	0.972494
863.901869	0.971180
864.214303	0.969979
864.526696	0.969487
864.839045	0.968346
865.151353	0.967971
865.463619	0.966725
865.775842	0.967728
866.088023	0.968017
866.400162	0.967916
866.712258	0.968782
867.024313	0.968589
867.336325	0.969341
867.648296	0.969391
867.960224	0.966766
868.272110	0.967680
868.583954	0.968871
868.895755	0.969309
869.207515	0.966511
869.519233	0.965767
869.830909	0.965138
870.142542	0.967333
870.454134	0.967146
870.765684	0.965230
871.077191	0.964459
871.388657	0.963422
871.700081	0.963913
872.011463	0.964976
872.322803	0.962413
872.634101	0.961767
872.945357	0.957378
873.256571	0.956942
873.567744	0.958249
873.878874	0.957850
874.189963	0.957176
874.501010	0.958277
874.812015	0.956111
875.122979	0.954979
875.433900	0.956870
875.744780	0.958669
876.055618	0.955290
876.366415	0.954290
876.677169	0.954176
876.987882	0.957295
877.298554	0.956443
877.609183	0.950856
877.919771	0.949145
878.230317	0.947315
878.540822	0.943333
878.851285	0.939172
879.161707	0.930610
879.472087	0.918950
879.782425	0.899862
880.092722	0.865385
880.402977	0.812159
880.713191	0.748014
881.023363	0.686205
881.333494	0.651875
881.643583	0.624640
881.953631	0.624254
882.263637	0.653342
882.573602	0.693140
882.883526	0.719148
883.193408	0.745225
883.503248	0.768242
883.813048	0.796522
884.122806	0.826929
884.432522	0.850849
884.742197	0.870787
885.051831	0.883028
885.361424	0.894273
885.670975	0.905584
885.980485	0.916021
886.289954	0.922707
886.599382	0.926083
886.908768	0.932171
887.218113	0.936987
887.527417	0.942103
887.836680	0.945426
888.145901	0.948834
888.455082	0.950894
888.764221	0.955759
889.073319	0.957439
889.382376	0.958307
889.691392	0.957419
890.000366	0.957540
890.309300	0.957296
890.618193	0.957355
890.927044	0.955616
891.235855	0.956303
891.544625	0.956001
891.853353	0.956153
892.162041	0.954369
892.470687	0.947730
892.779293	0.941766
893.087858	0.937005
893.396381	0.928293
893.704864	0.913889
894.013306	0.890616
894.321707	0.864026
894.630068	0.847548
894.938387	0.841915
895.246665	0.844076
895.554903	0.857029
895.863100	0.871660
896.171256	0.887898
896.479371	0.908766
896.787446	0.922203
897.095480	0.929585
897.403473	0.931464
897.711425	0.936727
898.019336	0.943552
898.327207	0.948913
898.635038	0.949123
898.942827	0.949504
899.250576	0.952307
899.558284	0.956790
899.865952	0.958336
900.173579	0.959245
900.481165	0.961250
900.788711	0.963748
901.096216	0.965890
901.403681	0.966879
901.711105	0.967116
902.018489	0.966455
902.325832	0.966609
902.633135	0.965516
902.940397	0.960266
903.247619	0.946271
903.554800	0.921198
903.861941	0.879461
904.169041	0.841718
904.476101	0.824211
904.783121	0.825848
905.090100	0.841508
905.397039	0.863813
905.703938	0.886380
906.010796	0.908115
906.317614	0.924656
906.624391	0.938329
906.931129	0.948210
907.237826	0.956828
907.544483	0.962072
907.851099	0.967439
908.157675	0.971341
908.464211	0.974946
908.770707	0.976911
909.077163	0.979813
909.383578	0.981262
909.689954	0.980435
909.996289	0.980924
910.302584	0.982504
910.608839	0.985559
910.915054	0.983985
911.221229	0.983869
911.527363	0.981058
911.833458	0.983496
912.139513	0.982527
912.445527	0.982435
912.751502	0.979627
913.057436	0.977103
913.363331	0.976063
913.669186	0.971594
913.975000	0.965906
914.280775	0.960267
914.586510	0.952050
914.892205	0.938572
915.197859	0.914516
915.503475	0.887349
915.809050	0.865228
916.114585	0.859511
916.420081	0.857643
916.725536	0.854905
917.030952	0.862088
917.336328	0.876942
917.641665	0.892151
917.946961	0.909188
918.252218	0.920294
918.557435	0.930267
918.862612	0.938564
919.167750	0.945564
919.472848	0.951033
919.777906	0.958381
920.082925	0.962527
920.387904	0.965708
920.692843	0.966242
920.997743	0.968593
921.302603	0.972105
921.607423	0.972901
921.912204	0.976650
922.216946	0.976906
922.521647	0.978332
922.826310	0.979379
923.130932	0.982592
923.435516	0.983954
923.740059	0.984755
924.044564	0.984445
924.349028	0.985026
924.653454	0.987829
924.957840	0.988358
925.262186	0.989259
925.566493	0.990033
925.870761	0.989696
926.174989	0.990818
926.479178	0.992650
926.783328	0.992972
927.087438	0.993592
927.391509	0.993419
927.695541	0.994712
927.999533	0.995383
928.303486	0.994925
928.607400	0.996671
928.911275	0.995475
929.215110	0.996918
929.518906	0.997025
929.822663	0.997958
930.126381	0.997679
930.430060	0.997273
930.733699	0.996255
931.037299	0.996549
931.340861	0.995958
931.644383	0.994927
931.947866	0.996456
932.251309	0.996656
932.554714	0.997248
932.858080	0.995896
933.161407	0.995036
933.464694	0.996389
933.767943	0.996656
934.071153	0.997174
934.374323	0.997441
934.677455	0.997786
934.980548	0.996975
935.283602	0.997612
935.586617	0.997604
935.889593	0.998044
936.192530	0.998103
936.495428	0.996732
936.798287	0.995886
937.101108	0.997167
937.403890	0.993920
937.706632	0.995223
938.009336	0.992896
938.312002	0.991105
938.614628	0.989625
938.917216	0.987566
939.219765	0.987337
939.522275	0.988116
939.824747	0.988525
940.127179	0.989346
940.429573	0.990670
940.731929	0.989083
941.034246	0.990255
941.336524	0.990540
941.638763	0.990810
941.940964	0.991393
942.243126	0.991755
942.545250	0.992936
942.847335	0.992828
943.149381	0.994187
943.451389	0.993052
943.753359	0.994608
944.055290	0.996100
944.357182	0.995518
944.659036	0.995176
944.960851	0.996370
945.262628	0.996217
945.564367	0.995925
945.866067	0.996065
946.167729	0.996581
946.469352	0.995017
946.770937	0.993677
947.072484	0.996203
947.373992	0.996637
947.675462	0.995154
947.976893	0.995668
948.278286	0.997816
948.579641	0.998129
948.880958	0.996359
949.182236	0.996974
949.483476	0.997891
949.784678	0.997434
950.085841	0.997104
950.386967	0.996474
950.688054	0.996682
950.989103	0.993810
951.290114	0.994501
951.591087	0.996507
951.892021	0.994442
952.192917	0.995029
952.493776	0.993860
952.794596	0.993130
953.095378	0.993165
953.396122	0.992832
953.696828	0.995756
953.997496	0.995613
954.298126	0.996576
954.598718	0.995594
954.899272	0.997023
955.199788	0.996464
955.500266	0.998490
955.800706	0.998477
956.101108	0.997024
956.401472	1.000262
956.701798	0.999209
957.002087	1.000069
957.302337	1.000081
957.602550	1.000218
957.902724	1.000979
958.202861	1.001123
958.502960	1.000722
958.803022	1.001647
959.103045	1.002300
959.403031	1.003169
959.702979	1.002492
960.002889	1.002144
960.302762	1.001176
960.602596	1.002935
960.902393	1.002467
961.202153	1.003305
961.501875	1.002566
961.801559	1.002569
962.101205	1.001789
962.400814	1.002918
962.700385	1.005029
962.999918	1.003355
963.299414	1.001854
963.598873	1.004157
963.898293	1.002598
964.197677	1.002402
964.497022	1.003087
964.796331	1.003090
965.095601	1.003503
965.394835	1.002782
965.694030	1.003958
965.993189	1.002428
966.292309	1.003139
966.591393	1.002538
966.890439	1.003868
967.189447	1.003261
967.488419	1.003439
967.787353	1.003740
968.086249	1.003802
968.385108	1.001980
968.683930	1.003516
968.982714	1.003679
969.281462	1.004141
969.580172	1.002804
969.878844	1.003272
970.177480	1.003736
970.476078	1.004984
970.774639	1.003749
971.073162	1.002641
971.371649	1.002865
971.670098	1.001880
971.968510	1.003128
972.266885	1.001755
972.565223	1.002876
972.863524	1.001903
973.161788	1.001933
973.460014	1.002442
973.758204	1.002816
974.056356	1.002401
974.354471	1.000913
974.652550	1.002196
974.950591	1.002395
975.248595	1.001448
975.546563	1.003294
975.844493	1.003220
976.142386	1.001583
976.440243	1.003081
976.738062	1.003486
977.035845	1.002372
977.333590	1.002678
977.631299	1.002613
977.928971	1.003979
978.226606	1.003681
978.524204	1.002775
978.821765	1.004531
979.119290	1.005231
979.416777	1.002638
979.714228	1.002748
980.011642	1.005431
980.309020	1.002797
980.606360	1.002260
980.903664	1.002669
981.200931	1.001976
981.498162	1.002092
981.795356	1.001577
982.092513	1.001051
982.389633	0.999973
982.686717	0.997629
982.983764	0.997255
983.280775	0.996435
983.577749	0.998324
983.874686	0.996550
984.171587	0.999326
984.468451	0.999606
984.765279	1.000734
985.062070	1.000521
985.358824	1.001388
985.655543	1.003697
985.952224	1.002664
986.248869	1.003506
986.545478	1.005325
986.842050	1.001575
987.138586	1.002536
987.435086	1.003221
987.731549	1.004370
988.027975	1.005487
988.324366	1.003739
988.620719	1.004437
988.917037	1.003546
989.213318	1.005469
989.509563	1.004824
989.805772	1.005406
990.101944	1.005498
990.398080	1.003720
990.694180	1.005299
990.990244	1.003860
991.286271	1.005151
991.582262	1.005795
991.878217	1.004939
992.174136	1.005240
992.470019	1.004750
992.765865	1.005570
993.061676	1.004668
993.357450	1.004165
993.653188	1.004730
993.948890	1.004073
994.244556	1.004137
994.540186	1.004097
994.835780	1.003984
995.131337	1.004104
995.426859	1.003866
995.722345	1.003477
996.017795	1.003422
996.313208	1.003023
996.608586	1.002500
996.903928	1.003271
997.199234	1.002167
997.494504	1.003734
997.789738	1.003057
998.084936	1.004035
998.380099	1.003473
998.675225	1.005108
998.970316	1.004097
999.265371	1.003839
999.560390	1.004278
999.855373	1.003245
1000.150320	1.003976
1000.445232	1.004894
1000.740108	1.004564
1001.034948	1.004961
1001.329752	1.006283
1001.624521	1.004214
1001.919254	1.003300
1002.213951	1.005280
1002.508613	1.004077
1002.803239	1.004816
1003.097829	1.006013
1003.392384	1.004616
1003.686903	1.004405
1003.981386	1.004263
1004.275834	1.006092
1004.570246	1.003183
1004.864623	1.006581
1005.158964	1.005367
1005.453270	1.004225
1005.747540	1.005201
1006.041775	1.006033
1006.335974	1.005160
1006.630138	1.005380
1006.924266	1.004606
1007.218359	1.004142
1007.512416	1.006223
1007.806438	1.004124
1008.100425	1.005362
1008.394376	1.006206
1008.688292	1.004784
1008.982172	1.004011
1009.276017	1.006280
1009.569827	1.007194
1009.863602	1.005013
1010.157341	1.005512
1010.451045	1.004109
1010.744714	1.007118
1011.038347	1.005072
1011.331945	1.004253
1011.625508	1.005426
1011.919036	1.005058
1012.212528	1.005711
1012.505986	1.004130
1012.799408	1.006497
1013.092795	1.005553
1013.386147	1.005594
1013.679464	1.005816
1013.972745	1.004823
1014.265992	1.005691
1014.559204	1.004792
1014.852380	1.005399
1015.145521	1.004940
1015.438628	1.006701
1015.731699	1.005253
1016.024736	1.005716
1016.317737	1.006267
1016.610703	1.005752
1016.903635	1.005978
1017.196531	1.005536
1017.489393	1.005140
1017.782219	1.005070
1018.075011	1.005272
1018.367768	1.005512
1018.660490	1.005643
1018.953177	1.005643
1019.245829	1.005643
