Dividing Wavelength (nm)	Counts (n)	Blue Motor Position (mm): 32.600000	Red Motor Position (mm): 0.000000	
326.493990	0.999701
326.888308	0.999701
327.282561	0.999701
327.676750	1.001640
328.070874	1.001735
328.464933	1.001536
328.858929	1.001796
329.252859	1.000603
329.646726	0.999805
330.040528	1.000939
330.434265	1.001317
330.827938	0.998933
331.221547	1.000419
331.615091	1.000812
332.008571	1.000818
332.401986	0.999423
332.795338	0.999441
333.188625	1.000600
333.581847	1.001107
333.975006	1.000651
334.368100	1.000863
334.761129	0.999792
335.154095	0.999822
335.546996	1.000974
335.939833	0.999526
336.332606	0.999553
336.725315	0.998726
337.117960	0.999771
337.510540	0.998726
337.903056	1.000250
338.295508	1.000621
338.687896	0.999865
339.080220	1.000691
339.472480	0.998919
339.864676	1.000534
340.256807	0.998115
340.648875	0.999698
341.040879	0.999428
341.432818	1.000358
341.824694	0.999314
342.216506	1.000889
342.608253	0.999862
342.999937	0.999837
343.391557	1.000016
343.783113	1.001894
344.174605	0.999606
344.566033	0.997915
344.957397	1.001036
345.348697	1.000092
345.739934	0.999680
346.131106	0.999796
346.522215	0.999153
346.913260	0.999262
347.304241	0.998371
347.695159	0.999897
348.086012	0.999196
348.476802	0.999159
348.867528	0.998775
349.258191	1.000805
349.648789	0.999543
350.039324	0.999734
350.429796	0.998194
350.820203	0.998852
351.210548	0.999700
351.600828	0.999801
351.991045	0.998683
352.381198	0.999664
352.771288	0.999029
353.161314	0.999833
353.551276	0.998662
353.941175	0.997619
354.331010	0.998124
354.720782	0.999476
355.110490	0.998926
355.500135	0.999722
355.889717	0.996282
356.279235	0.998264
356.668689	0.998413
357.058080	0.998116
357.447408	0.997795
357.836672	0.997913
358.225873	0.998153
358.615010	0.997432
359.004084	0.997139
359.393095	0.998901
359.782043	0.997977
360.170927	0.999575
360.559748	0.998075
360.948505	0.997845
361.337199	0.997537
361.725830	0.998208
362.114398	0.999365
362.502903	0.996688
362.891344	0.997108
363.279722	0.996636
363.668037	0.998431
364.056289	0.997715
364.444478	0.998079
364.832603	0.998289
365.220665	0.997111
365.608665	0.997759
365.996601	0.996550
366.384474	0.995243
366.772284	0.996997
367.160031	0.995695
367.547715	0.995490
367.935336	0.995560
368.322893	0.993748
368.710388	0.993528
369.097820	0.991709
369.485189	0.989673
369.872495	0.987722
370.259738	0.986037
370.646918	0.981461
371.034035	0.980659
371.421090	0.977714
371.808081	0.972065
372.195010	0.970350
372.581875	0.965060
372.968678	0.960457
373.355418	0.957718
373.742096	0.948535
374.128710	0.944604
374.515262	0.941080
374.901751	0.934191
375.288177	0.930250
375.674540	0.923386
376.060841	0.916977
376.447079	0.910041
376.833254	0.903059
377.219367	0.898989
377.605417	0.886802
377.991404	0.884052
378.377329	0.877276
378.763191	0.871355
379.148991	0.862183
379.534727	0.854441
379.920402	0.846674
380.306013	0.842694
380.691563	0.829406
381.077049	0.823843
381.462474	0.818559
381.847835	0.807986
382.233134	0.803128
382.618371	0.803758
383.003545	0.786207
383.388657	0.784734
383.773706	0.777065
384.158693	0.772630
384.543618	0.767199
384.928480	0.758691
385.313280	0.748148
385.698017	0.748699
386.082692	0.737260
386.467305	0.734966
386.851856	0.729608
387.236344	0.723767
387.620770	0.718396
388.005133	0.711854
388.389435	0.707018
388.773674	0.704105
389.157851	0.696890
389.541965	0.694138
389.926018	0.700479
390.310008	0.687110
390.693936	0.684467
391.077802	0.676549
391.461606	0.678397
391.845348	0.667254
392.229027	0.667017
392.612645	0.665423
392.996200	0.651979
393.379694	0.644919
393.763125	0.635926
394.146494	0.639969
394.529801	0.630223
394.913047	0.622262
395.296230	0.628541
395.679351	0.620212
396.062410	0.616735
396.445408	0.619471
396.828343	0.614891
397.211217	0.610748
397.594028	0.623063
397.976778	0.612313
398.359466	0.608890
398.742092	0.604204
399.124656	0.616426
399.507158	0.605114
399.889598	0.601778
400.271977	0.593319
400.654294	0.597524
401.036549	0.596304
401.418742	0.600714
401.800874	0.586831
402.182944	0.583200
402.564952	0.574807
402.946898	0.576478
403.328783	0.578055
403.710606	0.589036
404.092367	0.563500
404.474067	0.569326
404.855705	0.568075
405.237282	0.577453
405.618797	0.563062
406.000250	0.558430
406.381642	0.549184
406.762972	0.553547
407.144240	0.553035
407.525447	0.552069
407.906593	0.546263
408.287677	0.540814
408.668700	0.549398
409.049661	0.543636
409.430560	0.538709
409.811399	0.547557
410.192176	0.528447
410.572891	0.536972
410.953545	0.525179
411.334138	0.539277
411.714669	0.531937
412.095139	0.544289
412.475547	0.528376
412.855894	0.531681
413.236180	0.531105
413.616405	0.536820
413.996568	0.528505
414.376670	0.535972
414.756711	0.542017
415.136691	0.540134
415.516609	0.532405
415.896466	0.531499
416.276262	0.529053
416.655997	0.532924
417.035670	0.517006
417.415283	0.511090
417.794834	0.518578
418.174324	0.525406
418.553753	0.537165
418.933121	0.523142
419.312428	0.520405
419.691674	0.529212
420.070859	0.521878
420.449983	0.532565
420.829045	0.526227
421.208047	0.537848
421.586988	0.536944
421.965867	0.540541
422.344686	0.535234
422.723444	0.550420
423.102141	0.570149
423.480777	0.551323
423.859352	0.575030
424.237866	0.561661
424.616319	0.567525
424.994712	0.566346
425.373044	0.580855
425.751314	0.578296
426.129524	0.598107
426.507673	0.591649
426.885762	0.592499
427.263789	0.605982
427.641756	0.618964
428.019662	0.619858
428.397508	0.627409
428.775292	0.639275
429.153016	0.641329
429.530679	0.653937
429.908282	0.657276
430.285824	0.671055
430.663305	0.667126
431.040726	0.688698
431.418086	0.696395
431.795385	0.701069
432.172624	0.708637
432.549802	0.717392
432.926920	0.725983
433.303977	0.734172
433.680974	0.740889
434.057910	0.749648
434.434786	0.757700
434.811601	0.767624
435.188355	0.768941
435.565050	0.781070
435.941683	0.789371
436.318257	0.792123
436.694770	0.801059
437.071222	0.809278
437.447614	0.819084
437.823946	0.828767
438.200218	0.832134
438.576429	0.842812
438.952580	0.849499
439.328670	0.855132
439.704700	0.863136
440.080670	0.870885
440.456580	0.874022
440.832429	0.882098
441.208218	0.891244
441.583947	0.894280
441.959616	0.900110
442.335224	0.907275
442.710773	0.911625
443.086261	0.916292
443.461689	0.922690
443.837057	0.926827
444.212365	0.931071
444.587612	0.936153
444.962800	0.939111
445.337927	0.944419
445.712995	0.950358
446.088002	0.950116
446.462949	0.954758
446.837837	0.959171
447.212664	0.960350
447.587431	0.963906
447.962139	0.964069
448.336786	0.963641
448.711374	0.966355
449.085901	0.973478
449.460369	0.976219
449.834776	0.977387
450.209124	0.978556
450.583412	0.981507
450.957640	0.981423
451.331808	0.984190
451.705917	0.984738
452.079965	0.987003
452.453954	0.987919
452.827883	0.989252
453.201752	0.990172
453.575562	0.990511
453.949311	0.991898
454.323001	0.991265
454.696632	0.992695
455.070202	0.993084
455.443713	0.992765
455.817164	0.993174
456.190556	0.994218
456.563888	0.995112
456.937160	0.995329
457.310373	0.995425
457.683526	0.995765
458.056619	0.995203
458.429653	0.995371
458.802628	0.996208
459.175542	0.996170
459.548398	0.996339
459.921194	0.996289
460.293930	0.997344
460.666607	0.997043
461.039224	0.996790
461.411782	0.996903
461.784280	0.996236
462.156719	0.997305
462.529099	0.997434
462.901419	0.997129
463.273680	0.996408
463.645882	0.996792
464.018024	0.997155
464.390106	0.997784
464.762130	0.997115
465.134094	0.996986
465.505999	0.996911
465.877845	0.996596
466.249631	0.996818
466.621358	0.996250
466.993026	0.996498
467.364634	0.997305
467.736184	0.997530
468.107674	0.997239
468.479105	0.996965
468.850477	0.997610
469.221790	0.997251
469.593043	0.997256
469.964238	0.997287
470.335373	0.997003
470.706449	0.998304
471.077467	0.997322
471.448425	0.997884
471.819324	0.997257
472.190164	0.997113
472.560945	0.996995
472.931667	0.996951
473.302330	0.997815
473.672934	0.997806
474.043479	0.997276
474.413965	0.997333
474.784393	0.997524
475.154761	0.997510
475.525070	0.996634
475.895321	0.997216
476.265513	0.997780
476.635645	0.997787
477.005719	0.997196
477.375734	0.997422
477.745691	0.996889
478.115588	0.996914
478.485427	0.997350
478.855207	0.997456
479.224928	0.997382
479.594591	0.997349
479.964194	0.996597
480.333739	0.996736
480.703226	0.996673
481.072653	0.996874
481.442022	0.996940
481.811333	0.997156
482.180584	0.997431
482.549777	0.997317
482.918912	0.996480
483.287988	0.996241
483.657005	0.996616
484.025964	0.997027
484.394864	0.997253
484.763706	0.996878
485.132489	0.996692
485.501213	0.997506
485.869879	0.997273
486.238487	0.996553
486.607036	0.997563
486.975527	0.997020
487.343959	0.997239
487.712333	0.997111
488.080648	0.996991
488.448905	0.997021
488.817104	0.996908
489.185244	0.997119
489.553326	0.997400
489.921350	0.997001
490.289315	0.997288
490.657222	0.996291
491.025070	0.997540
491.392861	0.997449
491.760593	0.996675
492.128267	0.996466
492.495883	0.996482
492.863440	0.997287
493.230939	0.996740
493.598380	0.997877
493.965763	0.996998
494.333088	0.996560
494.700354	0.997145
495.067563	0.997283
495.434713	0.997749
495.801805	0.997564
496.168839	0.997274
496.535815	0.997395
496.902733	0.997119
497.269593	0.996975
497.636395	0.996764
498.003139	0.996799
498.369825	0.997490
498.736453	0.997076
499.103023	0.997556
499.469535	0.997257
499.835989	0.997585
500.202385	0.997361
500.568723	0.997366
500.935003	0.997493
501.301226	0.997857
501.667390	0.996816
502.033497	0.997136
502.399546	0.997411
502.765537	0.997533
503.131470	0.997580
503.497345	0.997823
503.863163	0.997312
504.228923	0.997109
504.594625	0.997438
504.960269	0.997464
505.325856	0.997824
505.691385	0.998439
506.056856	0.997199
506.422270	0.996901
506.787625	0.997762
507.152924	0.997438
507.518164	0.997535
507.883347	0.996744
508.248472	0.997795
508.613540	0.996868
508.978550	0.997483
509.343503	0.997415
509.708398	0.997666
510.073236	0.997895
510.438016	0.996803
510.802738	0.996973
511.167403	0.997182
511.532010	0.997488
511.896561	0.997506
512.261053	0.997367
512.625488	0.997472
512.989866	0.997121
513.354186	0.996576
513.718449	0.997545
514.082655	0.997282
514.446803	0.997132
514.810894	0.997850
515.174927	0.997419
515.538904	0.997786
515.902822	0.997316
516.266684	0.997931
516.630488	0.997638
516.994235	0.997259
517.357925	0.997959
517.721558	0.997987
518.085133	0.997209
518.448651	0.997829
518.812112	0.997812
519.175516	0.997678
519.538863	0.996953
519.902152	0.997487
520.265385	0.996793
520.628560	0.996719
520.991678	0.997313
521.354739	0.997364
521.717743	0.997544
522.080690	0.997292
522.443580	0.997301
522.806413	0.996691
523.169189	0.997316
523.531908	0.996810
523.894569	0.997464
524.257174	0.997613
524.619722	0.997444
524.982213	0.997331
525.344647	0.997418
525.707025	0.996759
526.069345	0.996472
526.431608	0.997390
526.793815	0.997715
527.155964	0.997626
527.518057	0.997280
527.880093	0.997016
528.242072	0.997067
528.603995	0.997295
528.965860	0.997715
529.327669	0.997584
529.689421	0.997030
530.051117	0.997418
530.412755	0.997395
530.774337	0.997518
531.135862	0.997947
531.497331	0.996946
531.858743	0.997548
532.220098	0.997324
532.581396	0.997839
532.942638	0.997719
533.303824	0.997969
533.664953	0.996536
534.026025	0.998324
534.387040	0.997347
534.747999	0.996905
535.108902	0.996923
535.469748	0.997951
535.830537	0.997141
536.191270	0.997941
536.551947	0.997088
536.912567	0.997161
537.273131	0.997494
537.633638	0.997092
537.994089	0.997189
538.354483	0.997365
538.714821	0.996808
539.075103	0.997965
539.435328	0.997408
539.795497	0.997545
540.155609	0.997266
540.515665	0.997497
540.875665	0.996841
541.235609	0.997296
541.595496	0.997044
541.955328	0.996726
542.315102	0.997679
542.674821	0.997573
543.034483	0.997459
543.394090	0.996764
543.753640	0.997426
544.113134	0.996567
544.472571	0.998336
544.831953	0.997632
545.191278	0.998084
545.550548	0.997206
545.909761	0.996767
546.268918	0.998166
546.628019	0.997422
546.987064	0.997422
547.346053	0.997195
547.704986	0.997215
548.063863	0.997700
548.422684	0.997909
548.781449	0.996773
549.140158	0.997161
549.498811	0.997005
549.857408	0.996964
550.215949	0.996298
550.574434	0.997387
550.932864	0.997243
551.291237	0.997451
551.649555	0.997946
552.007817	0.997570
552.366022	0.997249
552.724173	0.997640
553.082267	0.996958
553.440305	0.996974
553.798288	0.996729
554.156215	0.996542
554.514086	0.997635
554.871902	0.997547
555.229661	0.997281
555.587365	0.996719
555.945014	0.997489
556.302606	0.997343
556.660143	0.997750
557.017625	0.998024
557.375050	0.997158
557.732421	0.997614
558.089735	0.996571
558.446994	0.996956
558.804197	0.997423
559.161345	0.996907
559.518437	0.996947
559.875474	0.997152
560.232455	0.997471
560.589381	0.997836
560.946251	0.996917
561.303065	0.997661
561.659825	0.996648
562.016528	0.998036
562.373177	0.997416
562.729770	0.996538
563.086307	0.996442
563.442789	0.998147
563.799216	0.996836
564.155587	0.997059
564.511904	0.997750
564.868164	0.996880
565.224370	0.997200
565.580520	0.997813
565.936615	0.996703
566.292654	0.996983
566.648638	0.997614
567.004567	0.997193
567.360441	0.997272
567.716260	0.996870
568.072023	0.997005
568.427732	0.998051
568.783385	0.996795
569.138982	0.997312
569.494525	0.997095
569.850013	0.997653
570.205445	0.997220
570.560823	0.997370
570.916145	0.997113
571.271412	0.997059
571.626625	0.997657
571.981782	0.997021
572.336884	0.997496
572.691931	0.997207
573.046923	0.997653
573.401860	0.997734
573.756743	0.997525
574.111570	0.997370
574.466342	0.997867
574.821059	0.997690
575.175722	0.997712
575.530330	0.997296
575.884882	0.997016
576.239380	0.997018
576.593823	0.997249
576.948211	0.997315
577.302544	0.997450
577.656823	0.997690
578.011047	0.997023
578.365216	0.997627
578.719330	0.997509
579.073389	0.996819
579.427394	0.997205
579.781344	0.997623
580.135239	0.996444
580.489080	0.997623
580.842866	0.998115
581.196597	0.997075
581.550273	0.997168
581.903895	0.997518
582.257463	0.996999
582.610975	0.997258
582.964434	0.997594
583.317837	0.997849
583.671186	0.998015
584.024481	0.997503
584.377721	0.997152
584.730906	0.998315
585.084037	0.997607
585.437113	0.997491
585.790135	0.997638
586.143103	0.997328
586.496016	0.997440
586.848874	0.997598
587.201679	0.998247
587.554428	0.998151
587.907124	0.997376
588.259765	0.997319
588.612352	0.998034
588.964884	0.998147
589.317362	0.997516
589.669786	0.997146
590.022155	0.997238
590.374470	0.997791
590.726731	0.997261
591.078937	0.997445
591.431090	0.997736
591.783188	0.996866
592.135232	0.998131
592.487222	0.997553
592.839157	0.997591
593.191038	0.997369
593.542866	0.997178
593.894639	0.996558
594.246358	0.997512
594.598022	0.997574
594.949633	0.997975
595.301190	0.997311
595.652692	0.996845
596.004141	0.997583
596.355535	0.996847
596.706876	0.997730
597.058162	0.997538
597.409395	0.997765
597.760573	0.998432
598.111698	0.997890
598.462768	0.996767
598.813785	0.996437
599.164748	0.997167
599.515657	0.997874
599.866511	0.997918
600.217312	0.998281
600.568060	0.996938
600.918753	0.997919
601.269392	0.998119
601.619978	0.997941
601.970510	0.997379
602.320988	0.997729
602.671412	0.997887
603.021783	0.997566
603.372100	0.998171
603.722363	0.997760
604.072572	0.998002
604.422728	0.997728
604.772830	0.997222
605.122878	0.997903
605.472872	0.998133
605.822813	0.997156
606.172701	0.997733
606.522534	0.997746
606.872314	0.998383
607.222041	0.997082
607.571714	0.998185
607.921333	0.997888
608.270899	0.997631
608.620411	0.997425
608.969870	0.998134
609.319276	0.998579
609.668627	0.997925
610.017926	0.997183
610.367171	0.997996
610.716362	0.997588
611.065500	0.997888
611.414585	0.997874
611.763616	0.997277
612.112594	0.997672
612.461518	0.996935
612.810389	0.997563
613.159207	0.997550
613.507971	0.997840
613.856682	0.998684
614.205340	0.996604
614.553945	0.997502
614.902496	0.996955
615.250994	0.997929
615.599439	0.998183
615.947830	0.997009
616.296169	0.997649
616.644454	0.997125
616.992686	0.997747
617.340864	0.998185
617.688990	0.997407
618.037063	0.996433
618.385082	0.997639
618.733048	0.996971
619.080961	0.997379
619.428821	0.997678
619.776628	0.996962
620.124382	0.998225
620.472083	0.998062
620.819731	0.997660
621.167326	0.997360
621.514868	0.997877
621.862357	0.996887
622.209793	0.997647
622.557176	0.997435
622.904506	0.997569
623.251783	0.997326
623.599007	0.998384
623.946179	0.996718
624.293297	0.998447
624.640363	0.998534
624.987376	0.997542
625.334336	0.997871
625.681243	0.997585
626.028097	0.997999
626.374899	0.997766
626.721647	0.998388
627.068343	0.998141
627.414987	0.997602
627.761577	0.997137
628.108115	0.997301
628.454600	0.998323
628.801032	0.998317
629.147412	0.997974
629.493739	0.998204
629.840014	0.997914
630.186236	0.997110
630.532405	0.998250
630.878521	0.997446
631.224585	0.997499
631.570597	0.997797
631.916556	0.997430
632.262462	0.997578
632.608316	0.998333
632.954117	0.997562
633.299866	0.997514
633.645562	0.997730
633.991206	0.998490
634.336797	0.997969
634.682336	0.997903
635.027823	0.998499
635.373257	0.998181
635.718639	0.998178
636.063968	0.998045
636.409245	0.997721
636.754470	0.998149
637.099642	0.998337
637.444762	0.997972
637.789829	0.997854
638.134845	0.997780
638.479808	0.998299
638.824719	0.998675
639.169577	0.998037
639.514383	0.998481
639.859137	0.998189
640.203839	0.997646
640.548489	0.998020
640.893086	0.997276
641.237632	0.998075
641.582125	0.997001
641.926566	0.998655
642.270955	0.998032
642.615292	0.997676
642.959576	0.997653
643.303809	0.999033
643.647990	0.998187
643.992118	0.997914
644.336195	0.997755
644.680219	0.998388
645.024192	0.997828
645.368112	0.997259
645.711981	0.997266
646.055797	0.997591
646.399562	0.996734
646.743274	0.998498
647.086935	0.997479
647.430544	0.997528
647.774101	0.997270
648.117606	0.997422
648.461059	0.998165
648.804460	0.997710
649.147810	0.997125
649.491108	0.997956
649.834354	0.997890
650.177548	0.998215
650.520690	0.998292
650.863781	0.997046
651.206820	0.998457
651.549807	0.998080
651.892742	0.998288
652.235626	0.998362
652.578458	0.998310
652.921238	0.998086
653.263967	0.997939
653.606644	0.998104
653.949269	0.998599
654.291843	0.997168
654.634365	0.998189
654.976836	0.997492
655.319255	0.998515
655.661622	0.997890
656.003938	0.997880
656.346203	0.997476
656.688416	0.998717
657.030577	0.997270
657.372687	0.998329
657.714746	0.997770
658.056753	0.997748
658.398708	0.997654
658.740612	0.998077
659.082465	0.997178
659.424266	0.998396
659.766016	0.996506
660.107715	0.998008
660.449362	0.997623
660.790958	0.997632
661.132503	0.998402
661.473996	0.997625
661.815438	0.998622
662.156829	0.998675
662.498168	0.998945
662.839456	0.997084
663.180693	0.997809
663.521879	0.998090
663.863013	0.998416
664.204097	0.997638
664.545129	0.997760
664.886110	0.998534
665.227040	0.997933
665.567918	0.997041
665.908746	0.997014
666.249522	0.997889
666.590248	0.997538
666.930922	0.997353
667.271545	0.997454
667.612118	0.997626
667.952639	0.997914
668.293109	0.997319
668.633528	0.997232
668.973896	0.997836
669.314213	0.996776
669.654480	0.997973
669.994695	0.997048
670.334859	0.998135
670.674973	0.996903
671.015035	0.997447
671.355047	0.997844
671.695008	0.996893
672.034918	0.997353
672.374777	0.997282
672.714585	0.997830
673.054342	0.998113
673.394049	0.997270
673.733705	0.996590
674.073310	0.998136
674.412864	0.997170
674.752368	0.997716
675.091820	0.998381
675.431223	0.998854
675.770574	0.996906
676.109875	0.997589
676.449125	0.997145
676.788324	0.998180
677.127473	0.998021
677.466571	0.997930
677.805619	0.998475
678.144616	0.999060
678.483562	0.999055
678.822458	0.998065
679.161303	0.997082
679.500098	0.997803
679.838842	0.997924
680.177535	0.997531
680.516179	0.997173
680.854771	0.997288
681.193314	0.997838
681.531805	0.997203
681.870247	0.997422
682.208638	0.997248
682.546978	0.997246
682.885268	0.996227
683.223508	0.997181
683.561697	0.997886
683.899836	0.997347
684.237925	0.996927
684.575963	0.997774
684.913951	0.997536
685.251889	0.997699
685.589776	0.996471
685.927614	0.997299
686.265401	0.997134
686.603137	0.997202
686.940824	0.996873
687.278460	0.998553
687.616046	0.997357
687.953582	0.996834
688.291068	0.997033
688.628504	0.997254
688.965889	0.997309
689.303224	0.996474
689.640510	0.997138
689.977745	0.996157
690.314930	0.997509
690.652065	0.997343
690.989150	0.997100
691.326185	0.998004
691.663170	0.997878
692.000105	0.998097
692.336990	0.997569
692.673825	0.996922
693.010610	0.997140
693.347345	0.998057
693.684030	0.997289
694.020665	0.997586
694.357251	0.997068
694.693786	0.998053
695.030272	0.996506
695.366707	0.997061
695.703093	0.996556
696.039429	0.996831
696.375716	0.997917
696.711952	0.996613
697.048139	0.997986
697.384276	0.998541
697.720363	0.997839
698.056400	0.996222
698.392388	0.996792
698.728326	0.997841
699.064214	0.997994
699.400053	0.997488
699.735842	0.998497
700.071581	0.997443
700.407270	0.997573
700.742910	0.997830
701.078501	0.997400
701.414042	0.998310
701.749533	0.995929
702.084974	0.998492
702.420366	0.997703
702.755709	0.997856
703.091002	0.997829
703.426246	0.998709
703.761440	0.997625
704.096584	0.996719
704.431679	0.996924
704.766725	0.997666
705.101721	0.998107
705.436668	0.998187
705.771565	0.996868
706.106413	0.996946
706.441212	0.997885
706.775961	0.997866
707.110661	0.997800
707.445311	0.997783
707.779913	0.997850
708.114465	0.998702
708.448967	0.997148
708.783421	0.997363
709.117825	0.996461
709.452180	0.998438
709.786485	0.997902
710.120742	0.997515
710.454949	0.996699
710.789107	0.997773
711.123216	0.996522
711.457275	0.996675
711.791286	0.997368
712.125247	0.998820
712.459159	0.997487
712.793023	0.996920
713.126837	0.997825
713.460602	0.996826
713.794318	0.997006
714.127985	0.997018
714.461602	0.997545
714.795171	0.996595
715.128691	0.997402
715.462162	0.997882
715.795584	0.998072
716.128957	0.998057
716.462281	0.998078
716.795556	0.997013
717.128782	0.998056
717.461960	0.997816
717.795088	0.997289
718.128167	0.998765
718.461198	0.997797
718.794180	0.998126
719.127113	0.998291
719.459997	0.996986
719.792833	0.997688
720.125619	0.996371
720.458357	0.997621
720.791046	0.997585
721.123686	0.997783
721.456278	0.997049
721.788821	0.997075
722.121315	0.997966
722.453761	0.998385
722.786158	0.996769
723.118506	0.997851
723.450805	0.997402
723.783056	0.997313
724.115259	0.997152
724.447412	0.998032
724.779518	0.998308
725.111574	0.997112
725.443582	0.997591
725.775542	0.997449
726.107453	0.997438
726.439315	0.998078
726.771129	0.998101
727.102895	0.997121
727.434612	0.998087
727.766281	0.997166
728.097901	0.997163
728.429473	0.998012
728.760996	0.997708
729.092471	0.997074
729.423897	0.997894
729.755276	0.997810
730.086606	0.997456
730.417887	0.997827
730.749120	0.998147
731.080305	0.996817
731.411442	0.997329
731.742530	0.996208
732.073570	0.997233
732.404562	0.996492
732.735506	0.997650
733.066401	0.996985
733.397249	0.997408
733.728048	0.996961
734.058798	0.997656
734.389501	0.998169
734.720156	0.998782
735.050762	0.998401
735.381320	0.997510
735.711831	0.997557
736.042293	0.997677
736.372707	0.998899
736.703073	0.996445
737.033391	0.996855
737.363661	0.997800
737.693883	0.997639
738.024056	0.997503
738.354182	0.998016
738.684260	0.996968
739.014290	0.997204
739.344272	0.996573
739.674207	0.997632
740.004093	0.997315
740.333931	0.997363
740.663722	0.996799
740.993464	0.997450
741.323159	0.997166
741.652806	0.996813
741.982405	0.998243
742.311956	0.997881
742.641460	0.997293
742.970915	0.997533
743.300323	0.997129
743.629683	0.997563
743.958996	0.998470
744.288260	0.996798
744.617477	0.997311
744.946647	0.996681
745.275768	0.997669
745.604842	0.997366
745.933869	0.998279
746.262847	0.998868
746.591778	0.997516
746.920662	0.998184
747.249498	0.998445
747.578286	0.998683
747.907027	0.997952
748.235720	0.998176
748.564365	0.997809
748.892963	0.997660
749.221514	0.997362
749.550017	0.997358
749.878473	0.998129
750.206881	0.998482
750.535242	0.997622
750.863555	0.996653
751.191821	0.997369
751.520039	0.997525
751.848210	0.996259
752.176334	0.997552
752.504411	0.997696
752.832440	0.997425
753.160421	0.997577
753.488356	0.998509
753.816243	0.997502
754.144082	0.997510
754.471875	0.997414
754.799620	0.998398
755.127318	0.998836
755.454969	0.997213
755.782572	0.999328
756.110129	0.997165
756.437638	0.999288
756.765100	0.998042
757.092515	0.997648
757.419882	0.998173
757.747203	0.997930
758.074477	0.998871
758.401703	0.998076
758.728882	0.997511
759.056014	0.997406
759.383099	0.997657
759.710138	0.997559
760.037129	0.997564
760.364073	0.997556
760.690970	0.998061
761.017820	0.997182
761.344623	0.998560
761.671379	0.998207
761.998088	0.997638
762.324751	0.998334
762.651366	0.996400
762.977935	0.996770
763.304456	0.997449
763.630931	0.995104
763.957359	0.994087
764.283740	0.995597
764.610074	0.996275
764.936362	0.996601
765.262602	0.996960
765.588796	0.996871
765.914943	0.997351
766.241044	0.997319
766.567097	0.997967
766.893104	0.997792
767.219064	0.997510
767.544978	0.997867
767.870845	0.997936
768.196665	0.997083
768.522438	0.997597
768.848165	0.998241
769.173846	0.997777
769.499479	0.998996
769.825066	0.999543
770.150607	0.998871
770.476101	0.998236
770.801548	0.999024
771.126949	0.997805
771.452303	0.998272
771.777611	0.998615
772.102872	0.997625
772.428087	0.996757
772.753256	0.998597
773.078378	0.998625
773.403453	0.997292
773.728482	0.998877
774.053465	0.997532
774.378401	0.998603
774.703291	0.998471
775.028135	0.998484
775.352932	0.996845
775.677683	0.998854
776.002388	0.998356
776.327046	0.996813
776.651658	0.999026
776.976224	0.999597
777.300743	0.998537
777.625216	0.998045
777.949643	0.999652
778.274024	0.998212
778.598359	0.998025
778.922647	0.999334
779.246889	0.999016
779.571086	0.998333
779.895236	0.997980
780.219339	0.998996
780.543397	0.997787
780.867409	0.999822
781.191374	0.998951
781.515294	0.999013
781.839167	0.998987
782.162995	0.998131
782.486776	0.998724
782.810511	0.999196
783.134201	0.998931
783.457844	0.998639
783.781441	0.998327
784.104993	0.997452
784.428498	0.997940
784.751958	0.999624
785.075372	1.000132
785.398739	0.998171
785.722061	0.996983
786.045337	0.999240
786.368568	0.998906
786.691752	0.998585
787.014891	0.998499
787.337983	0.997542
787.661030	0.998142
787.984031	0.998577
788.306987	0.997841
788.629897	0.996104
788.952760	0.998542
789.275579	0.998775
789.598351	0.998049
789.921078	0.999233
790.243759	0.998187
790.566395	0.996915
790.888984	0.999449
791.211529	0.999187
791.534027	0.997372
791.856480	0.999368
792.178888	0.998851
792.501249	0.998499
792.823566	1.000161
793.145836	0.998126
793.468062	0.999643
793.790241	0.998894
794.112375	0.998192
794.434464	0.999223
794.756507	0.998761
795.078505	0.998734
795.400457	0.998831
795.722364	0.998547
796.044226	0.999065
796.366042	0.997613
796.687812	0.996939
797.009538	0.998522
797.331218	0.998421
797.652852	0.999508
797.974442	0.997677
798.295986	0.999345
798.617484	0.998182
798.938938	0.998870
799.260346	0.997227
799.581709	0.998102
799.903026	0.999228
800.224299	0.998040
800.545526	0.998532
800.866708	0.997783
801.187845	0.998305
801.508936	0.998937
801.829983	0.998195
802.150984	0.999174
802.471940	0.998423
802.792851	0.997075
803.113717	0.999165
803.434538	0.998527
803.755314	0.999929
804.076045	0.999019
804.396731	0.998654
804.717372	0.997343
805.037967	1.000162
805.358518	1.000402
805.679024	0.999190
805.999485	0.997881
806.319901	0.998238
806.640272	0.999025
806.960598	0.999613
807.280879	0.998246
807.601115	0.998792
807.921306	0.999115
808.241453	0.998371
808.561554	0.998779
808.881611	0.998755
809.201623	0.997651
809.521590	0.999097
809.841513	0.998883
810.161390	0.997515
810.481223	0.998259
810.801011	0.998823
811.120755	0.999172
811.440453	0.997701
811.760107	0.999075
812.079716	0.998791
812.399281	0.998168
812.718801	0.997709
813.038276	0.997792
813.357707	0.998565
813.677093	0.998593
813.996434	0.998904
814.315731	0.999764
814.634983	0.999821
814.954191	0.999050
815.273354	0.998872
815.592473	0.998402
815.911547	0.999633
816.230577	0.998530
816.549562	0.997731
816.868502	0.998354
817.187399	0.999433
817.506250	0.999006
817.825058	0.998770
818.143821	0.998761
818.462539	0.999461
818.781213	0.998855
819.099843	0.998915
819.418429	0.997632
819.736970	0.998058
820.055466	0.997069
820.373919	0.996637
820.692327	0.996140
821.010691	0.996127
821.329011	0.994144
821.647286	0.992100
821.965517	0.990440
822.283704	0.988967
822.601847	0.987970
822.919945	0.988458
823.237999	0.989971
823.556010	0.991341
823.873976	0.991705
824.191897	0.992881
824.509775	0.994647
824.827609	0.995296
825.145398	0.994479
825.463144	0.993843
825.780845	0.994395
826.098502	0.994465
826.416116	0.994026
826.733685	0.993711
827.051210	0.991681
827.368692	0.992152
827.686129	0.993258
828.003522	0.994610
828.320872	0.994447
828.638177	0.995556
828.955439	0.996719
829.272656	0.996993
829.589830	0.997117
829.906960	0.997847
830.224046	0.996728
830.541088	0.998026
830.858086	0.997892
831.175041	0.999401
831.491952	0.998034
831.808819	0.997505
832.125642	0.997648
832.442421	0.998709
832.759157	0.997855
833.075849	0.996364
833.392497	0.995889
833.709101	0.994264
834.025662	0.994817
834.342179	0.994408
834.658653	0.996957
834.975083	0.996989
835.291469	0.996412
835.607811	0.997292
835.924110	0.996814
836.240366	0.998714
836.556578	0.997924
836.872746	0.999084
837.188871	0.998778
837.504952	0.998340
837.820990	0.998964
838.136984	0.997983
838.452935	0.998301
838.768842	0.999104
839.084706	0.998378
839.400526	0.998127
839.716303	0.997285
840.032037	0.997454
840.347727	0.996731
840.663373	0.997359
840.978977	0.997796
841.294537	0.998638
841.610054	0.999813
841.925527	0.999783
842.240957	0.998486
842.556344	0.998669
842.871687	0.998518
843.186987	0.999989
843.502244	0.999245
843.817458	0.998529
844.132629	0.999733
844.447756	0.998764
844.762840	0.999786
845.077881	1.000854
845.392879	0.998095
845.707833	0.999294
846.022745	0.999286
846.337613	0.999485
846.652438	0.998258
846.967221	1.000045
847.281960	0.999860
847.596656	1.000045
847.911309	0.998845
848.225919	0.998797
848.540485	0.999071
848.855009	1.000603
849.169490	0.999494
849.483928	0.999844
849.798323	0.998588
850.112675	1.000477
850.426984	1.000112
850.741251	0.999591
851.055474	0.999492
851.369654	1.000232
851.683792	0.998578
851.997887	1.000048
852.311938	1.000099
852.625947	0.999551
852.939914	0.998054
853.253837	1.000411
853.567718	0.999876
853.881555	0.998458
854.195350	0.999739
854.509103	0.999870
854.822812	0.999871
855.136479	0.998852
855.450103	0.999851
855.763685	0.999075
856.077224	0.999138
856.390720	0.998728
856.704173	0.999853
857.017584	0.999658
857.330953	0.999270
857.644278	0.999828
857.957561	1.000365
858.270802	0.998893
858.584000	0.999431
858.897155	0.999015
859.210268	0.999271
859.523339	1.000323
859.836367	0.999303
860.149352	0.998720
860.462295	0.999235
860.775195	0.999305
861.088054	0.998338
861.400869	0.998989
861.713642	0.997524
862.026373	0.999934
862.339062	0.998990
862.651708	0.999270
862.964312	0.999357
863.276873	1.001099
863.589392	0.999698
863.901869	0.999882
864.214303	0.999411
864.526696	1.000363
864.839045	0.999048
865.151353	0.999253
865.463619	0.999375
865.775842	0.999830
866.088023	0.999323
866.400162	0.999441
866.712258	0.999641
867.024313	0.999829
867.336325	0.999736
867.648296	0.999074
867.960224	0.999824
868.272110	1.000221
868.583954	0.999628
868.895755	0.999013
869.207515	0.999138
869.519233	1.000010
869.830909	0.998450
870.142542	0.998668
870.454134	0.999465
870.765684	0.998382
871.077191	0.999117
871.388657	1.000170
871.700081	0.999833
872.011463	1.001483
872.322803	0.999447
872.634101	0.997984
872.945357	0.998610
873.256571	0.999205
873.567744	0.999768
873.878874	0.999710
874.189963	0.998606
874.501010	1.000757
874.812015	0.998499
875.122979	0.999420
875.433900	0.998501
875.744780	0.999796
876.055618	0.999291
876.366415	0.998171
876.677169	0.998650
876.987882	0.999154
877.298554	0.999769
877.609183	0.998642
877.919771	0.998881
878.230317	0.999151
878.540822	0.998410
878.851285	0.997633
879.161707	0.998450
879.472087	0.999138
879.782425	0.996800
880.092722	0.996001
880.402977	0.994245
880.713191	0.992596
881.023363	0.989387
881.333494	0.988351
881.643583	0.990169
881.953631	0.988994
882.263637	0.988839
882.573602	0.989199
882.883526	0.990051
883.193408	0.992235
883.503248	0.992993
883.813048	0.993574
884.122806	0.995316
884.432522	0.994725
884.742197	0.996075
885.051831	0.995528
885.361424	0.996128
885.670975	0.997973
885.980485	0.997338
886.289954	0.996579
886.599382	0.996527
886.908768	0.998823
887.218113	0.997221
887.527417	0.998471
887.836680	0.998109
888.145901	0.999930
888.455082	0.999911
888.764221	0.999234
889.073319	0.997865
889.382376	0.999644
889.691392	0.998797
890.000366	0.999421
890.309300	0.999576
890.618193	0.998922
890.927044	0.998413
891.235855	0.999032
891.544625	0.998514
891.853353	0.997920
892.162041	0.997731
892.470687	0.998077
892.779293	0.998138
893.087858	0.997506
893.396381	0.997530
893.704864	0.997275
894.013306	0.996390
894.321707	0.995782
894.630068	0.994096
894.938387	0.994023
895.246665	0.994417
895.554903	0.994076
895.863100	0.996366
896.171256	0.996068
896.479371	0.996310
896.787446	0.997203
897.095480	0.997345
897.403473	0.996351
897.711425	0.997173
898.019336	0.998524
898.327207	0.998844
898.635038	0.998129
898.942827	0.999409
899.250576	0.998890
899.558284	0.999364
899.865952	0.998321
900.173579	0.998125
900.481165	0.998413
900.788711	0.997479
901.096216	0.999023
901.403681	0.999501
901.711105	0.998882
902.018489	0.998706
902.325832	0.999035
902.633135	0.999132
902.940397	0.998163
903.247619	0.998124
903.554800	0.997465
903.861941	0.996486
904.169041	0.994978
904.476101	0.993311
904.783121	0.993209
905.090100	0.994847
905.397039	0.994184
905.703938	0.994487
906.010796	0.995675
906.317614	0.996313
906.624391	0.997908
906.931129	0.998085
907.237826	0.998640
907.544483	0.998810
907.851099	0.998416
908.157675	0.998145
908.464211	0.999524
908.770707	0.998592
909.077163	0.999546
909.383578	1.000567
909.689954	0.998980
909.996289	0.998920
910.302584	0.999528
910.608839	1.000113
910.915054	0.999308
911.221229	1.000595
911.527363	0.998975
911.833458	0.999441
912.139513	0.999628
912.445527	1.000015
912.751502	0.998486
913.057436	0.998948
913.363331	0.999824
913.669186	0.998951
913.975000	0.998963
914.280775	0.999196
914.586510	0.997224
914.892205	0.996109
915.197859	0.996749
915.503475	0.995611
915.809050	0.994580
916.114585	0.992725
916.420081	0.993437
916.725536	0.993793
917.030952	0.992921
917.336328	0.994272
917.641665	0.994620
917.946961	0.995044
918.252218	0.995825
918.557435	0.997320
918.862612	0.996639
919.167750	0.997565
919.472848	0.998016
919.777906	0.998653
920.082925	0.998709
920.387904	0.997797
920.692843	0.999019
920.997743	0.998381
921.302603	0.999405
921.607423	0.997196
921.912204	0.998586
922.216946	1.000362
922.521647	0.998994
922.826310	0.997695
923.130932	1.000122
923.435516	0.999438
923.740059	0.998307
924.044564	0.998272
924.349028	0.998889
924.653454	0.999380
924.957840	0.999429
925.262186	1.000107
925.566493	1.000143
925.870761	0.998838
926.174989	0.999737
926.479178	1.000701
926.783328	0.999415
927.087438	0.999882
927.391509	0.999623
927.695541	1.000378
927.999533	0.999306
928.303486	0.999537
928.607400	1.000505
928.911275	0.999858
929.215110	1.000483
929.518906	0.999872
929.822663	1.001901
930.126381	1.000375
930.430060	0.999532
930.733699	1.000575
931.037299	1.000988
931.340861	1.000934
931.644383	0.998155
931.947866	0.999872
932.251309	0.999871
932.554714	0.998864
932.858080	0.999958
933.161407	0.998783
933.464694	0.998564
933.767943	1.000880
934.071153	0.999115
934.374323	0.999543
934.677455	1.000464
934.980548	0.999094
935.283602	1.000427
935.586617	0.999285
935.889593	1.000259
936.192530	1.000310
936.495428	1.000059
936.798287	0.999418
937.101108	1.000248
937.403890	0.999296
937.706632	1.000581
938.009336	0.999609
938.312002	0.998616
938.614628	1.000435
938.917216	1.000000
939.219765	0.998876
939.522275	1.000300
939.824747	0.998789
940.127179	0.999085
940.429573	1.000392
940.731929	0.999367
941.034246	0.997988
941.336524	0.998449
941.638763	0.999742
941.940964	0.998841
942.243126	0.999637
942.545250	1.000234
942.847335	0.999553
943.149381	0.999596
943.451389	0.998709
943.753359	1.000198
944.055290	1.001236
944.357182	0.998868
944.659036	0.999863
944.960851	1.000607
945.262628	1.000608
945.564367	0.997966
945.866067	1.000490
946.167729	0.999252
946.469352	1.000392
946.770937	0.998030
947.072484	1.000008
947.373992	0.999389
947.675462	0.999408
947.976893	0.998820
948.278286	1.000635
948.579641	1.000340
948.880958	0.998616
949.182236	0.999697
949.483476	1.000681
949.784678	0.998975
950.085841	0.999820
950.386967	0.999194
950.688054	0.999539
950.989103	0.999042
951.290114	0.998065
951.591087	1.000851
951.892021	0.999671
952.192917	0.998728
952.493776	0.999479
952.794596	1.000288
953.095378	0.998800
953.396122	0.999789
953.696828	0.999715
953.997496	1.000504
954.298126	0.999940
954.598718	0.998690
954.899272	0.998919
955.199788	0.999022
955.500266	1.000442
955.800706	0.999019
956.101108	0.998278
956.401472	1.000539
956.701798	0.999555
957.002087	0.999255
957.302337	0.999809
957.602550	0.999404
957.902724	0.999799
958.202861	1.000232
958.502960	0.998928
958.803022	1.000543
959.103045	1.000417
959.403031	1.000759
959.702979	1.000605
960.002889	1.000032
960.302762	1.000141
960.602596	1.000145
960.902393	1.000492
961.202153	1.000252
961.501875	1.000486
961.801559	1.000554
962.101205	0.999984
962.400814	1.001754
962.700385	1.000966
962.999918	0.999344
963.299414	0.998915
963.598873	1.000069
963.898293	1.000128
964.197677	0.999598
964.497022	1.000224
964.796331	0.999715
965.095601	1.000954
965.394835	0.999897
965.694030	1.000147
965.993189	0.999461
966.292309	0.999767
966.591393	0.998503
966.890439	1.000582
967.189447	0.999920
967.488419	0.999779
967.787353	1.000691
968.086249	0.999753
968.385108	1.000510
968.683930	1.001048
968.982714	0.999915
969.281462	1.000292
969.580172	1.000557
969.878844	1.000046
970.177480	1.000170
970.476078	1.001555
970.774639	1.000715
971.073162	0.999472
971.371649	0.999119
971.670098	1.000339
971.968510	1.000687
972.266885	1.000613
972.565223	1.000442
972.863524	1.000609
973.161788	1.000500
973.460014	1.001260
973.758204	0.999439
974.056356	1.001930
974.354471	0.999386
974.652550	1.001294
974.950591	0.999883
975.248595	0.999627
975.546563	1.000740
975.844493	1.000602
976.142386	1.000102
976.440243	1.000948
976.738062	1.000118
977.035845	0.998809
977.333590	1.000197
977.631299	0.999101
977.928971	1.000346
978.226606	0.999063
978.524204	0.999161
978.821765	0.999579
979.119290	1.001242
979.416777	1.000287
979.714228	0.999910
980.011642	1.000721
980.309020	1.000406
980.606360	1.000147
980.903664	1.000023
981.200931	0.999165
981.498162	0.999609
981.795356	1.000217
982.092513	1.000152
982.389633	1.000886
982.686717	0.999311
982.983764	0.999861
983.280775	0.998913
983.577749	1.000607
983.874686	0.998758
984.171587	0.998899
984.468451	0.999781
984.765279	1.000223
985.062070	1.000506
985.358824	0.999769
985.655543	0.999975
985.952224	1.000854
986.248869	0.999787
986.545478	1.001538
986.842050	1.000161
987.138586	0.998867
987.435086	1.000768
987.731549	1.000830
988.027975	1.001089
988.324366	1.000163
988.620719	1.001543
988.917037	1.000718
989.213318	1.000906
989.509563	0.999837
989.805772	1.001245
990.101944	1.001238
990.398080	1.000540
990.694180	1.001045
990.990244	1.000427
991.286271	1.000491
991.582262	1.000633
991.878217	0.999554
992.174136	1.000926
992.470019	1.001176
992.765865	1.000941
993.061676	1.000307
993.357450	0.999212
993.653188	1.001114
993.948890	1.000860
994.244556	0.999747
994.540186	1.000289
994.835780	0.999638
995.131337	0.999823
995.426859	1.000262
995.722345	1.000978
996.017795	1.000085
996.313208	0.999369
996.608586	0.999965
996.903928	1.000474
997.199234	1.001059
997.494504	1.000706
997.789738	0.999476
998.084936	1.000198
998.380099	0.999772
998.675225	1.001376
998.970316	1.000368
999.265371	1.000172
999.560390	0.998973
999.855373	1.000919
1000.150320	1.000416
1000.445232	1.000375
1000.740108	0.999604
1001.034948	1.000197
1001.329752	1.000987
1001.624521	0.999295
1001.919254	1.000525
1002.213951	1.000941
1002.508613	0.999593
1002.803239	1.000340
1003.097829	1.001645
1003.392384	1.000523
1003.686903	1.000234
1003.981386	0.999267
1004.275834	1.001474
1004.570246	0.999484
1004.864623	1.001743
1005.158964	1.000413
1005.453270	1.000551
1005.747540	0.999785
1006.041775	1.000939
1006.335974	1.000880
1006.630138	1.000356
1006.924266	0.999006
1007.218359	0.999491
1007.512416	1.001288
1007.806438	0.999050
1008.100425	1.001016
1008.394376	1.000382
1008.688292	1.000073
1008.982172	0.999076
1009.276017	0.999900
1009.569827	1.001151
1009.863602	1.000110
1010.157341	1.000205
1010.451045	1.000661
1010.744714	1.000940
1011.038347	1.000757
1011.331945	1.000245
1011.625508	0.999731
1011.919036	1.000106
1012.212528	1.000902
1012.505986	1.000175
1012.799408	1.000306
1013.092795	1.001171
1013.386147	1.000777
1013.679464	1.002841
1013.972745	1.000589
1014.265992	1.000804
1014.559204	0.999679
1014.852380	1.000324
1015.145521	0.999993
1015.438628	1.000229
1015.731699	1.000604
1016.024736	1.000508
1016.317737	1.001113
1016.610703	1.000970
1016.903635	1.000157
1017.196531	1.000703
1017.489393	1.000466
1017.782219	1.000088
1018.075011	0.999434
1018.367768	0.999528
1018.660490	1.000973
1018.953177	1.000973
1019.245829	1.000973
