Dividing Wavelength (nm)	Counts (n)	Blue Motor Position (mm): 3.000000	Red Motor Position (mm): 0.000000	
326.493990	1.005560
326.888308	1.005560
327.282561	1.005560
327.676750	1.007024
328.070874	1.007484
328.464933	1.008410
328.858929	1.006659
329.252859	1.006320
329.646726	1.006045
330.040528	1.006903
330.434265	1.006996
330.827938	1.005765
331.221547	1.007109
331.615091	1.006323
332.008571	1.007159
332.401986	1.006530
332.795338	1.006621
333.188625	1.006265
333.581847	1.005884
333.975006	1.006735
334.368100	1.006967
334.761129	1.005089
335.154095	1.006200
335.546996	1.004212
335.939833	0.998213
336.332606	0.999650
336.725315	0.998540
337.117960	0.999815
337.510540	0.998568
337.903056	1.000297
338.295508	0.999546
338.687896	1.000277
339.080220	1.000133
339.472480	0.998146
339.864676	1.000351
340.256807	0.997654
340.648875	0.999763
341.040879	0.999096
341.432818	0.999544
341.824694	0.998662
342.216506	0.999270
342.608253	0.999902
342.999937	0.999521
343.391557	0.999210
343.783113	0.999657
344.174605	0.998658
344.566033	0.999578
344.957397	0.998815
345.348697	0.999130
345.739934	0.998955
346.131106	0.998197
346.522215	0.998664
346.913260	0.999234
347.304241	0.998640
347.695159	0.999077
348.086012	0.998631
348.476802	0.998819
348.867528	0.998244
349.258191	0.999190
349.648789	0.998720
350.039324	0.999152
350.429796	0.997668
350.820203	0.998066
351.210548	0.997876
351.600828	1.000117
351.991045	0.997825
352.381198	0.999427
352.771288	0.998094
353.161314	0.998648
353.551276	0.998776
353.941175	0.996920
354.331010	0.998773
354.720782	0.998722
355.110490	0.998396
355.500135	0.999629
355.889717	0.997820
356.279235	0.998177
356.668689	0.998599
357.058080	0.997463
357.447408	0.996813
357.836672	0.998725
358.225873	0.998872
358.615010	0.998544
359.004084	0.997735
359.393095	0.998305
359.782043	0.998103
360.170927	0.997770
360.559748	0.998483
360.948505	0.998153
361.337199	0.997016
361.725830	0.997999
362.114398	0.997608
362.502903	0.995714
362.891344	0.996863
363.279722	0.997059
363.668037	0.998213
364.056289	0.996087
364.444478	0.999453
364.832603	0.996464
365.220665	0.997737
365.608665	0.997249
365.996601	0.996927
366.384474	0.996653
366.772284	0.996471
367.160031	0.996419
367.547715	0.994182
367.935336	0.994631
368.322893	0.993964
368.710388	0.992983
369.097820	0.992317
369.485189	0.988490
369.872495	0.986222
370.259738	0.984543
370.646918	0.982077
371.034035	0.978509
371.421090	0.975582
371.808081	0.972238
372.195010	0.969498
372.581875	0.964133
372.968678	0.959679
373.355418	0.956636
373.742096	0.948209
374.128710	0.944223
374.515262	0.939981
374.901751	0.934057
375.288177	0.928238
375.674540	0.923069
376.060841	0.916109
376.447079	0.909255
376.833254	0.902957
377.219367	0.898193
377.605417	0.885956
377.991404	0.883475
378.377329	0.876567
378.763191	0.871050
379.148991	0.860847
379.534727	0.853307
379.920402	0.845093
380.306013	0.841451
380.691563	0.829470
381.077049	0.822677
381.462474	0.818500
381.847835	0.808132
382.233134	0.802687
382.618371	0.802421
383.003545	0.786486
383.388657	0.784121
383.773706	0.775156
384.158693	0.772152
384.543618	0.766457
384.928480	0.757764
385.313280	0.747948
385.698017	0.746744
386.082692	0.735902
386.467305	0.734292
386.851856	0.728406
387.236344	0.722954
387.620770	0.717630
388.005133	0.712063
388.389435	0.705971
388.773674	0.703574
389.157851	0.695457
389.541965	0.693329
389.926018	0.699271
390.310008	0.686757
390.693936	0.683499
391.077802	0.675970
391.461606	0.676706
391.845348	0.666484
392.229027	0.665391
392.612645	0.663973
392.996200	0.651181
393.379694	0.643633
393.763125	0.634300
394.146494	0.638125
394.529801	0.629593
394.913047	0.620926
395.296230	0.627020
395.679351	0.618528
396.062410	0.615379
396.445408	0.617905
396.828343	0.613818
397.211217	0.608613
397.594028	0.620941
397.976778	0.611875
398.359466	0.606936
398.742092	0.603062
399.124656	0.614650
399.507158	0.603397
399.889598	0.600132
400.271977	0.591732
400.654294	0.595603
401.036549	0.594721
401.418742	0.598768
401.800874	0.584727
402.182944	0.581707
402.564952	0.572421
402.946898	0.574893
403.328783	0.575787
403.710606	0.587018
404.092367	0.562542
404.474067	0.566514
404.855705	0.565562
405.237282	0.574343
405.618797	0.560849
406.000250	0.556905
406.381642	0.546512
406.762972	0.551629
407.144240	0.550383
407.525447	0.550457
407.906593	0.542858
408.287677	0.538632
408.668700	0.546964
409.049661	0.541340
409.430560	0.535848
409.811399	0.544576
410.192176	0.526406
410.572891	0.532778
410.953545	0.521625
411.334138	0.534827
411.714669	0.527980
412.095139	0.540376
412.475547	0.523199
412.855894	0.526330
413.236180	0.525104
413.616405	0.529850
413.996568	0.520553
414.376670	0.526343
414.756711	0.531606
415.136691	0.528246
415.516609	0.519489
415.896466	0.516103
416.276262	0.512144
416.655997	0.513845
417.035670	0.496142
417.415283	0.487172
417.794834	0.491953
418.174324	0.498148
418.553753	0.506604
418.933121	0.488802
419.312428	0.482378
419.691674	0.488400
420.070859	0.477309
420.449983	0.484213
420.829045	0.473755
421.208047	0.482276
421.586988	0.475343
421.965867	0.474343
422.344686	0.463739
422.723444	0.476064
423.102141	0.493363
423.480777	0.465756
423.859352	0.486487
424.237866	0.463784
424.616319	0.465169
424.994712	0.455078
425.373044	0.466264
425.751314	0.453914
426.129524	0.470590
426.507673	0.454222
426.885762	0.447497
427.263789	0.452907
427.641756	0.462232
428.019662	0.453138
428.397508	0.452749
428.775292	0.456846
429.153016	0.448343
429.530679	0.454696
429.908282	0.447464
430.285824	0.457930
430.663305	0.436487
431.040726	0.457359
431.418086	0.457921
431.795385	0.449400
432.172624	0.448127
432.549802	0.448200
432.926920	0.447509
433.303977	0.446635
433.680974	0.444254
434.057910	0.442512
434.434786	0.441861
434.811601	0.445215
435.188355	0.427063
435.565050	0.436110
435.941683	0.437834
436.318257	0.420897
436.694770	0.422681
437.071222	0.420622
437.447614	0.425390
437.823946	0.431579
438.200218	0.420718
438.576429	0.430389
438.952580	0.423577
439.328670	0.419766
439.704700	0.427074
440.080670	0.428208
440.456580	0.409463
440.832429	0.417453
441.208218	0.427896
441.583947	0.417340
441.959616	0.416522
442.335224	0.422453
442.710773	0.412901
443.086261	0.411010
443.461689	0.424986
443.837057	0.414444
444.212365	0.404640
444.587612	0.411279
444.962800	0.401934
445.337927	0.403397
445.712995	0.429200
446.088002	0.391339
446.462949	0.401999
446.837837	0.406614
447.212664	0.395113
447.587431	0.386546
447.962139	0.357133
448.336786	0.316131
448.711374	0.326441
449.085901	0.371246
449.460369	0.375246
449.834776	0.378570
450.209124	0.357632
450.583412	0.350453
450.957640	0.343399
451.331808	0.355009
451.705917	0.378754
452.079965	0.383319
452.453954	0.371168
452.827883	0.378281
453.201752	0.372821
453.575562	0.383628
453.949311	0.372457
454.323001	0.378654
454.696632	0.374843
455.070202	0.366973
455.443713	0.358854
455.817164	0.354017
456.190556	0.349505
456.563888	0.346282
456.937160	0.344146
457.310373	0.361319
457.683526	0.360219
458.056619	0.365874
458.429653	0.366542
458.802628	0.369472
459.175542	0.363880
459.548398	0.346803
459.921194	0.338540
460.293930	0.339195
460.666607	0.316820
461.039224	0.305048
461.411782	0.300294
461.784280	0.299958
462.156719	0.303951
462.529099	0.308608
462.901419	0.324591
463.273680	0.328492
463.645882	0.328088
464.018024	0.334395
464.390106	0.326970
464.762130	0.311481
465.134094	0.294825
465.505999	0.263372
465.877845	0.233523
466.249631	0.220765
466.621358	0.228128
466.993026	0.241973
467.364634	0.248841
467.736184	0.257176
468.107674	0.265994
468.479105	0.265058
468.850477	0.271985
469.221790	0.278887
469.593043	0.288748
469.964238	0.293406
470.335373	0.293398
470.706449	0.291601
471.077467	0.291628
471.448425	0.253639
471.819324	0.229367
472.190164	0.228857
472.560945	0.257583
472.931667	0.280173
473.302330	0.284592
473.672934	0.296318
474.043479	0.283993
474.413965	0.285863
474.784393	0.289589
475.154761	0.284614
475.525070	0.281910
475.895321	0.287726
476.265513	0.281509
476.635645	0.276898
477.005719	0.276644
477.375734	0.273505
477.745691	0.266674
478.115588	0.262919
478.485427	0.256481
478.855207	0.243446
479.224928	0.225784
479.594591	0.213651
479.964194	0.217317
480.333739	0.218331
480.703226	0.219961
481.072653	0.218263
481.442022	0.213891
481.811333	0.210706
482.180584	0.214078
482.549777	0.219258
482.918912	0.223032
483.287988	0.222511
483.657005	0.222189
484.025964	0.228797
484.394864	0.226016
484.763706	0.226491
485.132489	0.231378
485.501213	0.232294
485.869879	0.230478
486.238487	0.233772
486.607036	0.231972
486.975527	0.236610
487.343959	0.232285
487.712333	0.231209
488.080648	0.232464
488.448905	0.232162
488.817104	0.233220
489.185244	0.227705
489.553326	0.224440
489.921350	0.214349
490.289315	0.196752
490.657222	0.191671
491.025070	0.193172
491.392861	0.194986
491.760593	0.200833
492.128267	0.206924
492.495883	0.212186
492.863440	0.218240
493.230939	0.224562
493.598380	0.226184
493.965763	0.228241
494.333088	0.230272
494.700354	0.232030
495.067563	0.231058
495.434713	0.234451
495.801805	0.232193
496.168839	0.233684
496.535815	0.235263
496.902733	0.235279
497.269593	0.236690
497.636395	0.234429
498.003139	0.234523
498.369825	0.237726
498.736453	0.234033
499.103023	0.235730
499.469535	0.234908
499.835989	0.235335
500.202385	0.236117
500.568723	0.239427
500.935003	0.234413
501.301226	0.238769
501.667390	0.233029
502.033497	0.231202
502.399546	0.234011
502.765537	0.236109
503.131470	0.234671
503.497345	0.230657
503.863163	0.239278
504.228923	0.232581
504.594625	0.231216
504.960269	0.236646
505.325856	0.231906
505.691385	0.236405
506.056856	0.232959
506.422270	0.232430
506.787625	0.235095
507.152924	0.232297
507.518164	0.232667
507.883347	0.234086
508.248472	0.235955
508.613540	0.231130
508.978550	0.233842
509.343503	0.234201
509.708398	0.231769
510.073236	0.229388
510.438016	0.229000
510.802738	0.230118
511.167403	0.229217
511.532010	0.231341
511.896561	0.226670
512.261053	0.225180
512.625488	0.227476
512.989866	0.227919
513.354186	0.227870
513.718449	0.229929
514.082655	0.226050
514.446803	0.228503
514.810894	0.226117
515.174927	0.229158
515.538904	0.228436
515.902822	0.225362
516.266684	0.227621
516.630488	0.228723
516.994235	0.227768
517.357925	0.226291
517.721558	0.224701
518.085133	0.224156
518.448651	0.224157
518.812112	0.226364
519.175516	0.226093
519.538863	0.223716
519.902152	0.225113
520.265385	0.222354
520.628560	0.223892
520.991678	0.224457
521.354739	0.223282
521.717743	0.224209
522.080690	0.224781
522.443580	0.222240
522.806413	0.223054
523.169189	0.222577
523.531908	0.221200
523.894569	0.224815
524.257174	0.224711
524.619722	0.222488
524.982213	0.223668
525.344647	0.222217
525.707025	0.223492
526.069345	0.221531
526.431608	0.223257
526.793815	0.221119
527.155964	0.225274
527.518057	0.224440
527.880093	0.225204
528.242072	0.223989
528.603995	0.225838
528.965860	0.227599
529.327669	0.226274
529.689421	0.227102
530.051117	0.227887
530.412755	0.225864
530.774337	0.227925
531.135862	0.228746
531.497331	0.227839
531.858743	0.230669
532.220098	0.227405
532.581396	0.230226
532.942638	0.230580
533.303824	0.231436
533.664953	0.231403
534.026025	0.233082
534.387040	0.230813
534.747999	0.230926
535.108902	0.229608
535.469748	0.234774
535.830537	0.232617
536.191270	0.232985
536.551947	0.232311
536.912567	0.232721
537.273131	0.234090
537.633638	0.234286
537.994089	0.234555
538.354483	0.235947
538.714821	0.232782
539.075103	0.232658
539.435328	0.233582
539.795497	0.237023
540.155609	0.233752
540.515665	0.232012
540.875665	0.237874
541.235609	0.235974
541.595496	0.235854
541.955328	0.232803
542.315102	0.235264
542.674821	0.236452
543.034483	0.236696
543.394090	0.236385
543.753640	0.237989
544.113134	0.232963
544.472571	0.236284
544.831953	0.232977
545.191278	0.237380
545.550548	0.236500
545.909761	0.233948
546.268918	0.234318
546.628019	0.232811
546.987064	0.235554
547.346053	0.237449
547.704986	0.234894
548.063863	0.235278
548.422684	0.235752
548.781449	0.237330
549.140158	0.234987
549.498811	0.238151
549.857408	0.240697
550.215949	0.235507
550.574434	0.238494
550.932864	0.236923
551.291237	0.235145
551.649555	0.236744
552.007817	0.236740
552.366022	0.237436
552.724173	0.237408
553.082267	0.237883
553.440305	0.234844
553.798288	0.238959
554.156215	0.235548
554.514086	0.236460
554.871902	0.239614
555.229661	0.238790
555.587365	0.239188
555.945014	0.241708
556.302606	0.239010
556.660143	0.241523
557.017625	0.237948
557.375050	0.240049
557.732421	0.237206
558.089735	0.239129
558.446994	0.238855
558.804197	0.238061
559.161345	0.238043
559.518437	0.241639
559.875474	0.239366
560.232455	0.239122
560.589381	0.240078
560.946251	0.240049
561.303065	0.237615
561.659825	0.239024
562.016528	0.240752
562.373177	0.243290
562.729770	0.240886
563.086307	0.242679
563.442789	0.240678
563.799216	0.243531
564.155587	0.242557
564.511904	0.243520
564.868164	0.243420
565.224370	0.243342
565.580520	0.245086
565.936615	0.245012
566.292654	0.247863
566.648638	0.245052
567.004567	0.246031
567.360441	0.246620
567.716260	0.248264
568.072023	0.245957
568.427732	0.247148
568.783385	0.249471
569.138982	0.247629
569.494525	0.247179
569.850013	0.250204
570.205445	0.248620
570.560823	0.250991
570.916145	0.253198
571.271412	0.251212
571.626625	0.252737
571.981782	0.253389
572.336884	0.254173
572.691931	0.253902
573.046923	0.255473
573.401860	0.256300
573.756743	0.258194
574.111570	0.256996
574.466342	0.257427
574.821059	0.256492
575.175722	0.259483
575.530330	0.259332
575.884882	0.259511
576.239380	0.261470
576.593823	0.261945
576.948211	0.261605
577.302544	0.264623
577.656823	0.264421
578.011047	0.264086
578.365216	0.265255
578.719330	0.267165
579.073389	0.266481
579.427394	0.267869
579.781344	0.269046
580.135239	0.270145
580.489080	0.270174
580.842866	0.272700
581.196597	0.272796
581.550273	0.271395
581.903895	0.272438
582.257463	0.270738
582.610975	0.274149
582.964434	0.273832
583.317837	0.275802
583.671186	0.276062
584.024481	0.276551
584.377721	0.278871
584.730906	0.279606
585.084037	0.278763
585.437113	0.280698
585.790135	0.279979
586.143103	0.282914
586.496016	0.284320
586.848874	0.281795
587.201679	0.282487
587.554428	0.285665
587.907124	0.284794
588.259765	0.284980
588.612352	0.285705
588.964884	0.289710
589.317362	0.289358
589.669786	0.288920
590.022155	0.287028
590.374470	0.286797
590.726731	0.288854
591.078937	0.293951
591.431090	0.290013
591.783188	0.294314
592.135232	0.294915
592.487222	0.294567
592.839157	0.292887
593.191038	0.294822
593.542866	0.297074
593.894639	0.300372
594.246358	0.298804
594.598022	0.298035
594.949633	0.301870
595.301190	0.302282
595.652692	0.301299
596.004141	0.297529
596.355535	0.305876
596.706876	0.306248
597.058162	0.309212
597.409395	0.306187
597.760573	0.303670
598.111698	0.306945
598.462768	0.307382
598.813785	0.308535
599.164748	0.310161
599.515657	0.310259
599.866511	0.313859
600.217312	0.309035
600.568060	0.314492
600.918753	0.310891
601.269392	0.311851
601.619978	0.314933
601.970510	0.312817
602.320988	0.312688
602.671412	0.310531
603.021783	0.312939
603.372100	0.314210
603.722363	0.313869
604.072572	0.314761
604.422728	0.314325
604.772830	0.316888
605.122878	0.316487
605.472872	0.316947
605.822813	0.315191
606.172701	0.318034
606.522534	0.315135
606.872314	0.315402
607.222041	0.315898
607.571714	0.314153
607.921333	0.315908
608.270899	0.315610
608.620411	0.312385
608.969870	0.316244
609.319276	0.316251
609.668627	0.316107
610.017926	0.314768
610.367171	0.313354
610.716362	0.314147
611.065500	0.314541
611.414585	0.313169
611.763616	0.312912
612.112594	0.313917
612.461518	0.313008
612.810389	0.311092
613.159207	0.313231
613.507971	0.314721
613.856682	0.311103
614.205340	0.311643
614.553945	0.309643
614.902496	0.313261
615.250994	0.311272
615.599439	0.311903
615.947830	0.311293
616.296169	0.312146
616.644454	0.311916
616.992686	0.312012
617.340864	0.309489
617.688990	0.312956
618.037063	0.309752
618.385082	0.311856
618.733048	0.308613
619.080961	0.310639
619.428821	0.310383
619.776628	0.310176
620.124382	0.312424
620.472083	0.312896
620.819731	0.311970
621.167326	0.315447
621.514868	0.315568
621.862357	0.319474
622.209793	0.318959
622.557176	0.321609
622.904506	0.322105
623.251783	0.325133
623.599007	0.327014
623.946179	0.326776
624.293297	0.328777
624.640363	0.332527
624.987376	0.333044
625.334336	0.335738
625.681243	0.337812
626.028097	0.338653
626.374899	0.339674
626.721647	0.340035
627.068343	0.342586
627.414987	0.344033
627.761577	0.346022
628.108115	0.344261
628.454600	0.349820
628.801032	0.347242
629.147412	0.349210
629.493739	0.349855
629.840014	0.352693
630.186236	0.349965
630.532405	0.355777
630.878521	0.353054
631.224585	0.355208
631.570597	0.358761
631.916556	0.357286
632.262462	0.357141
632.608316	0.359546
632.954117	0.360082
633.299866	0.361166
633.645562	0.361457
633.991206	0.365925
634.336797	0.368836
634.682336	0.371581
635.027823	0.372817
635.373257	0.373226
635.718639	0.377424
636.063968	0.376384
636.409245	0.382027
636.754470	0.382138
637.099642	0.384773
637.444762	0.388208
637.789829	0.387565
638.134845	0.390859
638.479808	0.391908
638.824719	0.391619
639.169577	0.396461
639.514383	0.395055
639.859137	0.399329
640.203839	0.398913
640.548489	0.399650
640.893086	0.400551
641.237632	0.402591
641.582125	0.400577
641.926566	0.402672
642.270955	0.402461
642.615292	0.402724
642.959576	0.401897
643.303809	0.402882
643.647990	0.402018
643.992118	0.402658
644.336195	0.405782
644.680219	0.404775
645.024192	0.405242
645.368112	0.398804
645.711981	0.397692
646.055797	0.393336
646.399562	0.395419
646.743274	0.388365
647.086935	0.384724
647.430544	0.385043
647.774101	0.383845
648.117606	0.383518
648.461059	0.384834
648.804460	0.386368
649.147810	0.391745
649.491108	0.393681
649.834354	0.395465
650.177548	0.400440
650.520690	0.405998
650.863781	0.406733
651.206820	0.406034
651.549807	0.410870
651.892742	0.415067
652.235626	0.414346
652.578458	0.415935
652.921238	0.421785
653.263967	0.418938
653.606644	0.422826
653.949269	0.422979
654.291843	0.426352
654.634365	0.423707
654.976836	0.426960
655.319255	0.427276
655.661622	0.428695
656.003938	0.428633
656.346203	0.431315
656.688416	0.429664
657.030577	0.432188
657.372687	0.435192
657.714746	0.435979
658.056753	0.432867
658.398708	0.436344
658.740612	0.438023
659.082465	0.433406
659.424266	0.434340
659.766016	0.434248
660.107715	0.436914
660.449362	0.435377
660.790958	0.435912
661.132503	0.437502
661.473996	0.434301
661.815438	0.435206
662.156829	0.436027
662.498168	0.436271
662.839456	0.437622
663.180693	0.435262
663.521879	0.435631
663.863013	0.436280
664.204097	0.434478
664.545129	0.431559
664.886110	0.432197
665.227040	0.429117
665.567918	0.431860
665.908746	0.429611
666.249522	0.429432
666.590248	0.430669
666.930922	0.428392
667.271545	0.427917
667.612118	0.427397
667.952639	0.429365
668.293109	0.427760
668.633528	0.430557
668.973896	0.430348
669.314213	0.430851
669.654480	0.432713
669.994695	0.433050
670.334859	0.434352
670.674973	0.434243
671.015035	0.433909
671.355047	0.434409
671.695008	0.435010
672.034918	0.437037
672.374777	0.435723
672.714585	0.437528
673.054342	0.437545
673.394049	0.437170
673.733705	0.435339
674.073310	0.436685
674.412864	0.439299
674.752368	0.439700
675.091820	0.441049
675.431223	0.444570
675.770574	0.444246
676.109875	0.447547
676.449125	0.447309
676.788324	0.449800
677.127473	0.455518
677.466571	0.454861
677.805619	0.456836
678.144616	0.457619
678.483562	0.459395
678.822458	0.462704
679.161303	0.462690
679.500098	0.463498
679.838842	0.465215
680.177535	0.464049
680.516179	0.463115
680.854771	0.461822
681.193314	0.455252
681.531805	0.446870
681.870247	0.435308
682.208638	0.427548
682.546978	0.426653
682.885268	0.428324
683.223508	0.434544
683.561697	0.438118
683.899836	0.440848
684.237925	0.443917
684.575963	0.447617
684.913951	0.450469
685.251889	0.445748
685.589776	0.448178
685.927614	0.450557
686.265401	0.444530
686.603137	0.445471
686.940824	0.439933
687.278460	0.438880
687.616046	0.437673
687.953582	0.432511
688.291068	0.434244
688.628504	0.428845
688.965889	0.432197
689.303224	0.435566
689.640510	0.439271
689.977745	0.444998
690.314930	0.452902
690.652065	0.458249
690.989150	0.465236
691.326185	0.472301
691.663170	0.476951
692.000105	0.484575
692.336990	0.491542
692.673825	0.493242
693.010610	0.499954
693.347345	0.506517
693.684030	0.508034
694.020665	0.511911
694.357251	0.520666
694.693786	0.520257
695.030272	0.523674
695.366707	0.528115
695.703093	0.531681
696.039429	0.529987
696.375716	0.531569
696.711952	0.534516
697.048139	0.536265
697.384276	0.538191
697.720363	0.536219
698.056400	0.535416
698.392388	0.540998
698.728326	0.543755
699.064214	0.546265
699.400053	0.547419
699.735842	0.551225
700.071581	0.553762
700.407270	0.557156
700.742910	0.559433
701.078501	0.565578
701.414042	0.567156
701.749533	0.569214
702.084974	0.578534
702.420366	0.570848
702.755709	0.578124
703.091002	0.586433
703.426246	0.579672
703.761440	0.585437
704.096584	0.590135
704.431679	0.587543
704.766725	0.589235
705.101721	0.591222
705.436668	0.587018
705.771565	0.594443
706.106413	0.590579
706.441212	0.586082
706.775961	0.584700
707.110661	0.587613
707.445311	0.584284
707.779913	0.581532
708.114465	0.580031
708.448967	0.576783
708.783421	0.569291
709.117825	0.562961
709.452180	0.563192
709.786485	0.556893
710.120742	0.546884
710.454949	0.547938
710.789107	0.540259
711.123216	0.531321
711.457275	0.532895
711.791286	0.524343
712.125247	0.523071
712.459159	0.534062
712.793023	0.525984
713.126837	0.530502
713.460602	0.530630
713.794318	0.539474
714.127985	0.538592
714.461602	0.548816
714.795171	0.552395
715.128691	0.560250
715.462162	0.568506
715.795584	0.573630
716.128957	0.577100
716.462281	0.583032
716.795556	0.586391
717.128782	0.592375
717.461960	0.600879
717.795088	0.599888
718.128167	0.606001
718.461198	0.614676
718.794180	0.615483
719.127113	0.617783
719.459997	0.620903
719.792833	0.627460
720.125619	0.628722
720.458357	0.634467
720.791046	0.634175
721.123686	0.638307
721.456278	0.645025
721.788821	0.642004
722.121315	0.647284
722.453761	0.650810
722.786158	0.648945
723.118506	0.645524
723.450805	0.652857
723.783056	0.649928
724.115259	0.646095
724.447412	0.646163
724.779518	0.647362
725.111574	0.645963
725.443582	0.641417
725.775542	0.643399
726.107453	0.635947
726.439315	0.635552
726.771129	0.634117
727.102895	0.627435
727.434612	0.620975
727.766281	0.618435
728.097901	0.617999
728.429473	0.616801
728.760996	0.615731
729.092471	0.616159
729.423897	0.619400
729.755276	0.618743
730.086606	0.618564
730.417887	0.612841
730.749120	0.603776
731.080305	0.594888
731.411442	0.590624
731.742530	0.594789
732.073570	0.594120
732.404562	0.587324
732.735506	0.587964
733.066401	0.592992
733.397249	0.602139
733.728048	0.614033
734.058798	0.626685
734.389501	0.637636
734.720156	0.648115
735.050762	0.655236
735.381320	0.655471
735.711831	0.664936
736.042293	0.669204
736.372707	0.666783
736.703073	0.670434
737.033391	0.672677
737.363661	0.669845
737.693883	0.664809
738.024056	0.663156
738.354182	0.664677
738.684260	0.653106
739.014290	0.650309
739.344272	0.650755
739.674207	0.643928
740.004093	0.642931
740.333931	0.644092
740.663722	0.643574
740.993464	0.644359
741.323159	0.647674
741.652806	0.653004
741.982405	0.658025
742.311956	0.663572
742.641460	0.665273
742.970915	0.668763
743.300323	0.675378
743.629683	0.681639
743.958996	0.684530
744.288260	0.688349
744.617477	0.695623
744.946647	0.696196
745.275768	0.702284
745.604842	0.701704
745.933869	0.710978
746.262847	0.712720
746.591778	0.705546
746.920662	0.713100
747.249498	0.719261
747.578286	0.710012
747.907027	0.706320
748.235720	0.706585
748.564365	0.701753
748.892963	0.701140
749.221514	0.704930
749.550017	0.708666
749.878473	0.710519
750.206881	0.716616
750.535242	0.716128
750.863555	0.716016
751.191821	0.717232
751.520039	0.720679
751.848210	0.724118
752.176334	0.718345
752.504411	0.717834
752.832440	0.725272
753.160421	0.728689
753.488356	0.726750
753.816243	0.724662
754.144082	0.733883
754.471875	0.737410
754.799620	0.732354
755.127318	0.733532
755.454969	0.734949
755.782572	0.734149
756.110129	0.737490
756.437638	0.742228
756.765100	0.738037
757.092515	0.735226
757.419882	0.734211
757.747203	0.739683
758.074477	0.739804
758.401703	0.735224
758.728882	0.731127
759.056014	0.729908
759.383099	0.729486
759.710138	0.729791
760.037129	0.726342
760.364073	0.720168
760.690970	0.722782
761.017820	0.727031
761.344623	0.724604
761.671379	0.715539
761.998088	0.703659
762.324751	0.679573
762.651366	0.636692
762.977935	0.569522
763.304456	0.517080
763.630931	0.507952
763.957359	0.547565
764.283740	0.591579
764.610074	0.619667
764.936362	0.651796
765.262602	0.679304
765.588796	0.699711
765.914943	0.716679
766.241044	0.735352
766.567097	0.742244
766.893104	0.751624
767.219064	0.758692
767.544978	0.765450
767.870845	0.778881
768.196665	0.783376
768.522438	0.780869
768.848165	0.782466
769.173846	0.792028
769.499479	0.795941
769.825066	0.800009
770.150607	0.804642
770.476101	0.800387
770.801548	0.801647
771.126949	0.813479
771.452303	0.817889
771.777611	0.815315
772.102872	0.814413
772.428087	0.819840
772.753256	0.823713
773.078378	0.826177
773.403453	0.833277
773.728482	0.838819
774.053465	0.831869
774.378401	0.834754
774.703291	0.844848
775.028135	0.845078
775.352932	0.844067
775.677683	0.850098
776.002388	0.849049
776.327046	0.849040
776.651658	0.853602
776.976224	0.855202
777.300743	0.855164
777.625216	0.857693
777.949643	0.860421
778.274024	0.858358
778.598359	0.861703
778.922647	0.858167
779.246889	0.860018
779.571086	0.864267
779.895236	0.866426
780.219339	0.864373
780.543397	0.860027
780.867409	0.858784
781.191374	0.861981
781.515294	0.862458
781.839167	0.862184
782.162995	0.864704
782.486776	0.862390
782.810511	0.862383
783.134201	0.867945
783.457844	0.865358
783.781441	0.868354
784.104993	0.872900
784.428498	0.873673
784.751958	0.870100
785.075372	0.872398
785.398739	0.876017
785.722061	0.870786
786.045337	0.866391
786.368568	0.872191
786.691752	0.874542
787.014891	0.860049
787.337983	0.849547
787.661030	0.843597
787.984031	0.825535
788.306987	0.813599
788.629897	0.813620
788.952760	0.819665
789.275579	0.823034
789.598351	0.839628
789.921078	0.852618
790.243759	0.854693
790.566395	0.857682
790.888984	0.867056
791.211529	0.871708
791.534027	0.874596
791.856480	0.877937
792.178888	0.881048
792.501249	0.883343
792.823566	0.885876
793.145836	0.885876
793.468062	0.888173
793.790241	0.888473
794.112375	0.886057
794.434464	0.882730
794.756507	0.880539
795.078505	0.879557
795.400457	0.874524
795.722364	0.861737
796.044226	0.856085
796.366042	0.853281
796.687812	0.857316
797.009538	0.853609
797.331218	0.858035
797.652852	0.861426
797.974442	0.866459
798.295986	0.868490
798.617484	0.867778
798.938938	0.874274
799.260346	0.877989
799.581709	0.879192
799.903026	0.883243
800.224299	0.883471
800.545526	0.887439
800.866708	0.891598
801.187845	0.894977
801.508936	0.894836
801.829983	0.891226
802.150984	0.896793
802.471940	0.900500
802.792851	0.900547
803.113717	0.901756
803.434538	0.898755
803.755314	0.902945
804.076045	0.902436
804.396731	0.902533
804.717372	0.901452
805.037967	0.905525
805.358518	0.903425
805.679024	0.898839
805.999485	0.900164
806.319901	0.899695
806.640272	0.902287
806.960598	0.899464
807.280879	0.896648
807.601115	0.895671
807.921306	0.899817
808.241453	0.899578
808.561554	0.897636
808.881611	0.896917
809.201623	0.898386
809.521590	0.900244
809.841513	0.900689
810.161390	0.899074
810.481223	0.901214
810.801011	0.904116
811.120755	0.906954
811.440453	0.903698
811.760107	0.904476
812.079716	0.903357
812.399281	0.907180
812.718801	0.908607
813.038276	0.910008
813.357707	0.910695
813.677093	0.907787
813.996434	0.910512
814.315731	0.912280
814.634983	0.913060
814.954191	0.912453
815.273354	0.906630
815.592473	0.905483
815.911547	0.905142
816.230577	0.901362
816.549562	0.897673
816.868502	0.897659
817.187399	0.896907
817.506250	0.891041
817.825058	0.892465
818.143821	0.888490
818.462539	0.884283
818.781213	0.876093
819.099843	0.865278
819.418429	0.847773
819.736970	0.831368
820.055466	0.810252
820.373919	0.784148
820.692327	0.750315
821.010691	0.715694
821.329011	0.634582
821.647286	0.516714
821.965517	0.402088
822.283704	0.359343
822.601847	0.359847
822.919945	0.395625
823.237999	0.430336
823.556010	0.479200
823.873976	0.535382
824.191897	0.586601
824.509775	0.630917
824.827609	0.676868
825.145398	0.699437
825.463144	0.701912
825.780845	0.683983
826.098502	0.666174
826.416116	0.619785
826.733685	0.574709
827.051210	0.564791
827.368692	0.580820
827.686129	0.618623
828.003522	0.673792
828.320872	0.721828
828.638177	0.766299
828.955439	0.800195
829.272656	0.821530
829.589830	0.839704
829.906960	0.855385
830.224046	0.868014
830.541088	0.878955
830.858086	0.883243
831.175041	0.889384
831.491952	0.890145
831.808819	0.884614
832.125642	0.878193
832.442421	0.865049
832.759157	0.841312
833.075849	0.792772
833.392497	0.728492
833.709101	0.687451
834.025662	0.697173
834.342179	0.729386
834.658653	0.769051
834.975083	0.805864
835.291469	0.834173
835.607811	0.855834
835.924110	0.872634
836.240366	0.890733
836.556578	0.903250
836.872746	0.911767
837.188871	0.917618
837.504952	0.923926
837.820990	0.926708
838.136984	0.930249
838.452935	0.933707
838.768842	0.935152
839.084706	0.927802
839.400526	0.902421
839.716303	0.860035
840.032037	0.838220
840.347727	0.842492
840.663373	0.858947
840.978977	0.882172
841.294537	0.905249
841.610054	0.922265
841.925527	0.930229
842.240957	0.935721
842.556344	0.943689
842.871687	0.948680
843.186987	0.953121
843.502244	0.955195
843.817458	0.955329
844.132629	0.960169
844.447756	0.963366
844.762840	0.963959
845.077881	0.965031
845.392879	0.963158
845.707833	0.965954
846.022745	0.968687
846.337613	0.969260
846.652438	0.969838
846.967221	0.969890
847.281960	0.970009
847.596656	0.971482
847.911309	0.971326
848.225919	0.971424
848.540485	0.973405
848.855009	0.974628
849.169490	0.973065
849.483928	0.974164
849.798323	0.971708
850.112675	0.974509
850.426984	0.973306
850.741251	0.974577
851.055474	0.974377
851.369654	0.972972
851.683792	0.972485
851.997887	0.974968
852.311938	0.974637
852.625947	0.972636
852.939914	0.971992
853.253837	0.975047
853.567718	0.975343
853.881555	0.974300
854.195350	0.973060
854.509103	0.974167
854.822812	0.974440
855.136479	0.975485
855.450103	0.974348
855.763685	0.973896
856.077224	0.974519
856.390720	0.975058
856.704173	0.975323
857.017584	0.973360
857.330953	0.971662
857.644278	0.971173
857.957561	0.972515
858.270802	0.973481
858.584000	0.973207
858.897155	0.971534
859.210268	0.971030
859.523339	0.973696
859.836367	0.973677
860.149352	0.973583
860.462295	0.973997
860.775195	0.975099
861.088054	0.973017
861.400869	0.974382
861.713642	0.974589
862.026373	0.976307
862.339062	0.975834
862.651708	0.972033
862.964312	0.973495
863.276873	0.973504
863.589392	0.973167
863.901869	0.970742
864.214303	0.969562
864.526696	0.967843
864.839045	0.967521
865.151353	0.966210
865.463619	0.966198
865.775842	0.967531
866.088023	0.967805
866.400162	0.966398
866.712258	0.967531
867.024313	0.968373
867.336325	0.969813
867.648296	0.969340
867.960224	0.965444
868.272110	0.967223
868.583954	0.968276
868.895755	0.968918
869.207515	0.966010
869.519233	0.965544
869.830909	0.964318
870.142542	0.966382
870.454134	0.965833
870.765684	0.963625
871.077191	0.963644
871.388657	0.962659
871.700081	0.963346
872.011463	0.963159
872.322803	0.963357
872.634101	0.960399
872.945357	0.957033
873.256571	0.955520
873.567744	0.957181
873.878874	0.957876
874.189963	0.956717
874.501010	0.956876
874.812015	0.954616
875.122979	0.954758
875.433900	0.958485
875.744780	0.958497
876.055618	0.954418
876.366415	0.953472
876.677169	0.952781
876.987882	0.954541
877.298554	0.955339
877.609183	0.951426
877.919771	0.948062
878.230317	0.946513
878.540822	0.943122
878.851285	0.937497
879.161707	0.930388
879.472087	0.917193
879.782425	0.900125
880.092722	0.864824
880.402977	0.810791
880.713191	0.746512
881.023363	0.686246
881.333494	0.651349
881.643583	0.623200
881.953631	0.624210
882.263637	0.651541
882.573602	0.692249
882.883526	0.718601
883.193408	0.744353
883.503248	0.767412
883.813048	0.795583
884.122806	0.826762
884.432522	0.850414
884.742197	0.870261
885.051831	0.881207
885.361424	0.892451
885.670975	0.906206
885.980485	0.914810
886.289954	0.920996
886.599382	0.925456
886.908768	0.931803
887.218113	0.936351
887.527417	0.941948
887.836680	0.945932
888.145901	0.946335
888.455082	0.950793
888.764221	0.953975
889.073319	0.955880
889.382376	0.957094
889.691392	0.954210
890.000366	0.957298
890.309300	0.957657
890.618193	0.956531
890.927044	0.955785
891.235855	0.954941
891.544625	0.956325
891.853353	0.955647
892.162041	0.951326
892.470687	0.946410
892.779293	0.940867
893.087858	0.935856
893.396381	0.929131
893.704864	0.913669
894.013306	0.890351
894.321707	0.862262
894.630068	0.847910
894.938387	0.841925
895.246665	0.843877
895.554903	0.856535
895.863100	0.869873
896.171256	0.886854
896.479371	0.908021
896.787446	0.921080
897.095480	0.928447
897.403473	0.929681
897.711425	0.934775
898.019336	0.942124
898.327207	0.946821
898.635038	0.946751
898.942827	0.948998
899.250576	0.952863
899.558284	0.956590
899.865952	0.957073
900.173579	0.957707
900.481165	0.959644
900.788711	0.961533
901.096216	0.964592
901.403681	0.968127
901.711105	0.964927
902.018489	0.966899
902.325832	0.966610
902.633135	0.965212
902.940397	0.958775
903.247619	0.944671
903.554800	0.920622
903.861941	0.878594
904.169041	0.840566
904.476101	0.822567
904.783121	0.824234
905.090100	0.840129
905.397039	0.863371
905.703938	0.885254
906.010796	0.906501
906.317614	0.924241
906.624391	0.937143
906.931129	0.946673
907.237826	0.955121
907.544483	0.961872
907.851099	0.967444
908.157675	0.970074
908.464211	0.974381
908.770707	0.975779
909.077163	0.978692
909.383578	0.979382
909.689954	0.978249
909.996289	0.980516
910.302584	0.982950
910.608839	0.983418
910.915054	0.982943
911.221229	0.983986
911.527363	0.980915
911.833458	0.982262
912.139513	0.982569
912.445527	0.981558
912.751502	0.978374
913.057436	0.976060
913.363331	0.973650
913.669186	0.970189
913.975000	0.966640
914.280775	0.959256
914.586510	0.950697
914.892205	0.937046
915.197859	0.914208
915.503475	0.887312
915.809050	0.865815
916.114585	0.859590
916.420081	0.857097
916.725536	0.853691
917.030952	0.862301
917.336328	0.877350
917.641665	0.891373
917.946961	0.907952
918.252218	0.919468
918.557435	0.929719
918.862612	0.937732
919.167750	0.943897
919.472848	0.950121
919.777906	0.957219
920.082925	0.962200
920.387904	0.965350
920.692843	0.966919
920.997743	0.967839
921.302603	0.971481
921.607423	0.972720
921.912204	0.975529
922.216946	0.977311
922.521647	0.977383
922.826310	0.978874
923.130932	0.981769
923.435516	0.982527
923.740059	0.983436
924.044564	0.983544
924.349028	0.984886
924.653454	0.987660
924.957840	0.987196
925.262186	0.989454
925.566493	0.988033
925.870761	0.989605
926.174989	0.990802
926.479178	0.992590
926.783328	0.992862
927.087438	0.992930
927.391509	0.991991
927.695541	0.994444
927.999533	0.993926
928.303486	0.994334
928.607400	0.995114
928.911275	0.994830
929.215110	0.995961
929.518906	0.996419
929.822663	0.996113
930.126381	0.995737
930.430060	0.995631
930.733699	0.996424
931.037299	0.995397
931.340861	0.995217
931.644383	0.994545
931.947866	0.995658
932.251309	0.995214
932.554714	0.994441
932.858080	0.995313
933.161407	0.995562
933.464694	0.994929
933.767943	0.996529
934.071153	0.995251
934.374323	0.997473
934.677455	0.996316
934.980548	0.995847
935.283602	0.996485
935.586617	0.995569
935.889593	0.996950
936.192530	0.996641
936.495428	0.996173
936.798287	0.996147
937.101108	0.995334
937.403890	0.994168
937.706632	0.994475
938.009336	0.991471
938.312002	0.989240
938.614628	0.989569
938.917216	0.986429
939.219765	0.986056
939.522275	0.987407
939.824747	0.987404
940.127179	0.988409
940.429573	0.990373
940.731929	0.988007
941.034246	0.989994
941.336524	0.988618
941.638763	0.989533
941.940964	0.991056
942.243126	0.991923
942.545250	0.993133
942.847335	0.992505
943.149381	0.993305
943.451389	0.993394
943.753359	0.993730
944.055290	0.995317
944.357182	0.994912
944.659036	0.995042
944.960851	0.995581
945.262628	0.994837
945.564367	0.994999
945.866067	0.994472
946.167729	0.994769
946.469352	0.994525
946.770937	0.993325
947.072484	0.995324
947.373992	0.994799
947.675462	0.994590
947.976893	0.994535
948.278286	0.995655
948.579641	0.996158
948.880958	0.995816
949.182236	0.996612
949.483476	0.996743
949.784678	0.995660
950.085841	0.995048
950.386967	0.995739
950.688054	0.996154
950.989103	0.994008
951.290114	0.993668
951.591087	0.994918
951.892021	0.994748
952.192917	0.994410
952.493776	0.993853
952.794596	0.993241
953.095378	0.992188
953.396122	0.992644
953.696828	0.993474
953.997496	0.993702
954.298126	0.995954
954.598718	0.994727
954.899272	0.996548
955.199788	0.996883
955.500266	0.998323
955.800706	0.997223
956.101108	0.998031
956.401472	0.999065
956.701798	0.996896
957.002087	0.998245
957.302337	0.998955
957.602550	0.999008
957.902724	0.999355
958.202861	1.000706
958.502960	0.999689
958.803022	1.000267
959.103045	1.000086
959.403031	1.000459
959.702979	1.001135
960.002889	0.999635
960.302762	1.000526
960.602596	1.001810
960.902393	1.002513
961.202153	1.001972
961.501875	1.001780
961.801559	1.002020
962.101205	1.001048
962.400814	1.002583
962.700385	1.001851
962.999918	1.002354
963.299414	1.001621
963.598873	1.003062
963.898293	1.002146
964.197677	1.001926
964.497022	1.002160
964.796331	1.002549
965.095601	1.002429
965.394835	1.001469
965.694030	1.002273
965.993189	1.001243
966.292309	1.001819
966.591393	1.001718
966.890439	1.003213
967.189447	1.001919
967.488419	1.003338
967.787353	1.001935
968.086249	1.002442
968.385108	1.002309
968.683930	1.002601
968.982714	1.002690
969.281462	1.002115
969.580172	1.002052
969.878844	1.003529
970.177480	1.002487
970.476078	1.004085
970.774639	1.002411
971.073162	1.002681
971.371649	1.002590
971.670098	1.000784
971.968510	1.001032
972.266885	1.001157
972.565223	1.001830
972.863524	1.001211
973.161788	1.001490
973.460014	1.003272
973.758204	1.002213
974.056356	1.001126
974.354471	1.001909
974.652550	1.003052
974.950591	1.000451
975.248595	1.001568
975.546563	1.001764
975.844493	1.003214
976.142386	1.001185
976.440243	1.003762
976.738062	1.002935
977.035845	1.001303
977.333590	1.002621
977.631299	1.002323
977.928971	1.003583
978.226606	1.001667
978.524204	1.001986
978.821765	1.003051
979.119290	1.003846
979.416777	1.003986
979.714228	1.002976
980.011642	1.002326
980.309020	1.001719
980.606360	1.002012
980.903664	1.002090
981.200931	1.000789
981.498162	1.001050
981.795356	0.999869
982.092513	0.998676
982.389633	0.999679
982.686717	0.996740
982.983764	0.995997
983.280775	0.996199
983.577749	0.996614
983.874686	0.996568
984.171587	0.997059
984.468451	0.999204
984.765279	1.000353
985.062070	1.000086
985.358824	1.000766
985.655543	1.001807
985.952224	1.002400
986.248869	1.002224
986.545478	1.003690
986.842050	1.003142
987.138586	1.002225
987.435086	1.002866
987.731549	1.003484
988.027975	1.003681
988.324366	1.003017
988.620719	1.003692
988.917037	1.004232
989.213318	1.003939
989.509563	1.004554
989.805772	1.003696
990.101944	1.004375
990.398080	1.002459
990.694180	1.003560
990.990244	1.002524
991.286271	1.003185
991.582262	1.003613
991.878217	1.002682
992.174136	1.005437
992.470019	1.003454
992.765865	1.005927
993.061676	1.003061
993.357450	1.003694
993.653188	1.004429
993.948890	1.003018
994.244556	1.003335
994.540186	1.003042
994.835780	1.002236
995.131337	1.003737
995.426859	1.003083
995.722345	1.002271
996.017795	1.001425
996.313208	1.002189
996.608586	1.002163
996.903928	1.001450
997.199234	1.002826
997.494504	1.002704
997.789738	1.000270
998.084936	1.001637
998.380099	1.002909
998.675225	1.002803
998.970316	1.004347
999.265371	1.003353
999.560390	1.003767
999.855373	1.002553
1000.150320	1.003813
1000.445232	1.003986
1000.740108	1.003988
1001.034948	1.003290
1001.329752	1.004435
1001.624521	1.003705
1001.919254	1.002657
1002.213951	1.004537
1002.508613	1.004543
1002.803239	1.003720
1003.097829	1.004927
1003.392384	1.004788
1003.686903	1.004815
1003.981386	1.004174
1004.275834	1.004405
1004.570246	1.002426
1004.864623	1.005195
1005.158964	1.003995
1005.453270	1.003745
1005.747540	1.004406
1006.041775	1.004365
1006.335974	1.004159
1006.630138	1.003606
1006.924266	1.004126
1007.218359	1.003626
1007.512416	1.005176
1007.806438	1.004694
1008.100425	1.004632
1008.394376	1.004451
1008.688292	1.003384
1008.982172	1.004283
1009.276017	1.005118
1009.569827	1.005550
1009.863602	1.003032
1010.157341	1.004298
1010.451045	1.004152
1010.744714	1.006117
1011.038347	1.004509
1011.331945	1.004336
1011.625508	1.004421
1011.919036	1.004514
1012.212528	1.004939
1012.505986	1.004294
1012.799408	1.004434
1013.092795	1.005630
1013.386147	1.005124
1013.679464	1.004618
1013.972745	1.003941
1014.265992	1.004705
1014.559204	1.004011
1014.852380	1.006239
1015.145521	1.004802
1015.438628	1.005270
1015.731699	1.004264
1016.024736	1.005565
1016.317737	1.004730
1016.610703	1.005130
1016.903635	1.005051
1017.196531	1.004468
1017.489393	1.003860
1017.782219	1.004209
1018.075011	1.003302
1018.367768	1.004822
1018.660490	1.004536
1018.953177	1.004536
1019.245829	1.004536
