Dividing Wavelength (nm)	Counts (n)	Blue Motor Position (mm): 13.600000	Red Motor Position (mm): 0.000000	
326.493990	1.001599
326.888308	1.001599
327.282561	1.001599
327.676750	1.003363
328.070874	1.003531
328.464933	1.004422
328.858929	1.004336
329.252859	1.004086
329.646726	1.001306
330.040528	1.003254
330.434265	1.004001
330.827938	1.002154
331.221547	1.003636
331.615091	1.002598
332.008571	1.003502
332.401986	1.001569
332.795338	1.001735
333.188625	1.003146
333.581847	1.002372
333.975006	1.004251
334.368100	1.003697
334.761129	1.002650
335.154095	1.003809
335.546996	1.002202
335.939833	0.997002
336.332606	0.998982
336.725315	0.998818
337.117960	0.998921
337.510540	0.998487
337.903056	0.999896
338.295508	0.999180
338.687896	0.999781
339.080220	0.998828
339.472480	0.998347
339.864676	0.999294
340.256807	0.998618
340.648875	1.000303
341.040879	0.998955
341.432818	0.999305
341.824694	0.998609
342.216506	0.999432
342.608253	0.998857
342.999937	0.998645
343.391557	1.000050
343.783113	0.999880
344.174605	0.998290
344.566033	0.998043
344.957397	0.998431
345.348697	0.998512
345.739934	0.999869
346.131106	0.999199
346.522215	0.998787
346.913260	0.998179
347.304241	0.998435
347.695159	0.999640
348.086012	0.997990
348.476802	0.998423
348.867528	0.998095
349.258191	0.997965
349.648789	0.999285
350.039324	0.998674
350.429796	0.998372
350.820203	0.997874
351.210548	0.998769
351.600828	0.998902
351.991045	0.998054
352.381198	0.998069
352.771288	0.997029
353.161314	0.998445
353.551276	0.997474
353.941175	0.995316
354.331010	0.999041
354.720782	0.998299
355.110490	0.998882
355.500135	0.997670
355.889717	0.997115
356.279235	0.997952
356.668689	0.998414
357.058080	0.997236
357.447408	0.996925
357.836672	0.997725
358.225873	0.998163
358.615010	0.996916
359.004084	0.996825
359.393095	0.997101
359.782043	0.997094
360.170927	0.997709
360.559748	0.997430
360.948505	0.997342
361.337199	0.997098
361.725830	0.997836
362.114398	0.997314
362.502903	0.995799
362.891344	0.995531
363.279722	0.997195
363.668037	0.999087
364.056289	0.996451
364.444478	0.997376
364.832603	0.997287
365.220665	0.995954
365.608665	0.996429
365.996601	0.996463
366.384474	0.995752
366.772284	0.996559
367.160031	0.993957
367.547715	0.994568
367.935336	0.993979
368.322893	0.993219
368.710388	0.992863
369.097820	0.990852
369.485189	0.986800
369.872495	0.986171
370.259738	0.984858
370.646918	0.981590
371.034035	0.978992
371.421090	0.976021
371.808081	0.971973
372.195010	0.968489
372.581875	0.962658
372.968678	0.958809
373.355418	0.956161
373.742096	0.947438
374.128710	0.943815
374.515262	0.939871
374.901751	0.933666
375.288177	0.927850
375.674540	0.921497
376.060841	0.915879
376.447079	0.908838
376.833254	0.902509
377.219367	0.896970
377.605417	0.886569
377.991404	0.882661
378.377329	0.876851
378.763191	0.870007
379.148991	0.860521
379.534727	0.853480
379.920402	0.845042
380.306013	0.841218
380.691563	0.828832
381.077049	0.822095
381.462474	0.818025
381.847835	0.806899
382.233134	0.801285
382.618371	0.801665
383.003545	0.784504
383.388657	0.783391
383.773706	0.775137
384.158693	0.771775
384.543618	0.765912
384.928480	0.756892
385.313280	0.747010
385.698017	0.746346
386.082692	0.735552
386.467305	0.732962
386.851856	0.727824
387.236344	0.722762
387.620770	0.717604
388.005133	0.711549
388.389435	0.706714
388.773674	0.704418
389.157851	0.695335
389.541965	0.692578
389.926018	0.699846
390.310008	0.685969
390.693936	0.683163
391.077802	0.675025
391.461606	0.676487
391.845348	0.666521
392.229027	0.665813
392.612645	0.664269
392.996200	0.651469
393.379694	0.643583
393.763125	0.634212
394.146494	0.638337
394.529801	0.629399
394.913047	0.621325
395.296230	0.627536
395.679351	0.618280
396.062410	0.615185
396.445408	0.617772
396.828343	0.613259
397.211217	0.608045
397.594028	0.620508
397.976778	0.611252
398.359466	0.607919
398.742092	0.602955
399.124656	0.615139
399.507158	0.602625
399.889598	0.600398
400.271977	0.591679
400.654294	0.595240
401.036549	0.594286
401.418742	0.598926
401.800874	0.584148
402.182944	0.581678
402.564952	0.572735
402.946898	0.574768
403.328783	0.576240
403.710606	0.585893
404.092367	0.560957
404.474067	0.566448
404.855705	0.565826
405.237282	0.574314
405.618797	0.560482
406.000250	0.556588
406.381642	0.546589
406.762972	0.551598
407.144240	0.550211
407.525447	0.550149
407.906593	0.542795
408.287677	0.537799
408.668700	0.546572
409.049661	0.540616
409.430560	0.535865
409.811399	0.543818
410.192176	0.526116
410.572891	0.533481
410.953545	0.521298
411.334138	0.535019
411.714669	0.527348
412.095139	0.539543
412.475547	0.523352
412.855894	0.526067
413.236180	0.524583
413.616405	0.529313
413.996568	0.520500
414.376670	0.527033
414.756711	0.531036
415.136691	0.528653
415.516609	0.519459
415.896466	0.516333
416.276262	0.512566
416.655997	0.513931
417.035670	0.495541
417.415283	0.487189
417.794834	0.492072
418.174324	0.496949
418.553753	0.506554
418.933121	0.488679
419.312428	0.482923
419.691674	0.488013
420.070859	0.476200
420.449983	0.484437
420.829045	0.473685
421.208047	0.482500
421.586988	0.475692
421.965867	0.474151
422.344686	0.463400
422.723444	0.476157
423.102141	0.492904
423.480777	0.465371
423.859352	0.486567
424.237866	0.463871
424.616319	0.464749
424.994712	0.455790
425.373044	0.465359
425.751314	0.453975
426.129524	0.470582
426.507673	0.454259
426.885762	0.446772
427.263789	0.452830
427.641756	0.462530
428.019662	0.452860
428.397508	0.451821
428.775292	0.457032
429.153016	0.448012
429.530679	0.454168
429.908282	0.447158
430.285824	0.457812
430.663305	0.436098
431.040726	0.457525
431.418086	0.456901
431.795385	0.448997
432.172624	0.447816
432.549802	0.448157
432.926920	0.447093
433.303977	0.446707
433.680974	0.443825
434.057910	0.442677
434.434786	0.442082
434.811601	0.444591
435.188355	0.427073
435.565050	0.436476
435.941683	0.437081
436.318257	0.421406
436.694770	0.422513
437.071222	0.420174
437.447614	0.424797
437.823946	0.431420
438.200218	0.420523
438.576429	0.430320
438.952580	0.423276
439.328670	0.420788
439.704700	0.426108
440.080670	0.428014
440.456580	0.408783
440.832429	0.416787
441.208218	0.428311
441.583947	0.416951
441.959616	0.416358
442.335224	0.422117
442.710773	0.412703
443.086261	0.411199
443.461689	0.424251
443.837057	0.414470
444.212365	0.404083
444.587612	0.411458
444.962800	0.401469
445.337927	0.403073
445.712995	0.429140
446.088002	0.390809
446.462949	0.401057
446.837837	0.406181
447.212664	0.394905
447.587431	0.386501
447.962139	0.356646
448.336786	0.315869
448.711374	0.325791
449.085901	0.371106
449.460369	0.374870
449.834776	0.378356
450.209124	0.357573
450.583412	0.350512
450.957640	0.343181
451.331808	0.354723
451.705917	0.377827
452.079965	0.382752
452.453954	0.371166
452.827883	0.378047
453.201752	0.372804
453.575562	0.383820
453.949311	0.372811
454.323001	0.378710
454.696632	0.374372
455.070202	0.367401
455.443713	0.358594
455.817164	0.353923
456.190556	0.349541
456.563888	0.346423
456.937160	0.343857
457.310373	0.361310
457.683526	0.360058
458.056619	0.365886
458.429653	0.366285
458.802628	0.369778
459.175542	0.363785
459.548398	0.346476
459.921194	0.339064
460.293930	0.339136
460.666607	0.316328
461.039224	0.304812
461.411782	0.300306
461.784280	0.299849
462.156719	0.304185
462.529099	0.308434
462.901419	0.324371
463.273680	0.328659
463.645882	0.328186
464.018024	0.334350
464.390106	0.326512
464.762130	0.311539
465.134094	0.294603
465.505999	0.263247
465.877845	0.233570
466.249631	0.220705
466.621358	0.228320
466.993026	0.242096
467.364634	0.248207
467.736184	0.257110
468.107674	0.265693
468.479105	0.265186
468.850477	0.271769
469.221790	0.278742
469.593043	0.289040
469.964238	0.293574
470.335373	0.292817
470.706449	0.291527
471.077467	0.291970
471.448425	0.253710
471.819324	0.229458
472.190164	0.228939
472.560945	0.257659
472.931667	0.280071
473.302330	0.284606
473.672934	0.296459
474.043479	0.284184
474.413965	0.286054
474.784393	0.289566
475.154761	0.284716
475.525070	0.281691
475.895321	0.287784
476.265513	0.281555
476.635645	0.277198
477.005719	0.276642
477.375734	0.273724
477.745691	0.266535
478.115588	0.263294
478.485427	0.256592
478.855207	0.243436
479.224928	0.226024
479.594591	0.214099
479.964194	0.217507
480.333739	0.218916
480.703226	0.219973
481.072653	0.218466
481.442022	0.214205
481.811333	0.210854
482.180584	0.214271
482.549777	0.219660
482.918912	0.222954
483.287988	0.222677
483.657005	0.222498
484.025964	0.228594
484.394864	0.226198
484.763706	0.226459
485.132489	0.231889
485.501213	0.232368
485.869879	0.230960
486.238487	0.233935
486.607036	0.231847
486.975527	0.236637
487.343959	0.232270
487.712333	0.231466
488.080648	0.232817
488.448905	0.232040
488.817104	0.233054
489.185244	0.227608
489.553326	0.224532
489.921350	0.214545
490.289315	0.197005
490.657222	0.191909
491.025070	0.193254
491.392861	0.195105
491.760593	0.201082
492.128267	0.206546
492.495883	0.212062
492.863440	0.218391
493.230939	0.224887
493.598380	0.226349
493.965763	0.228624
494.333088	0.230483
494.700354	0.232111
495.067563	0.231154
495.434713	0.234857
495.801805	0.232336
496.168839	0.234060
496.535815	0.235483
496.902733	0.235324
497.269593	0.236743
497.636395	0.234445
498.003139	0.234904
498.369825	0.237823
498.736453	0.234385
499.103023	0.236123
499.469535	0.235597
499.835989	0.235482
500.202385	0.236195
500.568723	0.239654
500.935003	0.234540
501.301226	0.239011
501.667390	0.233235
502.033497	0.231291
502.399546	0.234418
502.765537	0.236376
503.131470	0.234992
503.497345	0.231035
503.863163	0.239751
504.228923	0.232811
504.594625	0.231270
504.960269	0.236747
505.325856	0.232209
505.691385	0.236494
506.056856	0.233407
506.422270	0.232821
506.787625	0.235139
507.152924	0.232595
507.518164	0.233150
507.883347	0.234639
508.248472	0.236649
508.613540	0.231318
508.978550	0.233981
509.343503	0.234213
509.708398	0.232113
510.073236	0.229822
510.438016	0.229357
510.802738	0.230655
511.167403	0.229358
511.532010	0.231670
511.896561	0.227087
512.261053	0.225496
512.625488	0.228017
512.989866	0.228329
513.354186	0.228662
513.718449	0.230193
514.082655	0.227017
514.446803	0.229035
514.810894	0.226736
515.174927	0.229357
515.538904	0.228812
515.902822	0.225739
516.266684	0.228100
516.630488	0.229113
516.994235	0.228427
517.357925	0.227219
517.721558	0.225500
518.085133	0.224925
518.448651	0.224914
518.812112	0.227113
519.175516	0.227045
519.538863	0.224503
519.902152	0.226318
520.265385	0.223256
520.628560	0.224588
520.991678	0.225195
521.354739	0.224418
521.717743	0.225320
522.080690	0.225872
522.443580	0.223256
522.806413	0.223975
523.169189	0.223545
523.531908	0.222313
523.894569	0.225924
524.257174	0.225518
524.619722	0.223560
524.982213	0.224630
525.344647	0.223696
525.707025	0.224878
526.069345	0.222777
526.431608	0.224642
526.793815	0.222568
527.155964	0.226870
527.518057	0.225653
527.880093	0.226802
528.242072	0.225280
528.603995	0.227107
528.965860	0.228613
529.327669	0.227927
529.689421	0.228633
530.051117	0.230019
530.412755	0.227642
530.774337	0.229572
531.135862	0.230257
531.497331	0.229485
531.858743	0.232216
532.220098	0.229056
532.581396	0.231902
532.942638	0.232333
533.303824	0.233095
533.664953	0.232838
534.026025	0.234943
534.387040	0.232562
534.747999	0.232596
535.108902	0.231521
535.469748	0.236763
535.830537	0.234507
536.191270	0.234760
536.551947	0.234443
536.912567	0.234337
537.273131	0.236141
537.633638	0.236385
537.994089	0.236790
538.354483	0.237973
538.714821	0.234891
539.075103	0.234692
539.435328	0.235784
539.795497	0.239125
540.155609	0.235843
540.515665	0.234259
540.875665	0.239633
541.235609	0.238337
541.595496	0.238702
541.955328	0.234994
542.315102	0.237872
542.674821	0.238687
543.034483	0.238831
543.394090	0.238866
543.753640	0.240302
544.113134	0.235326
544.472571	0.238728
544.831953	0.235810
545.191278	0.240139
545.550548	0.239328
545.909761	0.235938
546.268918	0.236948
546.628019	0.235149
546.987064	0.237979
547.346053	0.239832
547.704986	0.237781
548.063863	0.238013
548.422684	0.238572
548.781449	0.240045
549.140158	0.238064
549.498811	0.240657
549.857408	0.243763
550.215949	0.238416
550.574434	0.241638
550.932864	0.239937
551.291237	0.238215
551.649555	0.239899
552.007817	0.239639
552.366022	0.240674
552.724173	0.240616
553.082267	0.241243
553.440305	0.238344
553.798288	0.242374
554.156215	0.239489
554.514086	0.239991
554.871902	0.243311
555.229661	0.242418
555.587365	0.243204
555.945014	0.245634
556.302606	0.243013
556.660143	0.245328
557.017625	0.242243
557.375050	0.244489
557.732421	0.241621
558.089735	0.243518
558.446994	0.243598
558.804197	0.243003
559.161345	0.242945
559.518437	0.246526
559.875474	0.244687
560.232455	0.244139
560.589381	0.245435
560.946251	0.245959
561.303065	0.243503
561.659825	0.245102
562.016528	0.246782
562.373177	0.249549
562.729770	0.247074
563.086307	0.249146
563.442789	0.247060
563.799216	0.250308
564.155587	0.249297
564.511904	0.250730
564.868164	0.250648
565.224370	0.250872
565.580520	0.252808
565.936615	0.252793
566.292654	0.256080
566.648638	0.253229
567.004567	0.254495
567.360441	0.255248
567.716260	0.257725
568.072023	0.255553
568.427732	0.256918
568.783385	0.259228
569.138982	0.257856
569.494525	0.257890
569.850013	0.261047
570.205445	0.259778
570.560823	0.262341
570.916145	0.265008
571.271412	0.263996
571.626625	0.265859
571.981782	0.266251
572.336884	0.267734
572.691931	0.267628
573.046923	0.269683
573.401860	0.270920
573.756743	0.273308
574.111570	0.272317
574.466342	0.273471
574.821059	0.273002
575.175722	0.276502
575.530330	0.276633
575.884882	0.277167
576.239380	0.280022
576.593823	0.280707
576.948211	0.280959
577.302544	0.284189
577.656823	0.285067
578.011047	0.285192
578.365216	0.287241
578.719330	0.289488
579.073389	0.290124
579.427394	0.291666
579.781344	0.293424
580.135239	0.295488
580.489080	0.295833
580.842866	0.299332
581.196597	0.300016
581.550273	0.299690
581.903895	0.302108
582.257463	0.300454
582.610975	0.305426
582.964434	0.305204
583.317837	0.308774
583.671186	0.310006
584.024481	0.311049
584.377721	0.314115
584.730906	0.316006
585.084037	0.316150
585.437113	0.319036
585.790135	0.319601
586.143103	0.323525
586.496016	0.325828
586.848874	0.324640
587.201679	0.325932
587.554428	0.330482
587.907124	0.330749
588.259765	0.332346
588.612352	0.334806
588.964884	0.339212
589.317362	0.340535
589.669786	0.341831
590.022155	0.341238
590.374470	0.341865
590.726731	0.344963
591.078937	0.351445
591.431090	0.349785
591.783188	0.354132
592.135232	0.356821
592.487222	0.357360
592.839157	0.357602
593.191038	0.360787
593.542866	0.363895
593.894639	0.368890
594.246358	0.368357
594.598022	0.369810
594.949633	0.374513
595.301190	0.376970
595.652692	0.376969
596.004141	0.375640
596.355535	0.384046
596.706876	0.386697
597.058162	0.390624
597.409395	0.389881
597.760573	0.389535
598.111698	0.393961
598.462768	0.396503
598.813785	0.398700
599.164748	0.402192
599.515657	0.403947
599.866511	0.410436
600.217312	0.406639
600.568060	0.413518
600.918753	0.412208
601.269392	0.414874
601.619978	0.420043
601.970510	0.420261
602.320988	0.421523
602.671412	0.422381
603.021783	0.426197
603.372100	0.429529
603.722363	0.431750
604.072572	0.433844
604.422728	0.435433
604.772830	0.439944
605.122878	0.442024
605.472872	0.443957
605.822813	0.444778
606.172701	0.449254
606.522534	0.449061
606.872314	0.451383
607.222041	0.454570
607.571714	0.455036
607.921333	0.459147
608.270899	0.461207
608.620411	0.460123
608.969870	0.466092
609.319276	0.468440
609.668627	0.470861
610.017926	0.471853
610.367171	0.474641
610.716362	0.476825
611.065500	0.480249
611.414585	0.481817
611.763616	0.483598
612.112594	0.487408
612.461518	0.489448
612.810389	0.489893
613.159207	0.494729
613.507971	0.498005
613.856682	0.498291
614.205340	0.500681
614.553945	0.501533
614.902496	0.507053
615.250994	0.508667
615.599439	0.510900
615.947830	0.513583
616.296169	0.517464
616.644454	0.519198
616.992686	0.522046
617.340864	0.524355
617.688990	0.528605
618.037063	0.528252
618.385082	0.532707
618.733048	0.533072
619.080961	0.537282
619.428821	0.539901
619.776628	0.542202
620.124382	0.546741
620.472083	0.549901
620.819731	0.551593
621.167326	0.556707
621.514868	0.558938
621.862357	0.564204
622.209793	0.566227
622.557176	0.570772
622.904506	0.573878
623.251783	0.577858
623.599007	0.582130
623.946179	0.583570
624.293297	0.588867
624.640363	0.593255
624.987376	0.596396
625.334336	0.599949
625.681243	0.604688
626.028097	0.606966
626.374899	0.609617
626.721647	0.613775
627.068343	0.617711
627.414987	0.621074
627.761577	0.624242
628.108115	0.625447
628.454600	0.632194
628.801032	0.634066
629.147412	0.636020
629.493739	0.640561
629.840014	0.643021
630.186236	0.644194
630.532405	0.650052
630.878521	0.650698
631.224585	0.655102
631.570597	0.658894
631.916556	0.661670
632.262462	0.662605
632.608316	0.667703
632.954117	0.670446
633.299866	0.672782
633.645562	0.675845
633.991206	0.680044
634.336797	0.683943
634.682336	0.688433
635.027823	0.690980
635.373257	0.693341
635.718639	0.698582
636.063968	0.699688
636.409245	0.704252
636.754470	0.708215
637.099642	0.711058
637.444762	0.715597
637.789829	0.718039
638.134845	0.721079
638.479808	0.724481
638.824719	0.726401
639.169577	0.730447
639.514383	0.732125
639.859137	0.736614
640.203839	0.737626
640.548489	0.740860
640.893086	0.743004
641.237632	0.746086
641.582125	0.748197
641.926566	0.751828
642.270955	0.752916
642.615292	0.754161
642.959576	0.757289
643.303809	0.758819
643.647990	0.761576
643.992118	0.763679
644.336195	0.765862
644.680219	0.769244
645.024192	0.770316
645.368112	0.769528
645.711981	0.771473
646.055797	0.771780
646.399562	0.773429
646.743274	0.773349
647.086935	0.773520
647.430544	0.775699
647.774101	0.776986
648.117606	0.779069
648.461059	0.781735
648.804460	0.784562
649.147810	0.787352
649.491108	0.791049
649.834354	0.793487
650.177548	0.797547
650.520690	0.800685
650.863781	0.803095
651.206820	0.806435
651.549807	0.808816
651.892742	0.812725
652.235626	0.814139
652.578458	0.816115
652.921238	0.820903
653.263967	0.821721
653.606644	0.823077
653.949269	0.826456
654.291843	0.827710
654.634365	0.830118
654.976836	0.831996
655.319255	0.834162
655.661622	0.836417
656.003938	0.837671
656.346203	0.838577
656.688416	0.841923
657.030577	0.843797
657.372687	0.846328
657.714746	0.847480
658.056753	0.848385
658.398708	0.851040
658.740612	0.853916
659.082465	0.854341
659.424266	0.855091
659.766016	0.856194
660.107715	0.859803
660.449362	0.859560
660.790958	0.862003
661.132503	0.864131
661.473996	0.864701
661.815438	0.867205
662.156829	0.868167
662.498168	0.870828
662.839456	0.870845
663.180693	0.872454
663.521879	0.873153
663.863013	0.874885
664.204097	0.876520
664.545129	0.876786
664.886110	0.878688
665.227040	0.879743
665.567918	0.879127
665.908746	0.880823
666.249522	0.881755
666.590248	0.883625
666.930922	0.883729
667.271545	0.885295
667.612118	0.886339
667.952639	0.887864
668.293109	0.889374
668.633528	0.890498
668.973896	0.891679
669.314213	0.893790
669.654480	0.895319
669.994695	0.895440
670.334859	0.898001
670.674973	0.899391
671.015035	0.901009
671.355047	0.901985
671.695008	0.901829
672.034918	0.903435
672.374777	0.904819
672.714585	0.905842
673.054342	0.907312
673.394049	0.907452
673.733705	0.908117
674.073310	0.909858
674.412864	0.910082
674.752368	0.911517
675.091820	0.915287
675.431223	0.915907
675.770574	0.915672
676.109875	0.918290
676.449125	0.919298
676.788324	0.920379
677.127473	0.922836
677.466571	0.924398
677.805619	0.924937
678.144616	0.927407
678.483562	0.927991
678.822458	0.929783
679.161303	0.929450
679.500098	0.930986
679.838842	0.932994
680.177535	0.932693
680.516179	0.933100
680.854771	0.933491
681.193314	0.934524
681.531805	0.932607
681.870247	0.930582
682.208638	0.931087
682.546978	0.930462
682.885268	0.932358
683.223508	0.933490
683.561697	0.935502
683.899836	0.937152
684.237925	0.937224
684.575963	0.938316
684.913951	0.939453
685.251889	0.939779
685.589776	0.939401
685.927614	0.940011
686.265401	0.939815
686.603137	0.940579
686.940824	0.940313
687.278460	0.940796
687.616046	0.939682
687.953582	0.939621
688.291068	0.940539
688.628504	0.940157
688.965889	0.940214
689.303224	0.940938
689.640510	0.943807
689.977745	0.945662
690.314930	0.946412
690.652065	0.949424
690.989150	0.949484
691.326185	0.951376
691.663170	0.953154
692.000105	0.954883
692.336990	0.956007
692.673825	0.956346
693.010610	0.957399
693.347345	0.958462
693.684030	0.960141
694.020665	0.960500
694.357251	0.961853
694.693786	0.961619
695.030272	0.961587
695.366707	0.963963
695.703093	0.964796
696.039429	0.964747
696.375716	0.966547
696.711952	0.965059
697.048139	0.967246
697.384276	0.966561
697.720363	0.966697
698.056400	0.965384
698.392388	0.966563
698.728326	0.968370
699.064214	0.969206
699.400053	0.969569
699.735842	0.971328
700.071581	0.970795
700.407270	0.971203
700.742910	0.972696
701.078501	0.972433
701.414042	0.974073
701.749533	0.973055
702.084974	0.974150
702.420366	0.974630
702.755709	0.974770
703.091002	0.976630
703.426246	0.977227
703.761440	0.975913
704.096584	0.976104
704.431679	0.976115
704.766725	0.977656
705.101721	0.977815
705.436668	0.978335
705.771565	0.977876
706.106413	0.977125
706.441212	0.978624
706.775961	0.979036
707.110661	0.979011
707.445311	0.979070
707.779913	0.979769
708.114465	0.979700
708.448967	0.980152
708.783421	0.978988
709.117825	0.979489
709.452180	0.979204
709.786485	0.979421
710.120742	0.977601
710.454949	0.978041
710.789107	0.976938
711.123216	0.975816
711.457275	0.976373
711.791286	0.976203
712.125247	0.977465
712.459159	0.976482
712.793023	0.976737
713.126837	0.978388
713.460602	0.977237
713.794318	0.978037
714.127985	0.977117
714.461602	0.979496
714.795171	0.979332
715.128691	0.980442
715.462162	0.981078
715.795584	0.981927
716.128957	0.982228
716.462281	0.982388
716.795556	0.981597
717.128782	0.983373
717.461960	0.984038
717.795088	0.985016
718.128167	0.984989
718.461198	0.985036
718.794180	0.984550
719.127113	0.984882
719.459997	0.985653
719.792833	0.985689
720.125619	0.985112
720.458357	0.986200
720.791046	0.986506
721.123686	0.986570
721.456278	0.987298
721.788821	0.987154
722.121315	0.987669
722.453761	0.987484
722.786158	0.986725
723.118506	0.986999
723.450805	0.985543
723.783056	0.987597
724.115259	0.986680
724.447412	0.988441
724.779518	0.987995
725.111574	0.987088
725.443582	0.987688
725.775542	0.987374
726.107453	0.987466
726.439315	0.987358
726.771129	0.986402
727.102895	0.987449
727.434612	0.987354
727.766281	0.987270
728.097901	0.985989
728.429473	0.987323
728.760996	0.986822
729.092471	0.986728
729.423897	0.987959
729.755276	0.987188
730.086606	0.987132
730.417887	0.988170
730.749120	0.987411
731.080305	0.987304
731.411442	0.986542
731.742530	0.986844
732.073570	0.986924
732.404562	0.986446
732.735506	0.986858
733.066401	0.986249
733.397249	0.987237
733.728048	0.987517
734.058798	0.989387
734.389501	0.988808
734.720156	0.989000
735.050762	0.990361
735.381320	0.989476
735.711831	0.989201
736.042293	0.989816
736.372707	0.990615
736.703073	0.988971
737.033391	0.989931
737.363661	0.990941
737.693883	0.990642
738.024056	0.989381
738.354182	0.990366
738.684260	0.990030
739.014290	0.989338
739.344272	0.989806
739.674207	0.989784
740.004093	0.989613
740.333931	0.988828
740.663722	0.989176
740.993464	0.989235
741.323159	0.988345
741.652806	0.989517
741.982405	0.990423
742.311956	0.990291
742.641460	0.990075
742.970915	0.989469
743.300323	0.989864
743.629683	0.990626
743.958996	0.991926
744.288260	0.990355
744.617477	0.990985
744.946647	0.991542
745.275768	0.992260
745.604842	0.991203
745.933869	0.991142
746.262847	0.992216
746.591778	0.990700
746.920662	0.992647
747.249498	0.992983
747.578286	0.992640
747.907027	0.991557
748.235720	0.990538
748.564365	0.992076
748.892963	0.991096
749.221514	0.991291
749.550017	0.991361
749.878473	0.991363
750.206881	0.993111
750.535242	0.991781
750.863555	0.991647
751.191821	0.991490
751.520039	0.991566
751.848210	0.990830
752.176334	0.990761
752.504411	0.990739
752.832440	0.990811
753.160421	0.992491
753.488356	0.992478
753.816243	0.991839
754.144082	0.991830
754.471875	0.992433
754.799620	0.992887
755.127318	0.992795
755.454969	0.992617
755.782572	0.993518
756.110129	0.992339
756.437638	0.993453
756.765100	0.994009
757.092515	0.991891
757.419882	0.992976
757.747203	0.991484
758.074477	0.993537
758.401703	0.993090
758.728882	0.992814
759.056014	0.992188
759.383099	0.992483
759.710138	0.991693
760.037129	0.992266
760.364073	0.992016
760.690970	0.992355
761.017820	0.991832
761.344623	0.993003
761.671379	0.992555
761.998088	0.993193
762.324751	0.992534
762.651366	0.991498
762.977935	0.988499
763.304456	0.988238
763.630931	0.985371
763.957359	0.984902
764.283740	0.986973
764.610074	0.988944
764.936362	0.989147
765.262602	0.990366
765.588796	0.990645
765.914943	0.991429
766.241044	0.991903
766.567097	0.992913
766.893104	0.993574
767.219064	0.992596
767.544978	0.993167
767.870845	0.992940
768.196665	0.993943
768.522438	0.993728
768.848165	0.994371
769.173846	0.994681
769.499479	0.995438
769.825066	0.995033
770.150607	0.994513
770.476101	0.995146
770.801548	0.995261
771.126949	0.995426
771.452303	0.994996
771.777611	0.995569
772.102872	0.995465
772.428087	0.994274
772.753256	0.995656
773.078378	0.995454
773.403453	0.994515
773.728482	0.996957
774.053465	0.995001
774.378401	0.995116
774.703291	0.996035
775.028135	0.996254
775.352932	0.994237
775.677683	0.996566
776.002388	0.995899
776.327046	0.995358
776.651658	0.997299
776.976224	0.996005
777.300743	0.996240
777.625216	0.995864
777.949643	0.995314
778.274024	0.995001
778.598359	0.995687
778.922647	0.995510
779.246889	0.996808
779.571086	0.995908
779.895236	0.995638
780.219339	0.997044
780.543397	0.995218
780.867409	0.996804
781.191374	0.996295
781.515294	0.996919
781.839167	0.997037
782.162995	0.996190
782.486776	0.995331
782.810511	0.996520
783.134201	0.996901
783.457844	0.996648
783.781441	0.995246
784.104993	0.996464
784.428498	0.996549
784.751958	0.997924
785.075372	0.997025
785.398739	0.996002
785.722061	0.995296
786.045337	0.996581
786.368568	0.995944
786.691752	0.995763
787.014891	0.995629
787.337983	0.995268
787.661030	0.995455
787.984031	0.995612
788.306987	0.994659
788.629897	0.992786
788.952760	0.994905
789.275579	0.995141
789.598351	0.994494
789.921078	0.995877
790.243759	0.996208
790.566395	0.994749
790.888984	0.995832
791.211529	0.995702
791.534027	0.995420
791.856480	0.996076
792.178888	0.995675
792.501249	0.996853
792.823566	0.996841
793.145836	0.996737
793.468062	0.997539
793.790241	0.996540
794.112375	0.995742
794.434464	0.996489
794.756507	0.996666
795.078505	0.996990
795.400457	0.996485
795.722364	0.997169
796.044226	0.995314
796.366042	0.995130
796.687812	0.994640
797.009538	0.995520
797.331218	0.996708
797.652852	0.996682
797.974442	0.994726
798.295986	0.996068
798.617484	0.995285
798.938938	0.995504
799.260346	0.995416
799.581709	0.995544
799.903026	0.996586
800.224299	0.996415
800.545526	0.996400
800.866708	0.996108
801.187845	0.996339
801.508936	0.997433
801.829983	0.996384
802.150984	0.996791
802.471940	0.996967
802.792851	0.997253
803.113717	0.998287
803.434538	0.997714
803.755314	0.997347
804.076045	0.996770
804.396731	0.997369
804.717372	0.995160
805.037967	0.996971
805.358518	0.997808
805.679024	0.996499
805.999485	0.997255
806.319901	0.997173
806.640272	0.997278
806.960598	0.996851
807.280879	0.995843
807.601115	0.995995
807.921306	0.997590
808.241453	0.995915
808.561554	0.997409
808.881611	0.996973
809.201623	0.995271
809.521590	0.996182
809.841513	0.996976
810.161390	0.995796
810.481223	0.996033
810.801011	0.996651
811.120755	0.997469
811.440453	0.996217
811.760107	0.997196
812.079716	0.996976
812.399281	0.996611
812.718801	0.996072
813.038276	0.996789
813.357707	0.997398
813.677093	0.997863
813.996434	0.996940
814.315731	0.998170
814.634983	0.996823
814.954191	0.997799
815.273354	0.996488
815.592473	0.996355
815.911547	0.997377
816.230577	0.996604
816.549562	0.996006
816.868502	0.994797
817.187399	0.998040
817.506250	0.996201
817.825058	0.995420
818.143821	0.995813
818.462539	0.995751
818.781213	0.995815
819.099843	0.995753
819.418429	0.993929
819.736970	0.994656
820.055466	0.991830
820.373919	0.991345
820.692327	0.991140
821.010691	0.988913
821.329011	0.984714
821.647286	0.980547
821.965517	0.975921
822.283704	0.970984
822.601847	0.968870
822.919945	0.969924
823.237999	0.972869
823.556010	0.974767
823.873976	0.977181
824.191897	0.980895
824.509775	0.982495
824.827609	0.984342
825.145398	0.986977
825.463144	0.985193
825.780845	0.985485
826.098502	0.985705
826.416116	0.985440
826.733685	0.982420
827.051210	0.978455
827.368692	0.980228
827.686129	0.981321
828.003522	0.985004
828.320872	0.985934
828.638177	0.988632
828.955439	0.990383
829.272656	0.991498
829.589830	0.992135
829.906960	0.992670
830.224046	0.993570
830.541088	0.994054
830.858086	0.994224
831.175041	0.994351
831.491952	0.994894
831.808819	0.995799
832.125642	0.995466
832.442421	0.993730
832.759157	0.993535
833.075849	0.990785
833.392497	0.988763
833.709101	0.985926
834.025662	0.985435
834.342179	0.986906
834.658653	0.989817
834.975083	0.990510
835.291469	0.991732
835.607811	0.993476
835.924110	0.994176
836.240366	0.995614
836.556578	0.996393
836.872746	0.996559
837.188871	0.996599
837.504952	0.996588
837.820990	0.996608
838.136984	0.996355
838.452935	0.996808
838.768842	0.998063
839.084706	0.996410
839.400526	0.996473
839.716303	0.993833
840.032037	0.993582
840.347727	0.992492
840.663373	0.992934
840.978977	0.994235
841.294537	0.995224
841.610054	0.995835
841.925527	0.997964
842.240957	0.997382
842.556344	0.997563
842.871687	0.997631
843.186987	0.998622
843.502244	0.998852
843.817458	0.997866
844.132629	0.999026
844.447756	0.999410
844.762840	0.999322
845.077881	0.999673
845.392879	0.997700
845.707833	0.998968
846.022745	0.998449
846.337613	0.999634
846.652438	0.998679
846.967221	1.000044
847.281960	0.999118
847.596656	0.999869
847.911309	0.998899
848.225919	0.998911
848.540485	1.000243
848.855009	1.000302
849.169490	0.999041
849.483928	0.998819
849.798323	0.997741
850.112675	1.000395
850.426984	1.000060
850.741251	0.999521
851.055474	0.999736
851.369654	0.999689
851.683792	0.998965
851.997887	0.999116
852.311938	0.999652
852.625947	0.998961
852.939914	0.998196
853.253837	0.999687
853.567718	0.999661
853.881555	0.998928
854.195350	0.999584
854.509103	0.998401
854.822812	1.000076
855.136479	0.998335
855.450103	0.999701
855.763685	0.999620
856.077224	0.998706
856.390720	0.998440
856.704173	0.999363
857.017584	0.999449
857.330953	0.998926
857.644278	0.998473
857.957561	0.999301
858.270802	0.998669
858.584000	0.998353
858.897155	0.998501
859.210268	0.999777
859.523339	1.000688
859.836367	0.998884
860.149352	0.998116
860.462295	0.999736
860.775195	1.000817
861.088054	0.998826
861.400869	0.998524
861.713642	0.998172
862.026373	0.999268
862.339062	0.999603
862.651708	0.998612
862.964312	1.000691
863.276873	0.997974
863.589392	0.999007
863.901869	0.998799
864.214303	0.999505
864.526696	0.998733
864.839045	0.999547
865.151353	0.998487
865.463619	0.997344
865.775842	0.998490
866.088023	0.999489
866.400162	0.999070
866.712258	0.999604
867.024313	0.998759
867.336325	1.000317
867.648296	0.999107
867.960224	0.997756
868.272110	0.999045
868.583954	0.998887
868.895755	0.998941
869.207515	0.998763
869.519233	0.999365
869.830909	0.996593
870.142542	0.998693
870.454134	0.997926
870.765684	0.997818
871.077191	0.998865
871.388657	0.998160
871.700081	0.998574
872.011463	0.998229
872.322803	0.997872
872.634101	0.997432
872.945357	0.997380
873.256571	0.996372
873.567744	0.998147
873.878874	0.996705
874.189963	0.997374
874.501010	0.999478
874.812015	0.996712
875.122979	0.997812
875.433900	0.997132
875.744780	0.998245
876.055618	0.996346
876.366415	0.996291
876.677169	0.995618
876.987882	0.996967
877.298554	0.998382
877.609183	0.997567
877.919771	0.997467
878.230317	0.996669
878.540822	0.994823
878.851285	0.995955
879.161707	0.995673
879.472087	0.994711
879.782425	0.992568
880.092722	0.991217
880.402977	0.986865
880.713191	0.982109
881.023363	0.976380
881.333494	0.973034
881.643583	0.973919
881.953631	0.973113
882.263637	0.973152
882.573602	0.974699
882.883526	0.976934
883.193408	0.979767
883.503248	0.982263
883.813048	0.983676
884.122806	0.986142
884.432522	0.986876
884.742197	0.990297
885.051831	0.991370
885.361424	0.991563
885.670975	0.993408
885.980485	0.993541
886.289954	0.993622
886.599382	0.993941
886.908768	0.995691
887.218113	0.995378
887.527417	0.995516
887.836680	0.996245
888.145901	0.996468
888.455082	0.997766
888.764221	0.998085
889.073319	0.996742
889.382376	0.996905
889.691392	0.996185
890.000366	0.997375
890.309300	0.996602
890.618193	0.997112
890.927044	0.996765
891.235855	0.996737
891.544625	0.996782
891.853353	0.996397
892.162041	0.996029
892.470687	0.997338
892.779293	0.995507
893.087858	0.994106
893.396381	0.994245
893.704864	0.992334
894.013306	0.991649
894.321707	0.989832
894.630068	0.987794
894.938387	0.986423
895.246665	0.986633
895.554903	0.987516
895.863100	0.989766
896.171256	0.990077
896.479371	0.991822
896.787446	0.992743
897.095480	0.994174
897.403473	0.994668
897.711425	0.994706
898.019336	0.995513
898.327207	0.996486
898.635038	0.995103
898.942827	0.996166
899.250576	0.996035
899.558284	0.997105
899.865952	0.996531
900.173579	0.996180
900.481165	0.997350
900.788711	0.997009
901.096216	0.996190
901.403681	0.996997
901.711105	0.996461
902.018489	0.996181
902.325832	0.996983
902.633135	0.997576
902.940397	0.996984
903.247619	0.995591
903.554800	0.992001
903.861941	0.990039
904.169041	0.985748
904.476101	0.983000
904.783121	0.982985
905.090100	0.986114
905.397039	0.986350
905.703938	0.988608
906.010796	0.990631
906.317614	0.991955
906.624391	0.993731
906.931129	0.995433
907.237826	0.995612
907.544483	0.996146
907.851099	0.997141
908.157675	0.996381
908.464211	0.997987
908.770707	0.997488
909.077163	0.997911
909.383578	0.998003
909.689954	0.997200
909.996289	0.999553
910.302584	0.998526
910.608839	0.999975
910.915054	0.998505
911.221229	1.000050
911.527363	0.998098
911.833458	0.999415
912.139513	0.998119
912.445527	0.999101
912.751502	0.999019
913.057436	0.996902
913.363331	0.998113
913.669186	0.997787
913.975000	0.997802
914.280775	0.996369
914.586510	0.993853
914.892205	0.993333
915.197859	0.991425
915.503475	0.989852
915.809050	0.987037
916.114585	0.984491
916.420081	0.983902
916.725536	0.984216
917.030952	0.985421
917.336328	0.986588
917.641665	0.988369
917.946961	0.988871
918.252218	0.989900
918.557435	0.991997
918.862612	0.993325
919.167750	0.994321
919.472848	0.994579
919.777906	0.995485
920.082925	0.996751
920.387904	0.996615
920.692843	0.995791
920.997743	0.996405
921.302603	0.996998
921.607423	0.997051
921.912204	0.998481
922.216946	0.999029
922.521647	0.997550
922.826310	0.998461
923.130932	0.998534
923.435516	0.998596
923.740059	0.997808
924.044564	0.998443
924.349028	0.998465
924.653454	0.998531
924.957840	0.999180
925.262186	0.999033
925.566493	0.999853
925.870761	0.998889
926.174989	0.999318
926.479178	1.000420
926.783328	0.999561
927.087438	0.999725
927.391509	0.999308
927.695541	1.000400
927.999533	0.999721
928.303486	0.999788
928.607400	1.000186
928.911275	0.999739
929.215110	1.000878
929.518906	1.000478
929.822663	1.000875
930.126381	1.000897
930.430060	1.000194
930.733699	0.999685
931.037299	1.001027
931.340861	0.999929
931.644383	0.998344
931.947866	0.999128
932.251309	1.001258
932.554714	0.999444
932.858080	1.000977
933.161407	0.998789
933.464694	0.999715
933.767943	1.001124
934.071153	1.000948
934.374323	1.000122
934.677455	0.999531
934.980548	0.999608
935.283602	1.000378
935.586617	1.000551
935.889593	1.000554
936.192530	1.001875
936.495428	0.999664
936.798287	0.999303
937.101108	0.999318
937.403890	0.999777
937.706632	1.000975
938.009336	0.999288
938.312002	0.999271
938.614628	0.999558
938.917216	0.998504
939.219765	0.998291
939.522275	0.998700
939.824747	0.998622
940.127179	0.999926
940.429573	0.999462
940.731929	0.998374
941.034246	0.998664
941.336524	0.997870
941.638763	0.997800
941.940964	0.998521
942.243126	0.999011
942.545250	1.000397
942.847335	0.999977
943.149381	1.000977
943.451389	0.999463
943.753359	0.999360
944.055290	1.000296
944.357182	0.999952
944.659036	1.001058
944.960851	1.000299
945.262628	0.999820
945.564367	0.999841
945.866067	1.000935
946.167729	1.000743
946.469352	0.999960
946.770937	0.997260
947.072484	1.000455
947.373992	1.000040
947.675462	0.998403
947.976893	0.998815
948.278286	1.001342
948.579641	1.002040
948.880958	0.999778
949.182236	1.000768
949.483476	1.000844
949.784678	1.000445
950.085841	0.998780
950.386967	0.999804
950.688054	0.999032
950.989103	0.998637
951.290114	0.999065
951.591087	0.999581
951.892021	0.999533
952.192917	0.998850
952.493776	1.001221
952.794596	0.999204
953.095378	0.998855
953.396122	0.998562
953.696828	0.998851
953.997496	0.999677
954.298126	1.001207
954.598718	0.999520
954.899272	1.000064
955.199788	0.999615
955.500266	1.000531
955.800706	1.001074
956.101108	0.999562
956.401472	1.001515
956.701798	0.999697
957.002087	1.000253
957.302337	1.000494
957.602550	1.000223
957.902724	1.000688
958.202861	1.000534
958.502960	1.000475
958.803022	1.001392
959.103045	1.000697
959.403031	1.001458
959.702979	1.002043
960.002889	1.001484
960.302762	0.999391
960.602596	1.001313
960.902393	1.001403
961.202153	1.001376
961.501875	1.000686
961.801559	1.001900
962.101205	1.000578
962.400814	1.001714
962.700385	1.001713
962.999918	1.001320
963.299414	1.000020
963.598873	1.002528
963.898293	1.000249
964.197677	0.999882
964.497022	1.001924
964.796331	1.001752
965.095601	1.002468
965.394835	1.001018
965.694030	1.001746
965.993189	1.001162
966.292309	1.001834
966.591393	1.000989
966.890439	1.001916
967.189447	1.000574
967.488419	1.001386
967.787353	1.001144
968.086249	1.001052
968.385108	1.001527
968.683930	1.001778
968.982714	1.002172
969.281462	1.001632
969.580172	1.002021
969.878844	1.001262
970.177480	1.001730
970.476078	1.003077
970.774639	1.002812
971.073162	1.001271
971.371649	1.001408
971.670098	1.000709
971.968510	1.002533
972.266885	1.001165
972.565223	1.001515
972.863524	0.999506
973.161788	1.001579
973.460014	1.001782
973.758204	0.999584
974.056356	1.001384
974.354471	1.001140
974.652550	1.002088
974.950591	1.001218
975.248595	1.001221
975.546563	1.001585
975.844493	1.001683
976.142386	0.999846
976.440243	1.001188
976.738062	1.001935
977.035845	1.001030
977.333590	1.002124
977.631299	1.001986
977.928971	1.001907
978.226606	1.001033
978.524204	1.000993
978.821765	1.002236
979.119290	1.002132
979.416777	1.001928
979.714228	1.002322
980.011642	1.002338
980.309020	1.002002
980.606360	1.001040
980.903664	1.001933
981.200931	0.999649
981.498162	1.001772
981.795356	1.002017
982.092513	1.000967
982.389633	1.001479
982.686717	1.000199
982.983764	1.000889
983.280775	1.000724
983.577749	1.001848
983.874686	0.998998
984.171587	1.000043
984.468451	1.000327
984.765279	1.001806
985.062070	1.001203
985.358824	1.001385
985.655543	1.002579
985.952224	1.001470
986.248869	1.001339
986.545478	1.003390
986.842050	1.001186
987.138586	1.001480
987.435086	1.001601
987.731549	1.002636
988.027975	1.003025
988.324366	1.002085
988.620719	1.002393
988.917037	1.002054
989.213318	1.001694
989.509563	1.002922
989.805772	1.002579
990.101944	1.004315
990.398080	1.002183
990.694180	1.002460
990.990244	1.000766
991.286271	1.001794
991.582262	1.001879
991.878217	1.001176
992.174136	1.003034
992.470019	1.002196
992.765865	1.002963
993.061676	1.002217
993.357450	1.001448
993.653188	1.002962
993.948890	1.001581
994.244556	1.000817
994.540186	1.002034
994.835780	1.000497
995.131337	1.001822
995.426859	1.002246
995.722345	1.001397
996.017795	1.000757
996.313208	1.001533
996.608586	1.001600
996.903928	1.001654
997.199234	1.001918
997.494504	1.002387
997.789738	1.000715
998.084936	1.002074
998.380099	1.001498
998.675225	1.003319
998.970316	1.002413
999.265371	1.001651
999.560390	1.001982
999.855373	1.001106
1000.150320	1.003155
1000.445232	1.001582
1000.740108	1.001146
1001.034948	1.001092
1001.329752	1.002544
1001.624521	1.002322
1001.919254	1.001099
1002.213951	1.002642
1002.508613	1.001348
1002.803239	1.001144
1003.097829	1.002189
1003.392384	1.002565
1003.686903	1.003718
1003.981386	0.999855
1004.275834	1.002886
1004.570246	1.001131
1004.864623	1.003100
1005.158964	1.002908
1005.453270	1.001964
1005.747540	1.001965
1006.041775	1.002381
1006.335974	1.002897
1006.630138	1.002730
1006.924266	1.001926
1007.218359	1.001190
1007.512416	1.002450
1007.806438	1.002847
1008.100425	1.001831
1008.394376	1.003346
1008.688292	1.001069
1008.982172	1.001320
1009.276017	1.003939
1009.569827	1.003189
1009.863602	1.000867
1010.157341	1.002729
1010.451045	1.001850
1010.744714	1.002753
1011.038347	1.002505
1011.331945	1.000923
1011.625508	1.003143
1011.919036	1.001384
1012.212528	1.003433
1012.505986	1.001779
1012.799408	1.003023
1013.092795	1.002890
1013.386147	1.001751
1013.679464	1.001988
1013.972745	1.002689
1014.265992	1.001766
1014.559204	1.001018
1014.852380	1.003350
1015.145521	1.002110
1015.438628	1.003130
1015.731699	1.002928
1016.024736	1.002978
1016.317737	1.001936
1016.610703	1.003923
1016.903635	1.002287
1017.196531	1.000931
1017.489393	1.002558
1017.782219	1.001276
1018.075011	1.001842
1018.367768	1.000940
1018.660490	1.001399
1018.953177	1.001399
1019.245829	1.001399
