Dividing Wavelength (nm)	Counts (n)	Blue Motor Position (mm): 3.400000	Red Motor Position (mm): 0.000000	
326.493990	1.006816
326.888308	1.006816
327.282561	1.006816
327.676750	1.007463
328.070874	1.007925
328.464933	1.007280
328.858929	1.008386
329.252859	1.006923
329.646726	1.006049
330.040528	1.006346
330.434265	1.005923
330.827938	1.006328
331.221547	1.006480
331.615091	1.007016
332.008571	1.008989
332.401986	1.005890
332.795338	1.006398
333.188625	1.006938
333.581847	1.005558
333.975006	1.007003
334.368100	1.006830
334.761129	1.005355
335.154095	1.006790
335.546996	1.004571
335.939833	0.998620
336.332606	0.999886
336.725315	0.999862
337.117960	1.001642
337.510540	0.998438
337.903056	1.000536
338.295508	1.000264
338.687896	0.999772
339.080220	1.000251
339.472480	1.000449
339.864676	1.000134
340.256807	0.998570
340.648875	1.000536
341.040879	0.999572
341.432818	1.000215
341.824694	0.998573
342.216506	1.000626
342.608253	0.999365
342.999937	0.999914
343.391557	0.999991
343.783113	1.001621
344.174605	0.999535
344.566033	0.999136
344.957397	1.000835
345.348697	1.001286
345.739934	0.999616
346.131106	0.998260
346.522215	0.999214
346.913260	0.998871
347.304241	0.998744
347.695159	0.999605
348.086012	0.998629
348.476802	0.999608
348.867528	0.998419
349.258191	1.000139
349.648789	0.999967
350.039324	0.998422
350.429796	0.998884
350.820203	0.998942
351.210548	0.999295
351.600828	1.000180
351.991045	0.998390
352.381198	0.999835
352.771288	0.998810
353.161314	0.999755
353.551276	0.996939
353.941175	0.996979
354.331010	0.999818
354.720782	1.000087
355.110490	0.999370
355.500135	0.999373
355.889717	0.997515
356.279235	0.998567
356.668689	0.999821
357.058080	0.998026
357.447408	0.997889
357.836672	0.998661
358.225873	0.998529
358.615010	0.999492
359.004084	0.998039
359.393095	0.998952
359.782043	0.998195
360.170927	0.998640
360.559748	0.997643
360.948505	0.998772
361.337199	0.997816
361.725830	0.999095
362.114398	0.997956
362.502903	0.997723
362.891344	0.997426
363.279722	0.997891
363.668037	0.997838
364.056289	0.998405
364.444478	0.997816
364.832603	0.997990
365.220665	0.997581
365.608665	0.997748
365.996601	0.998015
366.384474	0.995917
366.772284	0.998135
367.160031	0.995697
367.547715	0.995889
367.935336	0.995086
368.322893	0.994356
368.710388	0.993073
369.097820	0.991826
369.485189	0.989252
369.872495	0.987604
370.259738	0.985301
370.646918	0.982449
371.034035	0.978943
371.421090	0.976920
371.808081	0.972215
372.195010	0.969273
372.581875	0.964986
372.968678	0.960591
373.355418	0.956657
373.742096	0.949228
374.128710	0.944682
374.515262	0.940794
374.901751	0.935021
375.288177	0.929597
375.674540	0.922345
376.060841	0.916583
376.447079	0.909387
376.833254	0.902901
377.219367	0.898203
377.605417	0.887260
377.991404	0.883858
378.377329	0.877106
378.763191	0.871266
379.148991	0.861765
379.534727	0.853750
379.920402	0.845501
380.306013	0.842269
380.691563	0.828848
381.077049	0.822486
381.462474	0.819325
381.847835	0.807429
382.233134	0.803181
382.618371	0.802940
383.003545	0.785731
383.388657	0.783719
383.773706	0.775284
384.158693	0.772560
384.543618	0.766417
384.928480	0.758066
385.313280	0.747707
385.698017	0.747631
386.082692	0.735846
386.467305	0.734283
386.851856	0.729520
387.236344	0.723819
387.620770	0.718181
388.005133	0.712654
388.389435	0.706828
388.773674	0.704382
389.157851	0.696376
389.541965	0.693384
389.926018	0.700509
390.310008	0.686451
390.693936	0.683922
391.077802	0.676501
391.461606	0.677866
391.845348	0.666025
392.229027	0.666338
392.612645	0.664246
392.996200	0.651573
393.379694	0.643998
393.763125	0.634938
394.146494	0.639328
394.529801	0.629696
394.913047	0.622045
395.296230	0.627917
395.679351	0.618787
396.062410	0.615612
396.445408	0.619326
396.828343	0.614236
397.211217	0.609181
397.594028	0.620849
397.976778	0.611780
398.359466	0.607873
398.742092	0.603674
399.124656	0.615046
399.507158	0.603518
399.889598	0.600993
400.271977	0.591602
400.654294	0.595902
401.036549	0.594447
401.418742	0.599232
401.800874	0.584842
402.182944	0.582232
402.564952	0.573276
402.946898	0.575290
403.328783	0.576147
403.710606	0.587935
404.092367	0.562538
404.474067	0.567318
404.855705	0.566171
405.237282	0.574941
405.618797	0.561220
406.000250	0.556498
406.381642	0.546812
406.762972	0.551614
407.144240	0.551326
407.525447	0.550077
407.906593	0.543141
408.287677	0.538630
408.668700	0.547195
409.049661	0.541509
409.430560	0.536049
409.811399	0.545269
410.192176	0.527108
410.572891	0.533994
410.953545	0.521499
411.334138	0.535473
411.714669	0.528304
412.095139	0.540013
412.475547	0.523993
412.855894	0.525967
413.236180	0.524875
413.616405	0.530277
413.996568	0.520786
414.376670	0.527084
414.756711	0.532603
415.136691	0.528377
415.516609	0.520116
415.896466	0.516253
416.276262	0.513243
416.655997	0.514347
417.035670	0.496050
417.415283	0.487906
417.794834	0.491904
418.174324	0.497774
418.553753	0.506555
418.933121	0.489180
419.312428	0.482451
419.691674	0.488161
420.070859	0.477114
420.449983	0.485223
420.829045	0.474088
421.208047	0.482556
421.586988	0.476322
421.965867	0.474899
422.344686	0.463341
422.723444	0.476347
423.102141	0.493389
423.480777	0.466457
423.859352	0.486825
424.237866	0.464104
424.616319	0.465231
424.994712	0.455474
425.373044	0.466286
425.751314	0.454015
426.129524	0.470654
426.507673	0.454117
426.885762	0.447939
427.263789	0.453462
427.641756	0.463325
428.019662	0.452594
428.397508	0.452504
428.775292	0.456226
429.153016	0.448787
429.530679	0.454770
429.908282	0.447855
430.285824	0.458183
430.663305	0.436902
431.040726	0.457880
431.418086	0.457232
431.795385	0.449267
432.172624	0.448616
432.549802	0.448892
432.926920	0.447896
433.303977	0.447306
433.680974	0.444483
434.057910	0.442935
434.434786	0.442145
434.811601	0.445285
435.188355	0.427093
435.565050	0.436818
435.941683	0.437796
436.318257	0.421870
436.694770	0.423272
437.071222	0.420898
437.447614	0.425606
437.823946	0.431775
438.200218	0.421215
438.576429	0.430589
438.952580	0.423795
439.328670	0.419966
439.704700	0.427046
440.080670	0.428176
440.456580	0.409394
440.832429	0.417335
441.208218	0.428265
441.583947	0.417573
441.959616	0.417115
442.335224	0.422248
442.710773	0.412917
443.086261	0.411618
443.461689	0.424852
443.837057	0.415058
444.212365	0.405188
444.587612	0.412092
444.962800	0.401856
445.337927	0.403145
445.712995	0.429466
446.088002	0.391426
446.462949	0.401323
446.837837	0.406367
447.212664	0.395188
447.587431	0.387368
447.962139	0.357743
448.336786	0.316143
448.711374	0.326541
449.085901	0.370795
449.460369	0.375292
449.834776	0.378694
450.209124	0.357855
450.583412	0.350772
450.957640	0.343640
451.331808	0.355420
451.705917	0.378108
452.079965	0.383655
452.453954	0.371144
452.827883	0.378623
453.201752	0.373143
453.575562	0.384367
453.949311	0.372680
454.323001	0.378897
454.696632	0.374938
455.070202	0.367443
455.443713	0.359210
455.817164	0.354150
456.190556	0.349272
456.563888	0.346586
456.937160	0.343939
457.310373	0.361626
457.683526	0.360128
458.056619	0.366237
458.429653	0.366383
458.802628	0.369731
459.175542	0.364114
459.548398	0.346928
459.921194	0.339520
460.293930	0.339785
460.666607	0.316781
461.039224	0.305284
461.411782	0.300679
461.784280	0.300085
462.156719	0.304142
462.529099	0.308322
462.901419	0.324788
463.273680	0.328930
463.645882	0.328643
464.018024	0.334645
464.390106	0.326983
464.762130	0.311753
465.134094	0.294663
465.505999	0.263519
465.877845	0.233810
466.249631	0.220991
466.621358	0.228228
466.993026	0.242267
467.364634	0.248518
467.736184	0.257372
468.107674	0.266108
468.479105	0.265218
468.850477	0.271776
469.221790	0.278537
469.593043	0.288955
469.964238	0.293943
470.335373	0.293331
470.706449	0.291587
471.077467	0.292006
471.448425	0.253845
471.819324	0.229422
472.190164	0.228939
472.560945	0.257708
472.931667	0.280365
473.302330	0.284499
473.672934	0.296106
474.043479	0.284679
474.413965	0.286236
474.784393	0.289705
475.154761	0.284564
475.525070	0.281624
475.895321	0.287671
476.265513	0.281434
476.635645	0.276990
477.005719	0.276781
477.375734	0.273544
477.745691	0.266700
478.115588	0.263299
478.485427	0.256534
478.855207	0.243374
479.224928	0.226056
479.594591	0.214259
479.964194	0.217384
480.333739	0.218671
480.703226	0.219905
481.072653	0.218323
481.442022	0.213971
481.811333	0.210816
482.180584	0.214334
482.549777	0.219771
482.918912	0.222915
483.287988	0.222801
483.657005	0.222425
484.025964	0.228314
484.394864	0.225693
484.763706	0.226604
485.132489	0.231675
485.501213	0.232409
485.869879	0.230770
486.238487	0.233798
486.607036	0.231860
486.975527	0.236577
487.343959	0.232403
487.712333	0.231366
488.080648	0.232679
488.448905	0.231844
488.817104	0.233457
489.185244	0.227659
489.553326	0.224650
489.921350	0.214478
490.289315	0.196829
490.657222	0.191842
491.025070	0.193288
491.392861	0.195157
491.760593	0.200946
492.128267	0.206652
492.495883	0.212115
492.863440	0.218170
493.230939	0.224906
493.598380	0.226357
493.965763	0.228441
494.333088	0.230656
494.700354	0.232046
495.067563	0.230940
495.434713	0.234410
495.801805	0.232068
496.168839	0.234085
496.535815	0.235070
496.902733	0.235127
497.269593	0.236489
497.636395	0.234642
498.003139	0.234542
498.369825	0.237554
498.736453	0.234158
499.103023	0.236044
499.469535	0.235144
499.835989	0.235587
500.202385	0.236250
500.568723	0.239635
500.935003	0.234529
501.301226	0.238903
501.667390	0.233237
502.033497	0.231370
502.399546	0.234307
502.765537	0.236237
503.131470	0.234667
503.497345	0.230979
503.863163	0.239612
504.228923	0.232573
504.594625	0.231235
504.960269	0.236749
505.325856	0.232058
505.691385	0.236566
506.056856	0.233142
506.422270	0.232713
506.787625	0.234829
507.152924	0.232149
507.518164	0.232867
507.883347	0.234496
508.248472	0.236053
508.613540	0.230844
508.978550	0.233932
509.343503	0.234247
509.708398	0.231990
510.073236	0.229404
510.438016	0.229299
510.802738	0.230154
511.167403	0.229194
511.532010	0.231598
511.896561	0.226661
512.261053	0.225230
512.625488	0.227790
512.989866	0.227907
513.354186	0.228057
513.718449	0.229906
514.082655	0.226201
514.446803	0.228928
514.810894	0.226353
515.174927	0.228883
515.538904	0.228649
515.902822	0.225084
516.266684	0.227768
516.630488	0.228985
516.994235	0.227762
517.357925	0.226369
517.721558	0.224629
518.085133	0.224247
518.448651	0.224177
518.812112	0.226927
519.175516	0.226268
519.538863	0.223777
519.902152	0.225667
520.265385	0.222528
520.628560	0.223963
520.991678	0.224327
521.354739	0.223404
521.717743	0.224501
522.080690	0.225076
522.443580	0.222583
522.806413	0.223095
523.169189	0.222668
523.531908	0.221545
523.894569	0.224873
524.257174	0.224716
524.619722	0.222483
524.982213	0.223919
525.344647	0.222654
525.707025	0.223476
526.069345	0.221633
526.431608	0.223813
526.793815	0.221314
527.155964	0.225642
527.518057	0.224483
527.880093	0.225450
528.242072	0.224192
528.603995	0.225826
528.965860	0.227497
529.327669	0.226708
529.689421	0.227345
530.051117	0.228265
530.412755	0.226019
530.774337	0.228258
531.135862	0.228699
531.497331	0.227799
531.858743	0.230897
532.220098	0.227621
532.581396	0.230034
532.942638	0.230684
533.303824	0.231754
533.664953	0.231232
534.026025	0.232945
534.387040	0.231121
534.747999	0.230810
535.108902	0.229560
535.469748	0.234868
535.830537	0.232525
536.191270	0.233078
536.551947	0.232672
536.912567	0.232855
537.273131	0.234172
537.633638	0.234399
537.994089	0.234908
538.354483	0.235980
538.714821	0.232922
539.075103	0.232824
539.435328	0.233622
539.795497	0.237230
540.155609	0.233774
540.515665	0.232000
540.875665	0.237251
541.235609	0.236255
541.595496	0.236316
541.955328	0.232910
542.315102	0.235203
542.674821	0.236414
543.034483	0.236455
543.394090	0.236393
543.753640	0.238322
544.113134	0.232872
544.472571	0.236402
544.831953	0.233425
545.191278	0.237618
545.550548	0.236793
545.909761	0.233831
546.268918	0.234640
546.628019	0.232772
546.987064	0.235566
547.346053	0.237366
547.704986	0.234994
548.063863	0.235538
548.422684	0.235372
548.781449	0.237195
549.140158	0.235113
549.498811	0.237907
549.857408	0.240897
550.215949	0.235544
550.574434	0.238724
550.932864	0.236718
551.291237	0.235394
551.649555	0.237079
552.007817	0.236570
552.366022	0.237552
552.724173	0.237639
553.082267	0.238025
553.440305	0.234768
553.798288	0.239180
554.156215	0.235517
554.514086	0.236471
554.871902	0.239605
555.229661	0.238612
555.587365	0.239377
555.945014	0.241929
556.302606	0.239009
556.660143	0.241447
557.017625	0.237886
557.375050	0.240337
557.732421	0.237242
558.089735	0.239088
558.446994	0.238987
558.804197	0.238655
559.161345	0.238214
559.518437	0.241820
559.875474	0.239651
560.232455	0.239204
560.589381	0.240291
560.946251	0.240518
561.303065	0.237874
561.659825	0.239365
562.016528	0.240939
562.373177	0.243508
562.729770	0.240960
563.086307	0.242773
563.442789	0.240708
563.799216	0.243624
564.155587	0.242652
564.511904	0.243635
564.868164	0.243750
565.224370	0.243376
565.580520	0.245412
565.936615	0.244809
566.292654	0.248225
566.648638	0.245084
567.004567	0.245957
567.360441	0.246512
567.716260	0.248631
568.072023	0.246079
568.427732	0.247066
568.783385	0.249598
569.138982	0.247533
569.494525	0.247515
569.850013	0.250010
570.205445	0.248864
570.560823	0.250921
570.916145	0.253265
571.271412	0.251313
571.626625	0.252720
571.981782	0.253326
572.336884	0.254187
572.691931	0.253757
573.046923	0.255541
573.401860	0.256482
573.756743	0.258010
574.111570	0.256774
574.466342	0.257769
574.821059	0.256669
575.175722	0.259782
575.530330	0.259321
575.884882	0.259455
576.239380	0.261520
576.593823	0.262000
576.948211	0.261717
577.302544	0.264592
577.656823	0.264321
578.011047	0.264437
578.365216	0.265209
578.719330	0.267212
579.073389	0.266493
579.427394	0.268179
579.781344	0.268847
580.135239	0.269984
580.489080	0.270084
580.842866	0.273060
581.196597	0.272968
581.550273	0.271794
581.903895	0.272870
582.257463	0.270809
582.610975	0.274204
582.964434	0.273630
583.317837	0.276163
583.671186	0.276785
584.024481	0.276292
584.377721	0.278926
584.730906	0.279460
585.084037	0.278798
585.437113	0.280842
585.790135	0.280397
586.143103	0.283571
586.496016	0.283955
586.848874	0.281979
587.201679	0.282449
587.554428	0.285522
587.907124	0.284686
588.259765	0.285222
588.612352	0.285731
588.964884	0.289726
589.317362	0.289272
589.669786	0.289021
590.022155	0.287425
590.374470	0.286664
590.726731	0.288477
591.078937	0.294060
591.431090	0.290283
591.783188	0.294184
592.135232	0.294859
592.487222	0.294906
592.839157	0.292804
593.191038	0.295366
593.542866	0.297070
593.894639	0.300628
594.246358	0.298725
594.598022	0.298153
594.949633	0.301886
595.301190	0.302678
595.652692	0.301594
596.004141	0.297919
596.355535	0.305864
596.706876	0.306520
597.058162	0.308928
597.409395	0.305929
597.760573	0.303994
598.111698	0.307333
598.462768	0.307741
598.813785	0.308929
599.164748	0.310244
599.515657	0.310326
599.866511	0.313979
600.217312	0.309395
600.568060	0.314244
600.918753	0.310784
601.269392	0.311831
601.619978	0.315032
601.970510	0.312372
602.320988	0.312423
602.671412	0.310305
603.021783	0.313159
603.372100	0.314378
603.722363	0.314262
604.072572	0.314820
604.422728	0.314428
604.772830	0.316697
605.122878	0.316332
605.472872	0.317410
605.822813	0.315282
606.172701	0.318330
606.522534	0.315341
606.872314	0.315709
607.222041	0.316633
607.571714	0.314229
607.921333	0.316186
608.270899	0.315577
608.620411	0.312372
608.969870	0.316713
609.319276	0.316460
609.668627	0.316191
610.017926	0.314732
610.367171	0.313177
610.716362	0.313825
611.065500	0.314050
611.414585	0.313109
611.763616	0.313424
612.112594	0.313806
612.461518	0.313117
612.810389	0.311122
613.159207	0.313349
613.507971	0.315142
613.856682	0.311279
614.205340	0.312041
614.553945	0.309599
614.902496	0.313189
615.250994	0.311152
615.599439	0.312038
615.947830	0.311417
616.296169	0.312167
616.644454	0.311977
616.992686	0.311876
617.340864	0.309974
617.688990	0.313192
618.037063	0.309935
618.385082	0.311601
618.733048	0.308452
619.080961	0.310660
619.428821	0.310269
619.776628	0.310063
620.124382	0.312383
620.472083	0.312968
620.819731	0.312058
621.167326	0.315979
621.514868	0.316019
621.862357	0.320125
622.209793	0.319147
622.557176	0.321627
622.904506	0.322177
623.251783	0.325277
623.599007	0.327364
623.946179	0.326765
624.293297	0.328925
624.640363	0.333191
624.987376	0.333003
625.334336	0.335892
625.681243	0.338118
626.028097	0.338621
626.374899	0.339528
626.721647	0.340230
627.068343	0.343401
627.414987	0.344218
627.761577	0.346490
628.108115	0.344683
628.454600	0.350120
628.801032	0.347518
629.147412	0.349244
629.493739	0.350469
629.840014	0.352992
630.186236	0.349745
630.532405	0.356065
630.878521	0.353205
631.224585	0.355562
631.570597	0.359002
631.916556	0.357844
632.262462	0.357493
632.608316	0.359860
632.954117	0.360419
633.299866	0.361484
633.645562	0.361805
633.991206	0.366150
634.336797	0.368967
634.682336	0.371590
635.027823	0.372983
635.373257	0.373827
635.718639	0.377592
636.063968	0.376625
636.409245	0.381844
636.754470	0.382860
637.099642	0.385421
637.444762	0.388905
637.789829	0.387986
638.134845	0.391101
638.479808	0.392131
638.824719	0.392269
639.169577	0.396058
639.514383	0.395587
639.859137	0.399101
640.203839	0.398696
640.548489	0.399802
640.893086	0.400692
641.237632	0.402573
641.582125	0.401032
641.926566	0.403233
642.270955	0.402811
642.615292	0.402829
642.959576	0.401896
643.303809	0.403278
643.647990	0.402772
643.992118	0.403324
644.336195	0.406265
644.680219	0.404982
645.024192	0.405332
645.368112	0.399264
645.711981	0.397724
646.055797	0.393079
646.399562	0.395609
646.743274	0.388651
647.086935	0.385334
647.430544	0.385226
647.774101	0.384014
648.117606	0.384054
648.461059	0.384460
648.804460	0.387258
649.147810	0.391586
649.491108	0.393878
649.834354	0.395776
650.177548	0.400671
650.520690	0.405939
650.863781	0.407069
651.206820	0.406750
651.549807	0.410903
651.892742	0.414982
652.235626	0.414406
652.578458	0.415701
652.921238	0.422184
653.263967	0.419138
653.606644	0.423457
653.949269	0.423664
654.291843	0.426964
654.634365	0.424399
654.976836	0.426684
655.319255	0.427683
655.661622	0.428582
656.003938	0.429409
656.346203	0.431611
656.688416	0.429675
657.030577	0.433142
657.372687	0.435370
657.714746	0.435779
658.056753	0.432551
658.398708	0.436679
658.740612	0.437922
659.082465	0.433815
659.424266	0.434629
659.766016	0.434452
660.107715	0.437666
660.449362	0.435831
660.790958	0.436184
661.132503	0.437503
661.473996	0.434549
661.815438	0.435738
662.156829	0.436193
662.498168	0.436568
662.839456	0.437631
663.180693	0.435732
663.521879	0.435649
663.863013	0.436568
664.204097	0.434559
664.545129	0.432031
664.886110	0.432243
665.227040	0.429913
665.567918	0.432512
665.908746	0.429993
666.249522	0.429941
666.590248	0.430323
666.930922	0.428782
667.271545	0.427600
667.612118	0.427600
667.952639	0.429379
668.293109	0.427842
668.633528	0.431204
668.973896	0.430801
669.314213	0.431164
669.654480	0.433213
669.994695	0.433038
670.334859	0.433743
670.674973	0.434469
671.015035	0.434466
671.355047	0.434477
671.695008	0.435532
672.034918	0.437591
672.374777	0.436308
672.714585	0.437453
673.054342	0.436874
673.394049	0.438156
673.733705	0.435383
674.073310	0.436833
674.412864	0.439795
674.752368	0.440193
675.091820	0.440418
675.431223	0.444999
675.770574	0.444507
676.109875	0.447748
676.449125	0.447008
676.788324	0.450194
677.127473	0.455424
677.466571	0.455291
677.805619	0.456856
678.144616	0.457634
678.483562	0.459864
678.822458	0.462177
679.161303	0.462972
679.500098	0.463400
679.838842	0.464734
680.177535	0.464353
680.516179	0.462971
680.854771	0.462491
681.193314	0.455490
681.531805	0.447003
681.870247	0.435466
682.208638	0.428140
682.546978	0.426791
682.885268	0.428507
683.223508	0.434309
683.561697	0.439027
683.899836	0.441112
684.237925	0.444181
684.575963	0.446806
684.913951	0.450358
685.251889	0.446195
685.589776	0.448314
685.927614	0.450351
686.265401	0.445167
686.603137	0.445960
686.940824	0.440671
687.278460	0.438725
687.616046	0.437798
687.953582	0.432664
688.291068	0.434019
688.628504	0.429353
688.965889	0.432373
689.303224	0.435675
689.640510	0.439326
689.977745	0.445722
690.314930	0.453380
690.652065	0.458474
690.989150	0.465595
691.326185	0.472980
691.663170	0.476708
692.000105	0.484053
692.336990	0.490810
692.673825	0.493251
693.010610	0.500409
693.347345	0.506656
693.684030	0.507700
694.020665	0.512447
694.357251	0.521056
694.693786	0.521269
695.030272	0.524467
695.366707	0.528734
695.703093	0.532332
696.039429	0.529258
696.375716	0.532778
696.711952	0.534612
697.048139	0.535968
697.384276	0.538316
697.720363	0.537271
698.056400	0.534839
698.392388	0.540982
698.728326	0.544256
699.064214	0.546687
699.400053	0.547494
699.735842	0.550644
700.071581	0.553829
700.407270	0.557035
700.742910	0.559278
701.078501	0.565523
701.414042	0.566905
701.749533	0.569684
702.084974	0.579342
702.420366	0.571509
702.755709	0.578803
703.091002	0.586325
703.426246	0.580365
703.761440	0.585120
704.096584	0.590912
704.431679	0.587016
704.766725	0.590162
705.101721	0.591402
705.436668	0.587466
705.771565	0.594329
706.106413	0.590320
706.441212	0.586518
706.775961	0.585738
707.110661	0.587580
707.445311	0.584939
707.779913	0.581816
708.114465	0.580369
708.448967	0.577304
708.783421	0.569200
709.117825	0.563364
709.452180	0.562856
709.786485	0.557212
710.120742	0.546985
710.454949	0.548707
710.789107	0.540791
711.123216	0.531594
711.457275	0.532639
711.791286	0.524196
712.125247	0.524000
712.459159	0.534399
712.793023	0.525416
713.126837	0.530393
713.460602	0.530689
713.794318	0.539411
714.127985	0.538692
714.461602	0.550164
714.795171	0.552465
715.128691	0.560063
715.462162	0.567909
715.795584	0.573721
716.128957	0.577208
716.462281	0.583240
716.795556	0.586643
717.128782	0.592863
717.461960	0.601485
717.795088	0.600272
718.128167	0.606313
718.461198	0.614971
718.794180	0.616376
719.127113	0.617991
719.459997	0.621454
719.792833	0.627882
720.125619	0.630523
720.458357	0.635087
720.791046	0.635336
721.123686	0.638452
721.456278	0.645936
721.788821	0.642487
722.121315	0.647029
722.453761	0.650987
722.786158	0.648282
723.118506	0.645197
723.450805	0.652396
723.783056	0.649629
724.115259	0.646470
724.447412	0.645868
724.779518	0.647722
725.111574	0.646242
725.443582	0.642310
725.775542	0.644433
726.107453	0.635928
726.439315	0.636364
726.771129	0.633965
727.102895	0.627434
727.434612	0.620901
727.766281	0.619232
728.097901	0.617886
728.429473	0.617056
728.760996	0.615739
729.092471	0.616622
729.423897	0.620171
729.755276	0.619032
730.086606	0.618975
730.417887	0.614006
730.749120	0.604345
731.080305	0.595435
731.411442	0.590619
731.742530	0.595029
732.073570	0.595006
732.404562	0.586890
732.735506	0.588821
733.066401	0.593401
733.397249	0.602404
733.728048	0.614024
734.058798	0.626625
734.389501	0.638137
734.720156	0.648341
735.050762	0.655160
735.381320	0.656020
735.711831	0.664114
736.042293	0.669431
736.372707	0.667032
736.703073	0.670794
737.033391	0.672864
737.363661	0.670404
737.693883	0.665073
738.024056	0.664172
738.354182	0.664856
738.684260	0.653098
739.014290	0.650399
739.344272	0.650894
739.674207	0.643611
740.004093	0.643174
740.333931	0.644711
740.663722	0.643509
740.993464	0.644500
741.323159	0.648408
741.652806	0.653146
741.982405	0.657704
742.311956	0.664022
742.641460	0.664737
742.970915	0.668527
743.300323	0.675691
743.629683	0.682853
743.958996	0.685486
744.288260	0.688635
744.617477	0.695052
744.946647	0.695887
745.275768	0.702578
745.604842	0.702206
745.933869	0.712347
746.262847	0.713571
746.591778	0.705764
746.920662	0.712964
747.249498	0.719860
747.578286	0.710663
747.907027	0.705477
748.235720	0.707023
748.564365	0.701988
748.892963	0.701258
749.221514	0.705171
749.550017	0.708893
749.878473	0.709517
750.206881	0.716576
750.535242	0.716730
750.863555	0.715311
751.191821	0.717554
751.520039	0.721387
751.848210	0.725519
752.176334	0.718676
752.504411	0.717361
752.832440	0.724693
753.160421	0.729006
753.488356	0.727487
753.816243	0.724337
754.144082	0.733845
754.471875	0.737029
754.799620	0.732806
755.127318	0.733977
755.454969	0.735244
755.782572	0.734548
756.110129	0.738284
756.437638	0.741781
756.765100	0.738012
757.092515	0.735643
757.419882	0.734119
757.747203	0.739383
758.074477	0.741125
758.401703	0.736232
758.728882	0.731820
759.056014	0.730765
759.383099	0.729464
759.710138	0.729771
760.037129	0.726242
760.364073	0.720479
760.690970	0.722398
761.017820	0.727488
761.344623	0.723796
761.671379	0.715564
761.998088	0.703265
762.324751	0.680429
762.651366	0.637387
762.977935	0.570380
763.304456	0.517532
763.630931	0.508502
763.957359	0.548352
764.283740	0.591221
764.610074	0.619636
764.936362	0.651192
765.262602	0.679535
765.588796	0.700209
765.914943	0.717578
766.241044	0.736416
766.567097	0.741655
766.893104	0.752600
767.219064	0.758088
767.544978	0.765680
767.870845	0.779520
768.196665	0.783107
768.522438	0.781434
768.848165	0.783105
769.173846	0.791642
769.499479	0.796326
769.825066	0.800797
770.150607	0.805852
770.476101	0.800408
770.801548	0.802096
771.126949	0.813468
771.452303	0.817471
771.777611	0.815225
772.102872	0.814324
772.428087	0.820442
772.753256	0.823516
773.078378	0.825850
773.403453	0.834777
773.728482	0.839184
774.053465	0.831764
774.378401	0.836284
774.703291	0.844571
775.028135	0.844520
775.352932	0.844282
775.677683	0.849706
776.002388	0.850803
776.327046	0.849936
776.651658	0.853676
776.976224	0.855991
777.300743	0.855371
777.625216	0.858626
777.949643	0.859906
778.274024	0.858810
778.598359	0.862188
778.922647	0.860304
779.246889	0.861444
779.571086	0.864065
779.895236	0.867358
780.219339	0.865472
780.543397	0.860998
780.867409	0.860652
781.191374	0.862853
781.515294	0.863061
781.839167	0.862138
782.162995	0.865524
782.486776	0.862741
782.810511	0.864191
783.134201	0.867317
783.457844	0.865336
783.781441	0.868172
784.104993	0.872743
784.428498	0.873786
784.751958	0.870278
785.075372	0.872105
785.398739	0.876086
785.722061	0.870449
786.045337	0.868086
786.368568	0.871992
786.691752	0.874895
787.014891	0.859736
787.337983	0.851428
787.661030	0.843316
787.984031	0.825100
788.306987	0.812883
788.629897	0.815293
788.952760	0.819666
789.275579	0.824043
789.598351	0.840419
789.921078	0.852919
790.243759	0.854287
790.566395	0.859467
790.888984	0.867026
791.211529	0.872502
791.534027	0.875438
791.856480	0.877560
792.178888	0.881755
792.501249	0.884386
792.823566	0.886032
793.145836	0.886442
793.468062	0.888527
793.790241	0.888845
794.112375	0.886545
794.434464	0.882824
794.756507	0.881257
795.078505	0.880104
795.400457	0.875171
795.722364	0.863445
796.044226	0.856897
796.366042	0.854183
796.687812	0.858125
797.009538	0.853900
797.331218	0.857810
797.652852	0.861721
797.974442	0.866771
798.295986	0.867510
798.617484	0.868467
798.938938	0.874427
799.260346	0.878187
799.581709	0.879062
799.903026	0.883311
800.224299	0.883545
800.545526	0.887530
800.866708	0.891950
801.187845	0.895949
801.508936	0.894862
801.829983	0.892162
802.150984	0.895770
802.471940	0.901631
802.792851	0.899959
803.113717	0.902460
803.434538	0.899727
803.755314	0.902011
804.076045	0.903347
804.396731	0.903193
804.717372	0.902434
805.037967	0.904427
805.358518	0.903940
805.679024	0.899306
805.999485	0.900828
806.319901	0.899175
806.640272	0.902679
806.960598	0.900530
807.280879	0.897086
807.601115	0.894992
807.921306	0.899484
808.241453	0.899514
808.561554	0.898696
808.881611	0.897564
809.201623	0.898477
809.521590	0.899385
809.841513	0.901474
810.161390	0.897699
810.481223	0.900902
810.801011	0.905403
811.120755	0.906471
811.440453	0.905583
811.760107	0.905957
812.079716	0.903996
812.399281	0.907083
812.718801	0.910055
813.038276	0.910731
813.357707	0.910981
813.677093	0.908046
813.996434	0.909800
814.315731	0.911928
814.634983	0.912551
814.954191	0.912129
815.273354	0.908161
815.592473	0.906047
815.911547	0.905794
816.230577	0.902951
816.549562	0.899216
816.868502	0.897625
817.187399	0.896650
817.506250	0.891059
817.825058	0.892811
818.143821	0.889354
818.462539	0.885304
818.781213	0.876428
819.099843	0.864938
819.418429	0.848478
819.736970	0.830468
820.055466	0.810917
820.373919	0.784616
820.692327	0.752102
821.010691	0.715765
821.329011	0.634990
821.647286	0.517783
821.965517	0.402874
822.283704	0.359410
822.601847	0.360030
822.919945	0.395787
823.237999	0.430654
823.556010	0.478856
823.873976	0.535864
824.191897	0.587364
824.509775	0.630769
824.827609	0.676710
825.145398	0.700727
825.463144	0.701101
825.780845	0.684717
826.098502	0.666268
826.416116	0.620024
826.733685	0.574684
827.051210	0.566058
827.368692	0.580703
827.686129	0.619240
828.003522	0.673749
828.320872	0.722246
828.638177	0.767039
828.955439	0.800059
829.272656	0.822430
829.589830	0.840555
829.906960	0.856435
830.224046	0.868404
830.541088	0.879927
830.858086	0.883270
831.175041	0.890850
831.491952	0.888940
831.808819	0.885174
832.125642	0.878584
832.442421	0.865125
832.759157	0.842032
833.075849	0.794443
833.392497	0.728999
833.709101	0.688365
834.025662	0.697386
834.342179	0.729644
834.658653	0.770096
834.975083	0.806772
835.291469	0.834296
835.607811	0.856056
835.924110	0.873626
836.240366	0.890842
836.556578	0.903213
836.872746	0.912663
837.188871	0.918086
837.504952	0.924208
837.820990	0.928209
838.136984	0.931101
838.452935	0.933769
838.768842	0.935408
839.084706	0.927979
839.400526	0.902436
839.716303	0.860495
840.032037	0.838323
840.347727	0.842030
840.663373	0.860980
840.978977	0.882072
841.294537	0.905594
841.610054	0.921412
841.925527	0.930125
842.240957	0.936536
842.556344	0.944208
842.871687	0.950149
843.186987	0.954120
843.502244	0.954492
843.817458	0.956458
844.132629	0.959716
844.447756	0.963923
844.762840	0.965322
845.077881	0.965675
845.392879	0.964499
845.707833	0.967594
846.022745	0.969573
846.337613	0.969789
846.652438	0.970117
846.967221	0.969703
847.281960	0.970812
847.596656	0.972136
847.911309	0.972487
848.225919	0.971695
848.540485	0.974122
848.855009	0.974352
849.169490	0.973663
849.483928	0.972966
849.798323	0.973424
850.112675	0.975000
850.426984	0.974371
850.741251	0.975039
851.055474	0.975184
851.369654	0.974084
851.683792	0.972896
851.997887	0.975169
852.311938	0.974910
852.625947	0.974660
852.939914	0.972532
853.253837	0.974479
853.567718	0.975228
853.881555	0.976431
854.195350	0.974436
854.509103	0.973777
854.822812	0.975181
855.136479	0.975301
855.450103	0.974623
855.763685	0.974389
856.077224	0.975141
856.390720	0.976143
856.704173	0.975408
857.017584	0.973874
857.330953	0.974187
857.644278	0.971788
857.957561	0.973898
858.270802	0.973801
858.584000	0.974309
858.897155	0.972878
859.210268	0.971781
859.523339	0.974459
859.836367	0.976179
860.149352	0.974316
860.462295	0.974740
860.775195	0.974643
861.088054	0.974367
861.400869	0.975056
861.713642	0.974564
862.026373	0.977339
862.339062	0.976656
862.651708	0.972909
862.964312	0.974652
863.276873	0.972893
863.589392	0.972237
863.901869	0.970036
864.214303	0.970349
864.526696	0.968570
864.839045	0.968070
865.151353	0.966619
865.463619	0.967196
865.775842	0.967081
866.088023	0.968076
866.400162	0.966534
866.712258	0.966488
867.024313	0.967545
867.336325	0.969832
867.648296	0.968129
867.960224	0.966267
868.272110	0.967220
868.583954	0.968086
868.895755	0.969569
869.207515	0.965749
869.519233	0.965888
869.830909	0.965148
870.142542	0.966240
870.454134	0.966377
870.765684	0.964687
871.077191	0.963463
871.388657	0.963293
871.700081	0.963519
872.011463	0.963875
872.322803	0.962268
872.634101	0.960949
872.945357	0.958543
873.256571	0.957266
873.567744	0.958883
873.878874	0.958644
874.189963	0.957089
874.501010	0.958160
874.812015	0.954494
875.122979	0.954733
875.433900	0.957634
875.744780	0.957828
876.055618	0.954978
876.366415	0.953467
876.677169	0.954754
876.987882	0.953973
877.298554	0.955805
877.609183	0.951431
877.919771	0.948699
878.230317	0.947472
878.540822	0.943922
878.851285	0.938240
879.161707	0.930348
879.472087	0.917572
879.782425	0.900368
880.092722	0.865686
880.402977	0.811392
880.713191	0.747052
881.023363	0.686959
881.333494	0.651807
881.643583	0.624179
881.953631	0.624289
882.263637	0.652109
882.573602	0.692928
882.883526	0.719143
883.193408	0.744516
883.503248	0.768649
883.813048	0.796113
884.122806	0.827625
884.432522	0.850482
884.742197	0.871188
885.051831	0.882325
885.361424	0.894314
885.670975	0.906119
885.980485	0.915142
886.289954	0.922161
886.599382	0.927133
886.908768	0.932408
887.218113	0.937389
887.527417	0.942804
887.836680	0.945869
888.145901	0.948300
888.455082	0.951310
888.764221	0.955301
889.073319	0.955336
889.382376	0.957845
889.691392	0.956293
890.000366	0.958238
890.309300	0.957503
890.618193	0.956830
890.927044	0.955952
891.235855	0.956300
891.544625	0.955579
891.853353	0.956281
892.162041	0.953125
892.470687	0.947004
892.779293	0.941783
893.087858	0.936623
893.396381	0.929420
893.704864	0.913663
894.013306	0.891439
894.321707	0.863024
894.630068	0.848736
894.938387	0.841322
895.246665	0.844001
895.554903	0.856049
895.863100	0.871286
896.171256	0.888195
896.479371	0.908307
896.787446	0.921281
897.095480	0.927591
897.403473	0.931040
897.711425	0.935371
898.019336	0.941829
898.327207	0.948626
898.635038	0.946999
898.942827	0.949160
899.250576	0.952552
899.558284	0.957317
899.865952	0.957798
900.173579	0.959731
900.481165	0.959676
900.788711	0.962169
901.096216	0.965118
901.403681	0.966784
901.711105	0.967576
902.018489	0.967178
902.325832	0.965824
902.633135	0.965454
902.940397	0.959579
903.247619	0.945330
903.554800	0.920878
903.861941	0.879669
904.169041	0.840868
904.476101	0.823648
904.783121	0.824649
905.090100	0.841084
905.397039	0.863278
905.703938	0.885712
906.010796	0.906436
906.317614	0.923676
906.624391	0.938826
906.931129	0.947295
907.237826	0.955551
907.544483	0.962420
907.851099	0.967662
908.157675	0.972194
908.464211	0.974390
908.770707	0.976337
909.077163	0.978327
909.383578	0.979938
909.689954	0.979545
909.996289	0.980903
910.302584	0.983602
910.608839	0.985673
910.915054	0.984590
911.221229	0.982689
911.527363	0.981480
911.833458	0.980988
912.139513	0.982344
912.445527	0.982094
912.751502	0.979131
913.057436	0.977056
913.363331	0.975493
913.669186	0.971537
913.975000	0.965803
914.280775	0.959151
914.586510	0.951116
914.892205	0.937311
915.197859	0.914541
915.503475	0.887354
915.809050	0.866037
916.114585	0.859931
916.420081	0.857393
916.725536	0.854649
917.030952	0.862250
917.336328	0.875973
917.641665	0.891530
917.946961	0.909024
918.252218	0.919268
918.557435	0.929879
918.862612	0.938665
919.167750	0.944541
919.472848	0.951027
919.777906	0.956706
920.082925	0.961058
920.387904	0.965487
920.692843	0.966907
920.997743	0.968395
921.302603	0.971973
921.607423	0.973707
921.912204	0.975401
922.216946	0.977891
922.521647	0.977575
922.826310	0.978204
923.130932	0.982812
923.435516	0.983801
923.740059	0.984649
924.044564	0.983845
924.349028	0.984562
924.653454	0.987855
924.957840	0.988972
925.262186	0.989815
925.566493	0.989735
925.870761	0.990693
926.174989	0.991319
926.479178	0.994014
926.783328	0.992305
927.087438	0.993126
927.391509	0.993027
927.695541	0.992905
927.999533	0.995085
928.303486	0.994830
928.607400	0.996007
928.911275	0.996414
929.215110	0.996492
929.518906	0.996457
929.822663	0.996849
930.126381	0.995931
930.430060	0.996104
930.733699	0.996114
931.037299	0.995732
931.340861	0.995272
931.644383	0.993829
931.947866	0.995549
932.251309	0.996493
932.554714	0.995647
932.858080	0.995834
933.161407	0.995259
933.464694	0.996575
933.767943	0.996189
934.071153	0.996032
934.374323	0.998277
934.677455	0.995170
934.980548	0.996152
935.283602	0.997432
935.586617	0.996838
935.889593	0.997591
936.192530	0.998576
936.495428	0.996785
936.798287	0.996119
937.101108	0.996757
937.403890	0.995230
937.706632	0.995948
938.009336	0.992753
938.312002	0.990183
938.614628	0.990556
938.917216	0.988168
939.219765	0.986702
939.522275	0.987596
939.824747	0.987562
940.127179	0.988608
940.429573	0.989674
940.731929	0.989020
941.034246	0.989067
941.336524	0.989560
941.638763	0.989957
941.940964	0.990701
942.243126	0.992538
942.545250	0.993538
942.847335	0.992674
943.149381	0.993433
943.451389	0.992725
943.753359	0.994665
944.055290	0.996099
944.357182	0.995136
944.659036	0.994717
944.960851	0.995186
945.262628	0.995266
945.564367	0.995103
945.866067	0.994303
946.167729	0.995704
946.469352	0.995092
946.770937	0.992646
947.072484	0.997129
947.373992	0.995426
947.675462	0.994676
947.976893	0.995855
948.278286	0.997046
948.579641	0.996701
948.880958	0.996317
949.182236	0.996373
949.483476	0.997464
949.784678	0.997461
950.085841	0.996688
950.386967	0.994987
950.688054	0.996845
950.989103	0.994220
951.290114	0.994941
951.591087	0.995046
951.892021	0.994200
952.192917	0.994285
952.493776	0.993472
952.794596	0.994151
953.095378	0.992542
953.396122	0.992725
953.696828	0.993644
953.997496	0.995175
954.298126	0.995142
954.598718	0.994748
954.899272	0.996679
955.199788	0.995969
955.500266	0.998841
955.800706	0.998787
956.101108	0.998118
956.401472	0.999044
956.701798	0.999058
957.002087	0.999254
957.302337	0.999034
957.602550	1.000000
957.902724	0.999616
958.202861	1.000519
958.502960	1.000740
958.803022	1.001556
959.103045	1.000852
959.403031	1.001877
959.702979	1.002355
960.002889	1.001540
960.302762	1.001700
960.602596	1.001982
960.902393	1.002570
961.202153	1.001568
961.501875	1.002618
961.801559	1.001861
962.101205	1.002128
962.400814	1.003291
962.700385	1.002488
962.999918	1.003914
963.299414	1.001302
963.598873	1.003845
963.898293	1.001949
964.197677	1.003110
964.497022	1.002674
964.796331	1.001837
965.095601	1.004016
965.394835	1.001941
965.694030	1.003726
965.993189	1.002814
966.292309	1.003229
966.591393	1.001116
966.890439	1.002846
967.189447	1.002634
967.488419	1.002673
967.787353	1.003396
968.086249	1.002318
968.385108	1.001759
968.683930	1.003338
968.982714	1.002513
969.281462	1.002514
969.580172	1.002657
969.878844	1.003538
970.177480	1.003576
970.476078	1.003921
970.774639	1.002597
971.073162	1.002341
971.371649	1.002399
971.670098	1.002829
971.968510	1.003083
972.266885	1.001407
972.565223	1.002187
972.863524	1.000295
973.161788	1.002103
973.460014	1.002657
973.758204	1.001621
974.056356	1.002250
974.354471	1.001657
974.652550	1.002937
974.950591	1.001698
975.248595	1.000802
975.546563	1.002393
975.844493	1.003625
976.142386	1.001920
976.440243	1.002547
976.738062	1.003640
977.035845	1.002238
977.333590	1.003851
977.631299	1.002434
977.928971	1.003125
978.226606	1.003336
978.524204	1.001789
978.821765	1.003796
979.119290	1.003732
979.416777	1.003050
979.714228	1.002766
980.011642	1.003303
980.309020	1.003239
980.606360	1.002733
980.903664	1.002765
981.200931	1.002039
981.498162	1.002096
981.795356	1.001389
982.092513	0.999689
982.389633	0.999138
982.686717	0.996746
982.983764	0.997037
983.280775	0.996258
983.577749	0.996958
983.874686	0.996809
984.171587	0.997272
984.468451	0.998261
984.765279	0.999494
985.062070	1.001288
985.358824	1.000988
985.655543	1.001906
985.952224	1.002435
986.248869	1.002101
986.545478	1.004992
986.842050	1.003076
987.138586	1.002490
987.435086	1.003103
987.731549	1.005021
988.027975	1.004152
988.324366	1.002682
988.620719	1.005043
988.917037	1.003592
989.213318	1.005490
989.509563	1.003497
989.805772	1.004669
990.101944	1.004845
990.398080	1.003878
990.694180	1.004690
990.990244	1.003422
991.286271	1.003742
991.582262	1.004785
991.878217	1.003099
992.174136	1.004616
992.470019	1.003911
992.765865	1.005676
993.061676	1.004921
993.357450	1.004152
993.653188	1.005125
993.948890	1.004488
994.244556	1.002415
994.540186	1.003839
994.835780	1.002261
995.131337	1.004305
995.426859	1.003389
995.722345	1.002944
996.017795	1.002765
996.313208	1.001992
996.608586	1.003073
996.903928	1.003212
997.199234	1.002154
997.494504	1.004000
997.789738	1.000576
998.084936	1.002684
998.380099	1.002999
998.675225	1.003840
998.970316	1.004703
999.265371	1.003455
999.560390	1.003791
999.855373	1.004253
1000.150320	1.003215
1000.445232	1.004995
1000.740108	1.003941
1001.034948	1.004246
1001.329752	1.004978
1001.624521	1.003778
1001.919254	1.002976
1002.213951	1.003467
1002.508613	1.004716
1002.803239	1.004168
1003.097829	1.005385
1003.392384	1.003933
1003.686903	1.004639
1003.981386	1.004428
1004.275834	1.006830
1004.570246	1.004381
1004.864623	1.005852
1005.158964	1.003937
1005.453270	1.004923
1005.747540	1.002841
1006.041775	1.004557
1006.335974	1.004553
1006.630138	1.005044
1006.924266	1.004019
1007.218359	1.004579
1007.512416	1.005796
1007.806438	1.004854
1008.100425	1.005202
1008.394376	1.006130
1008.688292	1.004403
1008.982172	1.004350
1009.276017	1.005022
1009.569827	1.005397
1009.863602	1.003803
1010.157341	1.005349
1010.451045	1.005554
1010.744714	1.007116
1011.038347	1.004701
1011.331945	1.003675
1011.625508	1.004919
1011.919036	1.004046
1012.212528	1.005208
1012.505986	1.004985
1012.799408	1.006335
1013.092795	1.004732
1013.386147	1.005323
1013.679464	1.006543
1013.972745	1.005368
1014.265992	1.003676
1014.559204	1.004136
1014.852380	1.006858
1015.145521	1.003956
1015.438628	1.004909
1015.731699	1.004723
1016.024736	1.006068
1016.317737	1.004391
1016.610703	1.006125
1016.903635	1.004836
1017.196531	1.004624
1017.489393	1.003894
1017.782219	1.005131
1018.075011	1.004465
1018.367768	1.003090
1018.660490	1.005311
1018.953177	1.005311
1019.245829	1.005311
