Dividing Wavelength (nm)	Counts (n)	Blue Motor Position (mm): 10.500000	Red Motor Position (mm): 0.000000	
326.493990	1.003569
326.888308	1.003569
327.282561	1.003569
327.676750	1.004994
328.070874	1.005714
328.464933	1.005895
328.858929	1.005225
329.252859	1.003870
329.646726	1.003736
330.040528	1.005182
330.434265	1.004605
330.827938	1.003736
331.221547	1.004859
331.615091	1.004513
332.008571	1.005521
332.401986	1.003975
332.795338	1.003771
333.188625	1.004503
333.581847	1.004512
333.975006	1.004848
334.368100	1.004872
334.761129	1.002084
335.154095	1.003629
335.546996	1.002315
335.939833	0.998628
336.332606	0.999029
336.725315	0.998748
337.117960	0.999647
337.510540	0.997972
337.903056	0.999485
338.295508	1.000731
338.687896	0.999544
339.080220	1.000014
339.472480	0.999446
339.864676	0.999857
340.256807	0.998928
340.648875	1.000166
341.040879	0.999894
341.432818	0.999835
341.824694	0.999387
342.216506	0.999749
342.608253	0.999659
342.999937	0.999130
343.391557	0.999793
343.783113	1.000882
344.174605	0.998951
344.566033	0.998830
344.957397	1.000133
345.348697	0.998400
345.739934	1.000600
346.131106	0.998005
346.522215	0.997407
346.913260	0.999996
347.304241	0.997858
347.695159	0.998823
348.086012	0.999136
348.476802	0.998492
348.867528	0.998292
349.258191	0.999139
349.648789	0.998484
350.039324	0.999263
350.429796	0.998466
350.820203	0.997335
351.210548	0.998517
351.600828	0.998236
351.991045	0.998633
352.381198	0.998250
352.771288	0.998645
353.161314	0.999444
353.551276	0.998069
353.941175	0.996969
354.331010	0.998673
354.720782	0.998912
355.110490	0.998811
355.500135	0.998619
355.889717	0.996738
356.279235	0.997295
356.668689	0.998250
357.058080	0.997528
357.447408	0.996639
357.836672	0.997911
358.225873	0.997743
358.615010	0.998239
359.004084	0.997328
359.393095	0.997901
359.782043	0.997103
360.170927	0.998822
360.559748	0.997532
360.948505	0.997274
361.337199	0.996736
361.725830	0.997524
362.114398	0.998200
362.502903	0.996964
362.891344	0.997336
363.279722	0.995020
363.668037	0.998184
364.056289	0.996763
364.444478	0.997665
364.832603	0.996526
365.220665	0.996872
365.608665	0.996893
365.996601	0.995395
366.384474	0.995569
366.772284	0.995413
367.160031	0.994582
367.547715	0.995972
367.935336	0.994204
368.322893	0.993902
368.710388	0.992560
369.097820	0.990078
369.485189	0.988343
369.872495	0.986636
370.259738	0.984823
370.646918	0.981075
371.034035	0.979177
371.421090	0.976659
371.808081	0.971384
372.195010	0.969555
372.581875	0.962111
372.968678	0.959739
373.355418	0.955631
373.742096	0.947778
374.128710	0.944349
374.515262	0.939406
374.901751	0.933223
375.288177	0.928399
375.674540	0.922365
376.060841	0.914723
376.447079	0.909349
376.833254	0.902027
377.219367	0.898545
377.605417	0.886734
377.991404	0.882077
378.377329	0.876714
378.763191	0.869500
379.148991	0.861031
379.534727	0.854223
379.920402	0.846026
380.306013	0.841471
380.691563	0.829420
381.077049	0.821900
381.462474	0.819333
381.847835	0.806277
382.233134	0.802406
382.618371	0.802986
383.003545	0.785643
383.388657	0.783516
383.773706	0.775965
384.158693	0.771261
384.543618	0.766921
384.928480	0.757865
385.313280	0.747271
385.698017	0.746908
386.082692	0.735215
386.467305	0.734161
386.851856	0.728875
387.236344	0.723477
387.620770	0.717289
388.005133	0.711622
388.389435	0.706392
388.773674	0.704427
389.157851	0.694904
389.541965	0.693778
389.926018	0.699976
390.310008	0.686528
390.693936	0.682941
391.077802	0.675757
391.461606	0.677730
391.845348	0.665998
392.229027	0.665567
392.612645	0.664244
392.996200	0.650927
393.379694	0.643934
393.763125	0.634401
394.146494	0.639203
394.529801	0.630061
394.913047	0.621222
395.296230	0.627376
395.679351	0.618714
396.062410	0.615238
396.445408	0.617802
396.828343	0.614096
397.211217	0.609014
397.594028	0.620535
397.976778	0.610546
398.359466	0.607523
398.742092	0.603019
399.124656	0.614683
399.507158	0.603028
399.889598	0.600009
400.271977	0.591397
400.654294	0.595395
401.036549	0.594046
401.418742	0.598766
401.800874	0.584270
402.182944	0.581253
402.564952	0.573063
402.946898	0.574550
403.328783	0.576208
403.710606	0.587160
404.092367	0.561534
404.474067	0.566845
404.855705	0.565648
405.237282	0.574247
405.618797	0.560370
406.000250	0.556852
406.381642	0.546245
406.762972	0.552032
407.144240	0.550768
407.525447	0.550109
407.906593	0.543218
408.287677	0.538100
408.668700	0.547573
409.049661	0.541162
409.430560	0.536298
409.811399	0.545176
410.192176	0.526347
410.572891	0.533657
410.953545	0.521472
411.334138	0.534922
411.714669	0.527405
412.095139	0.539860
412.475547	0.523954
412.855894	0.525950
413.236180	0.524926
413.616405	0.530031
413.996568	0.520688
414.376670	0.526859
414.756711	0.531620
415.136691	0.528430
415.516609	0.519334
415.896466	0.515885
416.276262	0.512171
416.655997	0.513898
417.035670	0.495449
417.415283	0.487542
417.794834	0.492366
418.174324	0.497181
418.553753	0.506070
418.933121	0.488357
419.312428	0.482503
419.691674	0.488595
420.070859	0.476488
420.449983	0.484478
420.829045	0.473846
421.208047	0.482546
421.586988	0.475768
421.965867	0.474365
422.344686	0.463225
422.723444	0.475805
423.102141	0.492935
423.480777	0.465533
423.859352	0.486212
424.237866	0.464088
424.616319	0.464065
424.994712	0.455483
425.373044	0.465717
425.751314	0.454163
426.129524	0.470597
426.507673	0.453583
426.885762	0.446726
427.263789	0.452917
427.641756	0.462927
428.019662	0.452908
428.397508	0.452344
428.775292	0.455954
429.153016	0.447878
429.530679	0.454333
429.908282	0.447936
430.285824	0.457939
430.663305	0.436868
431.040726	0.457278
431.418086	0.457448
431.795385	0.449181
432.172624	0.448276
432.549802	0.448192
432.926920	0.447565
433.303977	0.446465
433.680974	0.443822
434.057910	0.442107
434.434786	0.441748
434.811601	0.445111
435.188355	0.427077
435.565050	0.435847
435.941683	0.437111
436.318257	0.421115
436.694770	0.422922
437.071222	0.420757
437.447614	0.425480
437.823946	0.431796
438.200218	0.420819
438.576429	0.430430
438.952580	0.423374
439.328670	0.420253
439.704700	0.426782
440.080670	0.428374
440.456580	0.409047
440.832429	0.417005
441.208218	0.427818
441.583947	0.417232
441.959616	0.416585
442.335224	0.422244
442.710773	0.412736
443.086261	0.411269
443.461689	0.424157
443.837057	0.414498
444.212365	0.404638
444.587612	0.411416
444.962800	0.401266
445.337927	0.403172
445.712995	0.429218
446.088002	0.390863
446.462949	0.401326
446.837837	0.406501
447.212664	0.395420
447.587431	0.386494
447.962139	0.356887
448.336786	0.315799
448.711374	0.326687
449.085901	0.371226
449.460369	0.374965
449.834776	0.378762
450.209124	0.357812
450.583412	0.350389
450.957640	0.343633
451.331808	0.355208
451.705917	0.378077
452.079965	0.382807
452.453954	0.371156
452.827883	0.377815
453.201752	0.372958
453.575562	0.383955
453.949311	0.372639
454.323001	0.378563
454.696632	0.374695
455.070202	0.366931
455.443713	0.359105
455.817164	0.353590
456.190556	0.349575
456.563888	0.346426
456.937160	0.343981
457.310373	0.361205
457.683526	0.359934
458.056619	0.365643
458.429653	0.366061
458.802628	0.370222
459.175542	0.363702
459.548398	0.346592
459.921194	0.339320
460.293930	0.339525
460.666607	0.316584
461.039224	0.304934
461.411782	0.300158
461.784280	0.299676
462.156719	0.304065
462.529099	0.308371
462.901419	0.324254
463.273680	0.328945
463.645882	0.328161
464.018024	0.334240
464.390106	0.326940
464.762130	0.311520
465.134094	0.294465
465.505999	0.263564
465.877845	0.233672
466.249631	0.220643
466.621358	0.227957
466.993026	0.242149
467.364634	0.248319
467.736184	0.257259
468.107674	0.265974
468.479105	0.265077
468.850477	0.272090
469.221790	0.278605
469.593043	0.288988
469.964238	0.293859
470.335373	0.292843
470.706449	0.291081
471.077467	0.291706
471.448425	0.253756
471.819324	0.229376
472.190164	0.229003
472.560945	0.257760
472.931667	0.279858
473.302330	0.284472
473.672934	0.296303
474.043479	0.284060
474.413965	0.286162
474.784393	0.289333
475.154761	0.284585
475.525070	0.281579
475.895321	0.287354
476.265513	0.281855
476.635645	0.276913
477.005719	0.276862
477.375734	0.273416
477.745691	0.266225
478.115588	0.263010
478.485427	0.256644
478.855207	0.243583
479.224928	0.225623
479.594591	0.213799
479.964194	0.217458
480.333739	0.218576
480.703226	0.220060
481.072653	0.218259
481.442022	0.213795
481.811333	0.210780
482.180584	0.214173
482.549777	0.219776
482.918912	0.222783
483.287988	0.222604
483.657005	0.222260
484.025964	0.228622
484.394864	0.225811
484.763706	0.226480
485.132489	0.231749
485.501213	0.232321
485.869879	0.230590
486.238487	0.233923
486.607036	0.231936
486.975527	0.236680
487.343959	0.232342
487.712333	0.231315
488.080648	0.232649
488.448905	0.231954
488.817104	0.233290
489.185244	0.227472
489.553326	0.224663
489.921350	0.214206
490.289315	0.196938
490.657222	0.191599
491.025070	0.193140
491.392861	0.195092
491.760593	0.200884
492.128267	0.206626
492.495883	0.212190
492.863440	0.218169
493.230939	0.224631
493.598380	0.226243
493.965763	0.228322
494.333088	0.230581
494.700354	0.232140
495.067563	0.230956
495.434713	0.234398
495.801805	0.232160
496.168839	0.233658
496.535815	0.235450
496.902733	0.235092
497.269593	0.236686
497.636395	0.234188
498.003139	0.234607
498.369825	0.237653
498.736453	0.234145
499.103023	0.235441
499.469535	0.235011
499.835989	0.235408
500.202385	0.236184
500.568723	0.239484
500.935003	0.234801
501.301226	0.238983
501.667390	0.233084
502.033497	0.231133
502.399546	0.234193
502.765537	0.236175
503.131470	0.234735
503.497345	0.230868
503.863163	0.239318
504.228923	0.232650
504.594625	0.231191
504.960269	0.236337
505.325856	0.231808
505.691385	0.236267
506.056856	0.233079
506.422270	0.232547
506.787625	0.234989
507.152924	0.232369
507.518164	0.232625
507.883347	0.234491
508.248472	0.236196
508.613540	0.230902
508.978550	0.233631
509.343503	0.234082
509.708398	0.231821
510.073236	0.229380
510.438016	0.229192
510.802738	0.230167
511.167403	0.229326
511.532010	0.231304
511.896561	0.226583
512.261053	0.225127
512.625488	0.227467
512.989866	0.227577
513.354186	0.228146
513.718449	0.230145
514.082655	0.226123
514.446803	0.228518
514.810894	0.226120
515.174927	0.229251
515.538904	0.228339
515.902822	0.225151
516.266684	0.227717
516.630488	0.228882
516.994235	0.227668
517.357925	0.226511
517.721558	0.224677
518.085133	0.224356
518.448651	0.224113
518.812112	0.226616
519.175516	0.226348
519.538863	0.223859
519.902152	0.225682
520.265385	0.222312
520.628560	0.224283
520.991678	0.224660
521.354739	0.223449
521.717743	0.224581
522.080690	0.225163
522.443580	0.222345
522.806413	0.223092
523.169189	0.222983
523.531908	0.221472
523.894569	0.225068
524.257174	0.225140
524.619722	0.222634
524.982213	0.224051
525.344647	0.223001
525.707025	0.223522
526.069345	0.221599
526.431608	0.224014
526.793815	0.221589
527.155964	0.225925
527.518057	0.224601
527.880093	0.225967
528.242072	0.224291
528.603995	0.226376
528.965860	0.227660
529.327669	0.227041
529.689421	0.227517
530.051117	0.228729
530.412755	0.226514
530.774337	0.228650
531.135862	0.229059
531.497331	0.228378
531.858743	0.231518
532.220098	0.227908
532.581396	0.230567
532.942638	0.230882
533.303824	0.232255
533.664953	0.231991
534.026025	0.233816
534.387040	0.231692
534.747999	0.231333
535.108902	0.230446
535.469748	0.235554
535.830537	0.233376
536.191270	0.233772
536.551947	0.233271
536.912567	0.233124
537.273131	0.235004
537.633638	0.235455
537.994089	0.235741
538.354483	0.236870
538.714821	0.233654
539.075103	0.233707
539.435328	0.234415
539.795497	0.237994
540.155609	0.234969
540.515665	0.232924
540.875665	0.238631
541.235609	0.237140
541.595496	0.237124
541.955328	0.233890
542.315102	0.236484
542.674821	0.237512
543.034483	0.237517
543.394090	0.237379
543.753640	0.239208
544.113134	0.234033
544.472571	0.237413
544.831953	0.234491
545.191278	0.238662
545.550548	0.238027
545.909761	0.234833
546.268918	0.235725
546.628019	0.234040
546.987064	0.236925
547.346053	0.238513
547.704986	0.236191
548.063863	0.236347
548.422684	0.236577
548.781449	0.238421
549.140158	0.236340
549.498811	0.239176
549.857408	0.241971
550.215949	0.236974
550.574434	0.240018
550.932864	0.237998
551.291237	0.236477
551.649555	0.238006
552.007817	0.237717
552.366022	0.238652
552.724173	0.238989
553.082267	0.239045
553.440305	0.235959
553.798288	0.240299
554.156215	0.237085
554.514086	0.237677
554.871902	0.241005
555.229661	0.239932
555.587365	0.240779
555.945014	0.243270
556.302606	0.240329
556.660143	0.242977
557.017625	0.239406
557.375050	0.241330
557.732421	0.238419
558.089735	0.240386
558.446994	0.240383
558.804197	0.239618
559.161345	0.239605
559.518437	0.242832
559.875474	0.241331
560.232455	0.240700
560.589381	0.241585
560.946251	0.241816
561.303065	0.239270
561.659825	0.240457
562.016528	0.242181
562.373177	0.244847
562.729770	0.242225
563.086307	0.244082
563.442789	0.241853
563.799216	0.244787
564.155587	0.243559
564.511904	0.245059
564.868164	0.244842
565.224370	0.244498
565.580520	0.246305
565.936615	0.246287
566.292654	0.249334
566.648638	0.246345
567.004567	0.247169
567.360441	0.247791
567.716260	0.250050
568.072023	0.247340
568.427732	0.248494
568.783385	0.250762
569.138982	0.248820
569.494525	0.248588
569.850013	0.251314
570.205445	0.249765
570.560823	0.252122
570.916145	0.254267
571.271412	0.252493
571.626625	0.254200
571.981782	0.254777
572.336884	0.255385
572.691931	0.254867
573.046923	0.256306
573.401860	0.257468
573.756743	0.259478
574.111570	0.257972
574.466342	0.258533
574.821059	0.257843
575.175722	0.260586
575.530330	0.260335
575.884882	0.260313
576.239380	0.262528
576.593823	0.263256
576.948211	0.262750
577.302544	0.266022
577.656823	0.265452
578.011047	0.265486
578.365216	0.266599
578.719330	0.268309
579.073389	0.267625
579.427394	0.269081
579.781344	0.270046
580.135239	0.271024
580.489080	0.271067
580.842866	0.273990
581.196597	0.274309
581.550273	0.272456
581.903895	0.274074
582.257463	0.271561
582.610975	0.275030
582.964434	0.274507
583.317837	0.276983
583.671186	0.277418
584.024481	0.277446
584.377721	0.279920
584.730906	0.280633
585.084037	0.279789
585.437113	0.281786
585.790135	0.281356
586.143103	0.284356
586.496016	0.285132
586.848874	0.282818
587.201679	0.283164
587.554428	0.286506
587.907124	0.285683
588.259765	0.286253
588.612352	0.286874
588.964884	0.290718
589.317362	0.290346
589.669786	0.290481
590.022155	0.289034
590.374470	0.288306
590.726731	0.290201
591.078937	0.295284
591.431090	0.291569
591.783188	0.295400
592.135232	0.296036
592.487222	0.296049
592.839157	0.294289
593.191038	0.296602
593.542866	0.298164
593.894639	0.301565
594.246358	0.300346
594.598022	0.299524
594.949633	0.302900
595.301190	0.304232
595.652692	0.303050
596.004141	0.299238
596.355535	0.307234
596.706876	0.307830
597.058162	0.310273
597.409395	0.307687
597.760573	0.305411
598.111698	0.308922
598.462768	0.308852
598.813785	0.310293
599.164748	0.311563
599.515657	0.312022
599.866511	0.315593
600.217312	0.310872
600.568060	0.316352
600.918753	0.312529
601.269392	0.313544
601.619978	0.316975
601.970510	0.314427
602.320988	0.314666
602.671412	0.312363
603.021783	0.315038
603.372100	0.316153
603.722363	0.316134
604.072572	0.317354
604.422728	0.316838
604.772830	0.319221
605.122878	0.318769
605.472872	0.319163
605.822813	0.317743
606.172701	0.320412
606.522534	0.317928
606.872314	0.318143
607.222041	0.319241
607.571714	0.317101
607.921333	0.318872
608.270899	0.318328
608.620411	0.314961
608.969870	0.319284
609.319276	0.319498
609.668627	0.319225
610.017926	0.318135
610.367171	0.316518
610.716362	0.317531
611.065500	0.317715
611.414585	0.316538
611.763616	0.316859
612.112594	0.317548
612.461518	0.317139
612.810389	0.314707
613.159207	0.317512
613.507971	0.319232
613.856682	0.315031
614.205340	0.316696
614.553945	0.314329
614.902496	0.318039
615.250994	0.315754
615.599439	0.316885
615.947830	0.316567
616.296169	0.317962
616.644454	0.317553
616.992686	0.317498
617.340864	0.315975
617.688990	0.319297
618.037063	0.316012
618.385082	0.318378
618.733048	0.315626
619.080961	0.317847
619.428821	0.317645
619.776628	0.317426
620.124382	0.320291
620.472083	0.320950
620.819731	0.320193
621.167326	0.324019
621.514868	0.324044
621.862357	0.328542
622.209793	0.327878
622.557176	0.330788
622.904506	0.331683
623.251783	0.334417
623.599007	0.336728
623.946179	0.336598
624.293297	0.338769
624.640363	0.342629
624.987376	0.343703
625.334336	0.346000
625.681243	0.348849
626.028097	0.349448
626.374899	0.351002
626.721647	0.351781
627.068343	0.354932
627.414987	0.356527
627.761577	0.359176
628.108115	0.357660
628.454600	0.362982
628.801032	0.361079
629.147412	0.363176
629.493739	0.364310
629.840014	0.367495
630.186236	0.365459
630.532405	0.371479
630.878521	0.369301
631.224585	0.371900
631.570597	0.376373
631.916556	0.375745
632.262462	0.375379
632.608316	0.379111
632.954117	0.379730
633.299866	0.380923
633.645562	0.382006
633.991206	0.386661
634.336797	0.389975
634.682336	0.392267
635.027823	0.394601
635.373257	0.395235
635.718639	0.399444
636.063968	0.399463
636.409245	0.404760
636.754470	0.405985
637.099642	0.408776
637.444762	0.412671
637.789829	0.412610
638.134845	0.416231
638.479808	0.417953
638.824719	0.418056
639.169577	0.422413
639.514383	0.422078
639.859137	0.426607
640.203839	0.427120
640.548489	0.428418
640.893086	0.429892
641.237632	0.432606
641.582125	0.431528
641.926566	0.434555
642.270955	0.434896
642.615292	0.435866
642.959576	0.435938
643.303809	0.436985
643.647990	0.437148
643.992118	0.438261
644.336195	0.441779
644.680219	0.442579
645.024192	0.442885
645.368112	0.438296
645.711981	0.438107
646.055797	0.434669
646.399562	0.438194
646.743274	0.433015
647.086935	0.430706
647.430544	0.432157
647.774101	0.432939
648.117606	0.433172
648.461059	0.434216
648.804460	0.437072
649.147810	0.441970
649.491108	0.444777
649.834354	0.447491
650.177548	0.452438
650.520690	0.458228
650.863781	0.460540
651.206820	0.460591
651.549807	0.465322
651.892742	0.470512
652.235626	0.470750
652.578458	0.472450
652.921238	0.479352
653.263967	0.477682
653.606644	0.481288
653.949269	0.482973
654.291843	0.486681
654.634365	0.485678
654.976836	0.489452
655.319255	0.490888
655.661622	0.493246
656.003938	0.494529
656.346203	0.496825
656.688416	0.497404
657.030577	0.500300
657.372687	0.503471
657.714746	0.504447
658.056753	0.502507
658.398708	0.507963
658.740612	0.509364
659.082465	0.507109
659.424266	0.508753
659.766016	0.509469
660.107715	0.513831
660.449362	0.513694
660.790958	0.514585
661.132503	0.517726
661.473996	0.516150
661.815438	0.517848
662.156829	0.518358
662.498168	0.520442
662.839456	0.521186
663.180693	0.521426
663.521879	0.522012
663.863013	0.523786
664.204097	0.524781
664.545129	0.523179
664.886110	0.524949
665.227040	0.524361
665.567918	0.527261
665.908746	0.527122
666.249522	0.527969
666.590248	0.529519
666.930922	0.529251
667.271545	0.530141
667.612118	0.530597
667.952639	0.533273
668.293109	0.534076
668.633528	0.537340
668.973896	0.537405
669.314213	0.539103
669.654480	0.542450
669.994695	0.543545
670.334859	0.544460
670.674973	0.547482
671.015035	0.547456
671.355047	0.549589
671.695008	0.551516
672.034918	0.553797
672.374777	0.554555
672.714585	0.556810
673.054342	0.558246
673.394049	0.559293
673.733705	0.559556
674.073310	0.562581
674.412864	0.563418
674.752368	0.567202
675.091820	0.568977
675.431223	0.572640
675.770574	0.573831
676.109875	0.577645
676.449125	0.578564
676.788324	0.580497
677.127473	0.586682
677.466571	0.588149
677.805619	0.590605
678.144616	0.592920
678.483562	0.595165
678.822458	0.598200
679.161303	0.600015
679.500098	0.601136
679.838842	0.603804
680.177535	0.604545
680.516179	0.603985
680.854771	0.605108
681.193314	0.601325
681.531805	0.596299
681.870247	0.590890
682.208638	0.586536
682.546978	0.586816
682.885268	0.589012
683.223508	0.595012
683.561697	0.599209
683.899836	0.602639
684.237925	0.606100
684.575963	0.608413
684.913951	0.611718
685.251889	0.611389
685.589776	0.612362
685.927614	0.614331
686.265401	0.612994
686.603137	0.614664
686.940824	0.612802
687.278460	0.612731
687.616046	0.613088
687.953582	0.610877
688.291068	0.612421
688.628504	0.612678
688.965889	0.614161
689.303224	0.616579
689.640510	0.621916
689.977745	0.626145
690.314930	0.632574
690.652065	0.637885
690.989150	0.642491
691.326185	0.649258
691.663170	0.654934
692.000105	0.660710
692.336990	0.664965
692.673825	0.670288
693.010610	0.673915
693.347345	0.678010
693.684030	0.683623
694.020665	0.686431
694.357251	0.692085
694.693786	0.694318
695.030272	0.696200
695.366707	0.701043
695.703093	0.703391
696.039429	0.703159
696.375716	0.707111
696.711952	0.708954
697.048139	0.710984
697.384276	0.713504
697.720363	0.714003
698.056400	0.715253
698.392388	0.719495
698.728326	0.720519
699.064214	0.723530
699.400053	0.724779
699.735842	0.729987
700.071581	0.731611
700.407270	0.734374
700.742910	0.737652
701.078501	0.741312
701.414042	0.744495
701.749533	0.747513
702.084974	0.751200
702.420366	0.750054
702.755709	0.754736
703.091002	0.760294
703.426246	0.759493
703.761440	0.760025
704.096584	0.762592
704.431679	0.764734
704.766725	0.767344
705.101721	0.770223
705.436668	0.769030
705.771565	0.771308
706.106413	0.769463
706.441212	0.771419
706.775961	0.772127
707.110661	0.771783
707.445311	0.769601
707.779913	0.772573
708.114465	0.770473
708.448967	0.767552
708.783421	0.765535
709.117825	0.763841
709.452180	0.762551
709.786485	0.760389
710.120742	0.755263
710.454949	0.755741
710.789107	0.753141
711.123216	0.748450
711.457275	0.748408
711.791286	0.745989
712.125247	0.748348
712.459159	0.749736
712.793023	0.746266
713.126837	0.754639
713.460602	0.754246
713.794318	0.756453
714.127985	0.759824
714.461602	0.768387
714.795171	0.768507
715.128691	0.775182
715.462162	0.780845
715.795584	0.785046
716.128957	0.788088
716.462281	0.790657
716.795556	0.794212
717.128782	0.798999
717.461960	0.804263
717.795088	0.805213
718.128167	0.809632
718.461198	0.811719
718.794180	0.814395
719.127113	0.817588
719.459997	0.819818
719.792833	0.823560
720.125619	0.823385
720.458357	0.827851
720.791046	0.829756
721.123686	0.831289
721.456278	0.834493
721.788821	0.835258
722.121315	0.837713
722.453761	0.838511
722.786158	0.840109
723.118506	0.839612
723.450805	0.841293
723.783056	0.842009
724.115259	0.842602
724.447412	0.843968
724.779518	0.842570
725.111574	0.842260
725.443582	0.841584
725.775542	0.842224
726.107453	0.840610
726.439315	0.840609
726.771129	0.838597
727.102895	0.836199
727.434612	0.834217
727.766281	0.834180
728.097901	0.832076
728.429473	0.834074
728.760996	0.834231
729.092471	0.834623
729.423897	0.837784
729.755276	0.839423
730.086606	0.839404
730.417887	0.836718
730.749120	0.833663
731.080305	0.832344
731.411442	0.830461
731.742530	0.831653
732.073570	0.832068
732.404562	0.831757
732.735506	0.831802
733.066401	0.834990
733.397249	0.839406
733.728048	0.846331
734.058798	0.854520
734.389501	0.860232
734.720156	0.863244
735.050762	0.868301
735.381320	0.869784
735.711831	0.871719
736.042293	0.874607
736.372707	0.875957
736.703073	0.876356
737.033391	0.876453
737.363661	0.876848
737.693883	0.876702
738.024056	0.874132
738.354182	0.875172
738.684260	0.871407
739.014290	0.870481
739.344272	0.868583
739.674207	0.866952
740.004093	0.866785
740.333931	0.868047
740.663722	0.867498
740.993464	0.869612
741.323159	0.870271
741.652806	0.874584
741.982405	0.876940
742.311956	0.880710
742.641460	0.882099
742.970915	0.884095
743.300323	0.887156
743.629683	0.891201
743.958996	0.894002
744.288260	0.895187
744.617477	0.898742
744.946647	0.899212
745.275768	0.902903
745.604842	0.903014
745.933869	0.905256
746.262847	0.907428
746.591778	0.906665
746.920662	0.909383
747.249498	0.910110
747.578286	0.910223
747.907027	0.907308
748.235720	0.905039
748.564365	0.905891
748.892963	0.906434
749.221514	0.907659
749.550017	0.908892
749.878473	0.909729
750.206881	0.913093
750.535242	0.912858
750.863555	0.913980
751.191821	0.914870
751.520039	0.914928
751.848210	0.916079
752.176334	0.916892
752.504411	0.916787
752.832440	0.918385
753.160421	0.919254
753.488356	0.920873
753.816243	0.919957
754.144082	0.921898
754.471875	0.923096
754.799620	0.923268
755.127318	0.923863
755.454969	0.923624
755.782572	0.925298
756.110129	0.925927
756.437638	0.927022
756.765100	0.926265
757.092515	0.926149
757.419882	0.925063
757.747203	0.926583
758.074477	0.928068
758.401703	0.926288
758.728882	0.924775
759.056014	0.925850
759.383099	0.924828
759.710138	0.923738
760.037129	0.923490
760.364073	0.924592
760.690970	0.924526
761.017820	0.923689
761.344623	0.924826
761.671379	0.924670
761.998088	0.921582
762.324751	0.915945
762.651366	0.902231
762.977935	0.878654
763.304456	0.865564
763.630931	0.864785
763.957359	0.876461
764.283740	0.891540
764.610074	0.903539
764.936362	0.912220
765.262602	0.918541
765.588796	0.924620
765.914943	0.929767
766.241044	0.934686
766.567097	0.937081
766.893104	0.940260
767.219064	0.941511
767.544978	0.943990
767.870845	0.946696
768.196665	0.947548
768.522438	0.949673
768.848165	0.950789
769.173846	0.951638
769.499479	0.953847
769.825066	0.955176
770.150607	0.956070
770.476101	0.956295
770.801548	0.957801
771.126949	0.959627
771.452303	0.959705
771.777611	0.960646
772.102872	0.960862
772.428087	0.962528
772.753256	0.963833
773.078378	0.964147
773.403453	0.964942
773.728482	0.966906
774.053465	0.966468
774.378401	0.966210
774.703291	0.968573
775.028135	0.969746
775.352932	0.968695
775.677683	0.970998
776.002388	0.970555
776.327046	0.970262
776.651658	0.973181
776.976224	0.972616
777.300743	0.972310
777.625216	0.972152
777.949643	0.973283
778.274024	0.972753
778.598359	0.973691
778.922647	0.972617
779.246889	0.973521
779.571086	0.974012
779.895236	0.973625
780.219339	0.973878
780.543397	0.973618
780.867409	0.973590
781.191374	0.973938
781.515294	0.976361
781.839167	0.975463
782.162995	0.975603
782.486776	0.974111
782.810511	0.975269
783.134201	0.976862
783.457844	0.977424
783.781441	0.976596
784.104993	0.977037
784.428498	0.978027
784.751958	0.978234
785.075372	0.978472
785.398739	0.978144
785.722061	0.978522
786.045337	0.977917
786.368568	0.977691
786.691752	0.979279
787.014891	0.976770
787.337983	0.973897
787.661030	0.972139
787.984031	0.968587
788.306987	0.967611
788.629897	0.965847
788.952760	0.969654
789.275579	0.972061
789.598351	0.973138
789.921078	0.976892
790.243759	0.977598
790.566395	0.977615
790.888984	0.978981
791.211529	0.981280
791.534027	0.980711
791.856480	0.980507
792.178888	0.981974
792.501249	0.982893
792.823566	0.984099
793.145836	0.982880
793.468062	0.983916
793.790241	0.984490
794.112375	0.982644
794.434464	0.983605
794.756507	0.982845
795.078505	0.982330
795.400457	0.981617
795.722364	0.978858
796.044226	0.977703
796.366042	0.976431
796.687812	0.977046
797.009538	0.977556
797.331218	0.979536
797.652852	0.980591
797.974442	0.980175
798.295986	0.981749
798.617484	0.980899
798.938938	0.982145
799.260346	0.982507
799.581709	0.982897
799.903026	0.983590
800.224299	0.983215
800.545526	0.984192
800.866708	0.983726
801.187845	0.985419
801.508936	0.985722
801.829983	0.984615
802.150984	0.986325
802.471940	0.986364
802.792851	0.985895
803.113717	0.987171
803.434538	0.986818
803.755314	0.987221
804.076045	0.987767
804.396731	0.986710
804.717372	0.985815
805.037967	0.988142
805.358518	0.987511
805.679024	0.986587
805.999485	0.986730
806.319901	0.986627
806.640272	0.987331
806.960598	0.985708
807.280879	0.986094
807.601115	0.987074
807.921306	0.986591
808.241453	0.986292
808.561554	0.986049
808.881611	0.986943
809.201623	0.987150
809.521590	0.987126
809.841513	0.987296
810.161390	0.987079
810.481223	0.987445
810.801011	0.987752
811.120755	0.988805
811.440453	0.987526
811.760107	0.988581
812.079716	0.988827
812.399281	0.988172
812.718801	0.988314
813.038276	0.987741
813.357707	0.990159
813.677093	0.989799
813.996434	0.988978
814.315731	0.990623
814.634983	0.989652
814.954191	0.990183
815.273354	0.989849
815.592473	0.989455
815.911547	0.989944
816.230577	0.989074
816.549562	0.987660
816.868502	0.986155
817.187399	0.988332
817.506250	0.987063
817.825058	0.986364
818.143821	0.987621
818.462539	0.986093
818.781213	0.984787
819.099843	0.984458
819.418429	0.981818
819.736970	0.979297
820.055466	0.975503
820.373919	0.974164
820.692327	0.970747
821.010691	0.964541
821.329011	0.950793
821.647286	0.925221
821.965517	0.896279
822.283704	0.883906
822.601847	0.885881
822.919945	0.898271
823.237999	0.912926
823.556010	0.923448
823.873976	0.934062
824.191897	0.942674
824.509775	0.950714
824.827609	0.957062
825.145398	0.960646
825.463144	0.961001
825.780845	0.960985
826.098502	0.957841
826.416116	0.951535
826.733685	0.943824
827.051210	0.939650
827.368692	0.943861
827.686129	0.949738
828.003522	0.958709
828.320872	0.964837
828.638177	0.970295
828.955439	0.975492
829.272656	0.978463
829.589830	0.980279
829.906960	0.983387
830.224046	0.985145
830.541088	0.985766
830.858086	0.986093
831.175041	0.989526
831.491952	0.986915
831.808819	0.987451
832.125642	0.987467
832.442421	0.986640
832.759157	0.983088
833.075849	0.976129
833.392497	0.968842
833.709101	0.963523
834.025662	0.963511
834.342179	0.967244
834.658653	0.973256
834.975083	0.978416
835.291469	0.981619
835.607811	0.984109
835.924110	0.985761
836.240366	0.989172
836.556578	0.989935
836.872746	0.991693
837.188871	0.990482
837.504952	0.991640
837.820990	0.993072
838.136984	0.992571
838.452935	0.993724
838.768842	0.994365
839.084706	0.993646
839.400526	0.991454
839.716303	0.983503
840.032037	0.981398
840.347727	0.982412
840.663373	0.983734
840.978977	0.988022
841.294537	0.989868
841.610054	0.991461
841.925527	0.992349
842.240957	0.993518
842.556344	0.993558
842.871687	0.995644
843.186987	0.995096
843.502244	0.996492
843.817458	0.995440
844.132629	0.995659
844.447756	0.996668
844.762840	0.996297
845.077881	0.998240
845.392879	0.996117
845.707833	0.998138
846.022745	0.996985
846.337613	0.997195
846.652438	0.997629
846.967221	0.998344
847.281960	0.998292
847.596656	0.997614
847.911309	0.997381
848.225919	0.996694
848.540485	0.997951
848.855009	0.999060
849.169490	0.998751
849.483928	0.997664
849.798323	0.996807
850.112675	0.998262
850.426984	0.997984
850.741251	0.998062
851.055474	0.998344
851.369654	0.997856
851.683792	0.997427
851.997887	0.997488
852.311938	0.998473
852.625947	0.997897
852.939914	0.997192
853.253837	0.999618
853.567718	0.998898
853.881555	0.998639
854.195350	0.998656
854.509103	0.998191
854.822812	0.998131
855.136479	0.998277
855.450103	0.999455
855.763685	0.997609
856.077224	0.997547
856.390720	0.996627
856.704173	0.998968
857.017584	0.999777
857.330953	0.998408
857.644278	0.997444
857.957561	0.997226
858.270802	0.998145
858.584000	0.997006
858.897155	0.997222
859.210268	0.997633
859.523339	0.998739
859.836367	0.997630
860.149352	0.998663
860.462295	0.997577
860.775195	0.997635
861.088054	0.998191
861.400869	0.998116
861.713642	0.997399
862.026373	0.998205
862.339062	0.998826
862.651708	0.998240
862.964312	0.998002
863.276873	0.997590
863.589392	0.997737
863.901869	0.997518
864.214303	0.997308
864.526696	0.997154
864.839045	0.997516
865.151353	0.996645
865.463619	0.997219
865.775842	0.997548
866.088023	0.998597
866.400162	0.998308
866.712258	0.998118
867.024313	0.997799
867.336325	0.998124
867.648296	0.997211
867.960224	0.997111
868.272110	0.997198
868.583954	0.996914
868.895755	0.998043
869.207515	0.996614
869.519233	0.997712
869.830909	0.996152
870.142542	0.995210
870.454134	0.997577
870.765684	0.996611
871.077191	0.997261
871.388657	0.996144
871.700081	0.996766
872.011463	0.996353
872.322803	0.996650
872.634101	0.995506
872.945357	0.995089
873.256571	0.995980
873.567744	0.996035
873.878874	0.995724
874.189963	0.995542
874.501010	0.997128
874.812015	0.995175
875.122979	0.995528
875.433900	0.995256
875.744780	0.995368
876.055618	0.995512
876.366415	0.994820
876.677169	0.994894
876.987882	0.994617
877.298554	0.996311
877.609183	0.995299
877.919771	0.995403
878.230317	0.995460
878.540822	0.993051
878.851285	0.993667
879.161707	0.992570
879.472087	0.992791
879.782425	0.987936
880.092722	0.984741
880.402977	0.977525
880.713191	0.967318
881.023363	0.955659
881.333494	0.948233
881.643583	0.947190
881.953631	0.948206
882.263637	0.950565
882.573602	0.956021
882.883526	0.961616
883.193408	0.966418
883.503248	0.969554
883.813048	0.972567
884.122806	0.976200
884.432522	0.980193
884.742197	0.983428
885.051831	0.985293
885.361424	0.985802
885.670975	0.988313
885.980485	0.989428
886.289954	0.991220
886.599382	0.990110
886.908768	0.993067
887.218113	0.991870
887.527417	0.992813
887.836680	0.993977
888.145901	0.994048
888.455082	0.995033
888.764221	0.995302
889.073319	0.995163
889.382376	0.995700
889.691392	0.995531
890.000366	0.996359
890.309300	0.995454
890.618193	0.995552
890.927044	0.994815
891.235855	0.995237
891.544625	0.994957
891.853353	0.995098
892.162041	0.994397
892.470687	0.995407
892.779293	0.993623
893.087858	0.991561
893.396381	0.991713
893.704864	0.988891
894.013306	0.987259
894.321707	0.983546
894.630068	0.980032
894.938387	0.978858
895.246665	0.979480
895.554903	0.980648
895.863100	0.983505
896.171256	0.984820
896.479371	0.987084
896.787446	0.988664
897.095480	0.990068
897.403473	0.991090
897.711425	0.993575
898.019336	0.993338
898.327207	0.994232
898.635038	0.993771
898.942827	0.993653
899.250576	0.994913
899.558284	0.995167
899.865952	0.994426
900.173579	0.994475
900.481165	0.995927
900.788711	0.995666
901.096216	0.996106
901.403681	0.996388
901.711105	0.995230
902.018489	0.995408
902.325832	0.995807
902.633135	0.994796
902.940397	0.994589
903.247619	0.994299
903.554800	0.990331
903.861941	0.983891
904.169041	0.978614
904.476101	0.975347
904.783121	0.974477
905.090100	0.977954
905.397039	0.981302
905.703938	0.983652
906.010796	0.986777
906.317614	0.988932
906.624391	0.990939
906.931129	0.993422
907.237826	0.994778
907.544483	0.994966
907.851099	0.995533
908.157675	0.996136
908.464211	0.997062
908.770707	0.996206
909.077163	0.996173
909.383578	0.996461
909.689954	0.996911
909.996289	0.998378
910.302584	0.997190
910.608839	0.998996
910.915054	0.998159
911.221229	1.000010
911.527363	0.997301
911.833458	0.997156
912.139513	0.997415
912.445527	0.997802
912.751502	0.997008
913.057436	0.996803
913.363331	0.997001
913.669186	0.997093
913.975000	0.995194
914.280775	0.995081
914.586510	0.993311
914.892205	0.990588
915.197859	0.988187
915.503475	0.984208
915.809050	0.980254
916.114585	0.977181
916.420081	0.976959
916.725536	0.976706
917.030952	0.978472
917.336328	0.980432
917.641665	0.981604
917.946961	0.985253
918.252218	0.987238
918.557435	0.988170
918.862612	0.990256
919.167750	0.992492
919.472848	0.993574
919.777906	0.994383
920.082925	0.994562
920.387904	0.995223
920.692843	0.994791
920.997743	0.994248
921.302603	0.996634
921.607423	0.995453
921.912204	0.996422
922.216946	0.997688
922.521647	0.996842
922.826310	0.996520
923.130932	0.997906
923.435516	0.999258
923.740059	0.997835
924.044564	0.997267
924.349028	0.997919
924.653454	0.999491
924.957840	0.998853
925.262186	0.998211
925.566493	0.999005
925.870761	0.998704
926.174989	0.998200
926.479178	0.999535
926.783328	0.999772
927.087438	0.999717
927.391509	0.998989
927.695541	0.999904
927.999533	0.999378
928.303486	0.999182
928.607400	1.000064
928.911275	1.000505
929.215110	1.000777
929.518906	1.000701
929.822663	1.000395
930.126381	1.001120
930.430060	0.999804
930.733699	1.000294
931.037299	0.999961
931.340861	1.000266
931.644383	0.998889
931.947866	1.000377
932.251309	1.000088
932.554714	1.000735
932.858080	1.000011
933.161407	0.999009
933.464694	0.999887
933.767943	1.000439
934.071153	1.000897
934.374323	1.001446
934.677455	1.001159
934.980548	0.999986
935.283602	1.000819
935.586617	0.999231
935.889593	1.001602
936.192530	1.001494
936.495428	0.998715
936.798287	1.001026
937.101108	0.999497
937.403890	0.999356
937.706632	1.000690
938.009336	1.000038
938.312002	0.998022
938.614628	0.999661
938.917216	0.997998
939.219765	0.998163
939.522275	0.997460
939.824747	0.997734
940.127179	0.998284
940.429573	0.999063
940.731929	0.998019
941.034246	0.998094
941.336524	0.998027
941.638763	0.999948
941.940964	0.999010
942.243126	0.998432
942.545250	0.998593
942.847335	0.999730
943.149381	0.999052
943.451389	0.998366
943.753359	0.999005
944.055290	1.001988
944.357182	1.000502
944.659036	1.000944
944.960851	0.998838
945.262628	1.000188
945.564367	0.999961
945.866067	0.999722
946.167729	1.001085
946.469352	1.000775
946.770937	0.998992
947.072484	1.000923
947.373992	1.001043
947.675462	0.999436
947.976893	0.998559
948.278286	1.001217
948.579641	1.000403
948.880958	0.999358
949.182236	1.000647
949.483476	1.001059
949.784678	0.999952
950.085841	0.999526
950.386967	1.000054
950.688054	1.000463
950.989103	0.999525
951.290114	0.998608
951.591087	1.001286
951.892021	0.999039
952.192917	0.999404
952.493776	0.999396
952.794596	1.000401
953.095378	1.000081
953.396122	0.999192
953.696828	1.000654
953.997496	0.999517
954.298126	1.000997
954.598718	0.999471
954.899272	1.001024
955.199788	1.000357
955.500266	1.000710
955.800706	1.000728
956.101108	0.999463
956.401472	1.002140
956.701798	1.001092
957.002087	0.999961
957.302337	1.000562
957.602550	1.000965
957.902724	1.001627
958.202861	1.000493
958.502960	1.000563
958.803022	1.001940
959.103045	1.001601
959.403031	1.001640
959.702979	1.000984
960.002889	1.001873
960.302762	1.001109
960.602596	1.002699
960.902393	1.001376
961.202153	1.001983
961.501875	1.002840
961.801559	1.001927
962.101205	1.000612
962.400814	1.002097
962.700385	1.002260
962.999918	1.001107
963.299414	1.000419
963.598873	1.001648
963.898293	1.001890
964.197677	1.001654
964.497022	1.001288
964.796331	1.001847
965.095601	1.002134
965.394835	1.001444
965.694030	1.002281
965.993189	1.002103
966.292309	1.001753
966.591393	1.000759
966.890439	1.002054
967.189447	1.001896
967.488419	1.002229
967.787353	1.001390
968.086249	1.001624
968.385108	1.000900
968.683930	1.002931
968.982714	1.002124
969.281462	1.001439
969.580172	1.001842
969.878844	1.002348
970.177480	1.001902
970.476078	1.003842
970.774639	1.001838
971.073162	1.001781
971.371649	1.002001
971.670098	1.000897
971.968510	1.001991
972.266885	1.000833
972.565223	1.001775
972.863524	1.000217
973.161788	1.001931
973.460014	1.002306
973.758204	1.001302
974.056356	1.001303
974.354471	1.002218
974.652550	1.002163
974.950591	1.001406
975.248595	1.000979
975.546563	1.002975
975.844493	1.002638
976.142386	1.001332
976.440243	1.002888
976.738062	1.002175
977.035845	1.001340
977.333590	1.002873
977.631299	1.001793
977.928971	1.001593
978.226606	1.001727
978.524204	1.001693
978.821765	1.003137
979.119290	1.002427
979.416777	1.001415
979.714228	1.001776
980.011642	1.002709
980.309020	1.000152
980.606360	1.000899
980.903664	1.002069
981.200931	1.001119
981.498162	1.001212
981.795356	1.001778
982.092513	1.001844
982.389633	1.003015
982.686717	1.000862
982.983764	1.000774
983.280775	1.001032
983.577749	1.002067
983.874686	1.000721
984.171587	1.002022
984.468451	1.001761
984.765279	1.002058
985.062070	1.001206
985.358824	1.002404
985.655543	1.001674
985.952224	1.002433
986.248869	1.001941
986.545478	1.003480
986.842050	1.001900
987.138586	1.001204
987.435086	1.001957
987.731549	1.003682
988.027975	1.003244
988.324366	1.001483
988.620719	1.002994
988.917037	1.002575
989.213318	1.003252
989.509563	1.002636
989.805772	1.002478
990.101944	1.003235
990.398080	1.002898
990.694180	1.002913
990.990244	1.001916
991.286271	1.002262
991.582262	1.003142
991.878217	1.002200
992.174136	1.002925
992.470019	1.003180
992.765865	1.003608
993.061676	1.002700
993.357450	1.001825
993.653188	1.004227
993.948890	1.002030
994.244556	1.001186
994.540186	1.001040
994.835780	1.002072
995.131337	1.003596
995.426859	1.001811
995.722345	1.002267
996.017795	1.001809
996.313208	1.003587
996.608586	1.002535
996.903928	1.002600
997.199234	1.001787
997.494504	1.003279
997.789738	1.001138
998.084936	1.001805
998.380099	1.002327
998.675225	1.002438
998.970316	1.003300
999.265371	1.002833
999.560390	1.002153
999.855373	1.003343
1000.150320	1.003109
1000.445232	1.002634
1000.740108	1.001583
1001.034948	1.001647
1001.329752	1.003739
1001.624521	1.002431
1001.919254	1.002850
1002.213951	1.003344
1002.508613	1.003170
1002.803239	1.002950
1003.097829	1.004201
1003.392384	1.002427
1003.686903	1.002935
1003.981386	1.001973
1004.275834	1.004154
1004.570246	1.001659
1004.864623	1.003866
1005.158964	1.003601
1005.453270	1.002200
1005.747540	1.003152
1006.041775	1.003399
1006.335974	1.002960
1006.630138	1.002591
1006.924266	1.002180
1007.218359	1.001549
1007.512416	1.003684
1007.806438	1.002288
1008.100425	1.004066
1008.394376	1.003110
1008.688292	1.002131
1008.982172	1.003377
1009.276017	1.002413
1009.569827	1.003744
1009.863602	1.001435
1010.157341	1.003645
1010.451045	1.003150
1010.744714	1.004060
1011.038347	1.002638
1011.331945	1.000932
1011.625508	1.003169
1011.919036	1.001811
1012.212528	1.004214
1012.505986	1.001570
1012.799408	1.004033
1013.092795	1.003077
1013.386147	1.003521
1013.679464	1.003565
1013.972745	1.002451
1014.265992	1.002391
1014.559204	1.003068
1014.852380	1.003762
1015.145521	1.002953
1015.438628	1.002596
1015.731699	1.002093
1016.024736	1.003873
1016.317737	1.002655
1016.610703	1.004020
1016.903635	1.003201
1017.196531	1.001807
1017.489393	1.003483
1017.782219	1.003206
1018.075011	1.002520
1018.367768	1.001648
1018.660490	1.003892
1018.953177	1.003892
1019.245829	1.003892
