Dividing Wavelength (nm)	Counts (n)	Blue Motor Position (mm): 26.400000	Red Motor Position (mm): 0.000000	
326.493990	1.000590
326.888308	1.000590
327.282561	1.000590
327.676750	1.002288
328.070874	1.002178
328.464933	1.003211
328.858929	1.002227
329.252859	1.001994
329.646726	1.002083
330.040528	1.001157
330.434265	1.002320
330.827938	1.001115
331.221547	1.001390
331.615091	1.001237
332.008571	1.003155
332.401986	1.001053
332.795338	1.000205
333.188625	1.001844
333.581847	1.001574
333.975006	1.001356
334.368100	1.001979
334.761129	0.999911
335.154095	1.002249
335.546996	1.000984
335.939833	0.998040
336.332606	1.000302
336.725315	0.998882
337.117960	0.999845
337.510540	0.998860
337.903056	0.999948
338.295508	1.001137
338.687896	1.000310
339.080220	0.999924
339.472480	0.999767
339.864676	1.000118
340.256807	0.998932
340.648875	1.000066
341.040879	0.998783
341.432818	1.000290
341.824694	0.999391
342.216506	0.999929
342.608253	0.999134
342.999937	0.999878
343.391557	0.999560
343.783113	1.001516
344.174605	1.000732
344.566033	0.999737
344.957397	1.000329
345.348697	1.000544
345.739934	0.999304
346.131106	0.999238
346.522215	0.999484
346.913260	1.000060
347.304241	0.998743
347.695159	1.000493
348.086012	0.999539
348.476802	1.000529
348.867528	0.997713
349.258191	1.000340
349.648789	0.998642
350.039324	0.999327
350.429796	0.999108
350.820203	0.998161
351.210548	1.000224
351.600828	0.999029
351.991045	0.998541
352.381198	0.998793
352.771288	0.998140
353.161314	0.999830
353.551276	0.999601
353.941175	0.997780
354.331010	0.998724
354.720782	0.999083
355.110490	0.999247
355.500135	1.000359
355.889717	0.998030
356.279235	0.998239
356.668689	1.000011
357.058080	0.999605
357.447408	0.998433
357.836672	0.999987
358.225873	0.998099
358.615010	0.998344
359.004084	0.997429
359.393095	0.999461
359.782043	0.998798
360.170927	1.000030
360.559748	0.998909
360.948505	0.997387
361.337199	0.997430
361.725830	0.998901
362.114398	0.998366
362.502903	0.998467
362.891344	0.996556
363.279722	0.997531
363.668037	0.998208
364.056289	0.999396
364.444478	0.998511
364.832603	0.996409
365.220665	0.997506
365.608665	0.998015
365.996601	0.997139
366.384474	0.996615
366.772284	0.996604
367.160031	0.994568
367.547715	0.996445
367.935336	0.994863
368.322893	0.994861
368.710388	0.994228
369.097820	0.991581
369.485189	0.989094
369.872495	0.988248
370.259738	0.985965
370.646918	0.982340
371.034035	0.980546
371.421090	0.977669
371.808081	0.973010
372.195010	0.970284
372.581875	0.965027
372.968678	0.960020
373.355418	0.956668
373.742096	0.948167
374.128710	0.944471
374.515262	0.939788
374.901751	0.933937
375.288177	0.929318
375.674540	0.924092
376.060841	0.915684
376.447079	0.909150
376.833254	0.903344
377.219367	0.898356
377.605417	0.886765
377.991404	0.884559
378.377329	0.876687
378.763191	0.871467
379.148991	0.861550
379.534727	0.853831
379.920402	0.845639
380.306013	0.842617
380.691563	0.830710
381.077049	0.823833
381.462474	0.819018
381.847835	0.807336
382.233134	0.803703
382.618371	0.803392
383.003545	0.785916
383.388657	0.784176
383.773706	0.776634
384.158693	0.772993
384.543618	0.767146
384.928480	0.757449
385.313280	0.747976
385.698017	0.747749
386.082692	0.737019
386.467305	0.734829
386.851856	0.729861
387.236344	0.723998
387.620770	0.718394
388.005133	0.712258
388.389435	0.706705
388.773674	0.704398
389.157851	0.696309
389.541965	0.693730
389.926018	0.700630
390.310008	0.687203
390.693936	0.684314
391.077802	0.675924
391.461606	0.677917
391.845348	0.667216
392.229027	0.666813
392.612645	0.664689
392.996200	0.652164
393.379694	0.644543
393.763125	0.635102
394.146494	0.639634
394.529801	0.629880
394.913047	0.622091
395.296230	0.628324
395.679351	0.619377
396.062410	0.616038
396.445408	0.618579
396.828343	0.614018
397.211217	0.609484
397.594028	0.621409
397.976778	0.611653
398.359466	0.607887
398.742092	0.604526
399.124656	0.615821
399.507158	0.603738
399.889598	0.601193
400.271977	0.591739
400.654294	0.595823
401.036549	0.595066
401.418742	0.599260
401.800874	0.585701
402.182944	0.582051
402.564952	0.573542
402.946898	0.576196
403.328783	0.577372
403.710606	0.588004
404.092367	0.562602
404.474067	0.567467
404.855705	0.566883
405.237282	0.575439
405.618797	0.561738
406.000250	0.557978
406.381642	0.547454
406.762972	0.552879
407.144240	0.551357
407.525447	0.550549
407.906593	0.543532
408.287677	0.540092
408.668700	0.548070
409.049661	0.542141
409.430560	0.536506
409.811399	0.545584
410.192176	0.527742
410.572891	0.534320
410.953545	0.522307
411.334138	0.535963
411.714669	0.528083
412.095139	0.540427
412.475547	0.524761
412.855894	0.526775
413.236180	0.525347
413.616405	0.530126
413.996568	0.521866
414.376670	0.527855
414.756711	0.533023
415.136691	0.529200
415.516609	0.520496
415.896466	0.517259
416.276262	0.513662
416.655997	0.515066
417.035670	0.496672
417.415283	0.488323
417.794834	0.492537
418.174324	0.499043
418.553753	0.507464
418.933121	0.489817
419.312428	0.483782
419.691674	0.489182
420.070859	0.477817
420.449983	0.485779
420.829045	0.474490
421.208047	0.484228
421.586988	0.476927
421.965867	0.476038
422.344686	0.464749
422.723444	0.477203
423.102141	0.494766
423.480777	0.466708
423.859352	0.487381
424.237866	0.465242
424.616319	0.465996
424.994712	0.456768
425.373044	0.467413
425.751314	0.454792
426.129524	0.471596
426.507673	0.454799
426.885762	0.448687
427.263789	0.454227
427.641756	0.464327
428.019662	0.453980
428.397508	0.453430
428.775292	0.457574
429.153016	0.449640
429.530679	0.455559
429.908282	0.448907
430.285824	0.459338
430.663305	0.437667
431.040726	0.458713
431.418086	0.458399
431.795385	0.451179
432.172624	0.449922
432.549802	0.450073
432.926920	0.449243
433.303977	0.448996
433.680974	0.445576
434.057910	0.444296
434.434786	0.443015
434.811601	0.446898
435.188355	0.429012
435.565050	0.438489
435.941683	0.439321
436.318257	0.423358
436.694770	0.424748
437.071222	0.422503
437.447614	0.427020
437.823946	0.433428
438.200218	0.423143
438.576429	0.432747
438.952580	0.426031
439.328670	0.422616
439.704700	0.429345
440.080670	0.431114
440.456580	0.412150
440.832429	0.420205
441.208218	0.431881
441.583947	0.420987
441.959616	0.420386
442.335224	0.426550
442.710773	0.417609
443.086261	0.416128
443.461689	0.430190
443.837057	0.421297
444.212365	0.411150
444.587612	0.419179
444.962800	0.409395
445.337927	0.411821
445.712995	0.438706
446.088002	0.401760
446.462949	0.412733
446.837837	0.418989
447.212664	0.407875
447.587431	0.401807
447.962139	0.373897
448.336786	0.334900
448.711374	0.346623
449.085901	0.391297
449.460369	0.396905
449.834776	0.401796
450.209124	0.383819
450.583412	0.378962
450.957640	0.373533
451.331808	0.386873
451.705917	0.411322
452.079965	0.418233
452.453954	0.409350
452.827883	0.418017
453.201752	0.415373
453.575562	0.428581
453.949311	0.420906
454.323001	0.429485
454.696632	0.428981
455.070202	0.424994
455.443713	0.421017
455.817164	0.419416
456.190556	0.419483
456.563888	0.421095
456.937160	0.422148
457.310373	0.441049
457.683526	0.444043
458.056619	0.453655
458.429653	0.458689
458.802628	0.465832
459.175542	0.465584
459.548398	0.455805
459.921194	0.455009
460.293930	0.460821
460.666607	0.449276
461.039224	0.446104
461.411782	0.447655
461.784280	0.452550
462.156719	0.461374
462.529099	0.470617
462.901419	0.489673
463.273680	0.498342
463.645882	0.503241
464.018024	0.517038
464.390106	0.516692
464.762130	0.512649
465.134094	0.508928
465.505999	0.496529
465.877845	0.484208
466.249631	0.481287
466.621358	0.492891
466.993026	0.510653
467.364634	0.521879
467.736184	0.536163
468.107674	0.549975
468.479105	0.558946
468.850477	0.569665
469.221790	0.582889
469.593043	0.596611
469.964238	0.608965
470.335373	0.616475
470.706449	0.623442
471.077467	0.631738
471.448425	0.619689
471.819324	0.614619
472.190164	0.621296
472.560945	0.646033
472.931667	0.666442
473.302330	0.675375
473.672934	0.690004
474.043479	0.691866
474.413965	0.701082
474.784393	0.710846
475.154761	0.715685
475.525070	0.723455
475.895321	0.733402
476.265513	0.738244
476.635645	0.743365
477.005719	0.751865
477.375734	0.757303
477.745691	0.762280
478.115588	0.768901
478.485427	0.774641
478.855207	0.776675
479.224928	0.777432
479.594591	0.779581
479.964194	0.789108
480.333739	0.797168
480.703226	0.806819
481.072653	0.813349
481.442022	0.817852
481.811333	0.822429
482.180584	0.830212
482.549777	0.838848
482.918912	0.845032
483.287988	0.851199
483.657005	0.856820
484.025964	0.864274
484.394864	0.869760
484.763706	0.875702
485.132489	0.881375
485.501213	0.887217
485.869879	0.891702
486.238487	0.897148
486.607036	0.901633
486.975527	0.906837
487.343959	0.909992
487.712333	0.914945
488.080648	0.917761
488.448905	0.922786
488.817104	0.926035
489.185244	0.929559
489.553326	0.933425
489.921350	0.935075
490.289315	0.933870
490.657222	0.935687
491.025070	0.939595
491.392861	0.943531
491.760593	0.948329
492.128267	0.952182
492.495883	0.954422
492.863440	0.958599
493.230939	0.960740
493.598380	0.963895
493.965763	0.965313
494.333088	0.966750
494.700354	0.969124
495.067563	0.970360
495.434713	0.972889
495.801805	0.973955
496.168839	0.975563
496.535815	0.977205
496.902733	0.977918
497.269593	0.979122
497.636395	0.979297
498.003139	0.981049
498.369825	0.982644
498.736453	0.982801
499.103023	0.984301
499.469535	0.985309
499.835989	0.985587
500.202385	0.985861
500.568723	0.986785
500.935003	0.986924
501.301226	0.988429
501.667390	0.987166
502.033497	0.988784
502.399546	0.989072
502.765537	0.989849
503.131470	0.990249
503.497345	0.990649
503.863163	0.990882
504.228923	0.991093
504.594625	0.990649
504.960269	0.991207
505.325856	0.992133
505.691385	0.991251
506.056856	0.992088
506.422270	0.992818
506.787625	0.992182
507.152924	0.992943
507.518164	0.992559
507.883347	0.992908
508.248472	0.993292
508.613540	0.992962
508.978550	0.993244
509.343503	0.993037
509.708398	0.994225
510.073236	0.993544
510.438016	0.993244
510.802738	0.993110
511.167403	0.994058
511.532010	0.994974
511.896561	0.993700
512.261053	0.993359
512.625488	0.993701
512.989866	0.994211
513.354186	0.993327
513.718449	0.994406
514.082655	0.993767
514.446803	0.994300
514.810894	0.994678
515.174927	0.994897
515.538904	0.994849
515.902822	0.994303
516.266684	0.994793
516.630488	0.995079
516.994235	0.994762
517.357925	0.995315
517.721558	0.995237
518.085133	0.995124
518.448651	0.995163
518.812112	0.996125
519.175516	0.995341
519.538863	0.994630
519.902152	0.995352
520.265385	0.995377
520.628560	0.995006
520.991678	0.994829
521.354739	0.995637
521.717743	0.995376
522.080690	0.995205
522.443580	0.995165
522.806413	0.994738
523.169189	0.995751
523.531908	0.995080
523.894569	0.995486
524.257174	0.995470
524.619722	0.994856
524.982213	0.995284
525.344647	0.995007
525.707025	0.995564
526.069345	0.994927
526.431608	0.996320
526.793815	0.995592
527.155964	0.996288
527.518057	0.996198
527.880093	0.995155
528.242072	0.995381
528.603995	0.995626
528.965860	0.996160
529.327669	0.995987
529.689421	0.995331
530.051117	0.995655
530.412755	0.995538
530.774337	0.995442
531.135862	0.995811
531.497331	0.995545
531.858743	0.996371
532.220098	0.995091
532.581396	0.995947
532.942638	0.996266
533.303824	0.996027
533.664953	0.995163
534.026025	0.997238
534.387040	0.995324
534.747999	0.995376
535.108902	0.996161
535.469748	0.996212
535.830537	0.996159
536.191270	0.995626
536.551947	0.995573
536.912567	0.995565
537.273131	0.996516
537.633638	0.995044
537.994089	0.996059
538.354483	0.995899
538.714821	0.995655
539.075103	0.996165
539.435328	0.995837
539.795497	0.995955
540.155609	0.996066
540.515665	0.996320
540.875665	0.995258
541.235609	0.996208
541.595496	0.995285
541.955328	0.995838
542.315102	0.996080
542.674821	0.996186
543.034483	0.996214
543.394090	0.995778
543.753640	0.996575
544.113134	0.995792
544.472571	0.996266
544.831953	0.996385
545.191278	0.995881
545.550548	0.995674
545.909761	0.995747
546.268918	0.996558
546.628019	0.996864
546.987064	0.995456
547.346053	0.995733
547.704986	0.995755
548.063863	0.995765
548.422684	0.995789
548.781449	0.996281
549.140158	0.996243
549.498811	0.995043
549.857408	0.995106
550.215949	0.995169
550.574434	0.995696
550.932864	0.996223
551.291237	0.995697
551.649555	0.996055
552.007817	0.996399
552.366022	0.995641
552.724173	0.996616
553.082267	0.995614
553.440305	0.995391
553.798288	0.994654
554.156215	0.995726
554.514086	0.995464
554.871902	0.995977
555.229661	0.994989
555.587365	0.995912
555.945014	0.996231
556.302606	0.995291
556.660143	0.996405
557.017625	0.996534
557.375050	0.995315
557.732421	0.995604
558.089735	0.995456
558.446994	0.995566
558.804197	0.995778
559.161345	0.995632
559.518437	0.995160
559.875474	0.996090
560.232455	0.996066
560.589381	0.995691
560.946251	0.995222
561.303065	0.995889
561.659825	0.995512
562.016528	0.996732
562.373177	0.996348
562.729770	0.995460
563.086307	0.994932
563.442789	0.995874
563.799216	0.994998
564.155587	0.995747
564.511904	0.996211
564.868164	0.994737
565.224370	0.995715
565.580520	0.995320
565.936615	0.995981
566.292654	0.995434
566.648638	0.996184
567.004567	0.995618
567.360441	0.996013
567.716260	0.995657
568.072023	0.995150
568.427732	0.996100
568.783385	0.995715
569.138982	0.995755
569.494525	0.995773
569.850013	0.995865
570.205445	0.996378
570.560823	0.995699
570.916145	0.995704
571.271412	0.995671
571.626625	0.995958
571.981782	0.995844
572.336884	0.995594
572.691931	0.995557
573.046923	0.996102
573.401860	0.996328
573.756743	0.995548
574.111570	0.995655
574.466342	0.995964
574.821059	0.995786
575.175722	0.995661
575.530330	0.995205
575.884882	0.995586
576.239380	0.996366
576.593823	0.995369
576.948211	0.995659
577.302544	0.995897
577.656823	0.995525
578.011047	0.995196
578.365216	0.995856
578.719330	0.995730
579.073389	0.994697
579.427394	0.994958
579.781344	0.995556
580.135239	0.994995
580.489080	0.995402
580.842866	0.995767
581.196597	0.995058
581.550273	0.995093
581.903895	0.995670
582.257463	0.995439
582.610975	0.995679
582.964434	0.995310
583.317837	0.996323
583.671186	0.995607
584.024481	0.995310
584.377721	0.994532
584.730906	0.995955
585.084037	0.996507
585.437113	0.996001
585.790135	0.995659
586.143103	0.995513
586.496016	0.995094
586.848874	0.995898
587.201679	0.995819
587.554428	0.995561
587.907124	0.995688
588.259765	0.995750
588.612352	0.996541
588.964884	0.996263
589.317362	0.995766
589.669786	0.995180
590.022155	0.995276
590.374470	0.995598
590.726731	0.995329
591.078937	0.995363
591.431090	0.995517
591.783188	0.995295
592.135232	0.995760
592.487222	0.995855
592.839157	0.995401
593.191038	0.995307
593.542866	0.995708
593.894639	0.995490
594.246358	0.995954
594.598022	0.996145
594.949633	0.996716
595.301190	0.995357
595.652692	0.995243
596.004141	0.995198
596.355535	0.995977
596.706876	0.995458
597.058162	0.995250
597.409395	0.995249
597.760573	0.995083
598.111698	0.995723
598.462768	0.994940
598.813785	0.994352
599.164748	0.995073
599.515657	0.995379
599.866511	0.995502
600.217312	0.996304
600.568060	0.994773
600.918753	0.995907
601.269392	0.996106
601.619978	0.995016
601.970510	0.995504
602.320988	0.995873
602.671412	0.994976
603.021783	0.996221
603.372100	0.996143
603.722363	0.995978
604.072572	0.995878
604.422728	0.995437
604.772830	0.995331
605.122878	0.995750
605.472872	0.995819
605.822813	0.995297
606.172701	0.995693
606.522534	0.995702
606.872314	0.996026
607.222041	0.994963
607.571714	0.995975
607.921333	0.996144
608.270899	0.995142
608.620411	0.995843
608.969870	0.996300
609.319276	0.995879
609.668627	0.996207
610.017926	0.995650
610.367171	0.995823
610.716362	0.995645
611.065500	0.995220
611.414585	0.995124
611.763616	0.994775
612.112594	0.995551
612.461518	0.994348
612.810389	0.994767
613.159207	0.994798
613.507971	0.994577
613.856682	0.995947
614.205340	0.994391
614.553945	0.996003
614.902496	0.995577
615.250994	0.995708
615.599439	0.995224
615.947830	0.995756
616.296169	0.994987
616.644454	0.996080
616.992686	0.995180
617.340864	0.995759
617.688990	0.994970
618.037063	0.995483
618.385082	0.994630
618.733048	0.994818
619.080961	0.995278
619.428821	0.995964
619.776628	0.995012
620.124382	0.995868
620.472083	0.995897
620.819731	0.996020
621.167326	0.995405
621.514868	0.995842
621.862357	0.996106
622.209793	0.995111
622.557176	0.995361
622.904506	0.994697
623.251783	0.995730
623.599007	0.995964
623.946179	0.995255
624.293297	0.995336
624.640363	0.995549
624.987376	0.995105
625.334336	0.995079
625.681243	0.995810
626.028097	0.996009
626.374899	0.996071
626.721647	0.996236
627.068343	0.995960
627.414987	0.995991
627.761577	0.994590
628.108115	0.995031
628.454600	0.995975
628.801032	0.996075
629.147412	0.995987
629.493739	0.995930
629.840014	0.995673
630.186236	0.994805
630.532405	0.996205
630.878521	0.995326
631.224585	0.995161
631.570597	0.995274
631.916556	0.995489
632.262462	0.994034
632.608316	0.996294
632.954117	0.994945
633.299866	0.995415
633.645562	0.995199
633.991206	0.996187
634.336797	0.995248
634.682336	0.995959
635.027823	0.995591
635.373257	0.996067
635.718639	0.996069
636.063968	0.995225
636.409245	0.995179
636.754470	0.995422
637.099642	0.996344
637.444762	0.996073
637.789829	0.995044
638.134845	0.994985
638.479808	0.995526
638.824719	0.995786
639.169577	0.995665
639.514383	0.996320
639.859137	0.995684
640.203839	0.994969
640.548489	0.995459
640.893086	0.995037
641.237632	0.996537
641.582125	0.995125
641.926566	0.996153
642.270955	0.995948
642.615292	0.995439
642.959576	0.995543
643.303809	0.996226
643.647990	0.996478
643.992118	0.995848
644.336195	0.995435
644.680219	0.996117
645.024192	0.995538
645.368112	0.995033
645.711981	0.995195
646.055797	0.995735
646.399562	0.994672
646.743274	0.996341
647.086935	0.995785
647.430544	0.996124
647.774101	0.994160
648.117606	0.995258
648.461059	0.996608
648.804460	0.995695
649.147810	0.995402
649.491108	0.995866
649.834354	0.994601
650.177548	0.995764
650.520690	0.995518
650.863781	0.995030
651.206820	0.994782
651.549807	0.995186
651.892742	0.994881
652.235626	0.995686
652.578458	0.995334
652.921238	0.996737
653.263967	0.995833
653.606644	0.994909
653.949269	0.996371
654.291843	0.994649
654.634365	0.996552
654.976836	0.995724
655.319255	0.995739
655.661622	0.996105
656.003938	0.995913
656.346203	0.995398
656.688416	0.996045
657.030577	0.995735
657.372687	0.995864
657.714746	0.994752
658.056753	0.995283
658.398708	0.995151
658.740612	0.996863
659.082465	0.995477
659.424266	0.995568
659.766016	0.995416
660.107715	0.996292
660.449362	0.994970
660.790958	0.995113
661.132503	0.995870
661.473996	0.995143
661.815438	0.996314
662.156829	0.995799
662.498168	0.995647
662.839456	0.994969
663.180693	0.995957
663.521879	0.996218
663.863013	0.995578
664.204097	0.995264
664.545129	0.995470
664.886110	0.995625
665.227040	0.995449
665.567918	0.996224
665.908746	0.995241
666.249522	0.994645
666.590248	0.996020
666.930922	0.995370
667.271545	0.995514
667.612118	0.995583
667.952639	0.995630
668.293109	0.994842
668.633528	0.995307
668.973896	0.995134
669.314213	0.994971
669.654480	0.996394
669.994695	0.994560
670.334859	0.994856
670.674973	0.995299
671.015035	0.995726
671.355047	0.994968
671.695008	0.995029
672.034918	0.994846
672.374777	0.995287
672.714585	0.994759
673.054342	0.995898
673.394049	0.995429
673.733705	0.995304
674.073310	0.995623
674.412864	0.995228
674.752368	0.994749
675.091820	0.996848
675.431223	0.994684
675.770574	0.995065
676.109875	0.995495
676.449125	0.994245
676.788324	0.995077
677.127473	0.996047
677.466571	0.995349
677.805619	0.995747
678.144616	0.995784
678.483562	0.995327
678.822458	0.996024
679.161303	0.994577
679.500098	0.995548
679.838842	0.996104
680.177535	0.994912
680.516179	0.994639
680.854771	0.995335
681.193314	0.995143
681.531805	0.994805
681.870247	0.995327
682.208638	0.995066
682.546978	0.994586
682.885268	0.995120
683.223508	0.994346
683.561697	0.994878
683.899836	0.995287
684.237925	0.994972
684.575963	0.995130
684.913951	0.995775
685.251889	0.995352
685.589776	0.995404
685.927614	0.995339
686.265401	0.995658
686.603137	0.994812
686.940824	0.995879
687.278460	0.996691
687.616046	0.994694
687.953582	0.995156
688.291068	0.994812
688.628504	0.994515
688.965889	0.994425
689.303224	0.993131
689.640510	0.994764
689.977745	0.994423
690.314930	0.994604
690.652065	0.994877
690.989150	0.994402
691.326185	0.995182
691.663170	0.994983
692.000105	0.995688
692.336990	0.995499
692.673825	0.995227
693.010610	0.994947
693.347345	0.995040
693.684030	0.994930
694.020665	0.995693
694.357251	0.995231
694.693786	0.996183
695.030272	0.994457
695.366707	0.995639
695.703093	0.995473
696.039429	0.994891
696.375716	0.995865
696.711952	0.995505
697.048139	0.996127
697.384276	0.994754
697.720363	0.995412
698.056400	0.994383
698.392388	0.994901
698.728326	0.995646
699.064214	0.996592
699.400053	0.995814
699.735842	0.995603
700.071581	0.996056
700.407270	0.996212
700.742910	0.995562
701.078501	0.995806
701.414042	0.995175
701.749533	0.994612
702.084974	0.996258
702.420366	0.995290
702.755709	0.994713
703.091002	0.996707
703.426246	0.996656
703.761440	0.995023
704.096584	0.995484
704.431679	0.995746
704.766725	0.995261
705.101721	0.996153
705.436668	0.995598
705.771565	0.994689
706.106413	0.995087
706.441212	0.996134
706.775961	0.996383
707.110661	0.995657
707.445311	0.996566
707.779913	0.996495
708.114465	0.996042
708.448967	0.995076
708.783421	0.995421
709.117825	0.996283
709.452180	0.996340
709.786485	0.996390
710.120742	0.995636
710.454949	0.994809
710.789107	0.995446
711.123216	0.994225
711.457275	0.993872
711.791286	0.994816
712.125247	0.995979
712.459159	0.995222
712.793023	0.994598
713.126837	0.995452
713.460602	0.994985
713.794318	0.994289
714.127985	0.994611
714.461602	0.994733
714.795171	0.994491
715.128691	0.994126
715.462162	0.996342
715.795584	0.995325
716.128957	0.995351
716.462281	0.995620
716.795556	0.995619
717.128782	0.996642
717.461960	0.995267
717.795088	0.995655
718.128167	0.997053
718.461198	0.995814
718.794180	0.997214
719.127113	0.995059
719.459997	0.995190
719.792833	0.995960
720.125619	0.994722
720.458357	0.995827
720.791046	0.996743
721.123686	0.995684
721.456278	0.995710
721.788821	0.996028
722.121315	0.996644
722.453761	0.995938
722.786158	0.995187
723.118506	0.996151
723.450805	0.995535
723.783056	0.996853
724.115259	0.995673
724.447412	0.996479
724.779518	0.996403
725.111574	0.995809
725.443582	0.995494
725.775542	0.996401
726.107453	0.996217
726.439315	0.996973
726.771129	0.996812
727.102895	0.996268
727.434612	0.996130
727.766281	0.995728
728.097901	0.994323
728.429473	0.996578
728.760996	0.994838
729.092471	0.995897
729.423897	0.996194
729.755276	0.995556
730.086606	0.994611
730.417887	0.996607
730.749120	0.995769
731.080305	0.996740
731.411442	0.994593
731.742530	0.995047
732.073570	0.994707
732.404562	0.995772
732.735506	0.994796
733.066401	0.995085
733.397249	0.994489
733.728048	0.995438
734.058798	0.995150
734.389501	0.996758
734.720156	0.996004
735.050762	0.996367
735.381320	0.995605
735.711831	0.995770
736.042293	0.996244
736.372707	0.997586
736.703073	0.995538
737.033391	0.996653
737.363661	0.997370
737.693883	0.996487
738.024056	0.994717
738.354182	0.996518
738.684260	0.995291
739.014290	0.996352
739.344272	0.995405
739.674207	0.996362
740.004093	0.996043
740.333931	0.996761
740.663722	0.995064
740.993464	0.996710
741.323159	0.995656
741.652806	0.995405
741.982405	0.996448
742.311956	0.996403
742.641460	0.996245
742.970915	0.995650
743.300323	0.995330
743.629683	0.996092
743.958996	0.997429
744.288260	0.995641
744.617477	0.996131
744.946647	0.996375
745.275768	0.997724
745.604842	0.996273
745.933869	0.996117
746.262847	0.997689
746.591778	0.995166
746.920662	0.996921
747.249498	0.997823
747.578286	0.997273
747.907027	0.996382
748.235720	0.996335
748.564365	0.997485
748.892963	0.996121
749.221514	0.996421
749.550017	0.996187
749.878473	0.996775
750.206881	0.997548
750.535242	0.996354
750.863555	0.996364
751.191821	0.997247
751.520039	0.997026
751.848210	0.995129
752.176334	0.996344
752.504411	0.995928
752.832440	0.995883
753.160421	0.996941
753.488356	0.996906
753.816243	0.996378
754.144082	0.996060
754.471875	0.997135
754.799620	0.997495
755.127318	0.996654
755.454969	0.997579
755.782572	0.998586
756.110129	0.995171
756.437638	0.998279
756.765100	0.996897
757.092515	0.996360
757.419882	0.997263
757.747203	0.996320
758.074477	0.999050
758.401703	0.996305
758.728882	0.995994
759.056014	0.996866
759.383099	0.997130
759.710138	0.996629
760.037129	0.996131
760.364073	0.996814
760.690970	0.996253
761.017820	0.995779
761.344623	0.997080
761.671379	0.997602
761.998088	0.995774
762.324751	0.996733
762.651366	0.995656
762.977935	0.994524
763.304456	0.995347
763.630931	0.992869
763.957359	0.991884
764.283740	0.993618
764.610074	0.994129
764.936362	0.994748
765.262602	0.995157
765.588796	0.994934
765.914943	0.995871
766.241044	0.996300
766.567097	0.996521
766.893104	0.996406
767.219064	0.996435
767.544978	0.995912
767.870845	0.997647
768.196665	0.996933
768.522438	0.997393
768.848165	0.997237
769.173846	0.997409
769.499479	0.997125
769.825066	0.997345
770.150607	0.998310
770.476101	0.997717
770.801548	0.998410
771.126949	0.998138
771.452303	0.997509
771.777611	0.997681
772.102872	0.997367
772.428087	0.997874
772.753256	0.998118
773.078378	0.998321
773.403453	0.997208
773.728482	0.999643
774.053465	0.996954
774.378401	0.997961
774.703291	0.998418
775.028135	0.998644
775.352932	0.996516
775.677683	0.998395
776.002388	0.998036
776.327046	0.998227
776.651658	0.998998
776.976224	0.998558
777.300743	0.997332
777.625216	0.998057
777.949643	0.998598
778.274024	0.997826
778.598359	0.998518
778.922647	0.997553
779.246889	0.998602
779.571086	0.998294
779.895236	0.997733
780.219339	1.000028
780.543397	0.997108
780.867409	0.998732
781.191374	0.998879
781.515294	0.998748
781.839167	0.999077
782.162995	0.998235
782.486776	0.998149
782.810511	0.998777
783.134201	0.999407
783.457844	0.998838
783.781441	0.997826
784.104993	0.997721
784.428498	0.999049
784.751958	0.999407
785.075372	0.998530
785.398739	0.997384
785.722061	0.998088
786.045337	0.998000
786.368568	0.997368
786.691752	0.998408
787.014891	0.998041
787.337983	0.996866
787.661030	0.996684
787.984031	0.998375
788.306987	0.998064
788.629897	0.996120
788.952760	0.998126
789.275579	0.997437
789.598351	0.997576
789.921078	0.998652
790.243759	0.997027
790.566395	0.997518
790.888984	0.998843
791.211529	0.999075
791.534027	0.998377
791.856480	0.999422
792.178888	0.998283
792.501249	0.997791
792.823566	0.998854
793.145836	0.998166
793.468062	0.998041
793.790241	1.000028
794.112375	0.997463
794.434464	0.998366
794.756507	0.998598
795.078505	0.998673
795.400457	0.999104
795.722364	0.998708
796.044226	0.998588
796.366042	0.997689
796.687812	0.996231
797.009538	0.997786
797.331218	0.999252
797.652852	0.999557
797.974442	0.997861
798.295986	0.998910
798.617484	0.996595
798.938938	0.997943
799.260346	0.997143
799.581709	0.997625
799.903026	0.999515
800.224299	0.997836
800.545526	0.998396
800.866708	0.998817
801.187845	0.998651
801.508936	0.998429
801.829983	0.998528
802.150984	0.998149
802.471940	0.999212
802.792851	0.998344
803.113717	0.999396
803.434538	0.998689
803.755314	0.999823
804.076045	0.998094
804.396731	0.998060
804.717372	0.998088
805.037967	0.998821
805.358518	0.998883
805.679024	0.997629
805.999485	0.999258
806.319901	0.999047
806.640272	0.998752
806.960598	0.997653
807.280879	0.997626
807.601115	0.997825
807.921306	0.999543
808.241453	0.998357
808.561554	0.998297
808.881611	0.998946
809.201623	0.998463
809.521590	0.997977
809.841513	0.999804
810.161390	0.998477
810.481223	0.998524
810.801011	0.998763
811.120755	1.000091
811.440453	0.998671
811.760107	0.998411
812.079716	0.999347
812.399281	0.998748
812.718801	0.997642
813.038276	0.998187
813.357707	0.998337
813.677093	0.998980
813.996434	0.998534
814.315731	1.000352
814.634983	1.000278
814.954191	0.999274
815.273354	0.997496
815.592473	0.997779
815.911547	0.998852
816.230577	0.998085
816.549562	0.998513
816.868502	0.997478
817.187399	0.998973
817.506250	0.998258
817.825058	0.997178
818.143821	0.998304
818.462539	0.998020
818.781213	0.999348
819.099843	0.998014
819.418429	0.997304
819.736970	0.998093
820.055466	0.995738
820.373919	0.996418
820.692327	0.994578
821.010691	0.994844
821.329011	0.991341
821.647286	0.990065
821.965517	0.987366
822.283704	0.984240
822.601847	0.983115
822.919945	0.983384
823.237999	0.986077
823.556010	0.986432
823.873976	0.987812
824.191897	0.990184
824.509775	0.991953
824.827609	0.992083
825.145398	0.993762
825.463144	0.991904
825.780845	0.991807
826.098502	0.992756
826.416116	0.991918
826.733685	0.990336
827.051210	0.988445
827.368692	0.990148
827.686129	0.991391
828.003522	0.992577
828.320872	0.993954
828.638177	0.994142
828.955439	0.995998
829.272656	0.996024
829.589830	0.995880
829.906960	0.996524
830.224046	0.997878
830.541088	0.996420
830.858086	0.997143
831.175041	0.998805
831.491952	0.997829
831.808819	0.997835
832.125642	0.997376
832.442421	0.997959
832.759157	0.997326
833.075849	0.995606
833.392497	0.995815
833.709101	0.993037
834.025662	0.992971
834.342179	0.993391
834.658653	0.995396
834.975083	0.994954
835.291469	0.996174
835.607811	0.996498
835.924110	0.997386
836.240366	0.998403
836.556578	0.997736
836.872746	0.998001
837.188871	0.998812
837.504952	0.997659
837.820990	0.999089
838.136984	0.998641
838.452935	0.998884
838.768842	0.999221
839.084706	0.999153
839.400526	0.997547
839.716303	0.996346
840.032037	0.996866
840.347727	0.995484
840.663373	0.997053
840.978977	0.996983
841.294537	0.998050
841.610054	0.998566
841.925527	0.998582
842.240957	0.998370
842.556344	0.999298
842.871687	0.999463
843.186987	0.999095
843.502244	1.000231
843.817458	0.998503
844.132629	0.999574
844.447756	0.999358
844.762840	0.999619
845.077881	1.001229
845.392879	0.998695
845.707833	0.999383
846.022745	0.999142
846.337613	0.999239
846.652438	1.000964
846.967221	0.999588
847.281960	0.999797
847.596656	1.000661
847.911309	0.999938
848.225919	0.999106
848.540485	0.999331
848.855009	1.000610
849.169490	0.999745
849.483928	1.000336
849.798323	0.999263
850.112675	1.000530
850.426984	0.999690
850.741251	0.999814
851.055474	0.999003
851.369654	1.000208
851.683792	0.999468
851.997887	1.000119
852.311938	0.999473
852.625947	0.999548
852.939914	0.999247
853.253837	1.000896
853.567718	1.000448
853.881555	1.000949
854.195350	0.999946
854.509103	1.000375
854.822812	1.000306
855.136479	1.000188
855.450103	1.000058
855.763685	1.000076
856.077224	1.000016
856.390720	1.000009
856.704173	1.000618
857.017584	1.001039
857.330953	0.999971
857.644278	0.998812
857.957561	0.999680
858.270802	1.000028
858.584000	0.998858
858.897155	0.998392
859.210268	0.999856
859.523339	0.999888
859.836367	1.000698
860.149352	1.000245
860.462295	1.000381
860.775195	1.000408
861.088054	0.998896
861.400869	0.999257
861.713642	0.999551
862.026373	1.000800
862.339062	1.000982
862.651708	0.999484
862.964312	1.000283
863.276873	0.999854
863.589392	0.999249
863.901869	0.999077
864.214303	0.999468
864.526696	0.999406
864.839045	0.999587
865.151353	1.000022
865.463619	0.999358
865.775842	0.999743
866.088023	1.000269
866.400162	1.000932
866.712258	1.001034
867.024313	1.000172
867.336325	1.000700
867.648296	1.000428
867.960224	0.998179
868.272110	0.999853
868.583954	1.000858
868.895755	0.999999
869.207515	0.999717
869.519233	1.001542
869.830909	0.998540
870.142542	0.998633
870.454134	0.999562
870.765684	0.999974
871.077191	0.999416
871.388657	0.999229
871.700081	0.999481
872.011463	0.999863
872.322803	0.999835
872.634101	0.998368
872.945357	0.998801
873.256571	0.999340
873.567744	0.999939
873.878874	0.999248
874.189963	0.998127
874.501010	1.000729
874.812015	0.999420
875.122979	0.999789
875.433900	0.999405
875.744780	0.998482
876.055618	0.998301
876.366415	0.998462
876.677169	0.998652
876.987882	0.998049
877.298554	0.999285
877.609183	0.999996
877.919771	0.998841
878.230317	0.998488
878.540822	0.997453
878.851285	0.998540
879.161707	0.996989
879.472087	0.999048
879.782425	0.996261
880.092722	0.995098
880.402977	0.992373
880.713191	0.990321
881.023363	0.987602
881.333494	0.985065
881.643583	0.986350
881.953631	0.985489
882.263637	0.985177
882.573602	0.986325
882.883526	0.987443
883.193408	0.990346
883.503248	0.990897
883.813048	0.991490
884.122806	0.992811
884.432522	0.994005
884.742197	0.996466
885.051831	0.995560
885.361424	0.995510
885.670975	0.997015
885.980485	0.996539
886.289954	0.996366
886.599382	0.996821
886.908768	0.998386
887.218113	0.996570
887.527417	0.998352
887.836680	0.998340
888.145901	1.000144
888.455082	0.999352
888.764221	0.999938
889.073319	0.997722
889.382376	0.999058
889.691392	0.998788
890.000366	0.998917
890.309300	0.999139
890.618193	0.998913
890.927044	0.998588
891.235855	0.998626
891.544625	0.999027
891.853353	0.998925
892.162041	0.998031
892.470687	0.998460
892.779293	0.997408
893.087858	0.997526
893.396381	0.998179
893.704864	0.995812
894.013306	0.995913
894.321707	0.995391
894.630068	0.993893
894.938387	0.993739
895.246665	0.992841
895.554903	0.993259
895.863100	0.996056
896.171256	0.995082
896.479371	0.996360
896.787446	0.996060
897.095480	0.997374
897.403473	0.997383
897.711425	0.997174
898.019336	0.998689
898.327207	0.998192
898.635038	0.996447
898.942827	0.998624
899.250576	0.997753
899.558284	0.999488
899.865952	0.999024
900.173579	0.997841
900.481165	0.998101
900.788711	0.997726
901.096216	0.999944
901.403681	0.999312
901.711105	0.998556
902.018489	0.998897
902.325832	0.999364
902.633135	0.997996
902.940397	0.998580
903.247619	0.998643
903.554800	0.997083
903.861941	0.994506
904.169041	0.992657
904.476101	0.992165
904.783121	0.991480
905.090100	0.992582
905.397039	0.993235
905.703938	0.994707
906.010796	0.995209
906.317614	0.996428
906.624391	0.997495
906.931129	0.998195
907.237826	0.997481
907.544483	0.998682
907.851099	0.998844
908.157675	0.998649
908.464211	1.000250
908.770707	0.998611
909.077163	0.999777
909.383578	0.999827
909.689954	0.998397
909.996289	1.000173
910.302584	0.999538
910.608839	1.000806
910.915054	0.999741
911.221229	1.000853
911.527363	0.999228
911.833458	0.999021
912.139513	1.000107
912.445527	1.000546
912.751502	0.999990
913.057436	0.999203
913.363331	0.999715
913.669186	1.000280
913.975000	0.997341
914.280775	0.998806
914.586510	0.997495
914.892205	0.996578
915.197859	0.995849
915.503475	0.994331
915.809050	0.993964
916.114585	0.991746
916.420081	0.991455
916.725536	0.992997
917.030952	0.992810
917.336328	0.992847
917.641665	0.993760
917.946961	0.994288
918.252218	0.994645
918.557435	0.996400
918.862612	0.997665
919.167750	0.998110
919.472848	0.998639
919.777906	0.998396
920.082925	0.998498
920.387904	0.999787
920.692843	0.998734
920.997743	0.997642
921.302603	0.998693
921.607423	0.997585
921.912204	0.999854
922.216946	0.999445
922.521647	0.999936
922.826310	0.999883
923.130932	1.001122
923.435516	1.000305
923.740059	0.999544
924.044564	0.998509
924.349028	0.999150
924.653454	0.999728
924.957840	1.000120
925.262186	0.999884
925.566493	0.999887
925.870761	0.999636
926.174989	0.999955
926.479178	1.001564
926.783328	1.000714
927.087438	1.000156
927.391509	1.000548
927.695541	0.998563
927.999533	1.001140
928.303486	0.999717
928.607400	0.999542
928.911275	1.000427
929.215110	1.000967
929.518906	1.001204
929.822663	1.000966
930.126381	1.001286
930.430060	1.000985
930.733699	1.001553
931.037299	1.001372
931.340861	1.000643
931.644383	0.998775
931.947866	1.001280
932.251309	1.001725
932.554714	0.999798
932.858080	1.001335
933.161407	1.000746
933.464694	1.000966
933.767943	1.000948
934.071153	1.000931
934.374323	1.000706
934.677455	1.000624
934.980548	1.000488
935.283602	1.001144
935.586617	1.000426
935.889593	1.000886
936.192530	1.000993
936.495428	1.000959
936.798287	0.999336
937.101108	0.999758
937.403890	0.999912
937.706632	1.001607
938.009336	0.999498
938.312002	0.999496
938.614628	1.001208
938.917216	0.999985
939.219765	0.999678
939.522275	0.999714
939.824747	0.999247
940.127179	1.000325
940.429573	0.999738
940.731929	0.998145
941.034246	0.999739
941.336524	0.998789
941.638763	1.000256
941.940964	0.999424
942.243126	0.999244
942.545250	1.000369
942.847335	0.999311
943.149381	1.000360
943.451389	0.999866
943.753359	0.999789
944.055290	1.000873
944.357182	1.000017
944.659036	1.000655
944.960851	1.000019
945.262628	1.001110
945.564367	1.000647
945.866067	1.000900
946.167729	1.000797
946.469352	1.000253
946.770937	0.998370
947.072484	1.001988
947.373992	0.999647
947.675462	1.000670
947.976893	1.000327
948.278286	1.000459
948.579641	1.001123
948.880958	1.000642
949.182236	0.999467
949.483476	1.001995
949.784678	0.999828
950.085841	1.000222
950.386967	0.999780
950.688054	1.000349
950.989103	0.998801
951.290114	0.998786
951.591087	0.999813
951.892021	0.999789
952.192917	1.000715
952.493776	0.999781
952.794596	0.999809
953.095378	1.000721
953.396122	0.998942
953.696828	1.000158
953.997496	1.000005
954.298126	1.001426
954.598718	0.999625
954.899272	1.001142
955.199788	1.000670
955.500266	1.001418
955.800706	1.000272
956.101108	1.000890
956.401472	1.000556
956.701798	1.000041
957.002087	1.000142
957.302337	1.001033
957.602550	1.000293
957.902724	1.001357
958.202861	1.000599
958.502960	0.999430
958.803022	1.001895
959.103045	1.000903
959.403031	1.001552
959.702979	1.001546
960.002889	1.000722
960.302762	1.000657
960.602596	1.002059
960.902393	1.000841
961.202153	1.001685
961.501875	1.000727
961.801559	1.001394
962.101205	1.000869
962.400814	1.001377
962.700385	1.000499
962.999918	1.001615
963.299414	1.000844
963.598873	1.001079
963.898293	1.000620
964.197677	1.000859
964.497022	1.000743
964.796331	1.000926
965.095601	1.000458
965.394835	1.000819
965.694030	1.001620
965.993189	1.001222
966.292309	1.000912
966.591393	0.999117
966.890439	1.001776
967.189447	1.000233
967.488419	1.000891
967.787353	1.000883
968.086249	1.001075
968.385108	1.001862
968.683930	1.002000
968.982714	1.000821
969.281462	1.001633
969.580172	1.000314
969.878844	1.001591
970.177480	1.001882
970.476078	1.000974
970.774639	1.001221
971.073162	1.000630
971.371649	1.000235
971.670098	1.000652
971.968510	1.001059
972.266885	1.000574
972.565223	1.001571
972.863524	0.999633
973.161788	1.000994
973.460014	1.001685
973.758204	1.000399
974.056356	1.001030
974.354471	0.998874
974.652550	1.001567
974.950591	1.000625
975.248595	1.000554
975.546563	1.001564
975.844493	1.002339
976.142386	1.000329
976.440243	1.002230
976.738062	1.000391
977.035845	1.001070
977.333590	1.001663
977.631299	0.999682
977.928971	1.000858
978.226606	1.000732
978.524204	1.000780
978.821765	1.000283
979.119290	1.001910
979.416777	1.001981
979.714228	1.000916
980.011642	1.002471
980.309020	1.001052
980.606360	1.000302
980.903664	1.001109
981.200931	1.000434
981.498162	1.000501
981.795356	1.001412
982.092513	1.000768
982.389633	1.001604
982.686717	1.000329
982.983764	1.000474
983.280775	1.001379
983.577749	1.001612
983.874686	0.999276
984.171587	1.000548
984.468451	1.000335
984.765279	1.001999
985.062070	1.000844
985.358824	1.000921
985.655543	1.000990
985.952224	1.000179
986.248869	1.001266
986.545478	1.002311
986.842050	0.999659
987.138586	0.999891
987.435086	1.000284
987.731549	1.001818
988.027975	1.002077
988.324366	1.000711
988.620719	1.001623
988.917037	1.001182
989.213318	1.001391
989.509563	1.000258
989.805772	1.000928
990.101944	1.001820
990.398080	1.001146
990.694180	1.001925
990.990244	1.000212
991.286271	1.001790
991.582262	1.002010
991.878217	1.000598
992.174136	1.000600
992.470019	1.000357
992.765865	1.001431
993.061676	1.001481
993.357450	1.000907
993.653188	1.001025
993.948890	1.001781
994.244556	1.000531
994.540186	1.000979
994.835780	0.999761
995.131337	1.002331
995.426859	1.000928
995.722345	1.000152
996.017795	1.000067
996.313208	1.001007
996.608586	1.001114
996.903928	1.001373
997.199234	1.000814
997.494504	1.001653
997.789738	1.000437
998.084936	1.001300
998.380099	0.999752
998.675225	1.001546
998.970316	1.000472
999.265371	1.001039
999.560390	1.001871
999.855373	1.001424
1000.150320	1.001064
1000.445232	1.001373
1000.740108	1.000218
1001.034948	1.000342
1001.329752	1.001582
1001.624521	1.001446
1001.919254	1.000140
1002.213951	1.000320
1002.508613	1.000401
1002.803239	1.000545
1003.097829	1.001360
1003.392384	1.001118
1003.686903	1.002116
1003.981386	1.000439
1004.275834	1.001158
1004.570246	1.000478
1004.864623	1.000493
1005.158964	1.001621
1005.453270	1.001041
1005.747540	1.000990
1006.041775	1.001364
1006.335974	1.001849
1006.630138	1.001146
1006.924266	1.000984
1007.218359	0.999046
1007.512416	1.002323
1007.806438	1.000530
1008.100425	1.001643
1008.394376	1.002721
1008.688292	1.000793
1008.982172	1.001297
1009.276017	1.000963
1009.569827	1.002442
1009.863602	0.998891
1010.157341	1.001326
1010.451045	1.000635
1010.744714	1.002786
1011.038347	1.002820
1011.331945	1.000131
1011.625508	1.001721
1011.919036	1.000718
1012.212528	1.002708
1012.505986	1.001433
1012.799408	1.000901
1013.092795	1.001047
1013.386147	1.002408
1013.679464	1.002156
1013.972745	1.000905
1014.265992	1.000356
1014.559204	1.000453
1014.852380	1.001693
1015.145521	1.001505
1015.438628	1.001280
1015.731699	1.000511
1016.024736	1.001801
1016.317737	1.001586
1016.610703	1.001561
1016.903635	1.001647
1017.196531	1.000710
1017.489393	1.000193
1017.782219	1.000622
1018.075011	1.000129
1018.367768	1.001126
1018.660490	1.000933
1018.953177	1.000933
1019.245829	1.000933
