Dividing Wavelength (nm)	Counts (n)	Blue Motor Position (mm): 37.300000	Red Motor Position (mm): 0.000000	
326.493990	0.999245
326.888308	0.999245
327.282561	0.999245
327.676750	0.999716
328.070874	0.999819
328.464933	1.000468
328.858929	1.001010
329.252859	0.998957
329.646726	0.999145
330.040528	0.999424
330.434265	0.999777
330.827938	0.998071
331.221547	1.000969
331.615091	1.000278
332.008571	1.000525
332.401986	0.999541
332.795338	0.999077
333.188625	0.999643
333.581847	0.999619
333.975006	0.999973
334.368100	1.000662
334.761129	0.998568
335.154095	0.999236
335.546996	0.998580
335.939833	0.999185
336.332606	1.000116
336.725315	0.997875
337.117960	1.000226
337.510540	0.998724
337.903056	0.999538
338.295508	1.000575
338.687896	1.000315
339.080220	1.000000
339.472480	0.998977
339.864676	1.000185
340.256807	0.998662
340.648875	0.999301
341.040879	1.000078
341.432818	0.999305
341.824694	0.999048
342.216506	1.000220
342.608253	0.999213
342.999937	1.000041
343.391557	0.999386
343.783113	1.000962
344.174605	0.999319
344.566033	0.998634
344.957397	1.000542
345.348697	0.999510
345.739934	0.998760
346.131106	0.998843
346.522215	0.998107
346.913260	0.998750
347.304241	0.999520
347.695159	0.998454
348.086012	1.000049
348.476802	0.998892
348.867528	0.997565
349.258191	1.001529
349.648789	0.999468
350.039324	0.999785
350.429796	0.998338
350.820203	0.997660
351.210548	0.998251
351.600828	0.998773
351.991045	0.998874
352.381198	0.999334
352.771288	0.998189
353.161314	0.999168
353.551276	0.998067
353.941175	0.997470
354.331010	1.000315
354.720782	0.998733
355.110490	0.998756
355.500135	0.999289
355.889717	0.997797
356.279235	0.999452
356.668689	0.999438
357.058080	0.998564
357.447408	0.997580
357.836672	0.998434
358.225873	0.998269
358.615010	0.998414
359.004084	0.996400
359.393095	0.998654
359.782043	0.997187
360.170927	0.999083
360.559748	0.996510
360.948505	0.997058
361.337199	0.997586
361.725830	0.997176
362.114398	0.998409
362.502903	0.997643
362.891344	0.996108
363.279722	0.997123
363.668037	0.998380
364.056289	0.998448
364.444478	0.998609
364.832603	0.997430
365.220665	0.998735
365.608665	0.996833
365.996601	0.996769
366.384474	0.996206
366.772284	0.996298
367.160031	0.996364
367.547715	0.996338
367.935336	0.995179
368.322893	0.993942
368.710388	0.992836
369.097820	0.991870
369.485189	0.989428
369.872495	0.987121
370.259738	0.985765
370.646918	0.983445
371.034035	0.979441
371.421090	0.976734
371.808081	0.972502
372.195010	0.969999
372.581875	0.964204
372.968678	0.960943
373.355418	0.956663
373.742096	0.948622
374.128710	0.944929
374.515262	0.939731
374.901751	0.934194
375.288177	0.930058
375.674540	0.922741
376.060841	0.917118
376.447079	0.909753
376.833254	0.903358
377.219367	0.898510
377.605417	0.887551
377.991404	0.883672
378.377329	0.877289
378.763191	0.871288
379.148991	0.861885
379.534727	0.854929
379.920402	0.847007
380.306013	0.843475
380.691563	0.831527
381.077049	0.823985
381.462474	0.820589
381.847835	0.807652
382.233134	0.802679
382.618371	0.804741
383.003545	0.785905
383.388657	0.785483
383.773706	0.776938
384.158693	0.773701
384.543618	0.768271
384.928480	0.760090
385.313280	0.749424
385.698017	0.748533
386.082692	0.738162
386.467305	0.735765
386.851856	0.731048
387.236344	0.725496
387.620770	0.720034
388.005133	0.714572
388.389435	0.708743
388.773674	0.705948
389.157851	0.698155
389.541965	0.696191
389.926018	0.702138
390.310008	0.689854
390.693936	0.685797
391.077802	0.679060
391.461606	0.678376
391.845348	0.668633
392.229027	0.668658
392.612645	0.667007
392.996200	0.653773
393.379694	0.647750
393.763125	0.637305
394.146494	0.642199
394.529801	0.632558
394.913047	0.625387
395.296230	0.631738
395.679351	0.622948
396.062410	0.621697
396.445408	0.624343
396.828343	0.621472
397.211217	0.617267
397.594028	0.631028
397.976778	0.623423
398.359466	0.621785
398.742092	0.619325
399.124656	0.633205
399.507158	0.625238
399.889598	0.625496
400.271977	0.620044
400.654294	0.627353
401.036549	0.630807
401.418742	0.638873
401.800874	0.629784
402.182944	0.631110
402.564952	0.629299
402.946898	0.635859
403.328783	0.641114
403.710606	0.657457
404.092367	0.641762
404.474067	0.652301
404.855705	0.657368
405.237282	0.670357
405.618797	0.667009
406.000250	0.670735
406.381642	0.669953
406.762972	0.682073
407.144240	0.687828
407.525447	0.694549
407.906593	0.698841
408.287677	0.703302
408.668700	0.717236
409.049661	0.722344
409.430560	0.727854
409.811399	0.742201
410.192176	0.740088
410.572891	0.752978
410.953545	0.754763
411.334138	0.771235
411.714669	0.775182
412.095139	0.789927
412.475547	0.792325
412.855894	0.801511
413.236180	0.809598
413.616405	0.820577
413.996568	0.825042
414.376670	0.836102
414.756711	0.845672
415.136691	0.852167
415.516609	0.856373
415.896466	0.862912
416.276262	0.868773
416.655997	0.878614
417.035670	0.880426
417.415283	0.885518
417.794834	0.893742
418.174324	0.902096
418.553753	0.909299
418.933121	0.912486
419.312428	0.918787
419.691674	0.924951
420.070859	0.929109
420.449983	0.935429
420.829045	0.937803
421.208047	0.945159
421.586988	0.947394
421.965867	0.950790
422.344686	0.955542
422.723444	0.959765
423.102141	0.963975
423.480777	0.965345
423.859352	0.970448
424.237866	0.972642
424.616319	0.975442
424.994712	0.976454
425.373044	0.979480
425.751314	0.981567
426.129524	0.984441
426.507673	0.983898
426.885762	0.986127
427.263789	0.987801
427.641756	0.988507
428.019662	0.990473
428.397508	0.991526
428.775292	0.992211
429.153016	0.993255
429.530679	0.993180
429.908282	0.994492
430.285824	0.994480
430.663305	0.995652
431.040726	0.996022
431.418086	0.996032
431.795385	0.996963
432.172624	0.997928
432.549802	0.996570
432.926920	0.997949
433.303977	0.997754
433.680974	0.998733
434.057910	0.997028
434.434786	0.997150
434.811601	0.997197
435.188355	0.998615
435.565050	0.998551
435.941683	0.997575
436.318257	0.997398
436.694770	0.998547
437.071222	0.998769
437.447614	0.998624
437.823946	0.999141
438.200218	0.998480
438.576429	0.998141
438.952580	0.998740
439.328670	0.998013
439.704700	0.998429
440.080670	0.999130
440.456580	0.999302
440.832429	0.998884
441.208218	0.998543
441.583947	0.999073
441.959616	0.998316
442.335224	0.999656
442.710773	0.999204
443.086261	0.999188
443.461689	0.999202
443.837057	0.997990
444.212365	0.999985
444.587612	1.000105
444.962800	0.999670
445.337927	0.999555
445.712995	0.999242
446.088002	0.998663
446.462949	0.999383
446.837837	0.999921
447.212664	0.998889
447.587431	1.000084
447.962139	0.998694
448.336786	0.998956
448.711374	0.999129
449.085901	0.999843
449.460369	0.999631
449.834776	0.999027
450.209124	0.999269
450.583412	0.999760
450.957640	0.998917
451.331808	0.999970
451.705917	0.998819
452.079965	0.999415
452.453954	1.000141
452.827883	0.999416
453.201752	0.998839
453.575562	0.998593
453.949311	1.000100
454.323001	0.999506
454.696632	0.999468
455.070202	0.999133
455.443713	0.999425
455.817164	0.998700
456.190556	0.999053
456.563888	1.000118
456.937160	0.999475
457.310373	0.998748
457.683526	0.998884
458.056619	0.999472
458.429653	0.998555
458.802628	0.999184
459.175542	0.998449
459.548398	0.999268
459.921194	0.999538
460.293930	0.999603
460.666607	0.999657
461.039224	0.999624
461.411782	0.999090
461.784280	0.999152
462.156719	0.999763
462.529099	0.999336
462.901419	0.999566
463.273680	0.998438
463.645882	0.998795
464.018024	0.999265
464.390106	0.998482
464.762130	0.999541
465.134094	0.999306
465.505999	0.999403
465.877845	0.999391
466.249631	0.998248
466.621358	0.997962
466.993026	0.999187
467.364634	0.998809
467.736184	0.998692
468.107674	0.998664
468.479105	0.998992
468.850477	0.999055
469.221790	0.998969
469.593043	0.998604
469.964238	0.997984
470.335373	0.998607
470.706449	0.999383
471.077467	0.998535
471.448425	0.999219
471.819324	0.998492
472.190164	0.998496
472.560945	0.998671
472.931667	0.998690
473.302330	0.999037
473.672934	0.998595
474.043479	0.998571
474.413965	0.998717
474.784393	0.998604
475.154761	0.998361
475.525070	0.997979
475.895321	0.998478
476.265513	0.999007
476.635645	0.998934
477.005719	0.999080
477.375734	0.998426
477.745691	0.998048
478.115588	0.998269
478.485427	0.998597
478.855207	0.998505
479.224928	0.997974
479.594591	0.998590
479.964194	0.998744
480.333739	0.998578
480.703226	0.997808
481.072653	0.997838
481.442022	0.998690
481.811333	0.998202
482.180584	0.998325
482.549777	0.998541
482.918912	0.998168
483.287988	0.998733
483.657005	0.998795
484.025964	0.998500
484.394864	0.998085
484.763706	0.998541
485.132489	0.998581
485.501213	0.998696
485.869879	0.998493
486.238487	0.997481
486.607036	0.998960
486.975527	0.999240
487.343959	0.998316
487.712333	0.998891
488.080648	0.998082
488.448905	0.998674
488.817104	0.998592
489.185244	0.998549
489.553326	0.999105
489.921350	0.999154
490.289315	0.998772
490.657222	0.998699
491.025070	0.998846
491.392861	0.999254
491.760593	0.998837
492.128267	0.998436
492.495883	0.998451
492.863440	0.999138
493.230939	0.998972
493.598380	0.999283
493.965763	0.998846
494.333088	0.998319
494.700354	0.998509
495.067563	0.998007
495.434713	0.999242
495.801805	0.998912
496.168839	0.999015
496.535815	0.998917
496.902733	0.998644
497.269593	0.998359
497.636395	0.997938
498.003139	0.998181
498.369825	0.999276
498.736453	0.998571
499.103023	0.998536
499.469535	0.999032
499.835989	0.998972
500.202385	0.998883
500.568723	0.998707
500.935003	0.998907
501.301226	0.998744
501.667390	0.998301
502.033497	0.998731
502.399546	0.998378
502.765537	0.999104
503.131470	0.999470
503.497345	0.998991
503.863163	0.998796
504.228923	0.998753
504.594625	0.998346
504.960269	0.998653
505.325856	0.999599
505.691385	0.998993
506.056856	0.998581
506.422270	0.998889
506.787625	0.999035
507.152924	0.998972
507.518164	0.999212
507.883347	0.998608
508.248472	0.998608
508.613540	0.998412
508.978550	0.998655
509.343503	0.998600
509.708398	0.999804
510.073236	0.999341
510.438016	0.997701
510.802738	0.998733
511.167403	0.998650
511.532010	0.999100
511.896561	0.999296
512.261053	0.998415
512.625488	0.998767
512.989866	0.999034
513.354186	0.998033
513.718449	0.998915
514.082655	0.998305
514.446803	0.998416
514.810894	0.999259
515.174927	0.999319
515.538904	0.999160
515.902822	0.998893
516.266684	0.998978
516.630488	0.999364
516.994235	0.998993
517.357925	0.999308
517.721558	0.998847
518.085133	0.998674
518.448651	0.998832
518.812112	0.998942
519.175516	0.997956
519.538863	0.998819
519.902152	0.999607
520.265385	0.998866
520.628560	0.998391
520.991678	0.999202
521.354739	0.999708
521.717743	0.999065
522.080690	0.998356
522.443580	0.999536
522.806413	0.998757
523.169189	0.999721
523.531908	0.998429
523.894569	0.999193
524.257174	0.999193
524.619722	0.998845
524.982213	0.998725
525.344647	0.999080
525.707025	0.998359
526.069345	0.998435
526.431608	0.999331
526.793815	0.999205
527.155964	0.999163
527.518057	0.999171
527.880093	0.998640
528.242072	0.998914
528.603995	0.998559
528.965860	0.999263
529.327669	0.998916
529.689421	0.998733
530.051117	0.998780
530.412755	0.998999
530.774337	0.998493
531.135862	0.998950
531.497331	0.999126
531.858743	0.999565
532.220098	0.998378
532.581396	0.999076
532.942638	0.999647
533.303824	0.999569
533.664953	0.999100
534.026025	0.999550
534.387040	0.999288
534.747999	0.998888
535.108902	0.998800
535.469748	1.000106
535.830537	0.999326
536.191270	0.999351
536.551947	0.998556
536.912567	0.999378
537.273131	0.999463
537.633638	0.998920
537.994089	0.999247
538.354483	0.999715
538.714821	0.998885
539.075103	0.999377
539.435328	0.999840
539.795497	0.999549
540.155609	0.999293
540.515665	0.999751
540.875665	0.998420
541.235609	0.999290
541.595496	0.998878
541.955328	0.999699
542.315102	0.999015
542.674821	0.999018
543.034483	0.999731
543.394090	0.998317
543.753640	0.999470
544.113134	0.998199
544.472571	0.999483
544.831953	0.998970
545.191278	0.999376
545.550548	0.999017
545.909761	0.998794
546.268918	0.999860
546.628019	0.999922
546.987064	0.999026
547.346053	0.999053
547.704986	0.998649
548.063863	0.999118
548.422684	0.998772
548.781449	0.999411
549.140158	0.999581
549.498811	0.998735
549.857408	0.998368
550.215949	0.998347
550.574434	0.999170
550.932864	0.999471
551.291237	0.998946
551.649555	0.999751
552.007817	0.999075
552.366022	0.999735
552.724173	0.999353
553.082267	0.998950
553.440305	0.998729
553.798288	0.998657
554.156215	0.998840
554.514086	0.998491
554.871902	0.999173
555.229661	0.998556
555.587365	0.999561
555.945014	0.998864
556.302606	0.998020
556.660143	0.999896
557.017625	0.999081
557.375050	0.998733
557.732421	0.999136
558.089735	0.998521
558.446994	0.998446
558.804197	0.999106
559.161345	0.998588
559.518437	0.998748
559.875474	0.999356
560.232455	0.999741
560.589381	0.999271
560.946251	0.998618
561.303065	0.998940
561.659825	0.999171
562.016528	0.999656
562.373177	0.999118
562.729770	0.998961
563.086307	0.998383
563.442789	0.999537
563.799216	0.998779
564.155587	0.999344
564.511904	0.999815
564.868164	0.998387
565.224370	0.999300
565.580520	0.999239
565.936615	0.999446
566.292654	0.998921
566.648638	0.998728
567.004567	0.998859
567.360441	0.999602
567.716260	0.999209
568.072023	0.998636
568.427732	0.999108
568.783385	0.998492
569.138982	0.999332
569.494525	0.998514
569.850013	0.999590
570.205445	0.999451
570.560823	0.999348
570.916145	0.999419
571.271412	0.999178
571.626625	0.999628
571.981782	0.998915
572.336884	0.999251
572.691931	0.999093
573.046923	0.999816
573.401860	0.998714
573.756743	0.999500
574.111570	0.999572
574.466342	0.999756
574.821059	0.999020
575.175722	0.999636
575.530330	0.998811
575.884882	0.998779
576.239380	0.998682
576.593823	0.999068
576.948211	0.999776
577.302544	0.998903
577.656823	0.999016
578.011047	0.998456
578.365216	1.000080
578.719330	0.999454
579.073389	0.998782
579.427394	0.998681
579.781344	0.999577
580.135239	0.998360
580.489080	0.999581
580.842866	0.999313
581.196597	0.999384
581.550273	0.998332
581.903895	0.999366
582.257463	0.998987
582.610975	0.999368
582.964434	0.999084
583.317837	0.998788
583.671186	0.999278
584.024481	0.998987
584.377721	0.998010
584.730906	0.999406
585.084037	0.999749
585.437113	0.999954
585.790135	0.999266
586.143103	0.998917
586.496016	0.999331
586.848874	0.998936
587.201679	0.998703
587.554428	0.998690
587.907124	0.999394
588.259765	0.999584
588.612352	0.999831
588.964884	0.999343
589.317362	0.998969
589.669786	0.998860
590.022155	0.998498
590.374470	0.998858
590.726731	0.998425
591.078937	0.999028
591.431090	0.999765
591.783188	0.998378
592.135232	0.999691
592.487222	0.998796
592.839157	0.998958
593.191038	0.999028
593.542866	0.999318
593.894639	0.998697
594.246358	0.999938
594.598022	0.999306
594.949633	0.999499
595.301190	0.998816
595.652692	0.997958
596.004141	0.998422
596.355535	0.999024
596.706876	0.999615
597.058162	0.999683
597.409395	0.998757
597.760573	0.999132
598.111698	0.998711
598.462768	0.998183
598.813785	0.997914
599.164748	0.998718
599.515657	0.998318
599.866511	0.998493
600.217312	0.999061
600.568060	0.998866
600.918753	0.999164
601.269392	0.999368
601.619978	0.999878
601.970510	0.999190
602.320988	0.999088
602.671412	0.999169
603.021783	0.999282
603.372100	0.999532
603.722363	0.998879
604.072572	0.999491
604.422728	0.999216
604.772830	0.998874
605.122878	0.998658
605.472872	0.999741
605.822813	0.998333
606.172701	0.998823
606.522534	0.999166
606.872314	0.999452
607.222041	0.998727
607.571714	0.999104
607.921333	0.998271
608.270899	0.998242
608.620411	0.998416
608.969870	0.999988
609.319276	0.998904
609.668627	0.999507
610.017926	0.998933
610.367171	0.999755
610.716362	0.999439
611.065500	0.998500
611.414585	0.999328
611.763616	0.998203
612.112594	0.999018
612.461518	0.997868
612.810389	0.999293
613.159207	0.997989
613.507971	0.997848
613.856682	0.999670
614.205340	0.997989
614.553945	0.999446
614.902496	0.998399
615.250994	0.998977
615.599439	0.998831
615.947830	0.998780
616.296169	0.999365
616.644454	0.999390
616.992686	0.998676
617.340864	0.999402
617.688990	0.998272
618.037063	0.999370
618.385082	0.998308
618.733048	0.998786
619.080961	0.999041
619.428821	0.999158
619.776628	0.998299
620.124382	0.999255
620.472083	0.999399
620.819731	1.000064
621.167326	0.998772
621.514868	0.999317
621.862357	0.998773
622.209793	0.999508
622.557176	0.998481
622.904506	0.998828
623.251783	0.998989
623.599007	0.999505
623.946179	0.998448
624.293297	0.999525
624.640363	0.999190
624.987376	0.999094
625.334336	0.999331
625.681243	0.999249
626.028097	0.999107
626.374899	0.998946
626.721647	0.999724
627.068343	0.999192
627.414987	0.998995
627.761577	0.998634
628.108115	0.999791
628.454600	1.000032
628.801032	0.999073
629.147412	0.999176
629.493739	0.999686
629.840014	0.999154
630.186236	0.997813
630.532405	0.998904
630.878521	0.998652
631.224585	0.999273
631.570597	0.998580
631.916556	0.998788
632.262462	0.997833
632.608316	0.998915
632.954117	0.998109
633.299866	0.998701
633.645562	0.998472
633.991206	0.998945
634.336797	0.998283
634.682336	0.999346
635.027823	0.998723
635.373257	0.999196
635.718639	0.999345
636.063968	0.998639
636.409245	0.998208
636.754470	0.998321
637.099642	0.999546
637.444762	0.999757
637.789829	0.998793
638.134845	0.998385
638.479808	0.998555
638.824719	0.999636
639.169577	0.999196
639.514383	0.999123
639.859137	0.999074
640.203839	0.999022
640.548489	0.998505
640.893086	0.998525
641.237632	0.998881
641.582125	0.999219
641.926566	1.000282
642.270955	0.998660
642.615292	0.997715
642.959576	0.999190
643.303809	0.999438
643.647990	0.999163
643.992118	0.999861
644.336195	0.998600
644.680219	0.998898
645.024192	0.998439
645.368112	0.998667
645.711981	0.998835
646.055797	0.998988
646.399562	0.997940
646.743274	0.999431
647.086935	0.999101
647.430544	0.998480
647.774101	0.998351
648.117606	0.999497
648.461059	0.999102
648.804460	0.999364
649.147810	0.998894
649.491108	0.998340
649.834354	0.999279
650.177548	0.999194
650.520690	0.998196
650.863781	0.998629
651.206820	0.998683
651.549807	0.999012
651.892742	0.999199
652.235626	0.998080
652.578458	0.999161
652.921238	0.999883
653.263967	0.999631
653.606644	0.998443
653.949269	0.999366
654.291843	0.998030
654.634365	0.999614
654.976836	0.998178
655.319255	0.999161
655.661622	0.998079
656.003938	0.998898
656.346203	0.999132
656.688416	0.999201
657.030577	0.998816
657.372687	0.998353
657.714746	0.998387
658.056753	0.998682
658.398708	0.998269
658.740612	0.999656
659.082465	0.997886
659.424266	0.998718
659.766016	0.998310
660.107715	0.999482
660.449362	0.998521
660.790958	0.998534
661.132503	0.999144
661.473996	0.998659
661.815438	0.999636
662.156829	0.998786
662.498168	0.999480
662.839456	0.998036
663.180693	0.998759
663.521879	0.998131
663.863013	0.999856
664.204097	0.997537
664.545129	0.998471
664.886110	0.999047
665.227040	0.999156
665.567918	0.998934
665.908746	0.998142
666.249522	0.997867
666.590248	0.998302
666.930922	0.998148
667.271545	0.998100
667.612118	0.999023
667.952639	0.998727
668.293109	0.997892
668.633528	0.998145
668.973896	0.998500
669.314213	0.998266
669.654480	0.999352
669.994695	0.997771
670.334859	0.998174
670.674973	0.998746
671.015035	0.998879
671.355047	0.997928
671.695008	0.998853
672.034918	0.998787
672.374777	0.998054
672.714585	0.998712
673.054342	0.998753
673.394049	0.998764
673.733705	0.998665
674.073310	0.998135
674.412864	0.998365
674.752368	0.997906
675.091820	0.999078
675.431223	0.999066
675.770574	0.997509
676.109875	0.998438
676.449125	0.997289
676.788324	0.997422
677.127473	0.999198
677.466571	0.998403
677.805619	0.998617
678.144616	0.999420
678.483562	0.998864
678.822458	0.998825
679.161303	0.997985
679.500098	0.998151
679.838842	0.998538
680.177535	0.998261
680.516179	0.998318
680.854771	0.998350
681.193314	0.998345
681.531805	0.997988
681.870247	0.998454
682.208638	0.998630
682.546978	0.997773
682.885268	0.998332
683.223508	0.997920
683.561697	0.997910
683.899836	0.999285
684.237925	0.998032
684.575963	0.997689
684.913951	0.997805
685.251889	0.998392
685.589776	0.997778
685.927614	0.998122
686.265401	0.997962
686.603137	0.998594
686.940824	0.997585
687.278460	0.999200
687.616046	0.998213
687.953582	0.998248
688.291068	0.998725
688.628504	0.998329
688.965889	0.997509
689.303224	0.997096
689.640510	0.998584
689.977745	0.997556
690.314930	0.997167
690.652065	0.998050
690.989150	0.997733
691.326185	0.998751
691.663170	0.997925
692.000105	0.998190
692.336990	0.998538
692.673825	0.998414
693.010610	0.997787
693.347345	0.998577
693.684030	0.997826
694.020665	0.996906
694.357251	0.997822
694.693786	0.998967
695.030272	0.997017
695.366707	0.997882
695.703093	0.997089
696.039429	0.997288
696.375716	0.998073
696.711952	0.998283
697.048139	0.998210
697.384276	0.997919
697.720363	0.998241
698.056400	0.996793
698.392388	0.997189
698.728326	0.997755
699.064214	0.999096
699.400053	0.997394
699.735842	0.998848
700.071581	0.997429
700.407270	0.998102
700.742910	0.998222
701.078501	0.998474
701.414042	0.998568
701.749533	0.997897
702.084974	0.998204
702.420366	0.998331
702.755709	0.997473
703.091002	0.998562
703.426246	0.998678
703.761440	0.997887
704.096584	0.997153
704.431679	0.996763
704.766725	0.997964
705.101721	0.998358
705.436668	0.998596
705.771565	0.997623
706.106413	0.996298
706.441212	0.998022
706.775961	0.998046
707.110661	0.997292
707.445311	0.998756
707.779913	0.999217
708.114465	0.998649
708.448967	0.999076
708.783421	0.998281
709.117825	0.998131
709.452180	0.997670
709.786485	0.998220
710.120742	0.997586
710.454949	0.997786
710.789107	0.997654
711.123216	0.997755
711.457275	0.997116
711.791286	0.998126
712.125247	0.999815
712.459159	0.997542
712.793023	0.997144
713.126837	0.998565
713.460602	0.997599
713.794318	0.997132
714.127985	0.997199
714.461602	0.997792
714.795171	0.997987
715.128691	0.997616
715.462162	0.998764
715.795584	0.997832
716.128957	0.998373
716.462281	0.998115
716.795556	0.997603
717.128782	0.997895
717.461960	0.997826
717.795088	0.997478
718.128167	0.998478
718.461198	0.997949
718.794180	0.999120
719.127113	0.997919
719.459997	0.997026
719.792833	0.997110
720.125619	0.997101
720.458357	0.997838
720.791046	0.998309
721.123686	0.997792
721.456278	0.997659
721.788821	0.997752
722.121315	0.998892
722.453761	0.998450
722.786158	0.997971
723.118506	0.997661
723.450805	0.997641
723.783056	0.997829
724.115259	0.997583
724.447412	0.998278
724.779518	0.998088
725.111574	0.996907
725.443582	0.998076
725.775542	0.998664
726.107453	0.998875
726.439315	0.998671
726.771129	0.998221
727.102895	0.997885
727.434612	0.998729
727.766281	0.997534
728.097901	0.998107
728.429473	0.998038
728.760996	0.996773
729.092471	0.998051
729.423897	0.998230
729.755276	0.997896
730.086606	0.997705
730.417887	0.998703
730.749120	0.998212
731.080305	0.997073
731.411442	0.997006
731.742530	0.997015
732.073570	0.996979
732.404562	0.997860
732.735506	0.997682
733.066401	0.997725
733.397249	0.996546
733.728048	0.997816
734.058798	0.997740
734.389501	0.997962
734.720156	0.998402
735.050762	0.998449
735.381320	0.998123
735.711831	0.997467
736.042293	0.998318
736.372707	0.998712
736.703073	0.996370
737.033391	0.997836
737.363661	0.998574
737.693883	0.998028
738.024056	0.997431
738.354182	0.997909
738.684260	0.998430
739.014290	0.997853
739.344272	0.997458
739.674207	0.998009
740.004093	0.998729
740.333931	0.998182
740.663722	0.998058
740.993464	0.998278
741.323159	0.997062
741.652806	0.997372
741.982405	0.998233
742.311956	0.998399
742.641460	0.998942
742.970915	0.998457
743.300323	0.997043
743.629683	0.997860
743.958996	0.999135
744.288260	0.997545
744.617477	0.997842
744.946647	0.997855
745.275768	0.998651
745.604842	0.997361
745.933869	0.998302
746.262847	0.998653
746.591778	0.996915
746.920662	0.998334
747.249498	0.999111
747.578286	0.999377
747.907027	0.998008
748.235720	0.998331
748.564365	0.999237
748.892963	0.997170
749.221514	0.998711
749.550017	0.996886
749.878473	0.998705
750.206881	0.998804
750.535242	0.997039
750.863555	0.998008
751.191821	0.998071
751.520039	0.997849
751.848210	0.996681
752.176334	0.998031
752.504411	0.997015
752.832440	0.996801
753.160421	0.997513
753.488356	0.998561
753.816243	0.997576
754.144082	0.997929
754.471875	0.998336
754.799620	0.997798
755.127318	0.997623
755.454969	0.997203
755.782572	0.999348
756.110129	0.997636
756.437638	0.998418
756.765100	0.998024
757.092515	0.997883
757.419882	0.999101
757.747203	0.998554
758.074477	0.998601
758.401703	0.997691
758.728882	0.998185
759.056014	0.998527
759.383099	0.997469
759.710138	0.997563
760.037129	0.998658
760.364073	0.998651
760.690970	0.998896
761.017820	0.997670
761.344623	0.998108
761.671379	0.998486
761.998088	0.998416
762.324751	0.997563
762.651366	0.997191
762.977935	0.997114
763.304456	0.997244
763.630931	0.996060
763.957359	0.996160
764.283740	0.996954
764.610074	0.996844
764.936362	0.997180
765.262602	0.998109
765.588796	0.997555
765.914943	0.997423
766.241044	0.997792
766.567097	0.998175
766.893104	0.997725
767.219064	0.998546
767.544978	0.996979
767.870845	0.998458
768.196665	0.998875
768.522438	0.998292
768.848165	0.998121
769.173846	0.998228
769.499479	0.999432
769.825066	0.999956
770.150607	0.999507
770.476101	0.998552
770.801548	0.999103
771.126949	0.998938
771.452303	0.997714
771.777611	0.998560
772.102872	0.998077
772.428087	0.997828
772.753256	0.998512
773.078378	0.998376
773.403453	0.997594
773.728482	0.998959
774.053465	0.997671
774.378401	0.997802
774.703291	0.999299
775.028135	0.999591
775.352932	0.997445
775.677683	0.999934
776.002388	0.998058
776.327046	0.998080
776.651658	0.999751
776.976224	0.998943
777.300743	0.998205
777.625216	0.997806
777.949643	0.998462
778.274024	0.997367
778.598359	0.998374
778.922647	0.998062
779.246889	0.999701
779.571086	0.998260
779.895236	0.998244
780.219339	0.998955
780.543397	0.997880
780.867409	0.999206
781.191374	0.998612
781.515294	0.999271
781.839167	0.998705
782.162995	0.998408
782.486776	0.997483
782.810511	0.998407
783.134201	0.998712
783.457844	0.999140
783.781441	0.998822
784.104993	0.998799
784.428498	0.999161
784.751958	0.999732
785.075372	0.999081
785.398739	0.998440
785.722061	0.997190
786.045337	0.998144
786.368568	0.997729
786.691752	0.998094
787.014891	0.998411
787.337983	0.998244
787.661030	0.998430
787.984031	0.998470
788.306987	0.997913
788.629897	0.996981
788.952760	0.998299
789.275579	0.998393
789.598351	0.998525
789.921078	0.999618
790.243759	0.997942
790.566395	0.997409
790.888984	0.999057
791.211529	0.998951
791.534027	0.998006
791.856480	0.997793
792.178888	0.998239
792.501249	0.997990
792.823566	0.999213
793.145836	0.998175
793.468062	0.999188
793.790241	0.999618
794.112375	0.998435
794.434464	0.998546
794.756507	0.998384
795.078505	0.998228
795.400457	0.998710
795.722364	0.999103
796.044226	0.998932
796.366042	0.998136
796.687812	0.997445
797.009538	0.997891
797.331218	0.999151
797.652852	0.999564
797.974442	0.998168
798.295986	0.998636
798.617484	0.997330
798.938938	0.998579
799.260346	0.997600
799.581709	0.998489
799.903026	0.999291
800.224299	0.998133
800.545526	0.998736
800.866708	0.998530
801.187845	0.999092
801.508936	0.999042
801.829983	0.998467
802.150984	1.000064
802.471940	0.997869
802.792851	0.998551
803.113717	0.998154
803.434538	0.998572
803.755314	1.000408
804.076045	0.998575
804.396731	0.998031
804.717372	0.997758
805.037967	0.999841
805.358518	0.998925
805.679024	0.999121
805.999485	0.999509
806.319901	0.998395
806.640272	0.997852
806.960598	0.998503
807.280879	0.998775
807.601115	1.000098
807.921306	0.998727
808.241453	0.998961
808.561554	0.998312
808.881611	0.998062
809.201623	0.998669
809.521590	0.998770
809.841513	0.999298
810.161390	0.997564
810.481223	0.998202
810.801011	0.999789
811.120755	0.999453
811.440453	0.997622
811.760107	0.999241
812.079716	0.998517
812.399281	0.999057
812.718801	0.998343
813.038276	0.998871
813.357707	0.998227
813.677093	0.999721
813.996434	0.998719
814.315731	0.999682
814.634983	0.999622
814.954191	0.999042
815.273354	0.998256
815.592473	0.998003
815.911547	0.998699
816.230577	0.998908
816.549562	0.999321
816.868502	0.997696
817.187399	0.999775
817.506250	0.998425
817.825058	0.997670
818.143821	0.998979
818.462539	0.997763
818.781213	0.998155
819.099843	0.997487
819.418429	0.997893
819.736970	0.997654
820.055466	0.997331
820.373919	0.997985
820.692327	0.996355
821.010691	0.996671
821.329011	0.994665
821.647286	0.993261
821.965517	0.991792
822.283704	0.990798
822.601847	0.990104
822.919945	0.990247
823.237999	0.991610
823.556010	0.992218
823.873976	0.993285
824.191897	0.993788
824.509775	0.994522
824.827609	0.996225
825.145398	0.996083
825.463144	0.993315
825.780845	0.994685
826.098502	0.995350
826.416116	0.994793
826.733685	0.994130
827.051210	0.993564
827.368692	0.994283
827.686129	0.994587
828.003522	0.995061
828.320872	0.995634
828.638177	0.995826
828.955439	0.997850
829.272656	0.997136
829.589830	0.996050
829.906960	0.998577
830.224046	0.996910
830.541088	0.998358
830.858086	0.997520
831.175041	0.998760
831.491952	0.997279
831.808819	0.998018
832.125642	0.997821
832.442421	0.998445
832.759157	0.999367
833.075849	0.997557
833.392497	0.996535
833.709101	0.994869
834.025662	0.996116
834.342179	0.995523
834.658653	0.998148
834.975083	0.997363
835.291469	0.997267
835.607811	0.997703
835.924110	0.997818
836.240366	0.999009
836.556578	0.998301
836.872746	0.999165
837.188871	0.997392
837.504952	0.998084
837.820990	0.999972
838.136984	0.997830
838.452935	0.998576
838.768842	0.998510
839.084706	0.998465
839.400526	0.998264
839.716303	0.997146
840.032037	0.998307
840.347727	0.997633
840.663373	0.998326
840.978977	0.997664
841.294537	0.998706
841.610054	0.997167
841.925527	0.998624
842.240957	0.998560
842.556344	0.998720
842.871687	0.998520
843.186987	0.998880
843.502244	0.998978
843.817458	0.998901
844.132629	0.998090
844.447756	0.999403
844.762840	0.998201
845.077881	0.999980
845.392879	0.996982
845.707833	0.998990
846.022745	0.999746
846.337613	0.997983
846.652438	0.998502
846.967221	0.998881
847.281960	0.999777
847.596656	1.000037
847.911309	0.998136
848.225919	0.997075
848.540485	0.998921
848.855009	1.000233
849.169490	0.999112
849.483928	0.998592
849.798323	0.998524
850.112675	0.999286
850.426984	0.999074
850.741251	1.000011
851.055474	0.999342
851.369654	1.000096
851.683792	0.998380
851.997887	0.999505
852.311938	0.999692
852.625947	0.998805
852.939914	0.997985
853.253837	0.999709
853.567718	0.999768
853.881555	0.998511
854.195350	0.999916
854.509103	0.998633
854.822812	1.000099
855.136479	0.999558
855.450103	0.997928
855.763685	0.999261
856.077224	0.999491
856.390720	0.999131
856.704173	1.000730
857.017584	1.000141
857.330953	0.998808
857.644278	0.999398
857.957561	0.999209
858.270802	0.999360
858.584000	0.999095
858.897155	0.999240
859.210268	1.000038
859.523339	0.998971
859.836367	0.999121
860.149352	0.997347
860.462295	0.998976
860.775195	0.999273
861.088054	0.998467
861.400869	0.999625
861.713642	0.998417
862.026373	0.999202
862.339062	0.999657
862.651708	1.000684
862.964312	0.999931
863.276873	0.998253
863.589392	0.998381
863.901869	0.998402
864.214303	0.999657
864.526696	0.999190
864.839045	0.999421
865.151353	0.999929
865.463619	0.997650
865.775842	0.999434
866.088023	1.000194
866.400162	0.999400
866.712258	1.000623
867.024313	0.999012
867.336325	1.000231
867.648296	0.999281
867.960224	0.998528
868.272110	0.998467
868.583954	0.998821
868.895755	1.000035
869.207515	0.998959
869.519233	0.999863
869.830909	0.997950
870.142542	0.999495
870.454134	0.999065
870.765684	0.998636
871.077191	0.998566
871.388657	0.999334
871.700081	1.000021
872.011463	1.000336
872.322803	0.999913
872.634101	0.998512
872.945357	0.998345
873.256571	0.997868
873.567744	0.998372
873.878874	0.998814
874.189963	0.998738
874.501010	1.000411
874.812015	0.998064
875.122979	0.999967
875.433900	0.999241
875.744780	0.998919
876.055618	0.997818
876.366415	0.998895
876.677169	0.999099
876.987882	0.998652
877.298554	1.000409
877.609183	0.998957
877.919771	0.998133
878.230317	0.999209
878.540822	0.997961
878.851285	0.998084
879.161707	0.998013
879.472087	0.999527
879.782425	0.997399
880.092722	0.996473
880.402977	0.994702
880.713191	0.994366
881.023363	0.992191
881.333494	0.990347
881.643583	0.991618
881.953631	0.991180
882.263637	0.990732
882.573602	0.991991
882.883526	0.991761
883.193408	0.994796
883.503248	0.994213
883.813048	0.994211
884.122806	0.994769
884.432522	0.996050
884.742197	0.997865
885.051831	0.996475
885.361424	0.997303
885.670975	0.998619
885.980485	0.997911
886.289954	0.997872
886.599382	0.997609
886.908768	0.998201
887.218113	0.997356
887.527417	0.998406
887.836680	0.999484
888.145901	0.998782
888.455082	0.999958
888.764221	0.999690
889.073319	0.997860
889.382376	0.999392
889.691392	0.997906
890.000366	0.998655
890.309300	0.997866
890.618193	0.998568
890.927044	0.998726
891.235855	0.998471
891.544625	0.998359
891.853353	0.997075
892.162041	0.998609
892.470687	0.999485
892.779293	0.998161
893.087858	0.997436
893.396381	0.996946
893.704864	0.997585
894.013306	0.996671
894.321707	0.996902
894.630068	0.996139
894.938387	0.994914
895.246665	0.995938
895.554903	0.995569
895.863100	0.996472
896.171256	0.997060
896.479371	0.996979
896.787446	0.997707
897.095480	0.997389
897.403473	0.998455
897.711425	0.999005
898.019336	0.998014
898.327207	0.998744
898.635038	0.998307
898.942827	0.998604
899.250576	0.998466
899.558284	0.998149
899.865952	0.996838
900.173579	0.998682
900.481165	0.998021
900.788711	0.997647
901.096216	0.998925
901.403681	0.999357
901.711105	0.998835
902.018489	0.998040
902.325832	0.998004
902.633135	0.999206
902.940397	0.999139
903.247619	0.998652
903.554800	0.997188
903.861941	0.996575
904.169041	0.995857
904.476101	0.994467
904.783121	0.994356
905.090100	0.994812
905.397039	0.996206
905.703938	0.996306
906.010796	0.997483
906.317614	0.997490
906.624391	0.997595
906.931129	0.999084
907.237826	0.998178
907.544483	0.998934
907.851099	0.998547
908.157675	0.998526
908.464211	0.999078
908.770707	0.997782
909.077163	0.998698
909.383578	0.999824
909.689954	0.997525
909.996289	0.998642
910.302584	0.999849
910.608839	1.000527
910.915054	0.998693
911.221229	1.000433
911.527363	0.998189
911.833458	0.999141
912.139513	0.999183
912.445527	0.999053
912.751502	0.999084
913.057436	0.998163
913.363331	0.998809
913.669186	0.999560
913.975000	0.999338
914.280775	0.998640
914.586510	0.997041
914.892205	0.997437
915.197859	0.996987
915.503475	0.996087
915.809050	0.995386
916.114585	0.993204
916.420081	0.994523
916.725536	0.995098
917.030952	0.995779
917.336328	0.994966
917.641665	0.994378
917.946961	0.996618
918.252218	0.996309
918.557435	0.997255
918.862612	0.997690
919.167750	0.997748
919.472848	0.998127
919.777906	0.998933
920.082925	0.999327
920.387904	0.998242
920.692843	0.998108
920.997743	0.997559
921.302603	0.999393
921.607423	0.998390
921.912204	0.998225
922.216946	0.999649
922.521647	0.998448
922.826310	0.998540
923.130932	0.999187
923.435516	0.999334
923.740059	0.998793
924.044564	0.998466
924.349028	0.997946
924.653454	0.999316
924.957840	0.999302
925.262186	0.999328
925.566493	0.999411
925.870761	0.998242
926.174989	0.999187
926.479178	1.000095
926.783328	0.998933
927.087438	0.999352
927.391509	0.999009
927.695541	0.999711
927.999533	1.000335
928.303486	0.998043
928.607400	0.999558
928.911275	0.999216
929.215110	0.999602
929.518906	0.999896
929.822663	0.999516
930.126381	1.000932
930.430060	0.999230
930.733699	0.999075
931.037299	1.000537
931.340861	0.999950
931.644383	0.998638
931.947866	0.999798
932.251309	0.999581
932.554714	0.999975
932.858080	0.999986
933.161407	0.999024
933.464694	1.000011
933.767943	0.998510
934.071153	1.000265
934.374323	0.999910
934.677455	0.998789
934.980548	0.998547
935.283602	0.999915
935.586617	0.999109
935.889593	1.000222
936.192530	1.000467
936.495428	0.998874
936.798287	0.998766
937.101108	0.999854
937.403890	0.998864
937.706632	1.000458
938.009336	1.000086
938.312002	1.000211
938.614628	1.000547
938.917216	1.000301
939.219765	0.998058
939.522275	0.998135
939.824747	0.998819
940.127179	0.999796
940.429573	1.000379
940.731929	0.997811
941.034246	0.999378
941.336524	0.997761
941.638763	0.998982
941.940964	0.999430
942.243126	0.998625
942.545250	1.000695
942.847335	0.999118
943.149381	0.999598
943.451389	0.998436
943.753359	0.999662
944.055290	1.000534
944.357182	0.998823
944.659036	0.999180
944.960851	0.998469
945.262628	0.999265
945.564367	0.999034
945.866067	1.000305
946.167729	1.000314
946.469352	0.999271
946.770937	0.998111
947.072484	0.999865
947.373992	0.999738
947.675462	0.999127
947.976893	0.998546
948.278286	1.000593
948.579641	1.000667
948.880958	0.999071
949.182236	0.999805
949.483476	1.000328
949.784678	0.999194
950.085841	0.999691
950.386967	0.998495
950.688054	0.999150
950.989103	0.998197
951.290114	0.998561
951.591087	0.999813
951.892021	0.999436
952.192917	1.000041
952.493776	0.999460
952.794596	0.999067
953.095378	0.999682
953.396122	0.998646
953.696828	0.999193
953.997496	0.999735
954.298126	1.000442
954.598718	0.998445
954.899272	0.999824
955.199788	0.999748
955.500266	1.000496
955.800706	0.998004
956.101108	0.999472
956.401472	1.000802
956.701798	0.999807
957.002087	0.999275
957.302337	0.999074
957.602550	0.999900
957.902724	0.997664
958.202861	0.999632
958.502960	0.999286
958.803022	1.001066
959.103045	0.999105
959.403031	1.000994
959.702979	1.001002
960.002889	0.999360
960.302762	0.998905
960.602596	0.999682
960.902393	0.999914
961.202153	1.000014
961.501875	1.000065
961.801559	0.999949
962.101205	0.999575
962.400814	1.000602
962.700385	0.999732
962.999918	1.000482
963.299414	1.000505
963.598873	1.000585
963.898293	1.000292
964.197677	0.998821
964.497022	1.000247
964.796331	0.998896
965.095601	1.001203
965.394835	0.998445
965.694030	0.999878
965.993189	0.999774
966.292309	0.999835
966.591393	1.000074
966.890439	0.999880
967.189447	0.999626
967.488419	1.000042
967.787353	0.999688
968.086249	1.000104
968.385108	0.999362
968.683930	1.000251
968.982714	0.998340
969.281462	0.998817
969.580172	0.999637
969.878844	1.000427
970.177480	1.000371
970.476078	1.000110
970.774639	0.998982
971.073162	0.999500
971.371649	0.999227
971.670098	1.000107
971.968510	0.999774
972.266885	0.999661
972.565223	0.999297
972.863524	0.998359
973.161788	0.999105
973.460014	0.999832
973.758204	0.999628
974.056356	0.999189
974.354471	0.998836
974.652550	1.000662
974.950591	0.998839
975.248595	0.998371
975.546563	1.000873
975.844493	0.999647
976.142386	0.999193
976.440243	1.000310
976.738062	0.999571
977.035845	0.999289
977.333590	1.000036
977.631299	0.999612
977.928971	0.999945
978.226606	0.999727
978.524204	1.000440
978.821765	0.999337
979.119290	1.000848
979.416777	1.000158
979.714228	1.000025
980.011642	0.999384
980.309020	0.999231
980.606360	0.998680
980.903664	0.999360
981.200931	1.000053
981.498162	0.999715
981.795356	0.999338
982.092513	0.999637
982.389633	1.000713
982.686717	0.998985
982.983764	1.000533
983.280775	0.999563
983.577749	1.000025
983.874686	0.998233
984.171587	0.999566
984.468451	0.999249
984.765279	0.999696
985.062070	0.999829
985.358824	0.999044
985.655543	0.999854
985.952224	0.999921
986.248869	0.999128
986.545478	1.001550
986.842050	0.999417
987.138586	0.998547
987.435086	0.999595
987.731549	1.001338
988.027975	1.000422
988.324366	0.998674
988.620719	1.000766
988.917037	0.999481
989.213318	0.999831
989.509563	1.000022
989.805772	1.000092
990.101944	0.999685
990.398080	1.000362
990.694180	1.000606
990.990244	0.998827
991.286271	0.999052
991.582262	1.000552
991.878217	0.999275
992.174136	1.000245
992.470019	0.999755
992.765865	1.001809
993.061676	0.999701
993.357450	1.000685
993.653188	1.000502
993.948890	0.998548
994.244556	0.999775
994.540186	1.000674
994.835780	0.999310
995.131337	1.000552
995.426859	0.999865
995.722345	0.999544
996.017795	0.998678
996.313208	0.999627
996.608586	1.000497
996.903928	1.000016
997.199234	1.000076
997.494504	1.000316
997.789738	0.998653
998.084936	1.000248
998.380099	0.998968
998.675225	1.000373
998.970316	1.000453
999.265371	0.999542
999.560390	1.000145
999.855373	0.999288
1000.150320	0.999968
1000.445232	1.000713
1000.740108	0.999465
1001.034948	0.999158
1001.329752	1.000646
1001.624521	1.000236
1001.919254	0.999141
1002.213951	1.000097
1002.508613	0.999801
1002.803239	0.999729
1003.097829	0.999662
1003.392384	0.999252
1003.686903	1.000472
1003.981386	0.998867
1004.275834	1.000876
1004.570246	0.998474
1004.864623	0.999897
1005.158964	0.999857
1005.453270	0.998883
1005.747540	0.999753
1006.041775	0.999873
1006.335974	0.999828
1006.630138	0.999889
1006.924266	0.999451
1007.218359	0.999131
1007.512416	1.000120
1007.806438	0.998974
1008.100425	0.999435
1008.394376	1.001074
1008.688292	0.999119
1008.982172	0.999509
1009.276017	1.000436
1009.569827	1.000363
1009.863602	0.997193
1010.157341	1.000470
1010.451045	0.999913
1010.744714	1.000962
1011.038347	1.000240
1011.331945	1.000272
1011.625508	0.999441
1011.919036	0.999816
1012.212528	1.000049
1012.505986	0.998911
1012.799408	1.000491
1013.092795	0.999120
1013.386147	0.999758
1013.679464	1.000075
1013.972745	0.999943
1014.265992	0.999215
1014.559204	0.998536
1014.852380	1.001519
1015.145521	0.999623
1015.438628	1.000287
1015.731699	0.999588
1016.024736	1.000609
1016.317737	0.999876
1016.610703	1.001186
1016.903635	0.998900
1017.196531	0.998543
1017.489393	0.999931
1017.782219	0.999104
1018.075011	0.999304
1018.367768	1.000149
1018.660490	1.000157
1018.953177	1.000157
1019.245829	1.000157
