Dividing Wavelength (nm)	Counts (n)	Blue Motor Position (mm): 3.300000	Red Motor Position (mm): 0.000000	
326.493990	1.005271
326.888308	1.005271
327.282561	1.005271
327.676750	1.007431
328.070874	1.006688
328.464933	1.007961
328.858929	1.007496
329.252859	1.007583
329.646726	1.007024
330.040528	1.006161
330.434265	1.006905
330.827938	1.006134
331.221547	1.007438
331.615091	1.006664
332.008571	1.007303
332.401986	1.006849
332.795338	1.006701
333.188625	1.006585
333.581847	1.005907
333.975006	1.006691
334.368100	1.007641
334.761129	1.006534
335.154095	1.006289
335.546996	1.005451
335.939833	0.999512
336.332606	1.000345
336.725315	0.998987
337.117960	1.000266
337.510540	0.999124
337.903056	1.000720
338.295508	1.000661
338.687896	1.000877
339.080220	0.999393
339.472480	0.999939
339.864676	1.000337
340.256807	0.999015
340.648875	0.999500
341.040879	0.998982
341.432818	0.998843
341.824694	0.999603
342.216506	1.000253
342.608253	0.999138
342.999937	0.999759
343.391557	0.999610
343.783113	1.001334
344.174605	1.000602
344.566033	0.999493
344.957397	1.000762
345.348697	1.000528
345.739934	1.000588
346.131106	0.999191
346.522215	0.999140
346.913260	0.999738
347.304241	0.999054
347.695159	1.000040
348.086012	0.999991
348.476802	1.000143
348.867528	0.998487
349.258191	1.000134
349.648789	0.999192
350.039324	1.000383
350.429796	0.999134
350.820203	0.998658
351.210548	0.998590
351.600828	0.999092
351.991045	0.999023
352.381198	0.999433
352.771288	0.998465
353.161314	0.999034
353.551276	0.998855
353.941175	0.997004
354.331010	0.999703
354.720782	0.999054
355.110490	0.999221
355.500135	0.998664
355.889717	0.998625
356.279235	0.999046
356.668689	0.998865
357.058080	0.998224
357.447408	0.997210
357.836672	0.997987
358.225873	0.998412
358.615010	1.000417
359.004084	0.996868
359.393095	0.999043
359.782043	0.998326
360.170927	0.999462
360.559748	0.998368
360.948505	0.997748
361.337199	0.996975
361.725830	0.999332
362.114398	0.997618
362.502903	0.997005
362.891344	0.995914
363.279722	0.997526
363.668037	0.998061
364.056289	0.997278
364.444478	0.998218
364.832603	0.996191
365.220665	0.997570
365.608665	0.996770
365.996601	0.997831
366.384474	0.995901
366.772284	0.996737
367.160031	0.995800
367.547715	0.995588
367.935336	0.995120
368.322893	0.994057
368.710388	0.993793
369.097820	0.991878
369.485189	0.987771
369.872495	0.987314
370.259738	0.984822
370.646918	0.982822
371.034035	0.979495
371.421090	0.975847
371.808081	0.971581
372.195010	0.969412
372.581875	0.963688
372.968678	0.960836
373.355418	0.956201
373.742096	0.948788
374.128710	0.944524
374.515262	0.941122
374.901751	0.934006
375.288177	0.928396
375.674540	0.922640
376.060841	0.916486
376.447079	0.909674
376.833254	0.902243
377.219367	0.897170
377.605417	0.886566
377.991404	0.883001
378.377329	0.876986
378.763191	0.870906
379.148991	0.861991
379.534727	0.854484
379.920402	0.846108
380.306013	0.841325
380.691563	0.829372
381.077049	0.822637
381.462474	0.817844
381.847835	0.807744
382.233134	0.802966
382.618371	0.802769
383.003545	0.785450
383.388657	0.783392
383.773706	0.775826
384.158693	0.771625
384.543618	0.766652
384.928480	0.757324
385.313280	0.747642
385.698017	0.747197
386.082692	0.736457
386.467305	0.734403
386.851856	0.728832
387.236344	0.723735
387.620770	0.717954
388.005133	0.712582
388.389435	0.706921
388.773674	0.704768
389.157851	0.695661
389.541965	0.693520
389.926018	0.699735
390.310008	0.685423
390.693936	0.683643
391.077802	0.676099
391.461606	0.678079
391.845348	0.666631
392.229027	0.666173
392.612645	0.664092
392.996200	0.651261
393.379694	0.644180
393.763125	0.634222
394.146494	0.639404
394.529801	0.629482
394.913047	0.621265
395.296230	0.628001
395.679351	0.618040
396.062410	0.616189
396.445408	0.618121
396.828343	0.613570
397.211217	0.608733
397.594028	0.621741
397.976778	0.611687
398.359466	0.607596
398.742092	0.603371
399.124656	0.615434
399.507158	0.603284
399.889598	0.600955
400.271977	0.591583
400.654294	0.596151
401.036549	0.594896
401.418742	0.599188
401.800874	0.584957
402.182944	0.581158
402.564952	0.573524
402.946898	0.575818
403.328783	0.575904
403.710606	0.587405
404.092367	0.561727
404.474067	0.567480
404.855705	0.566632
405.237282	0.574998
405.618797	0.561010
406.000250	0.556451
406.381642	0.546865
406.762972	0.552229
407.144240	0.550343
407.525447	0.550662
407.906593	0.543028
408.287677	0.538686
408.668700	0.546950
409.049661	0.541184
409.430560	0.535596
409.811399	0.545056
410.192176	0.526562
410.572891	0.533331
410.953545	0.521901
411.334138	0.535368
411.714669	0.527317
412.095139	0.539729
412.475547	0.524111
412.855894	0.526108
413.236180	0.524398
413.616405	0.530138
413.996568	0.520752
414.376670	0.526762
414.756711	0.532191
415.136691	0.528637
415.516609	0.520007
415.896466	0.516010
416.276262	0.512369
416.655997	0.514331
417.035670	0.495708
417.415283	0.487180
417.794834	0.492173
418.174324	0.497731
418.553753	0.506310
418.933121	0.488840
419.312428	0.483185
419.691674	0.488477
420.070859	0.476866
420.449983	0.484503
420.829045	0.473798
421.208047	0.483323
421.586988	0.475905
421.965867	0.474576
422.344686	0.463569
422.723444	0.476396
423.102141	0.493453
423.480777	0.465920
423.859352	0.487035
424.237866	0.464233
424.616319	0.464499
424.994712	0.455504
425.373044	0.465776
425.751314	0.454142
426.129524	0.471048
426.507673	0.454247
426.885762	0.447377
427.263789	0.453432
427.641756	0.462878
428.019662	0.452784
428.397508	0.452217
428.775292	0.456059
429.153016	0.448620
429.530679	0.454881
429.908282	0.448838
430.285824	0.457930
430.663305	0.436324
431.040726	0.457929
431.418086	0.457363
431.795385	0.449435
432.172624	0.448674
432.549802	0.448957
432.926920	0.447706
433.303977	0.447625
433.680974	0.444590
434.057910	0.443010
434.434786	0.442067
434.811601	0.444933
435.188355	0.427268
435.565050	0.436835
435.941683	0.438192
436.318257	0.421750
436.694770	0.422649
437.071222	0.420697
437.447614	0.425182
437.823946	0.431661
438.200218	0.420860
438.576429	0.431115
438.952580	0.423472
439.328670	0.420353
439.704700	0.426682
440.080670	0.428246
440.456580	0.409477
440.832429	0.417367
441.208218	0.428168
441.583947	0.417151
441.959616	0.417089
442.335224	0.422726
442.710773	0.413480
443.086261	0.411277
443.461689	0.424957
443.837057	0.415030
444.212365	0.404563
444.587612	0.411548
444.962800	0.401552
445.337927	0.403339
445.712995	0.429490
446.088002	0.391398
446.462949	0.401622
446.837837	0.406946
447.212664	0.395049
447.587431	0.387044
447.962139	0.357191
448.336786	0.315766
448.711374	0.326752
449.085901	0.371120
449.460369	0.375804
449.834776	0.378470
450.209124	0.357767
450.583412	0.350861
450.957640	0.343670
451.331808	0.355288
451.705917	0.378435
452.079965	0.382675
452.453954	0.371543
452.827883	0.377961
453.201752	0.372804
453.575562	0.383685
453.949311	0.373444
454.323001	0.379241
454.696632	0.374759
455.070202	0.367230
455.443713	0.359422
455.817164	0.354010
456.190556	0.349402
456.563888	0.346605
456.937160	0.344093
457.310373	0.361367
457.683526	0.360178
458.056619	0.366208
458.429653	0.366301
458.802628	0.370148
459.175542	0.364214
459.548398	0.346910
459.921194	0.339176
460.293930	0.339448
460.666607	0.317280
461.039224	0.305217
461.411782	0.300567
461.784280	0.299958
462.156719	0.303705
462.529099	0.308720
462.901419	0.324739
463.273680	0.328813
463.645882	0.328528
464.018024	0.334581
464.390106	0.327124
464.762130	0.311231
465.134094	0.294504
465.505999	0.263608
465.877845	0.233951
466.249631	0.220688
466.621358	0.228135
466.993026	0.242391
467.364634	0.248682
467.736184	0.256983
468.107674	0.266142
468.479105	0.265169
468.850477	0.271711
469.221790	0.278718
469.593043	0.288973
469.964238	0.293650
470.335373	0.293138
470.706449	0.291093
471.077467	0.291959
471.448425	0.253710
471.819324	0.229453
472.190164	0.229028
472.560945	0.258014
472.931667	0.280398
473.302330	0.284713
473.672934	0.296053
474.043479	0.284547
474.413965	0.286144
474.784393	0.289485
475.154761	0.284723
475.525070	0.281805
475.895321	0.287408
476.265513	0.281593
476.635645	0.277260
477.005719	0.277052
477.375734	0.273550
477.745691	0.266748
478.115588	0.263230
478.485427	0.256554
478.855207	0.243288
479.224928	0.225805
479.594591	0.214143
479.964194	0.217279
480.333739	0.218721
480.703226	0.219841
481.072653	0.218361
481.442022	0.213885
481.811333	0.210612
482.180584	0.214058
482.549777	0.219795
482.918912	0.223076
483.287988	0.222729
483.657005	0.222202
484.025964	0.228449
484.394864	0.226047
484.763706	0.226547
485.132489	0.231957
485.501213	0.232303
485.869879	0.230807
486.238487	0.233890
486.607036	0.231943
486.975527	0.236764
487.343959	0.232165
487.712333	0.231493
488.080648	0.232544
488.448905	0.232161
488.817104	0.233275
489.185244	0.227587
489.553326	0.224519
489.921350	0.214490
490.289315	0.196790
490.657222	0.191688
491.025070	0.193083
491.392861	0.195239
491.760593	0.200958
492.128267	0.206624
492.495883	0.212088
492.863440	0.218276
493.230939	0.224846
493.598380	0.226470
493.965763	0.228517
494.333088	0.230446
494.700354	0.232034
495.067563	0.230962
495.434713	0.234829
495.801805	0.232224
496.168839	0.233748
496.535815	0.235231
496.902733	0.235343
497.269593	0.236803
497.636395	0.234093
498.003139	0.234513
498.369825	0.237639
498.736453	0.234044
499.103023	0.236025
499.469535	0.235089
499.835989	0.235491
500.202385	0.236481
500.568723	0.239732
500.935003	0.234600
501.301226	0.238819
501.667390	0.233188
502.033497	0.231353
502.399546	0.234379
502.765537	0.236420
503.131470	0.234519
503.497345	0.231013
503.863163	0.239578
504.228923	0.232382
504.594625	0.231123
504.960269	0.236896
505.325856	0.232131
505.691385	0.236294
506.056856	0.233204
506.422270	0.232517
506.787625	0.234981
507.152924	0.232534
507.518164	0.232810
507.883347	0.234415
508.248472	0.236355
508.613540	0.230858
508.978550	0.233714
509.343503	0.234083
509.708398	0.231911
510.073236	0.229680
510.438016	0.229044
510.802738	0.230252
511.167403	0.229034
511.532010	0.231348
511.896561	0.226702
512.261053	0.225157
512.625488	0.227396
512.989866	0.227982
513.354186	0.228011
513.718449	0.230001
514.082655	0.226279
514.446803	0.228601
514.810894	0.226221
515.174927	0.229125
515.538904	0.228502
515.902822	0.225399
516.266684	0.227566
516.630488	0.228814
516.994235	0.227838
517.357925	0.226443
517.721558	0.224590
518.085133	0.224217
518.448651	0.224164
518.812112	0.226616
519.175516	0.226294
519.538863	0.223774
519.902152	0.225380
520.265385	0.222161
520.628560	0.223901
520.991678	0.224393
521.354739	0.223458
521.717743	0.224418
522.080690	0.224775
522.443580	0.222192
522.806413	0.223048
523.169189	0.222385
523.531908	0.221476
523.894569	0.224851
524.257174	0.225030
524.619722	0.222657
524.982213	0.223641
525.344647	0.222484
525.707025	0.223351
526.069345	0.221711
526.431608	0.223368
526.793815	0.221439
527.155964	0.225385
527.518057	0.224463
527.880093	0.225355
528.242072	0.224072
528.603995	0.225788
528.965860	0.227377
529.327669	0.226658
529.689421	0.227295
530.051117	0.227914
530.412755	0.225886
530.774337	0.228333
531.135862	0.228722
531.497331	0.227907
531.858743	0.230981
532.220098	0.227536
532.581396	0.230095
532.942638	0.230486
533.303824	0.231683
533.664953	0.231303
534.026025	0.233196
534.387040	0.231061
534.747999	0.230933
535.108902	0.229665
535.469748	0.235312
535.830537	0.232622
536.191270	0.232987
536.551947	0.232492
536.912567	0.232543
537.273131	0.234167
537.633638	0.234477
537.994089	0.234912
538.354483	0.235958
538.714821	0.232950
539.075103	0.232906
539.435328	0.233619
539.795497	0.237098
540.155609	0.233843
540.515665	0.231975
540.875665	0.237654
541.235609	0.236231
541.595496	0.236166
541.955328	0.232749
542.315102	0.235542
542.674821	0.236554
543.034483	0.236724
543.394090	0.236147
543.753640	0.237946
544.113134	0.233113
544.472571	0.236583
544.831953	0.233285
545.191278	0.237285
545.550548	0.236803
545.909761	0.233870
546.268918	0.234401
546.628019	0.232659
546.987064	0.235382
547.346053	0.237444
547.704986	0.235143
548.063863	0.235208
548.422684	0.235560
548.781449	0.237474
549.140158	0.235006
549.498811	0.237816
549.857408	0.240647
550.215949	0.235526
550.574434	0.238928
550.932864	0.237019
551.291237	0.235063
551.649555	0.237104
552.007817	0.236635
552.366022	0.237329
552.724173	0.237549
553.082267	0.238164
553.440305	0.234780
553.798288	0.239041
554.156215	0.235783
554.514086	0.236516
554.871902	0.239908
555.229661	0.239009
555.587365	0.239624
555.945014	0.242047
556.302606	0.238801
556.660143	0.241550
557.017625	0.238156
557.375050	0.240263
557.732421	0.237243
558.089735	0.239207
558.446994	0.239002
558.804197	0.238371
559.161345	0.238196
559.518437	0.241788
559.875474	0.239493
560.232455	0.239158
560.589381	0.240238
560.946251	0.240246
561.303065	0.238104
561.659825	0.239122
562.016528	0.240707
562.373177	0.243560
562.729770	0.240837
563.086307	0.242894
563.442789	0.240893
563.799216	0.243705
564.155587	0.242618
564.511904	0.243502
564.868164	0.243292
565.224370	0.243706
565.580520	0.245318
565.936615	0.245159
566.292654	0.247912
566.648638	0.244929
567.004567	0.245889
567.360441	0.246503
567.716260	0.248778
568.072023	0.246288
568.427732	0.247154
568.783385	0.249345
569.138982	0.247634
569.494525	0.247398
569.850013	0.250327
570.205445	0.248772
570.560823	0.251096
570.916145	0.252932
571.271412	0.251254
571.626625	0.253109
571.981782	0.253548
572.336884	0.254044
572.691931	0.254142
573.046923	0.255471
573.401860	0.256335
573.756743	0.258243
574.111570	0.257202
574.466342	0.257536
574.821059	0.256896
575.175722	0.259510
575.530330	0.259705
575.884882	0.259590
576.239380	0.261720
576.593823	0.262308
576.948211	0.261502
577.302544	0.264774
577.656823	0.264438
578.011047	0.264531
578.365216	0.265641
578.719330	0.267353
579.073389	0.266648
579.427394	0.268077
579.781344	0.268778
580.135239	0.270346
580.489080	0.270161
580.842866	0.273067
581.196597	0.272992
581.550273	0.271792
581.903895	0.272863
582.257463	0.270583
582.610975	0.274325
582.964434	0.273652
583.317837	0.276024
583.671186	0.276593
584.024481	0.276357
584.377721	0.278889
584.730906	0.280051
585.084037	0.278996
585.437113	0.281253
585.790135	0.280032
586.143103	0.283376
586.496016	0.283979
586.848874	0.281882
587.201679	0.282354
587.554428	0.285506
587.907124	0.284648
588.259765	0.285313
588.612352	0.286189
588.964884	0.289637
589.317362	0.289410
589.669786	0.289002
590.022155	0.287392
590.374470	0.286767
590.726731	0.289041
591.078937	0.293784
591.431090	0.290029
591.783188	0.294220
592.135232	0.294914
592.487222	0.294744
592.839157	0.292910
593.191038	0.295530
593.542866	0.297006
593.894639	0.300399
594.246358	0.299107
594.598022	0.298443
594.949633	0.301887
595.301190	0.302268
595.652692	0.301729
596.004141	0.297752
596.355535	0.305759
596.706876	0.306341
597.058162	0.308561
597.409395	0.306335
597.760573	0.303738
598.111698	0.306969
598.462768	0.307494
598.813785	0.308882
599.164748	0.310209
599.515657	0.310557
599.866511	0.314047
600.217312	0.309008
600.568060	0.314408
600.918753	0.310493
601.269392	0.311595
601.619978	0.315315
601.970510	0.312468
602.320988	0.312829
602.671412	0.310509
603.021783	0.313087
603.372100	0.314163
603.722363	0.313927
604.072572	0.315054
604.422728	0.314454
604.772830	0.316683
605.122878	0.316167
605.472872	0.317170
605.822813	0.315237
606.172701	0.318009
606.522534	0.315102
606.872314	0.315881
607.222041	0.316617
607.571714	0.314647
607.921333	0.315807
608.270899	0.315888
608.620411	0.312474
608.969870	0.316024
609.319276	0.316373
609.668627	0.316287
610.017926	0.314959
610.367171	0.313366
610.716362	0.314028
611.065500	0.313825
611.414585	0.313014
611.763616	0.313048
612.112594	0.313669
612.461518	0.313060
612.810389	0.311123
613.159207	0.313373
613.507971	0.315174
613.856682	0.310970
614.205340	0.312397
614.553945	0.309204
614.902496	0.313294
615.250994	0.311409
615.599439	0.312082
615.947830	0.311486
616.296169	0.312194
616.644454	0.311841
616.992686	0.311677
617.340864	0.309666
617.688990	0.312926
618.037063	0.309605
618.385082	0.311613
618.733048	0.308320
619.080961	0.310687
619.428821	0.310472
619.776628	0.309893
620.124382	0.312544
620.472083	0.312773
620.819731	0.312361
621.167326	0.315331
621.514868	0.315570
621.862357	0.319746
622.209793	0.318612
622.557176	0.321943
622.904506	0.322739
623.251783	0.325160
623.599007	0.327486
623.946179	0.326843
624.293297	0.328854
624.640363	0.333022
624.987376	0.333182
625.334336	0.335444
625.681243	0.338149
626.028097	0.338574
626.374899	0.339740
626.721647	0.340196
627.068343	0.343171
627.414987	0.344241
627.761577	0.346329
628.108115	0.344503
628.454600	0.349741
628.801032	0.347247
629.147412	0.349489
629.493739	0.349798
629.840014	0.353059
630.186236	0.349910
630.532405	0.356007
630.878521	0.353069
631.224585	0.355792
631.570597	0.359209
631.916556	0.357485
632.262462	0.357333
632.608316	0.359797
632.954117	0.360637
633.299866	0.360817
633.645562	0.361704
633.991206	0.365740
634.336797	0.368586
634.682336	0.371435
635.027823	0.373112
635.373257	0.373572
635.718639	0.377419
636.063968	0.376348
636.409245	0.382135
636.754470	0.382685
637.099642	0.385077
637.444762	0.388260
637.789829	0.387529
638.134845	0.391076
638.479808	0.392536
638.824719	0.392035
639.169577	0.396471
639.514383	0.394672
639.859137	0.399607
640.203839	0.399271
640.548489	0.399445
640.893086	0.400913
641.237632	0.402757
641.582125	0.401327
641.926566	0.403089
642.270955	0.403173
642.615292	0.402581
642.959576	0.401894
643.303809	0.402866
643.647990	0.402005
643.992118	0.402668
644.336195	0.406253
644.680219	0.405355
645.024192	0.405503
645.368112	0.399302
645.711981	0.397701
646.055797	0.392976
646.399562	0.395169
646.743274	0.388144
647.086935	0.385293
647.430544	0.385125
647.774101	0.384358
648.117606	0.384149
648.461059	0.384720
648.804460	0.386759
649.147810	0.392101
649.491108	0.394187
649.834354	0.395398
650.177548	0.400444
650.520690	0.405477
650.863781	0.407091
651.206820	0.406079
651.549807	0.411153
651.892742	0.414866
652.235626	0.414405
652.578458	0.415763
652.921238	0.422117
653.263967	0.419472
653.606644	0.423112
653.949269	0.423265
654.291843	0.426798
654.634365	0.423642
654.976836	0.426528
655.319255	0.427036
655.661622	0.428840
656.003938	0.428795
656.346203	0.431274
656.688416	0.429932
657.030577	0.432632
657.372687	0.434782
657.714746	0.436095
658.056753	0.432986
658.398708	0.436499
658.740612	0.438040
659.082465	0.433765
659.424266	0.434581
659.766016	0.433964
660.107715	0.437152
660.449362	0.436061
660.790958	0.436497
661.132503	0.437707
661.473996	0.434785
661.815438	0.435768
662.156829	0.435466
662.498168	0.436476
662.839456	0.437543
663.180693	0.435345
663.521879	0.435492
663.863013	0.436809
664.204097	0.434264
664.545129	0.431824
664.886110	0.431746
665.227040	0.429518
665.567918	0.432068
665.908746	0.429833
666.249522	0.429750
666.590248	0.430295
666.930922	0.428676
667.271545	0.427649
667.612118	0.427519
667.952639	0.429161
668.293109	0.428245
668.633528	0.430938
668.973896	0.430981
669.314213	0.431518
669.654480	0.432824
669.994695	0.432643
670.334859	0.433622
670.674973	0.434372
671.015035	0.434123
671.355047	0.434591
671.695008	0.435250
672.034918	0.437218
672.374777	0.436603
672.714585	0.437402
673.054342	0.437697
673.394049	0.437616
673.733705	0.435375
674.073310	0.436777
674.412864	0.439320
674.752368	0.440076
675.091820	0.440834
675.431223	0.444922
675.770574	0.444368
676.109875	0.448122
676.449125	0.447035
676.788324	0.449934
677.127473	0.455147
677.466571	0.455028
677.805619	0.457015
678.144616	0.458041
678.483562	0.459894
678.822458	0.461975
679.161303	0.462673
679.500098	0.463523
679.838842	0.464953
680.177535	0.464901
680.516179	0.462885
680.854771	0.461937
681.193314	0.455169
681.531805	0.446866
681.870247	0.435191
682.208638	0.427874
682.546978	0.426969
682.885268	0.428913
683.223508	0.434669
683.561697	0.438976
683.899836	0.441300
684.237925	0.444576
684.575963	0.447012
684.913951	0.450330
685.251889	0.445722
685.589776	0.448201
685.927614	0.450299
686.265401	0.444992
686.603137	0.445977
686.940824	0.440000
687.278460	0.438560
687.616046	0.437552
687.953582	0.432642
688.291068	0.434442
688.628504	0.429437
688.965889	0.432177
689.303224	0.435991
689.640510	0.440076
689.977745	0.445331
690.314930	0.453007
690.652065	0.458095
690.989150	0.465743
691.326185	0.472281
691.663170	0.476606
692.000105	0.484171
692.336990	0.490472
692.673825	0.494366
693.010610	0.500167
693.347345	0.506199
693.684030	0.507125
694.020665	0.512074
694.357251	0.521077
694.693786	0.521427
695.030272	0.523770
695.366707	0.528656
695.703093	0.531893
696.039429	0.529881
696.375716	0.532004
696.711952	0.534169
697.048139	0.535699
697.384276	0.538184
697.720363	0.536535
698.056400	0.535154
698.392388	0.541055
698.728326	0.543762
699.064214	0.547527
699.400053	0.546240
699.735842	0.551440
700.071581	0.553483
700.407270	0.557381
700.742910	0.559109
701.078501	0.565709
701.414042	0.566356
701.749533	0.569058
702.084974	0.579059
702.420366	0.571353
702.755709	0.577713
703.091002	0.586410
703.426246	0.580393
703.761440	0.585351
704.096584	0.590725
704.431679	0.587150
704.766725	0.589726
705.101721	0.591601
705.436668	0.587954
705.771565	0.594538
706.106413	0.590642
706.441212	0.586447
706.775961	0.586203
707.110661	0.588084
707.445311	0.584180
707.779913	0.581253
708.114465	0.580499
708.448967	0.576898
708.783421	0.568490
709.117825	0.563669
709.452180	0.563112
709.786485	0.557718
710.120742	0.546567
710.454949	0.548637
710.789107	0.541117
711.123216	0.531017
711.457275	0.532718
711.791286	0.524230
712.125247	0.523782
712.459159	0.534753
712.793023	0.526465
713.126837	0.530525
713.460602	0.530742
713.794318	0.539708
714.127985	0.539888
714.461602	0.549436
714.795171	0.552445
715.128691	0.560392
715.462162	0.568145
715.795584	0.573756
716.128957	0.576739
716.462281	0.583570
716.795556	0.586541
717.128782	0.592018
717.461960	0.601775
717.795088	0.600265
718.128167	0.606354
718.461198	0.614651
718.794180	0.615797
719.127113	0.617919
719.459997	0.621266
719.792833	0.627817
720.125619	0.629082
720.458357	0.634954
720.791046	0.634622
721.123686	0.638483
721.456278	0.645372
721.788821	0.642091
722.121315	0.648930
722.453761	0.651736
722.786158	0.648233
723.118506	0.644660
723.450805	0.652864
723.783056	0.648861
724.115259	0.645886
724.447412	0.646039
724.779518	0.647688
725.111574	0.646449
725.443582	0.640882
725.775542	0.643955
726.107453	0.635655
726.439315	0.636151
726.771129	0.634565
727.102895	0.628218
727.434612	0.620984
727.766281	0.618924
728.097901	0.617330
728.429473	0.617712
728.760996	0.616455
729.092471	0.616466
729.423897	0.620202
729.755276	0.618832
730.086606	0.618475
730.417887	0.613640
730.749120	0.604050
731.080305	0.595176
731.411442	0.590723
731.742530	0.594807
732.073570	0.594602
732.404562	0.587046
732.735506	0.588136
733.066401	0.593473
733.397249	0.602739
733.728048	0.614451
734.058798	0.626806
734.389501	0.638603
734.720156	0.648348
735.050762	0.655336
735.381320	0.656342
735.711831	0.664817
736.042293	0.670250
736.372707	0.666717
736.703073	0.670513
737.033391	0.672290
737.363661	0.670018
737.693883	0.665272
738.024056	0.664130
738.354182	0.664801
738.684260	0.653531
739.014290	0.650371
739.344272	0.650760
739.674207	0.644514
740.004093	0.643851
740.333931	0.644365
740.663722	0.643280
740.993464	0.644307
741.323159	0.648310
741.652806	0.653125
741.982405	0.657174
742.311956	0.662681
742.641460	0.665266
742.970915	0.668522
743.300323	0.675817
743.629683	0.681812
743.958996	0.684371
744.288260	0.688723
744.617477	0.695872
744.946647	0.696785
745.275768	0.702906
745.604842	0.702266
745.933869	0.712259
746.262847	0.714160
746.591778	0.705588
746.920662	0.712635
747.249498	0.719548
747.578286	0.710542
747.907027	0.706116
748.235720	0.706747
748.564365	0.701532
748.892963	0.700988
749.221514	0.705209
749.550017	0.709285
749.878473	0.710243
750.206881	0.717119
750.535242	0.716577
750.863555	0.715719
751.191821	0.717245
751.520039	0.721329
751.848210	0.724581
752.176334	0.718349
752.504411	0.717745
752.832440	0.725498
753.160421	0.728943
753.488356	0.727384
753.816243	0.724642
754.144082	0.734043
754.471875	0.737462
754.799620	0.733201
755.127318	0.734340
755.454969	0.734501
755.782572	0.734538
756.110129	0.737949
756.437638	0.741511
756.765100	0.738157
757.092515	0.735254
757.419882	0.734717
757.747203	0.739976
758.074477	0.740236
758.401703	0.735833
758.728882	0.731486
759.056014	0.730671
759.383099	0.729556
759.710138	0.730015
760.037129	0.725764
760.364073	0.720879
760.690970	0.723426
761.017820	0.727197
761.344623	0.724076
761.671379	0.715440
761.998088	0.703660
762.324751	0.680027
762.651366	0.636817
762.977935	0.569543
763.304456	0.517790
763.630931	0.508177
763.957359	0.547005
764.283740	0.591330
764.610074	0.619624
764.936362	0.651555
765.262602	0.679427
765.588796	0.700499
765.914943	0.717650
766.241044	0.735097
766.567097	0.742204
766.893104	0.752757
767.219064	0.758696
767.544978	0.765802
767.870845	0.779609
768.196665	0.783907
768.522438	0.780553
768.848165	0.782488
769.173846	0.792004
769.499479	0.796064
769.825066	0.800293
770.150607	0.804853
770.476101	0.799787
770.801548	0.802173
771.126949	0.813779
771.452303	0.817801
771.777611	0.815733
772.102872	0.814409
772.428087	0.820125
772.753256	0.824110
773.078378	0.826187
773.403453	0.834046
773.728482	0.838419
774.053465	0.832161
774.378401	0.835607
774.703291	0.845600
775.028135	0.845306
775.352932	0.844356
775.677683	0.849530
776.002388	0.850601
776.327046	0.848726
776.651658	0.853233
776.976224	0.855565
777.300743	0.855607
777.625216	0.857657
777.949643	0.860461
778.274024	0.859096
778.598359	0.862057
778.922647	0.859038
779.246889	0.861097
779.571086	0.865449
779.895236	0.866615
780.219339	0.864856
780.543397	0.860039
780.867409	0.859813
781.191374	0.862035
781.515294	0.863462
781.839167	0.862985
782.162995	0.864970
782.486776	0.861482
782.810511	0.863032
783.134201	0.868488
783.457844	0.865560
783.781441	0.867383
784.104993	0.872869
784.428498	0.873498
784.751958	0.870701
785.075372	0.872205
785.398739	0.875390
785.722061	0.870163
786.045337	0.867865
786.368568	0.871329
786.691752	0.874904
787.014891	0.860016
787.337983	0.851118
787.661030	0.844319
787.984031	0.825062
788.306987	0.813584
788.629897	0.813574
788.952760	0.819628
789.275579	0.823545
789.598351	0.838842
789.921078	0.853011
790.243759	0.853581
790.566395	0.858696
790.888984	0.867342
791.211529	0.871573
791.534027	0.874908
791.856480	0.877452
792.178888	0.882434
792.501249	0.885537
792.823566	0.887598
793.145836	0.886483
793.468062	0.888578
793.790241	0.889236
794.112375	0.886091
794.434464	0.883057
794.756507	0.881873
795.078505	0.880384
795.400457	0.875488
795.722364	0.863750
796.044226	0.855989
796.366042	0.854085
796.687812	0.857139
797.009538	0.852667
797.331218	0.857859
797.652852	0.861446
797.974442	0.866477
798.295986	0.868313
798.617484	0.868600
798.938938	0.873535
799.260346	0.878888
799.581709	0.879884
799.903026	0.883228
800.224299	0.884008
800.545526	0.887414
800.866708	0.891122
801.187845	0.896099
801.508936	0.894320
801.829983	0.892155
802.150984	0.896722
802.471940	0.901910
802.792851	0.900730
803.113717	0.902134
803.434538	0.899508
803.755314	0.901954
804.076045	0.903734
804.396731	0.903667
804.717372	0.901533
805.037967	0.906313
805.358518	0.903976
805.679024	0.899378
805.999485	0.900249
806.319901	0.899508
806.640272	0.902048
806.960598	0.900094
807.280879	0.897577
807.601115	0.893985
807.921306	0.899280
808.241453	0.900490
808.561554	0.899126
808.881611	0.898101
809.201623	0.899248
809.521590	0.899728
809.841513	0.900825
810.161390	0.898813
810.481223	0.901325
810.801011	0.904668
811.120755	0.906881
811.440453	0.905057
811.760107	0.905916
812.079716	0.904424
812.399281	0.907790
812.718801	0.908942
813.038276	0.909514
813.357707	0.908760
813.677093	0.908382
813.996434	0.910956
814.315731	0.912774
814.634983	0.913546
814.954191	0.912542
815.273354	0.907032
815.592473	0.905632
815.911547	0.904625
816.230577	0.903577
816.549562	0.899557
816.868502	0.898597
817.187399	0.897243
817.506250	0.891110
817.825058	0.892247
818.143821	0.889265
818.462539	0.884295
818.781213	0.876085
819.099843	0.865277
819.418429	0.847627
819.736970	0.831156
820.055466	0.810454
820.373919	0.784002
820.692327	0.751313
821.010691	0.716119
821.329011	0.635275
821.647286	0.517376
821.965517	0.402678
822.283704	0.359626
822.601847	0.360151
822.919945	0.396077
823.237999	0.430940
823.556010	0.478962
823.873976	0.535648
824.191897	0.587162
824.509775	0.630763
824.827609	0.676865
825.145398	0.699568
825.463144	0.701085
825.780845	0.685090
826.098502	0.666180
826.416116	0.619652
826.733685	0.574288
827.051210	0.565764
827.368692	0.580685
827.686129	0.618990
828.003522	0.673904
828.320872	0.722753
828.638177	0.765844
828.955439	0.801161
829.272656	0.822793
829.589830	0.840676
829.906960	0.856517
830.224046	0.868606
830.541088	0.879164
830.858086	0.884741
831.175041	0.891047
831.491952	0.889863
831.808819	0.886188
832.125642	0.877372
832.442421	0.864621
832.759157	0.842066
833.075849	0.793890
833.392497	0.728841
833.709101	0.687868
834.025662	0.697554
834.342179	0.729990
834.658653	0.769226
834.975083	0.806797
835.291469	0.832923
835.607811	0.856054
835.924110	0.873782
836.240366	0.890006
836.556578	0.904135
836.872746	0.911157
837.188871	0.919237
837.504952	0.924478
837.820990	0.925939
838.136984	0.931220
838.452935	0.933497
838.768842	0.936560
839.084706	0.928942
839.400526	0.902653
839.716303	0.859604
840.032037	0.838347
840.347727	0.841601
840.663373	0.859672
840.978977	0.881529
841.294537	0.906332
841.610054	0.920757
841.925527	0.929704
842.240957	0.935817
842.556344	0.944662
842.871687	0.949777
843.186987	0.952714
843.502244	0.954334
843.817458	0.956070
844.132629	0.961513
844.447756	0.964789
844.762840	0.963916
845.077881	0.964385
845.392879	0.964400
845.707833	0.967070
846.022745	0.969025
846.337613	0.969267
846.652438	0.969922
846.967221	0.970188
847.281960	0.971391
847.596656	0.972690
847.911309	0.970434
848.225919	0.972045
848.540485	0.973394
848.855009	0.975174
849.169490	0.974190
849.483928	0.973422
849.798323	0.973626
850.112675	0.975001
850.426984	0.974432
850.741251	0.974421
851.055474	0.974001
851.369654	0.973266
851.683792	0.973641
851.997887	0.975663
852.311938	0.974795
852.625947	0.972909
852.939914	0.973244
853.253837	0.974043
853.567718	0.975966
853.881555	0.975117
854.195350	0.974967
854.509103	0.974297
854.822812	0.974571
855.136479	0.975806
855.450103	0.974382
855.763685	0.974501
856.077224	0.974754
856.390720	0.976212
856.704173	0.975605
857.017584	0.974222
857.330953	0.973197
857.644278	0.971663
857.957561	0.973228
858.270802	0.974456
858.584000	0.973267
858.897155	0.971228
859.210268	0.971911
859.523339	0.974160
859.836367	0.975129
860.149352	0.974408
860.462295	0.974935
860.775195	0.974837
861.088054	0.974050
861.400869	0.975516
861.713642	0.974784
862.026373	0.976718
862.339062	0.975894
862.651708	0.973398
862.964312	0.972887
863.276873	0.972949
863.589392	0.973049
863.901869	0.971667
864.214303	0.968903
864.526696	0.969003
864.839045	0.969396
865.151353	0.966278
865.463619	0.965769
865.775842	0.967034
866.088023	0.968407
866.400162	0.966563
866.712258	0.967596
867.024313	0.967118
867.336325	0.969084
867.648296	0.968934
867.960224	0.965899
868.272110	0.967554
868.583954	0.968777
868.895755	0.969127
869.207515	0.966682
869.519233	0.965085
869.830909	0.964657
870.142542	0.967067
870.454134	0.966622
870.765684	0.964121
871.077191	0.964317
871.388657	0.962479
871.700081	0.963481
872.011463	0.964378
872.322803	0.962235
872.634101	0.961625
872.945357	0.958022
873.256571	0.956062
873.567744	0.957075
873.878874	0.958564
874.189963	0.956396
874.501010	0.957124
874.812015	0.955234
875.122979	0.955092
875.433900	0.957188
875.744780	0.957926
876.055618	0.955855
876.366415	0.953304
876.677169	0.953918
876.987882	0.955396
877.298554	0.955015
877.609183	0.951836
877.919771	0.949530
878.230317	0.946309
878.540822	0.944216
878.851285	0.938841
879.161707	0.930712
879.472087	0.918835
879.782425	0.899217
880.092722	0.865386
880.402977	0.810870
880.713191	0.747551
881.023363	0.686347
881.333494	0.650995
881.643583	0.624536
881.953631	0.624154
882.263637	0.652738
882.573602	0.692653
882.883526	0.719138
883.193408	0.744525
883.503248	0.767768
883.813048	0.795082
884.122806	0.826286
884.432522	0.851477
884.742197	0.871707
885.051831	0.881823
885.361424	0.893258
885.670975	0.905971
885.980485	0.914398
886.289954	0.922802
886.599382	0.925445
886.908768	0.931765
887.218113	0.937187
887.527417	0.942709
887.836680	0.945669
888.145901	0.947500
888.455082	0.950127
888.764221	0.955490
889.073319	0.956167
889.382376	0.956847
889.691392	0.956101
890.000366	0.957815
890.309300	0.956477
890.618193	0.957179
890.927044	0.955692
891.235855	0.955350
891.544625	0.955702
891.853353	0.955870
892.162041	0.953859
892.470687	0.947067
892.779293	0.941872
893.087858	0.936579
893.396381	0.929065
893.704864	0.914583
894.013306	0.890980
894.321707	0.862582
894.630068	0.847282
894.938387	0.841931
895.246665	0.843819
895.554903	0.855675
895.863100	0.870384
896.171256	0.888765
896.479371	0.908245
896.787446	0.921282
897.095480	0.928957
897.403473	0.930274
897.711425	0.936536
898.019336	0.942133
898.327207	0.947286
898.635038	0.946962
898.942827	0.949634
899.250576	0.950557
899.558284	0.957028
899.865952	0.957397
900.173579	0.959656
900.481165	0.960081
900.788711	0.962641
901.096216	0.966197
901.403681	0.967409
901.711105	0.966534
902.018489	0.966536
902.325832	0.966829
902.633135	0.964442
902.940397	0.959119
903.247619	0.945442
903.554800	0.920000
903.861941	0.880275
904.169041	0.840828
904.476101	0.823131
904.783121	0.825181
905.090100	0.841193
905.397039	0.863219
905.703938	0.885811
906.010796	0.907297
906.317614	0.924823
906.624391	0.938176
906.931129	0.947223
907.237826	0.955695
907.544483	0.962429
907.851099	0.967298
908.157675	0.969822
908.464211	0.974143
908.770707	0.975402
909.077163	0.979186
909.383578	0.981523
909.689954	0.980014
909.996289	0.981682
910.302584	0.982885
910.608839	0.984754
910.915054	0.983817
911.221229	0.983255
911.527363	0.981188
911.833458	0.983643
912.139513	0.982701
912.445527	0.981305
912.751502	0.978633
913.057436	0.976536
913.363331	0.975093
913.669186	0.971431
913.975000	0.966528
914.280775	0.959141
914.586510	0.950973
914.892205	0.937478
915.197859	0.914188
915.503475	0.887800
915.809050	0.865919
916.114585	0.860434
916.420081	0.857094
916.725536	0.854340
917.030952	0.863146
917.336328	0.876582
917.641665	0.892159
917.946961	0.907866
918.252218	0.919427
918.557435	0.930237
918.862612	0.938897
919.167750	0.944302
919.472848	0.950717
919.777906	0.956300
920.082925	0.960750
920.387904	0.965717
920.692843	0.965729
920.997743	0.967822
921.302603	0.971689
921.607423	0.973139
921.912204	0.976228
922.216946	0.978296
922.521647	0.979124
922.826310	0.979366
923.130932	0.980941
923.435516	0.983190
923.740059	0.983285
924.044564	0.983869
924.349028	0.985015
924.653454	0.988333
924.957840	0.987878
925.262186	0.989469
925.566493	0.988499
925.870761	0.990656
926.174989	0.990803
926.479178	0.993170
926.783328	0.993045
927.087438	0.992235
927.391509	0.993165
927.695541	0.995631
927.999533	0.994555
928.303486	0.996515
928.607400	0.995816
928.911275	0.995013
929.215110	0.996538
929.518906	0.995504
929.822663	0.996822
930.126381	0.997851
930.430060	0.995625
930.733699	0.996210
931.037299	0.994387
931.340861	0.996153
931.644383	0.994924
931.947866	0.995717
932.251309	0.995609
932.554714	0.995797
932.858080	0.995598
933.161407	0.994618
933.464694	0.996512
933.767943	0.996414
934.071153	0.996997
934.374323	0.996948
934.677455	0.995310
934.980548	0.997552
935.283602	0.996910
935.586617	0.995650
935.889593	0.997603
936.192530	0.998023
936.495428	0.997439
936.798287	0.995224
937.101108	0.995791
937.403890	0.995365
937.706632	0.994626
938.009336	0.992405
938.312002	0.990770
938.614628	0.990079
938.917216	0.988198
939.219765	0.987445
939.522275	0.987945
939.824747	0.987661
940.127179	0.988726
940.429573	0.989588
940.731929	0.989453
941.034246	0.988975
941.336524	0.989134
941.638763	0.990780
941.940964	0.991559
942.243126	0.990824
942.545250	0.993858
942.847335	0.992976
943.149381	0.994241
943.451389	0.993112
943.753359	0.994628
944.055290	0.995116
944.357182	0.995134
944.659036	0.995800
944.960851	0.994990
945.262628	0.995762
945.564367	0.995192
945.866067	0.994918
946.167729	0.994341
946.469352	0.995272
946.770937	0.993034
947.072484	0.995830
947.373992	0.995480
947.675462	0.994816
947.976893	0.994310
948.278286	0.997019
948.579641	0.996882
948.880958	0.996865
949.182236	0.996823
949.483476	0.997559
949.784678	0.996934
950.085841	0.996571
950.386967	0.996734
950.688054	0.995405
950.989103	0.995031
951.290114	0.994243
951.591087	0.995038
951.892021	0.994479
952.192917	0.994203
952.493776	0.993389
952.794596	0.993421
953.095378	0.992885
953.396122	0.993329
953.696828	0.993801
953.997496	0.993720
954.298126	0.995347
954.598718	0.994422
954.899272	0.995385
955.199788	0.995757
955.500266	0.997301
955.800706	0.997725
956.101108	0.997634
956.401472	1.000160
956.701798	0.998275
957.002087	0.999158
957.302337	0.999378
957.602550	1.000358
957.902724	1.000032
958.202861	1.001593
958.502960	0.999173
958.803022	1.001513
959.103045	1.001335
959.403031	1.002962
959.702979	1.001809
960.002889	1.001053
960.302762	1.000463
960.602596	1.001700
960.902393	1.001506
961.202153	1.002652
961.501875	1.002353
961.801559	1.002774
962.101205	1.001500
962.400814	1.003898
962.700385	1.001904
962.999918	1.001913
963.299414	1.001003
963.598873	1.002494
963.898293	1.003038
964.197677	1.002633
964.497022	1.002625
964.796331	1.001804
965.095601	1.004267
965.394835	1.002398
965.694030	1.004300
965.993189	1.002195
966.292309	1.002371
966.591393	1.002140
966.890439	1.002135
967.189447	1.003432
967.488419	1.002221
967.787353	1.003395
968.086249	1.002782
968.385108	1.002679
968.683930	1.003548
968.982714	1.002855
969.281462	1.002564
969.580172	1.002576
969.878844	1.003428
970.177480	1.002035
970.476078	1.002481
970.774639	1.003614
971.073162	1.002552
971.371649	1.001198
971.670098	1.002809
971.968510	1.003045
972.266885	1.002740
972.565223	1.001318
972.863524	1.001143
973.161788	1.001888
973.460014	1.003847
973.758204	1.001855
974.056356	1.001884
974.354471	1.001051
974.652550	1.003217
974.950591	1.002204
975.248595	1.000834
975.546563	1.002756
975.844493	1.003376
976.142386	1.002073
976.440243	1.003872
976.738062	1.002779
977.035845	1.000858
977.333590	1.003097
977.631299	1.002290
977.928971	1.002341
978.226606	1.002569
978.524204	1.001997
978.821765	1.003304
979.119290	1.004046
979.416777	1.003261
979.714228	1.002605
980.011642	1.003658
980.309020	1.002584
980.606360	1.002657
980.903664	1.002957
981.200931	1.002526
981.498162	1.001199
981.795356	1.002370
982.092513	1.000648
982.389633	1.000004
982.686717	0.996767
982.983764	0.995907
983.280775	0.997313
983.577749	0.998309
983.874686	0.996479
984.171587	0.997186
984.468451	0.999329
984.765279	1.000876
985.062070	1.000909
985.358824	1.000005
985.655543	1.001372
985.952224	1.001939
986.248869	1.002947
986.545478	1.004187
986.842050	1.003425
987.138586	1.003061
987.435086	1.002814
987.731549	1.005648
988.027975	1.005007
988.324366	1.003071
988.620719	1.004573
988.917037	1.004001
989.213318	1.003372
989.509563	1.004589
989.805772	1.004477
990.101944	1.005421
990.398080	1.004439
990.694180	1.005058
990.990244	1.002634
991.286271	1.003551
991.582262	1.005009
991.878217	1.003481
992.174136	1.003937
992.470019	1.004253
992.765865	1.004828
993.061676	1.004301
993.357450	1.004104
993.653188	1.005073
993.948890	1.003422
994.244556	1.003066
994.540186	1.003301
994.835780	1.003558
995.131337	1.003322
995.426859	1.002622
995.722345	1.002573
996.017795	1.001288
996.313208	1.002632
996.608586	1.002704
996.903928	1.002851
997.199234	1.001936
997.494504	1.003491
997.789738	1.001826
998.084936	1.002838
998.380099	1.003219
998.675225	1.003736
998.970316	1.004025
999.265371	1.004232
999.560390	1.003412
999.855373	1.004381
1000.150320	1.004613
1000.445232	1.003843
1000.740108	1.004458
1001.034948	1.004146
1001.329752	1.005089
1001.624521	1.004110
1001.919254	1.003276
1002.213951	1.005156
1002.508613	1.003856
1002.803239	1.005950
1003.097829	1.003411
1003.392384	1.004295
1003.686903	1.004762
1003.981386	1.004175
1004.275834	1.005519
1004.570246	1.004226
1004.864623	1.004827
1005.158964	1.004284
1005.453270	1.004964
1005.747540	1.003797
1006.041775	1.005107
1006.335974	1.005763
1006.630138	1.004261
1006.924266	1.004186
1007.218359	1.003063
1007.512416	1.006281
1007.806438	1.004674
1008.100425	1.005318
1008.394376	1.005473
1008.688292	1.005132
1008.982172	1.003855
1009.276017	1.005587
1009.569827	1.005800
1009.863602	1.003825
1010.157341	1.004774
1010.451045	1.005495
1010.744714	1.005899
1011.038347	1.004140
1011.331945	1.003727
1011.625508	1.004086
1011.919036	1.003944
1012.212528	1.005851
1012.505986	1.004628
1012.799408	1.005671
1013.092795	1.005819
1013.386147	1.004878
1013.679464	1.005569
1013.972745	1.004635
1014.265992	1.004267
1014.559204	1.004972
1014.852380	1.005148
1015.145521	1.005247
1015.438628	1.004777
1015.731699	1.005784
1016.024736	1.005353
1016.317737	1.004411
1016.610703	1.003849
1016.903635	1.005434
1017.196531	1.004354
1017.489393	1.004458
1017.782219	1.005096
1018.075011	1.004810
1018.367768	1.003771
1018.660490	1.005727
1018.953177	1.005727
1019.245829	1.005727
