Dividing Wavelength (nm)	Counts (n)	Blue Motor Position (mm): 11.800000	Red Motor Position (mm): 0.000000	
326.493990	1.004487
326.888308	1.004487
327.282561	1.004487
327.676750	1.005318
328.070874	1.005617
328.464933	1.005527
328.858929	1.004543
329.252859	1.004678
329.646726	1.004724
330.040528	1.002527
330.434265	1.003957
330.827938	1.002841
331.221547	1.003782
331.615091	1.004840
332.008571	1.005230
332.401986	1.003537
332.795338	1.003730
333.188625	1.004495
333.581847	1.004147
333.975006	1.004558
334.368100	1.004398
334.761129	1.002886
335.154095	1.004219
335.546996	1.003995
335.939833	0.999017
336.332606	0.999480
336.725315	0.998273
337.117960	0.999572
337.510540	0.998076
337.903056	1.000965
338.295508	1.000794
338.687896	0.999567
339.080220	0.999924
339.472480	0.998435
339.864676	1.001105
340.256807	0.998752
340.648875	1.000009
341.040879	0.999426
341.432818	1.000000
341.824694	0.998215
342.216506	1.001110
342.608253	0.999003
342.999937	0.998842
343.391557	1.000484
343.783113	1.000401
344.174605	0.999719
344.566033	0.999216
344.957397	1.000675
345.348697	0.999755
345.739934	1.000388
346.131106	0.999226
346.522215	0.997631
346.913260	0.999540
347.304241	0.998406
347.695159	0.999149
348.086012	0.998909
348.476802	0.999399
348.867528	0.999075
349.258191	0.999892
349.648789	0.999298
350.039324	0.999165
350.429796	0.998957
350.820203	0.997047
351.210548	0.999052
351.600828	0.998729
351.991045	0.998682
352.381198	1.000017
352.771288	0.998091
353.161314	0.999388
353.551276	0.998252
353.941175	0.997114
354.331010	0.998587
354.720782	0.998787
355.110490	0.996682
355.500135	0.999044
355.889717	0.998127
356.279235	0.998194
356.668689	0.999028
357.058080	0.998675
357.447408	0.997618
357.836672	0.998120
358.225873	0.997223
358.615010	0.998115
359.004084	0.997502
359.393095	0.998344
359.782043	0.997589
360.170927	0.998385
360.559748	0.997894
360.948505	0.997313
361.337199	0.997658
361.725830	0.998396
362.114398	0.996584
362.502903	0.997381
362.891344	0.996564
363.279722	0.997168
363.668037	0.998007
364.056289	0.996656
364.444478	0.998609
364.832603	0.996049
365.220665	0.997283
365.608665	0.997543
365.996601	0.997161
366.384474	0.995769
366.772284	0.996625
367.160031	0.995175
367.547715	0.996693
367.935336	0.994549
368.322893	0.994733
368.710388	0.992126
369.097820	0.991971
369.485189	0.988351
369.872495	0.986659
370.259738	0.985546
370.646918	0.981751
371.034035	0.979256
371.421090	0.976667
371.808081	0.971256
372.195010	0.969901
372.581875	0.964465
372.968678	0.961013
373.355418	0.956092
373.742096	0.948709
374.128710	0.943621
374.515262	0.940646
374.901751	0.934732
375.288177	0.929139
375.674540	0.922270
376.060841	0.916291
376.447079	0.910235
376.833254	0.903548
377.219367	0.897767
377.605417	0.886185
377.991404	0.882669
378.377329	0.877316
378.763191	0.871326
379.148991	0.862165
379.534727	0.854497
379.920402	0.846254
380.306013	0.842506
380.691563	0.829638
381.077049	0.823147
381.462474	0.819098
381.847835	0.806701
382.233134	0.802018
382.618371	0.802384
383.003545	0.785656
383.388657	0.783130
383.773706	0.775975
384.158693	0.771825
384.543618	0.766318
384.928480	0.757993
385.313280	0.748144
385.698017	0.747144
386.082692	0.735618
386.467305	0.733957
386.851856	0.729123
387.236344	0.723196
387.620770	0.718305
388.005133	0.711952
388.389435	0.707281
388.773674	0.703841
389.157851	0.695932
389.541965	0.693492
389.926018	0.700009
390.310008	0.686436
390.693936	0.683418
391.077802	0.676544
391.461606	0.677868
391.845348	0.666425
392.229027	0.665721
392.612645	0.664754
392.996200	0.651285
393.379694	0.644514
393.763125	0.634545
394.146494	0.639254
394.529801	0.629775
394.913047	0.621625
395.296230	0.627774
395.679351	0.618697
396.062410	0.616239
396.445408	0.618528
396.828343	0.614198
397.211217	0.608849
397.594028	0.620976
397.976778	0.611853
398.359466	0.607928
398.742092	0.603380
399.124656	0.615420
399.507158	0.603425
399.889598	0.600445
400.271977	0.592274
400.654294	0.595746
401.036549	0.594590
401.418742	0.599065
401.800874	0.584555
402.182944	0.582054
402.564952	0.572798
402.946898	0.575237
403.328783	0.576324
403.710606	0.587147
404.092367	0.562409
404.474067	0.567250
404.855705	0.566176
405.237282	0.574641
405.618797	0.561445
406.000250	0.557217
406.381642	0.546766
406.762972	0.552212
407.144240	0.550229
407.525447	0.550447
407.906593	0.543422
408.287677	0.538917
408.668700	0.547269
409.049661	0.541852
409.430560	0.536088
409.811399	0.545000
410.192176	0.526404
410.572891	0.533560
410.953545	0.521350
411.334138	0.535509
411.714669	0.527591
412.095139	0.539654
412.475547	0.523714
412.855894	0.526083
413.236180	0.525095
413.616405	0.529792
413.996568	0.520537
414.376670	0.526928
414.756711	0.532095
415.136691	0.528451
415.516609	0.520018
415.896466	0.516202
416.276262	0.512626
416.655997	0.514459
417.035670	0.495742
417.415283	0.487860
417.794834	0.492604
418.174324	0.497897
418.553753	0.506713
418.933121	0.488751
419.312428	0.482933
419.691674	0.488435
420.070859	0.477238
420.449983	0.484459
420.829045	0.474448
421.208047	0.483028
421.586988	0.476100
421.965867	0.475317
422.344686	0.463088
422.723444	0.476024
423.102141	0.492732
423.480777	0.466191
423.859352	0.487149
424.237866	0.463863
424.616319	0.464517
424.994712	0.455590
425.373044	0.465922
425.751314	0.453849
426.129524	0.470728
426.507673	0.454195
426.885762	0.448138
427.263789	0.452916
427.641756	0.463010
428.019662	0.453088
428.397508	0.452499
428.775292	0.456484
429.153016	0.448262
429.530679	0.454597
429.908282	0.447460
430.285824	0.457925
430.663305	0.436866
431.040726	0.457695
431.418086	0.457401
431.795385	0.449594
432.172624	0.448152
432.549802	0.448407
432.926920	0.447299
433.303977	0.447043
433.680974	0.444103
434.057910	0.442435
434.434786	0.441948
434.811601	0.444945
435.188355	0.427698
435.565050	0.436367
435.941683	0.437574
436.318257	0.421607
436.694770	0.423081
437.071222	0.420588
437.447614	0.425284
437.823946	0.431673
438.200218	0.421347
438.576429	0.430684
438.952580	0.423476
439.328670	0.420104
439.704700	0.426600
440.080670	0.428271
440.456580	0.409344
440.832429	0.417191
441.208218	0.428666
441.583947	0.417078
441.959616	0.416808
442.335224	0.422284
442.710773	0.413206
443.086261	0.410851
443.461689	0.424886
443.837057	0.414972
444.212365	0.404586
444.587612	0.411216
444.962800	0.401568
445.337927	0.402753
445.712995	0.429622
446.088002	0.391306
446.462949	0.401950
446.837837	0.406567
447.212664	0.394973
447.587431	0.386729
447.962139	0.357353
448.336786	0.315812
448.711374	0.326755
449.085901	0.371016
449.460369	0.374890
449.834776	0.378901
450.209124	0.358105
450.583412	0.350674
450.957640	0.343529
451.331808	0.355179
451.705917	0.378263
452.079965	0.382949
452.453954	0.371486
452.827883	0.378236
453.201752	0.373185
453.575562	0.384008
453.949311	0.372792
454.323001	0.379044
454.696632	0.374902
455.070202	0.367266
455.443713	0.359149
455.817164	0.353426
456.190556	0.349511
456.563888	0.346350
456.937160	0.343889
457.310373	0.361099
457.683526	0.360083
458.056619	0.366177
458.429653	0.366228
458.802628	0.369706
459.175542	0.364059
459.548398	0.346606
459.921194	0.339078
460.293930	0.339084
460.666607	0.316647
461.039224	0.305149
461.411782	0.300260
461.784280	0.299823
462.156719	0.303939
462.529099	0.308353
462.901419	0.324544
463.273680	0.328822
463.645882	0.328045
464.018024	0.334201
464.390106	0.327330
464.762130	0.311659
465.134094	0.294924
465.505999	0.263492
465.877845	0.233983
466.249631	0.220819
466.621358	0.228204
466.993026	0.242062
467.364634	0.248345
467.736184	0.257270
468.107674	0.266119
468.479105	0.265022
468.850477	0.271938
469.221790	0.278527
469.593043	0.288928
469.964238	0.293640
470.335373	0.293386
470.706449	0.291549
471.077467	0.291948
471.448425	0.254028
471.819324	0.229473
472.190164	0.228858
472.560945	0.257955
472.931667	0.279929
473.302330	0.284226
473.672934	0.296477
474.043479	0.284367
474.413965	0.286533
474.784393	0.289660
475.154761	0.284597
475.525070	0.281729
475.895321	0.287448
476.265513	0.282029
476.635645	0.277502
477.005719	0.276969
477.375734	0.273606
477.745691	0.266697
478.115588	0.262976
478.485427	0.256706
478.855207	0.243618
479.224928	0.226024
479.594591	0.213916
479.964194	0.217554
480.333739	0.218766
480.703226	0.220141
481.072653	0.218705
481.442022	0.214076
481.811333	0.210891
482.180584	0.214204
482.549777	0.219542
482.918912	0.222694
483.287988	0.222652
483.657005	0.221994
484.025964	0.228668
484.394864	0.226004
484.763706	0.226825
485.132489	0.231780
485.501213	0.232607
485.869879	0.230807
486.238487	0.234006
486.607036	0.231721
486.975527	0.236762
487.343959	0.232396
487.712333	0.231615
488.080648	0.233036
488.448905	0.232207
488.817104	0.233129
489.185244	0.227718
489.553326	0.224837
489.921350	0.214481
490.289315	0.196949
490.657222	0.191793
491.025070	0.193070
491.392861	0.195404
491.760593	0.201057
492.128267	0.206744
492.495883	0.212242
492.863440	0.218555
493.230939	0.224797
493.598380	0.226389
493.965763	0.228626
494.333088	0.230697
494.700354	0.232261
495.067563	0.231058
495.434713	0.234756
495.801805	0.232614
496.168839	0.233761
496.535815	0.235434
496.902733	0.235164
497.269593	0.237240
497.636395	0.234407
498.003139	0.234556
498.369825	0.237905
498.736453	0.234481
499.103023	0.236072
499.469535	0.235553
499.835989	0.235462
500.202385	0.236445
500.568723	0.239470
500.935003	0.234789
501.301226	0.239053
501.667390	0.233188
502.033497	0.231670
502.399546	0.234293
502.765537	0.236497
503.131470	0.234953
503.497345	0.230947
503.863163	0.239482
504.228923	0.232656
504.594625	0.231440
504.960269	0.236694
505.325856	0.232158
505.691385	0.236364
506.056856	0.233121
506.422270	0.232730
506.787625	0.235050
507.152924	0.232481
507.518164	0.233013
507.883347	0.234542
508.248472	0.236325
508.613540	0.231114
508.978550	0.233927
509.343503	0.234349
509.708398	0.231847
510.073236	0.229575
510.438016	0.229500
510.802738	0.230200
511.167403	0.229658
511.532010	0.231633
511.896561	0.226958
512.261053	0.225459
512.625488	0.227780
512.989866	0.228068
513.354186	0.228175
513.718449	0.230305
514.082655	0.226533
514.446803	0.228964
514.810894	0.226516
515.174927	0.229326
515.538904	0.228847
515.902822	0.225595
516.266684	0.227954
516.630488	0.229317
516.994235	0.228074
517.357925	0.226829
517.721558	0.224938
518.085133	0.224623
518.448651	0.224608
518.812112	0.227161
519.175516	0.226755
519.538863	0.224224
519.902152	0.225915
520.265385	0.222690
520.628560	0.224437
520.991678	0.225057
521.354739	0.223748
521.717743	0.224978
522.080690	0.225557
522.443580	0.222944
522.806413	0.223528
523.169189	0.223295
523.531908	0.222057
523.894569	0.225660
524.257174	0.225658
524.619722	0.223138
524.982213	0.224420
525.344647	0.223117
525.707025	0.224194
526.069345	0.222384
526.431608	0.224305
526.793815	0.222037
527.155964	0.226236
527.518057	0.225313
527.880093	0.226301
528.242072	0.224585
528.603995	0.226930
528.965860	0.228326
529.327669	0.227250
529.689421	0.228419
530.051117	0.228980
530.412755	0.227114
530.774337	0.229467
531.135862	0.229624
531.497331	0.229063
531.858743	0.231739
532.220098	0.228455
532.581396	0.231203
532.942638	0.231692
533.303824	0.232817
533.664953	0.232503
534.026025	0.234365
534.387040	0.232327
534.747999	0.232088
535.108902	0.231023
535.469748	0.236258
535.830537	0.233968
536.191270	0.234521
536.551947	0.233767
536.912567	0.233994
537.273131	0.235660
537.633638	0.235934
537.994089	0.236556
538.354483	0.237506
538.714821	0.234565
539.075103	0.234339
539.435328	0.235248
539.795497	0.238823
540.155609	0.235302
540.515665	0.233653
540.875665	0.239100
541.235609	0.237976
541.595496	0.237981
541.955328	0.234446
542.315102	0.237233
542.674821	0.238373
543.034483	0.238498
543.394090	0.237929
543.753640	0.239777
544.113134	0.234955
544.472571	0.238141
544.831953	0.235116
545.191278	0.239276
545.550548	0.238378
545.909761	0.235455
546.268918	0.236339
546.628019	0.234426
546.987064	0.237235
547.346053	0.239041
547.704986	0.236715
548.063863	0.237103
548.422684	0.237380
548.781449	0.239212
549.140158	0.237102
549.498811	0.239599
549.857408	0.242869
550.215949	0.237664
550.574434	0.240805
550.932864	0.238889
551.291237	0.236976
551.649555	0.239069
552.007817	0.238526
552.366022	0.239578
552.724173	0.239260
553.082267	0.239959
553.440305	0.236891
553.798288	0.241171
554.156215	0.237657
554.514086	0.238390
554.871902	0.241633
555.229661	0.240612
555.587365	0.241274
555.945014	0.243774
556.302606	0.240980
556.660143	0.243586
557.017625	0.239954
557.375050	0.242046
557.732421	0.239341
558.089735	0.241285
558.446994	0.241227
558.804197	0.240313
559.161345	0.240043
559.518437	0.243565
559.875474	0.241858
560.232455	0.241263
560.589381	0.241924
560.946251	0.242254
561.303065	0.239686
561.659825	0.241279
562.016528	0.242953
562.373177	0.245420
562.729770	0.242876
563.086307	0.244799
563.442789	0.242834
563.799216	0.245636
564.155587	0.244516
564.511904	0.245806
564.868164	0.245504
565.224370	0.245382
565.580520	0.247058
565.936615	0.247008
566.292654	0.250082
566.648638	0.247076
567.004567	0.248086
567.360441	0.248520
567.716260	0.250543
568.072023	0.248175
568.427732	0.248964
568.783385	0.251630
569.138982	0.249708
569.494525	0.249417
569.850013	0.252330
570.205445	0.250886
570.560823	0.253441
570.916145	0.255415
571.271412	0.253678
571.626625	0.255212
571.981782	0.255620
572.336884	0.256386
572.691931	0.256083
573.046923	0.257534
573.401860	0.258778
573.756743	0.260483
574.111570	0.259241
574.466342	0.259920
574.821059	0.259167
575.175722	0.261746
575.530330	0.261623
575.884882	0.261874
576.239380	0.263868
576.593823	0.264281
576.948211	0.264090
577.302544	0.267388
577.656823	0.267025
578.011047	0.266831
578.365216	0.267920
578.719330	0.269836
579.073389	0.269425
579.427394	0.271022
579.781344	0.271755
580.135239	0.273038
580.489080	0.273042
580.842866	0.275894
581.196597	0.275888
581.550273	0.274685
581.903895	0.275493
582.257463	0.273711
582.610975	0.277656
582.964434	0.276724
583.317837	0.279213
583.671186	0.279847
584.024481	0.279966
584.377721	0.282259
584.730906	0.283292
585.084037	0.282481
585.437113	0.284526
585.790135	0.283876
586.143103	0.287041
586.496016	0.288037
586.848874	0.285833
587.201679	0.286547
587.554428	0.289975
587.907124	0.288948
588.259765	0.289728
588.612352	0.290283
588.964884	0.294078
589.317362	0.293969
589.669786	0.294289
590.022155	0.292454
590.374470	0.292352
590.726731	0.294666
591.078937	0.299659
591.431090	0.295936
591.783188	0.299975
592.135232	0.300792
592.487222	0.300687
592.839157	0.298831
593.191038	0.301085
593.542866	0.303401
593.894639	0.307126
594.246358	0.305773
594.598022	0.305093
594.949633	0.309049
595.301190	0.309945
595.652692	0.308888
596.004141	0.305349
596.355535	0.313659
596.706876	0.314741
597.058162	0.316917
597.409395	0.314465
597.760573	0.312500
598.111698	0.315822
598.462768	0.316601
598.813785	0.317770
599.164748	0.319612
599.515657	0.319980
599.866511	0.323900
600.217312	0.319543
600.568060	0.324872
600.918753	0.321537
601.269392	0.322790
601.619978	0.326244
601.970510	0.324003
602.320988	0.324728
602.671412	0.323215
603.021783	0.325574
603.372100	0.327316
603.722363	0.327251
604.072572	0.328610
604.422728	0.328511
604.772830	0.331213
605.122878	0.331257
605.472872	0.332047
605.822813	0.331130
606.172701	0.333927
606.522534	0.331681
606.872314	0.332316
607.222041	0.333938
607.571714	0.332106
607.921333	0.334307
608.270899	0.334512
608.620411	0.331724
608.969870	0.336368
609.319276	0.336741
609.668627	0.337006
610.017926	0.336447
610.367171	0.335578
610.716362	0.336612
611.065500	0.337699
611.414585	0.337385
611.763616	0.338169
612.112594	0.339344
612.461518	0.339395
612.810389	0.337871
613.159207	0.341066
613.507971	0.343284
613.856682	0.340274
614.205340	0.341959
614.553945	0.340525
614.902496	0.345174
615.250994	0.344066
615.599439	0.345515
615.947830	0.346139
616.296169	0.348116
616.644454	0.348648
616.992686	0.349360
617.340864	0.348908
617.688990	0.353187
618.037063	0.351309
618.385082	0.354056
618.733048	0.352400
619.080961	0.355981
619.428821	0.356730
619.776628	0.357118
620.124382	0.360681
620.472083	0.362299
620.819731	0.362486
621.167326	0.366925
621.514868	0.367455
621.862357	0.372417
622.209793	0.372559
622.557176	0.376105
622.904506	0.378024
623.251783	0.381186
623.599007	0.384369
623.946179	0.384722
624.293297	0.387871
624.640363	0.392823
624.987376	0.394386
625.334336	0.397458
625.681243	0.401434
626.028097	0.402325
626.374899	0.404364
626.721647	0.406736
627.068343	0.410651
627.414987	0.413336
627.761577	0.415955
628.108115	0.415698
628.454600	0.422515
628.801032	0.421948
629.147412	0.424004
629.493739	0.426760
629.840014	0.430587
630.186236	0.429513
630.532405	0.436275
630.878521	0.435069
631.224585	0.439349
631.570597	0.443922
631.916556	0.444359
632.262462	0.445288
632.608316	0.449258
632.954117	0.451325
633.299866	0.453502
633.645562	0.455520
633.991206	0.460953
634.336797	0.464430
634.682336	0.467660
635.027823	0.470911
635.373257	0.471789
635.718639	0.476613
636.063968	0.477361
636.409245	0.483397
636.754470	0.485350
637.099642	0.488743
637.444762	0.493089
637.789829	0.493309
638.134845	0.497687
638.479808	0.500469
638.824719	0.501338
639.169577	0.506297
639.514383	0.507236
639.859137	0.511941
640.203839	0.513056
640.548489	0.515588
640.893086	0.517557
641.237632	0.521422
641.582125	0.521537
641.926566	0.525166
642.270955	0.525987
642.615292	0.527716
642.959576	0.529513
643.303809	0.531297
643.647990	0.533372
643.992118	0.534947
644.336195	0.538523
644.680219	0.540027
645.024192	0.541244
645.368112	0.538243
645.711981	0.539644
646.055797	0.537424
646.399562	0.542532
646.743274	0.538317
647.086935	0.537710
647.430544	0.540401
647.774101	0.541332
648.117606	0.542103
648.461059	0.544808
648.804460	0.548350
649.147810	0.552676
649.491108	0.556409
649.834354	0.559766
650.177548	0.564976
650.520690	0.570329
650.863781	0.572862
651.206820	0.574882
651.549807	0.579511
651.892742	0.584881
652.235626	0.585713
652.578458	0.588380
652.921238	0.594748
653.263967	0.594038
653.606644	0.598367
653.949269	0.600399
654.291843	0.603393
654.634365	0.603630
654.976836	0.608440
655.319255	0.609721
655.661622	0.612707
656.003938	0.614721
656.346203	0.617152
656.688416	0.618642
657.030577	0.621663
657.372687	0.625112
657.714746	0.626702
658.056753	0.626465
658.398708	0.631676
658.740612	0.632818
659.082465	0.633428
659.424266	0.634412
659.766016	0.635794
660.107715	0.640571
660.449362	0.641100
660.790958	0.642778
661.132503	0.646019
661.473996	0.645720
661.815438	0.647626
662.156829	0.649932
662.498168	0.652207
662.839456	0.653071
663.180693	0.654825
663.521879	0.655713
663.863013	0.657451
664.204097	0.659382
664.545129	0.658695
664.886110	0.662124
665.227040	0.661979
665.567918	0.663416
665.908746	0.665185
666.249522	0.666671
666.590248	0.668786
666.930922	0.668850
667.271545	0.670849
667.612118	0.671870
667.952639	0.674607
668.293109	0.676222
668.633528	0.679351
668.973896	0.680620
669.314213	0.681383
669.654480	0.686392
669.994695	0.686863
670.334859	0.688910
670.674973	0.692447
671.015035	0.692792
671.355047	0.695187
671.695008	0.696647
672.034918	0.698797
672.374777	0.700778
672.714585	0.702348
673.054342	0.703756
673.394049	0.705353
673.733705	0.705807
674.073310	0.710176
674.412864	0.710626
674.752368	0.713447
675.091820	0.716345
675.431223	0.719259
675.770574	0.720638
676.109875	0.723944
676.449125	0.725446
676.788324	0.727829
677.127473	0.732552
677.466571	0.734533
677.805619	0.737015
678.144616	0.739053
678.483562	0.742002
678.822458	0.744234
679.161303	0.745583
679.500098	0.747477
679.838842	0.749507
680.177535	0.750431
680.516179	0.750788
680.854771	0.751878
681.193314	0.750457
681.531805	0.747486
681.870247	0.744178
682.208638	0.741737
682.546978	0.741862
682.885268	0.744733
683.223508	0.749079
683.561697	0.752361
683.899836	0.755552
684.237925	0.758249
684.575963	0.759727
684.913951	0.762200
685.251889	0.763021
685.589776	0.763020
685.927614	0.764702
686.265401	0.764622
686.603137	0.766243
686.940824	0.765388
687.278460	0.765766
687.616046	0.765983
687.953582	0.764428
688.291068	0.765939
688.628504	0.766225
688.965889	0.767397
689.303224	0.769005
689.640510	0.773737
689.977745	0.777627
690.314930	0.782629
690.652065	0.785425
690.989150	0.789667
691.326185	0.795376
691.663170	0.799650
692.000105	0.803608
692.336990	0.807365
692.673825	0.811475
693.010610	0.813878
693.347345	0.816232
693.684030	0.820740
694.020665	0.822852
694.357251	0.826846
694.693786	0.827915
695.030272	0.829199
695.366707	0.833898
695.703093	0.835190
696.039429	0.835706
696.375716	0.838713
696.711952	0.839448
697.048139	0.840847
697.384276	0.843047
697.720363	0.843967
698.056400	0.844298
698.392388	0.846076
698.728326	0.847642
699.064214	0.850965
699.400053	0.851197
699.735842	0.855659
700.071581	0.856626
700.407270	0.858397
700.742910	0.862165
701.078501	0.863903
701.414042	0.866389
701.749533	0.867778
702.084974	0.871909
702.420366	0.870721
702.755709	0.873727
703.091002	0.877452
703.426246	0.877556
703.761440	0.878625
704.096584	0.879663
704.431679	0.881030
704.766725	0.882650
705.101721	0.885140
705.436668	0.884929
705.771565	0.886058
706.106413	0.885702
706.441212	0.887284
706.775961	0.888703
707.110661	0.888000
707.445311	0.887503
707.779913	0.890413
708.114465	0.889567
708.448967	0.887258
708.783421	0.886832
709.117825	0.885612
709.452180	0.885863
709.786485	0.883956
710.120742	0.881758
710.454949	0.880535
710.789107	0.880384
711.123216	0.875814
711.457275	0.876070
711.791286	0.874449
712.125247	0.876836
712.459159	0.877192
712.793023	0.875847
713.126837	0.880613
713.460602	0.880115
713.794318	0.881856
714.127985	0.885199
714.461602	0.890276
714.795171	0.890598
715.128691	0.895085
715.462162	0.898419
715.795584	0.901966
716.128957	0.903627
716.462281	0.905872
716.795556	0.907385
717.128782	0.909729
717.461960	0.913078
717.795088	0.914491
718.128167	0.916670
718.461198	0.918876
718.794180	0.920174
719.127113	0.921683
719.459997	0.921882
719.792833	0.924492
720.125619	0.924104
720.458357	0.926680
720.791046	0.929317
721.123686	0.928959
721.456278	0.929990
721.788821	0.930741
722.121315	0.931584
722.453761	0.933059
722.786158	0.933207
723.118506	0.934043
723.450805	0.933894
723.783056	0.934017
724.115259	0.934642
724.447412	0.936224
724.779518	0.935573
725.111574	0.935162
725.443582	0.935334
725.775542	0.935854
726.107453	0.935222
726.439315	0.935469
726.771129	0.933963
727.102895	0.933497
727.434612	0.932321
727.766281	0.932884
728.097901	0.932032
728.429473	0.933398
728.760996	0.932061
729.092471	0.933732
729.423897	0.935642
729.755276	0.936200
730.086606	0.935913
730.417887	0.936000
730.749120	0.935403
731.080305	0.934418
731.411442	0.933628
731.742530	0.934867
732.073570	0.935408
732.404562	0.935840
732.735506	0.934922
733.066401	0.935777
733.397249	0.939458
733.728048	0.942643
734.058798	0.946912
734.389501	0.949462
734.720156	0.949828
735.050762	0.952322
735.381320	0.952275
735.711831	0.953414
736.042293	0.954444
736.372707	0.955431
736.703073	0.954524
737.033391	0.955450
737.363661	0.957050
737.693883	0.955373
738.024056	0.954713
738.354182	0.954585
738.684260	0.954134
739.014290	0.952799
739.344272	0.951610
739.674207	0.951342
740.004093	0.952298
740.333931	0.951170
740.663722	0.951863
740.993464	0.952841
741.323159	0.952942
741.652806	0.954553
741.982405	0.956637
742.311956	0.958309
742.641460	0.958761
742.970915	0.959887
743.300323	0.961394
743.629683	0.961688
743.958996	0.965169
744.288260	0.964331
744.617477	0.964800
744.946647	0.966897
745.275768	0.968810
745.604842	0.967142
745.933869	0.968633
746.262847	0.969976
746.591778	0.968194
746.920662	0.969977
747.249498	0.971545
747.578286	0.971397
747.907027	0.970315
748.235720	0.969809
748.564365	0.969667
748.892963	0.969039
749.221514	0.970949
749.550017	0.969164
749.878473	0.971036
750.206881	0.973890
750.535242	0.972202
750.863555	0.972210
751.191821	0.973120
751.520039	0.972299
751.848210	0.972652
752.176334	0.973804
752.504411	0.972962
752.832440	0.974133
753.160421	0.974935
753.488356	0.974941
753.816243	0.973986
754.144082	0.974439
754.471875	0.975152
754.799620	0.976075
755.127318	0.974920
755.454969	0.975820
755.782572	0.977604
756.110129	0.976290
756.437638	0.977430
756.765100	0.977123
757.092515	0.976859
757.419882	0.976884
757.747203	0.976453
758.074477	0.978001
758.401703	0.977709
758.728882	0.976480
759.056014	0.976146
759.383099	0.976737
759.710138	0.976074
760.037129	0.976412
760.364073	0.977631
760.690970	0.975935
761.017820	0.976122
761.344623	0.977808
761.671379	0.976860
761.998088	0.976175
762.324751	0.974267
762.651366	0.970669
762.977935	0.964092
763.304456	0.959111
763.630931	0.956305
763.957359	0.960064
764.283740	0.966111
764.610074	0.970119
764.936362	0.971349
765.262602	0.974208
765.588796	0.976955
765.914943	0.977370
766.241044	0.979433
766.567097	0.980458
766.893104	0.981669
767.219064	0.981364
767.544978	0.983275
767.870845	0.983909
768.196665	0.984464
768.522438	0.984606
768.848165	0.985541
769.173846	0.985604
769.499479	0.986724
769.825066	0.986890
770.150607	0.986791
770.476101	0.986976
770.801548	0.988572
771.126949	0.988443
771.452303	0.988237
771.777611	0.989011
772.102872	0.988923
772.428087	0.988385
772.753256	0.989540
773.078378	0.989446
773.403453	0.988839
773.728482	0.990672
774.053465	0.989557
774.378401	0.989680
774.703291	0.990058
775.028135	0.991131
775.352932	0.989454
775.677683	0.991256
776.002388	0.990139
776.327046	0.991566
776.651658	0.992656
776.976224	0.991464
777.300743	0.991752
777.625216	0.991044
777.949643	0.992962
778.274024	0.991612
778.598359	0.991937
778.922647	0.991788
779.246889	0.993852
779.571086	0.992448
779.895236	0.992526
780.219339	0.993591
780.543397	0.992230
780.867409	0.991885
781.191374	0.991481
781.515294	0.993397
781.839167	0.993231
782.162995	0.991659
782.486776	0.991472
782.810511	0.992232
783.134201	0.993344
783.457844	0.993890
783.781441	0.992414
784.104993	0.993451
784.428498	0.993735
784.751958	0.992805
785.075372	0.993842
785.398739	0.993344
785.722061	0.992886
786.045337	0.994059
786.368568	0.992227
786.691752	0.993875
787.014891	0.992892
787.337983	0.992418
787.661030	0.991435
787.984031	0.990968
788.306987	0.990223
788.629897	0.988719
788.952760	0.991239
789.275579	0.990577
789.598351	0.990869
789.921078	0.992246
790.243759	0.992383
790.566395	0.992354
790.888984	0.993578
791.211529	0.994785
791.534027	0.994620
791.856480	0.994469
792.178888	0.993839
792.501249	0.994382
792.823566	0.995775
793.145836	0.994117
793.468062	0.995360
793.790241	0.995168
794.112375	0.994241
794.434464	0.995314
794.756507	0.995300
795.078505	0.994021
795.400457	0.994626
795.722364	0.993620
796.044226	0.993647
796.366042	0.992171
796.687812	0.991278
797.009538	0.992800
797.331218	0.993865
797.652852	0.994242
797.974442	0.993019
798.295986	0.993398
798.617484	0.992696
798.938938	0.994583
799.260346	0.993425
799.581709	0.993947
799.903026	0.994444
800.224299	0.993628
800.545526	0.994659
800.866708	0.994175
801.187845	0.996005
801.508936	0.994680
801.829983	0.995186
802.150984	0.996145
802.471940	0.996384
802.792851	0.994373
803.113717	0.996319
803.434538	0.995428
803.755314	0.996772
804.076045	0.996831
804.396731	0.995625
804.717372	0.993479
805.037967	0.997031
805.358518	0.996414
805.679024	0.995272
805.999485	0.995935
806.319901	0.995535
806.640272	0.996649
806.960598	0.996055
807.280879	0.995617
807.601115	0.997087
807.921306	0.996310
808.241453	0.995481
808.561554	0.995663
808.881611	0.995775
809.201623	0.995405
809.521590	0.995493
809.841513	0.995812
810.161390	0.994859
810.481223	0.995252
810.801011	0.996632
811.120755	0.996311
811.440453	0.994367
811.760107	0.996894
812.079716	0.996479
812.399281	0.996652
812.718801	0.996047
813.038276	0.995509
813.357707	0.996872
813.677093	0.996565
813.996434	0.995853
814.315731	0.997871
814.634983	0.997219
814.954191	0.996564
815.273354	0.995937
815.592473	0.996230
815.911547	0.996017
816.230577	0.994987
816.549562	0.996157
816.868502	0.994690
817.187399	0.996485
817.506250	0.996061
817.825058	0.994236
818.143821	0.995272
818.462539	0.994342
818.781213	0.993821
819.099843	0.994152
819.418429	0.992117
819.736970	0.992587
820.055466	0.989949
820.373919	0.989306
820.692327	0.987410
821.010691	0.985774
821.329011	0.981506
821.647286	0.973762
821.965517	0.965173
822.283704	0.958698
822.601847	0.957062
822.919945	0.958953
823.237999	0.963839
823.556010	0.967113
823.873976	0.970418
824.191897	0.975632
824.509775	0.977984
824.827609	0.979911
825.145398	0.982230
825.463144	0.982693
825.780845	0.982994
826.098502	0.983149
826.416116	0.981834
826.733685	0.978001
827.051210	0.973798
827.368692	0.975155
827.686129	0.976511
828.003522	0.981756
828.320872	0.983627
828.638177	0.986477
828.955439	0.989283
829.272656	0.990732
829.589830	0.991400
829.906960	0.992267
830.224046	0.992844
830.541088	0.993446
830.858086	0.993962
831.175041	0.995756
831.491952	0.994601
831.808819	0.993938
832.125642	0.994250
832.442421	0.994739
832.759157	0.993627
833.075849	0.990305
833.392497	0.987665
833.709101	0.984136
834.025662	0.983420
834.342179	0.984351
834.658653	0.987755
834.975083	0.989498
835.291469	0.991495
835.607811	0.992950
835.924110	0.992710
836.240366	0.996021
836.556578	0.995409
836.872746	0.996406
837.188871	0.996122
837.504952	0.995855
837.820990	0.997620
838.136984	0.995963
838.452935	0.996899
838.768842	0.996960
839.084706	0.997616
839.400526	0.996191
839.716303	0.993550
840.032037	0.992068
840.347727	0.990815
840.663373	0.992911
840.978977	0.994424
841.294537	0.995896
841.610054	0.995138
841.925527	0.996634
842.240957	0.997274
842.556344	0.997612
842.871687	0.997561
843.186987	0.998426
843.502244	0.999304
843.817458	0.998252
844.132629	0.998294
844.447756	0.999578
844.762840	0.999231
845.077881	1.000469
845.392879	0.997908
845.707833	0.998766
846.022745	0.999229
846.337613	0.999578
846.652438	0.998634
846.967221	0.999579
847.281960	0.999517
847.596656	1.000615
847.911309	1.000418
848.225919	0.998571
848.540485	1.000199
848.855009	1.001036
849.169490	0.999785
849.483928	0.999096
849.798323	0.999223
850.112675	1.000516
850.426984	1.000689
850.741251	1.000012
851.055474	0.999830
851.369654	0.999955
851.683792	0.998750
851.997887	0.999358
852.311938	0.999870
852.625947	0.999700
852.939914	0.998755
853.253837	1.000479
853.567718	0.999870
853.881555	0.999064
854.195350	0.999777
854.509103	0.999688
854.822812	1.000382
855.136479	0.999059
855.450103	0.999825
855.763685	0.999492
856.077224	1.000346
856.390720	0.998611
856.704173	1.001520
857.017584	0.999146
857.330953	0.998514
857.644278	0.998909
857.957561	0.999239
858.270802	0.999756
858.584000	0.998933
858.897155	1.000023
859.210268	0.999413
859.523339	1.000390
859.836367	1.000477
860.149352	0.999090
860.462295	0.999242
860.775195	1.000458
861.088054	0.998755
861.400869	0.999879
861.713642	0.999225
862.026373	0.999845
862.339062	1.000383
862.651708	0.998779
862.964312	0.999472
863.276873	0.998680
863.589392	0.998623
863.901869	0.999336
864.214303	0.999272
864.526696	0.999306
864.839045	0.998775
865.151353	0.998531
865.463619	0.998584
865.775842	0.999584
866.088023	0.999807
866.400162	0.999503
866.712258	1.000822
867.024313	0.999594
867.336325	0.999801
867.648296	0.999191
867.960224	0.999180
868.272110	0.999854
868.583954	0.998160
868.895755	0.999668
869.207515	0.998346
869.519233	0.999816
869.830909	0.998136
870.142542	0.997155
870.454134	0.998884
870.765684	0.998596
871.077191	0.999287
871.388657	0.998139
871.700081	0.997980
872.011463	1.000002
872.322803	0.998837
872.634101	0.998313
872.945357	0.997145
873.256571	0.999037
873.567744	0.998757
873.878874	0.999216
874.189963	0.997618
874.501010	0.999519
874.812015	0.998143
875.122979	0.998513
875.433900	0.997262
875.744780	0.998547
876.055618	0.997090
876.366415	0.997780
876.677169	0.997047
876.987882	0.998342
877.298554	0.998589
877.609183	0.996340
877.919771	0.997730
878.230317	0.997980
878.540822	0.995470
878.851285	0.995697
879.161707	0.995855
879.472087	0.996476
879.782425	0.992214
880.092722	0.990255
880.402977	0.986994
880.713191	0.981658
881.023363	0.974677
881.333494	0.970952
881.643583	0.971674
881.953631	0.971170
882.263637	0.971018
882.573602	0.973476
882.883526	0.976080
883.193408	0.979701
883.503248	0.982119
883.813048	0.982925
884.122806	0.984985
884.432522	0.986306
884.742197	0.990243
885.051831	0.990047
885.361424	0.991966
885.670975	0.993900
885.980485	0.992859
886.289954	0.994442
886.599382	0.994130
886.908768	0.995359
887.218113	0.996013
887.527417	0.996692
887.836680	0.996862
888.145901	0.997267
888.455082	0.998435
888.764221	0.996976
889.073319	0.996964
889.382376	0.998550
889.691392	0.996630
890.000366	0.997689
890.309300	0.997395
890.618193	0.998508
890.927044	0.996463
891.235855	0.996211
891.544625	0.997084
891.853353	0.996821
892.162041	0.996851
892.470687	0.997101
892.779293	0.995987
893.087858	0.993347
893.396381	0.994120
893.704864	0.992592
894.013306	0.992368
894.321707	0.989798
894.630068	0.987231
894.938387	0.986852
895.246665	0.986591
895.554903	0.986727
895.863100	0.990008
896.171256	0.991691
896.479371	0.991288
896.787446	0.992288
897.095480	0.994913
897.403473	0.994616
897.711425	0.994707
898.019336	0.995272
898.327207	0.996680
898.635038	0.995026
898.942827	0.996553
899.250576	0.996457
899.558284	0.996441
899.865952	0.996635
900.173579	0.997526
900.481165	0.997591
900.788711	0.996472
901.096216	0.997523
901.403681	0.997786
901.711105	0.997799
902.018489	0.996508
902.325832	0.997851
902.633135	0.998500
902.940397	0.997528
903.247619	0.996082
903.554800	0.993542
903.861941	0.990132
904.169041	0.986415
904.476101	0.983680
904.783121	0.982910
905.090100	0.985232
905.397039	0.987318
905.703938	0.989369
906.010796	0.991708
906.317614	0.991995
906.624391	0.994640
906.931129	0.995445
907.237826	0.997293
907.544483	0.997119
907.851099	0.997776
908.157675	0.998193
908.464211	0.998426
908.770707	0.997932
909.077163	0.998057
909.383578	0.999132
909.689954	0.998638
909.996289	0.999179
910.302584	0.999462
910.608839	0.999444
910.915054	0.999678
911.221229	1.000242
911.527363	0.998770
911.833458	0.999764
912.139513	0.998946
912.445527	0.998541
912.751502	0.998397
913.057436	0.998033
913.363331	0.999049
913.669186	0.998711
913.975000	0.998135
914.280775	0.996276
914.586510	0.995675
914.892205	0.993552
915.197859	0.992233
915.503475	0.990823
915.809050	0.986866
916.114585	0.983315
916.420081	0.985079
916.725536	0.985403
917.030952	0.986283
917.336328	0.987673
917.641665	0.986662
917.946961	0.988174
918.252218	0.991376
918.557435	0.992258
918.862612	0.993982
919.167750	0.994910
919.472848	0.994887
919.777906	0.996696
920.082925	0.996485
920.387904	0.996760
920.692843	0.997483
920.997743	0.996459
921.302603	0.997622
921.607423	0.998068
921.912204	0.997895
922.216946	0.998906
922.521647	0.999490
922.826310	0.998476
923.130932	0.999700
923.435516	0.998796
923.740059	0.998403
924.044564	0.998467
924.349028	0.998744
924.653454	0.999239
924.957840	0.998994
925.262186	0.998950
925.566493	0.999152
925.870761	1.000250
926.174989	0.999233
926.479178	0.999780
926.783328	0.999385
927.087438	0.999617
927.391509	1.000685
927.695541	0.999982
927.999533	1.000477
928.303486	0.999746
928.607400	1.000649
928.911275	1.000494
929.215110	1.001107
929.518906	1.000726
929.822663	1.002725
930.126381	1.001999
930.430060	0.999910
930.733699	1.000233
931.037299	1.000122
931.340861	1.001767
931.644383	1.000386
931.947866	0.999628
932.251309	1.001422
932.554714	0.999059
932.858080	1.000642
933.161407	0.999889
933.464694	1.001345
933.767943	1.000218
934.071153	1.001580
934.374323	1.001739
934.677455	0.999861
934.980548	1.000439
935.283602	1.001173
935.586617	0.999539
935.889593	1.002010
936.192530	1.001071
936.495428	1.000709
936.798287	1.000253
937.101108	1.000338
937.403890	1.000491
937.706632	1.001573
938.009336	1.000199
938.312002	0.999068
938.614628	0.999495
938.917216	0.999030
939.219765	0.998966
939.522275	1.000012
939.824747	0.999039
940.127179	0.998926
940.429573	1.000159
940.731929	0.999308
941.034246	0.999190
941.336524	0.999204
941.638763	0.999342
941.940964	0.998902
942.243126	0.999175
942.545250	1.000455
942.847335	1.001052
943.149381	1.000794
943.451389	0.998952
943.753359	0.999922
944.055290	1.000551
944.357182	1.000708
944.659036	1.000641
944.960851	1.001277
945.262628	1.001410
945.564367	1.000918
945.866067	0.999495
946.167729	1.001038
946.469352	1.000005
946.770937	0.998197
947.072484	1.002003
947.373992	0.999989
947.675462	1.000271
947.976893	0.999503
948.278286	1.002433
948.579641	1.001635
948.880958	1.000793
949.182236	1.001381
949.483476	1.001534
949.784678	1.000759
950.085841	1.000863
950.386967	0.999137
950.688054	1.000282
950.989103	0.999475
951.290114	0.999402
951.591087	1.000649
951.892021	0.999541
952.192917	0.999971
952.493776	1.000590
952.794596	1.000595
953.095378	1.000822
953.396122	1.000505
953.696828	1.000188
953.997496	1.000908
954.298126	1.002055
954.598718	1.000408
954.899272	1.001254
955.199788	1.000017
955.500266	1.002406
955.800706	1.000887
956.101108	0.999942
956.401472	1.002852
956.701798	1.001646
957.002087	1.001784
957.302337	0.998884
957.602550	1.001336
957.902724	0.999748
958.202861	1.001603
958.502960	1.001265
958.803022	1.001534
959.103045	1.000997
959.403031	1.002173
959.702979	1.002104
960.002889	1.001241
960.302762	1.000889
960.602596	1.002232
960.902393	1.001677
961.202153	1.002304
961.501875	1.002786
961.801559	1.000864
962.101205	1.000395
962.400814	1.002289
962.700385	1.001580
962.999918	1.002776
963.299414	1.001072
963.598873	1.001726
963.898293	1.001816
964.197677	1.002448
964.497022	1.001585
964.796331	1.002079
965.095601	1.003013
965.394835	1.001531
965.694030	1.002390
965.993189	1.001438
966.292309	1.003035
966.591393	1.001209
966.890439	1.001421
967.189447	0.999979
967.488419	1.001516
967.787353	1.001604
968.086249	1.002189
968.385108	1.002029
968.683930	1.002821
968.982714	1.002578
969.281462	1.002361
969.580172	1.001870
969.878844	1.002617
970.177480	1.001728
970.476078	1.003336
970.774639	1.002567
971.073162	1.002307
971.371649	1.002243
971.670098	1.002239
971.968510	1.002815
972.266885	1.001388
972.565223	1.002304
972.863524	1.000557
973.161788	1.001813
973.460014	1.003090
973.758204	1.001554
974.056356	1.002413
974.354471	1.001590
974.652550	1.002238
974.950591	1.002427
975.248595	1.000758
975.546563	1.002200
975.844493	1.003036
976.142386	1.001086
976.440243	1.002150
976.738062	1.002250
977.035845	1.001964
977.333590	1.002458
977.631299	1.001820
977.928971	1.001540
978.226606	1.002327
978.524204	1.000581
978.821765	1.002952
979.119290	1.002296
979.416777	1.002275
979.714228	1.002429
980.011642	1.003191
980.309020	1.001436
980.606360	1.001555
980.903664	1.001777
981.200931	1.001948
981.498162	1.001081
981.795356	1.002252
982.092513	1.002055
982.389633	1.002259
982.686717	1.000745
982.983764	1.001206
983.280775	1.001187
983.577749	1.001945
983.874686	1.000674
984.171587	1.001921
984.468451	1.001936
984.765279	1.002044
985.062070	1.002373
985.358824	1.002264
985.655543	1.003221
985.952224	1.002599
986.248869	1.002249
986.545478	1.003967
986.842050	1.001937
987.138586	1.001287
987.435086	1.002891
987.731549	1.003749
988.027975	1.003240
988.324366	1.001706
988.620719	1.002558
988.917037	1.002192
989.213318	1.002799
989.509563	1.004011
989.805772	1.003557
990.101944	1.002718
990.398080	1.002211
990.694180	1.004309
990.990244	1.002309
991.286271	1.002369
991.582262	1.003721
991.878217	1.002554
992.174136	1.003065
992.470019	1.002804
992.765865	1.004614
993.061676	1.003238
993.357450	1.003234
993.653188	1.004197
993.948890	1.003142
994.244556	1.001507
994.540186	1.002603
994.835780	1.001836
995.131337	1.003683
995.426859	1.001795
995.722345	1.001914
996.017795	1.001378
996.313208	1.003370
996.608586	1.002942
996.903928	1.002260
997.199234	1.002479
997.494504	1.002478
997.789738	1.000617
998.084936	1.002518
998.380099	1.002789
998.675225	1.003374
998.970316	1.003386
999.265371	1.002659
999.560390	1.001326
999.855373	1.002690
1000.150320	1.002087
1000.445232	1.003210
1000.740108	1.002764
1001.034948	1.003696
1001.329752	1.003684
1001.624521	1.001690
1001.919254	1.002929
1002.213951	1.003016
1002.508613	1.002754
1002.803239	1.002737
1003.097829	1.002763
1003.392384	1.002991
1003.686903	1.002872
1003.981386	1.003101
1004.275834	1.004352
1004.570246	1.002001
1004.864623	1.003921
1005.158964	1.002685
1005.453270	1.002449
1005.747540	1.002460
1006.041775	1.004369
1006.335974	1.003313
1006.630138	1.002777
1006.924266	1.002838
1007.218359	1.001213
1007.512416	1.003926
1007.806438	1.002111
1008.100425	1.002567
1008.394376	1.002784
1008.688292	1.002996
1008.982172	1.002455
1009.276017	1.003801
1009.569827	1.004016
1009.863602	1.001633
1010.157341	1.003737
1010.451045	1.003233
1010.744714	1.003932
1011.038347	1.003262
1011.331945	1.003565
1011.625508	1.003029
1011.919036	1.002129
1012.212528	1.003776
1012.505986	1.002968
1012.799408	1.003421
1013.092795	1.003549
1013.386147	1.003049
1013.679464	1.003493
1013.972745	1.002807
1014.265992	1.002601
1014.559204	1.003489
1014.852380	1.003839
1015.145521	1.002012
1015.438628	1.003319
1015.731699	1.003093
1016.024736	1.003620
1016.317737	1.002257
1016.610703	1.003713
1016.903635	1.002852
1017.196531	1.003048
1017.489393	1.003299
1017.782219	1.002743
1018.075011	1.002724
1018.367768	1.002810
1018.660490	1.003245
1018.953177	1.003245
1019.245829	1.003245
