Dividing Wavelength (nm)	Counts (n)	Blue Motor Position (mm): 14.300000	Red Motor Position (mm): 0.000000	
326.493990	1.002212
326.888308	1.002212
327.282561	1.002212
327.676750	1.003460
328.070874	1.003856
328.464933	1.002742
328.858929	1.002734
329.252859	1.002260
329.646726	1.002820
330.040528	1.002924
330.434265	1.002641
330.827938	1.001718
331.221547	1.003456
331.615091	1.003953
332.008571	1.003519
332.401986	1.002413
332.795338	1.002043
333.188625	1.004369
333.581847	1.002827
333.975006	1.003155
334.368100	1.002171
334.761129	1.001854
335.154095	1.002508
335.546996	1.002331
335.939833	0.999186
336.332606	0.999025
336.725315	0.997968
337.117960	0.998398
337.510540	0.997593
337.903056	0.998929
338.295508	0.999752
338.687896	0.997869
339.080220	0.999695
339.472480	0.998215
339.864676	0.999279
340.256807	0.998318
340.648875	0.999548
341.040879	0.998654
341.432818	0.998390
341.824694	0.997552
342.216506	0.999734
342.608253	0.998108
342.999937	0.997803
343.391557	0.998440
343.783113	0.999589
344.174605	0.999502
344.566033	0.997780
344.957397	0.999380
345.348697	0.999968
345.739934	0.999130
346.131106	0.998398
346.522215	0.997682
346.913260	0.998067
347.304241	0.997574
347.695159	0.999796
348.086012	0.997848
348.476802	0.999084
348.867528	0.998589
349.258191	0.998601
349.648789	0.997347
350.039324	0.998415
350.429796	0.998308
350.820203	0.997625
351.210548	0.997809
351.600828	0.998363
351.991045	0.998051
352.381198	0.999140
352.771288	0.998222
353.161314	0.998805
353.551276	0.996779
353.941175	0.996618
354.331010	0.998970
354.720782	0.998514
355.110490	0.998569
355.500135	0.997829
355.889717	0.996990
356.279235	0.996927
356.668689	0.997868
357.058080	0.997889
357.447408	0.997193
357.836672	0.997201
358.225873	0.997391
358.615010	0.997310
359.004084	0.996583
359.393095	0.997657
359.782043	0.996647
360.170927	0.997954
360.559748	0.997324
360.948505	0.998186
361.337199	0.994792
361.725830	0.997993
362.114398	0.997394
362.502903	0.995675
362.891344	0.997081
363.279722	0.997005
363.668037	0.997713
364.056289	0.997094
364.444478	0.998783
364.832603	0.995959
365.220665	0.996541
365.608665	0.995978
365.996601	0.995454
366.384474	0.994827
366.772284	0.996129
367.160031	0.994060
367.547715	0.994488
367.935336	0.994219
368.322893	0.992540
368.710388	0.992352
369.097820	0.990223
369.485189	0.987602
369.872495	0.987124
370.259738	0.983585
370.646918	0.981609
371.034035	0.978595
371.421090	0.975686
371.808081	0.970522
372.195010	0.967625
372.581875	0.963100
372.968678	0.958375
373.355418	0.955772
373.742096	0.947622
374.128710	0.943745
374.515262	0.939231
374.901751	0.933421
375.288177	0.928363
375.674540	0.922353
376.060841	0.915283
376.447079	0.908466
376.833254	0.902433
377.219367	0.897259
377.605417	0.885530
377.991404	0.882319
378.377329	0.875822
378.763191	0.869536
379.148991	0.860846
379.534727	0.853508
379.920402	0.845381
380.306013	0.841975
380.691563	0.828848
381.077049	0.822344
381.462474	0.818700
381.847835	0.807588
382.233134	0.802608
382.618371	0.802538
383.003545	0.785090
383.388657	0.783209
383.773706	0.775784
384.158693	0.771520
384.543618	0.766426
384.928480	0.756906
385.313280	0.746955
385.698017	0.747725
386.082692	0.735328
386.467305	0.733615
386.851856	0.727990
387.236344	0.723014
387.620770	0.717627
388.005133	0.710836
388.389435	0.705795
388.773674	0.703668
389.157851	0.694859
389.541965	0.692997
389.926018	0.699888
390.310008	0.685966
390.693936	0.683024
391.077802	0.675606
391.461606	0.677367
391.845348	0.666619
392.229027	0.665554
392.612645	0.664153
392.996200	0.650212
393.379694	0.644820
393.763125	0.633685
394.146494	0.638596
394.529801	0.629269
394.913047	0.621383
395.296230	0.626807
395.679351	0.618765
396.062410	0.615265
396.445408	0.617836
396.828343	0.613409
397.211217	0.608575
397.594028	0.621300
397.976778	0.611575
398.359466	0.607560
398.742092	0.602619
399.124656	0.614801
399.507158	0.602588
399.889598	0.600376
400.271977	0.591580
400.654294	0.595534
401.036549	0.594499
401.418742	0.598494
401.800874	0.584611
402.182944	0.580756
402.564952	0.572625
402.946898	0.574721
403.328783	0.575619
403.710606	0.586487
404.092367	0.561808
404.474067	0.566944
404.855705	0.565189
405.237282	0.574288
405.618797	0.560906
406.000250	0.556806
406.381642	0.546234
406.762972	0.551958
407.144240	0.549865
407.525447	0.549334
407.906593	0.542977
408.287677	0.537666
408.668700	0.547106
409.049661	0.540528
409.430560	0.535146
409.811399	0.544133
410.192176	0.526444
410.572891	0.534210
410.953545	0.520832
411.334138	0.535394
411.714669	0.527474
412.095139	0.539359
412.475547	0.523483
412.855894	0.525649
413.236180	0.524425
413.616405	0.530164
413.996568	0.520379
414.376670	0.526530
414.756711	0.531787
415.136691	0.528138
415.516609	0.519846
415.896466	0.516015
416.276262	0.512157
416.655997	0.513754
417.035670	0.494909
417.415283	0.487499
417.794834	0.491950
418.174324	0.497353
418.553753	0.506454
418.933121	0.488394
419.312428	0.482413
419.691674	0.488379
420.070859	0.476395
420.449983	0.483725
420.829045	0.473540
421.208047	0.482607
421.586988	0.475569
421.965867	0.474403
422.344686	0.462853
422.723444	0.476022
423.102141	0.492864
423.480777	0.465867
423.859352	0.485735
424.237866	0.464121
424.616319	0.464284
424.994712	0.455526
425.373044	0.465751
425.751314	0.453883
426.129524	0.470522
426.507673	0.453689
426.885762	0.447487
427.263789	0.452979
427.641756	0.462136
428.019662	0.452595
428.397508	0.452057
428.775292	0.456389
429.153016	0.447598
429.530679	0.454364
429.908282	0.447680
430.285824	0.458120
430.663305	0.436343
431.040726	0.457351
431.418086	0.457186
431.795385	0.448622
432.172624	0.448018
432.549802	0.448805
432.926920	0.447215
433.303977	0.446766
433.680974	0.443836
434.057910	0.442543
434.434786	0.441598
434.811601	0.444319
435.188355	0.427054
435.565050	0.436485
435.941683	0.437430
436.318257	0.421520
436.694770	0.422415
437.071222	0.420705
437.447614	0.424683
437.823946	0.431661
438.200218	0.420605
438.576429	0.430300
438.952580	0.423571
439.328670	0.420121
439.704700	0.426527
440.080670	0.427967
440.456580	0.409089
440.832429	0.417061
441.208218	0.428044
441.583947	0.417045
441.959616	0.416309
442.335224	0.421738
442.710773	0.412678
443.086261	0.410631
443.461689	0.424367
443.837057	0.414279
444.212365	0.404560
444.587612	0.411610
444.962800	0.401680
445.337927	0.402917
445.712995	0.429076
446.088002	0.390660
446.462949	0.401262
446.837837	0.406328
447.212664	0.394777
447.587431	0.386507
447.962139	0.356861
448.336786	0.316001
448.711374	0.326755
449.085901	0.371224
449.460369	0.375298
449.834776	0.378538
450.209124	0.357709
450.583412	0.350385
450.957640	0.343494
451.331808	0.354939
451.705917	0.378404
452.079965	0.383109
452.453954	0.370782
452.827883	0.377854
453.201752	0.372393
453.575562	0.384190
453.949311	0.372719
454.323001	0.378663
454.696632	0.374380
455.070202	0.366805
455.443713	0.358897
455.817164	0.353759
456.190556	0.349695
456.563888	0.346272
456.937160	0.343261
457.310373	0.360817
457.683526	0.359857
458.056619	0.365974
458.429653	0.366189
458.802628	0.369886
459.175542	0.364070
459.548398	0.346205
459.921194	0.338719
460.293930	0.339332
460.666607	0.316588
461.039224	0.304783
461.411782	0.300704
461.784280	0.299956
462.156719	0.303711
462.529099	0.308306
462.901419	0.324485
463.273680	0.328944
463.645882	0.328468
464.018024	0.334333
464.390106	0.326631
464.762130	0.311363
465.134094	0.294478
465.505999	0.263703
465.877845	0.233757
466.249631	0.220777
466.621358	0.228154
466.993026	0.242216
467.364634	0.248219
467.736184	0.257141
468.107674	0.266046
468.479105	0.265272
468.850477	0.271930
469.221790	0.278694
469.593043	0.288698
469.964238	0.293536
470.335373	0.293043
470.706449	0.291210
471.077467	0.291488
471.448425	0.253856
471.819324	0.229313
472.190164	0.228921
472.560945	0.257632
472.931667	0.280473
473.302330	0.284268
473.672934	0.296162
474.043479	0.284208
474.413965	0.286196
474.784393	0.289708
475.154761	0.284768
475.525070	0.281730
475.895321	0.287862
476.265513	0.281807
476.635645	0.277115
477.005719	0.276888
477.375734	0.273243
477.745691	0.266850
478.115588	0.262929
478.485427	0.256709
478.855207	0.243505
479.224928	0.225946
479.594591	0.213880
479.964194	0.217441
480.333739	0.218657
480.703226	0.219990
481.072653	0.218515
481.442022	0.214137
481.811333	0.210771
482.180584	0.214271
482.549777	0.219516
482.918912	0.223014
483.287988	0.222836
483.657005	0.222369
484.025964	0.228821
484.394864	0.225774
484.763706	0.226900
485.132489	0.231827
485.501213	0.232389
485.869879	0.230912
486.238487	0.234027
486.607036	0.231987
486.975527	0.236583
487.343959	0.232342
487.712333	0.231386
488.080648	0.232828
488.448905	0.231936
488.817104	0.232957
489.185244	0.227693
489.553326	0.224640
489.921350	0.214459
490.289315	0.196887
490.657222	0.191932
491.025070	0.193279
491.392861	0.195431
491.760593	0.200905
492.128267	0.206798
492.495883	0.212105
492.863440	0.218405
493.230939	0.224901
493.598380	0.226391
493.965763	0.228429
494.333088	0.230576
494.700354	0.232217
495.067563	0.231184
495.434713	0.234688
495.801805	0.232235
496.168839	0.233775
496.535815	0.235454
496.902733	0.235322
497.269593	0.236791
497.636395	0.234532
498.003139	0.234809
498.369825	0.237846
498.736453	0.234412
499.103023	0.235886
499.469535	0.235374
499.835989	0.235430
500.202385	0.236087
500.568723	0.239532
500.935003	0.234880
501.301226	0.238938
501.667390	0.233377
502.033497	0.231212
502.399546	0.234080
502.765537	0.236450
503.131470	0.234965
503.497345	0.230955
503.863163	0.239451
504.228923	0.232658
504.594625	0.231365
504.960269	0.236790
505.325856	0.232377
505.691385	0.236564
506.056856	0.233276
506.422270	0.232900
506.787625	0.235028
507.152924	0.232724
507.518164	0.233095
507.883347	0.234857
508.248472	0.236644
508.613540	0.231545
508.978550	0.233977
509.343503	0.234279
509.708398	0.232273
510.073236	0.229963
510.438016	0.229479
510.802738	0.230482
511.167403	0.229680
511.532010	0.231931
511.896561	0.227229
512.261053	0.225693
512.625488	0.227977
512.989866	0.228231
513.354186	0.228714
513.718449	0.230447
514.082655	0.227153
514.446803	0.229229
514.810894	0.226937
515.174927	0.229710
515.538904	0.229190
515.902822	0.226013
516.266684	0.228260
516.630488	0.229994
516.994235	0.228629
517.357925	0.227444
517.721558	0.225484
518.085133	0.225174
518.448651	0.224982
518.812112	0.227338
519.175516	0.227023
519.538863	0.224657
519.902152	0.226769
520.265385	0.223387
520.628560	0.224805
520.991678	0.225348
521.354739	0.224449
521.717743	0.225662
522.080690	0.226047
522.443580	0.223147
522.806413	0.224214
523.169189	0.223678
523.531908	0.222515
523.894569	0.226004
524.257174	0.226071
524.619722	0.223846
524.982213	0.225094
525.344647	0.223967
525.707025	0.224508
526.069345	0.223146
526.431608	0.224761
526.793815	0.222765
527.155964	0.226824
527.518057	0.225962
527.880093	0.227086
528.242072	0.225364
528.603995	0.227443
528.965860	0.228922
529.327669	0.228027
529.689421	0.228765
530.051117	0.229922
530.412755	0.227489
530.774337	0.229859
531.135862	0.230552
531.497331	0.229724
531.858743	0.232747
532.220098	0.229305
532.581396	0.231933
532.942638	0.232496
533.303824	0.233728
533.664953	0.233336
534.026025	0.235394
534.387040	0.233181
534.747999	0.232645
535.108902	0.231608
535.469748	0.236872
535.830537	0.234617
536.191270	0.235335
536.551947	0.234484
536.912567	0.234699
537.273131	0.236787
537.633638	0.236830
537.994089	0.237373
538.354483	0.238572
538.714821	0.235602
539.075103	0.235475
539.435328	0.236144
539.795497	0.240144
540.155609	0.236678
540.515665	0.235044
540.875665	0.240407
541.235609	0.238876
541.595496	0.239041
541.955328	0.235715
542.315102	0.238471
542.674821	0.239838
543.034483	0.239939
543.394090	0.239306
543.753640	0.241067
544.113134	0.236492
544.472571	0.239955
544.831953	0.236455
545.191278	0.240998
545.550548	0.240301
545.909761	0.237369
546.268918	0.238224
546.628019	0.236834
546.987064	0.239362
547.346053	0.241348
547.704986	0.239278
548.063863	0.239492
548.422684	0.240235
548.781449	0.241951
549.140158	0.239650
549.498811	0.242562
549.857408	0.245794
550.215949	0.240557
550.574434	0.244012
550.932864	0.242585
551.291237	0.240460
551.649555	0.242860
552.007817	0.242390
552.366022	0.243625
552.724173	0.243651
553.082267	0.244101
553.440305	0.241462
553.798288	0.245686
554.156215	0.242921
554.514086	0.243741
554.871902	0.247260
555.229661	0.246414
555.587365	0.247456
555.945014	0.250229
556.302606	0.247680
556.660143	0.250293
557.017625	0.247095
557.375050	0.249496
557.732421	0.246989
558.089735	0.249289
558.446994	0.249433
558.804197	0.249080
559.161345	0.249423
559.518437	0.252917
559.875474	0.251397
560.232455	0.251204
560.589381	0.252490
560.946251	0.253452
561.303065	0.250831
561.659825	0.252856
562.016528	0.254929
562.373177	0.257841
562.729770	0.255974
563.086307	0.258063
563.442789	0.256740
563.799216	0.259990
564.155587	0.259463
564.511904	0.261003
564.868164	0.261596
565.224370	0.261796
565.580520	0.264607
565.936615	0.264579
566.292654	0.268412
566.648638	0.265819
567.004567	0.267609
567.360441	0.268687
567.716260	0.271725
568.072023	0.269794
568.427732	0.271634
568.783385	0.274315
569.138982	0.273769
569.494525	0.274048
569.850013	0.277560
570.205445	0.277303
570.560823	0.280408
570.916145	0.283231
571.271412	0.282714
571.626625	0.284902
571.981782	0.286074
572.336884	0.288230
572.691931	0.288700
573.046923	0.291418
573.401860	0.293548
573.756743	0.296410
574.111570	0.296219
574.466342	0.297852
574.821059	0.297693
575.175722	0.302185
575.530330	0.303264
575.884882	0.304139
576.239380	0.307767
576.593823	0.308923
576.948211	0.310151
577.302544	0.313809
577.656823	0.315380
578.011047	0.316286
578.365216	0.319218
578.719330	0.321841
579.073389	0.323595
579.427394	0.325869
579.781344	0.328025
580.135239	0.330725
580.489080	0.331859
580.842866	0.336872
581.196597	0.338217
581.550273	0.338969
581.903895	0.342070
582.257463	0.341109
582.610975	0.347008
582.964434	0.347782
583.317837	0.352596
583.671186	0.354125
584.024481	0.356185
584.377721	0.359867
584.730906	0.362498
585.084037	0.363941
585.437113	0.367062
585.790135	0.368743
586.143103	0.373576
586.496016	0.376062
586.848874	0.376731
587.201679	0.379042
587.554428	0.384359
587.907124	0.385555
588.259765	0.388147
588.612352	0.391494
588.964884	0.396582
589.317362	0.398400
589.669786	0.400579
590.022155	0.400988
590.374470	0.403145
590.726731	0.406074
591.078937	0.413068
591.431090	0.412915
591.783188	0.417746
592.135232	0.421341
592.487222	0.422106
592.839157	0.423689
593.191038	0.427641
593.542866	0.431376
593.894639	0.436529
594.246358	0.437536
594.598022	0.440026
594.949633	0.445062
595.301190	0.447930
595.652692	0.449910
596.004141	0.449634
596.355535	0.457139
596.706876	0.460829
597.058162	0.465898
597.409395	0.465815
597.760573	0.466891
598.111698	0.471549
598.462768	0.474442
598.813785	0.477650
599.164748	0.482218
599.515657	0.484030
599.866511	0.491340
600.217312	0.488604
600.568060	0.495720
600.918753	0.495266
601.269392	0.498577
601.619978	0.503940
601.970510	0.504886
602.320988	0.507602
602.671412	0.509034
603.021783	0.513050
603.372100	0.516635
603.722363	0.519929
604.072572	0.522556
604.422728	0.524400
604.772830	0.529188
605.122878	0.532280
605.472872	0.534433
605.822813	0.536642
606.172701	0.540910
606.522534	0.541848
606.872314	0.545032
607.222041	0.548989
607.571714	0.550329
607.921333	0.553920
608.270899	0.557032
608.620411	0.556991
608.969870	0.563626
609.319276	0.565754
609.668627	0.569219
610.017926	0.569862
610.367171	0.573096
610.716362	0.575451
611.065500	0.578754
611.414585	0.581571
611.763616	0.583419
612.112594	0.587390
612.461518	0.590117
612.810389	0.591499
613.159207	0.596172
613.507971	0.600259
613.856682	0.600938
614.205340	0.603351
614.553945	0.605524
614.902496	0.610984
615.250994	0.611673
615.599439	0.615171
615.947830	0.617757
616.296169	0.621345
616.644454	0.624566
616.992686	0.626748
617.340864	0.629050
617.688990	0.633346
618.037063	0.634116
618.385082	0.638037
618.733048	0.639412
619.080961	0.642866
619.428821	0.645964
619.776628	0.648725
620.124382	0.653333
620.472083	0.656166
620.819731	0.658458
621.167326	0.663441
621.514868	0.665619
621.862357	0.670152
622.209793	0.672284
622.557176	0.676678
622.904506	0.680196
623.251783	0.683720
623.599007	0.688166
623.946179	0.690072
624.293297	0.694903
624.640363	0.698930
624.987376	0.702133
625.334336	0.704932
625.681243	0.709850
626.028097	0.712586
626.374899	0.715466
626.721647	0.719549
627.068343	0.722531
627.414987	0.725331
627.761577	0.729443
628.108115	0.729835
628.454600	0.735584
628.801032	0.737246
629.147412	0.739524
629.493739	0.743592
629.840014	0.746665
630.186236	0.747676
630.532405	0.752112
630.878521	0.753208
631.224585	0.757411
631.570597	0.760263
631.916556	0.762755
632.262462	0.763619
632.608316	0.768786
632.954117	0.770112
633.299866	0.772410
633.645562	0.775799
633.991206	0.779835
634.336797	0.782658
634.682336	0.786455
635.027823	0.789774
635.373257	0.791049
635.718639	0.795551
636.063968	0.796969
636.409245	0.800588
636.754470	0.803291
637.099642	0.806257
637.444762	0.810621
637.789829	0.812034
638.134845	0.814516
638.479808	0.817775
638.824719	0.819348
639.169577	0.822106
639.514383	0.824730
639.859137	0.827770
640.203839	0.828363
640.548489	0.831549
640.893086	0.832946
641.237632	0.836169
641.582125	0.838167
641.926566	0.840895
642.270955	0.841666
642.615292	0.844216
642.959576	0.845514
643.303809	0.847764
643.647990	0.848743
643.992118	0.850715
644.336195	0.853073
644.680219	0.855964
645.024192	0.856310
645.368112	0.855501
645.711981	0.856896
646.055797	0.857988
646.399562	0.858751
646.743274	0.860521
647.086935	0.860030
647.430544	0.860591
647.774101	0.862224
648.117606	0.864604
648.461059	0.866243
648.804460	0.868304
649.147810	0.870559
649.491108	0.873600
649.834354	0.876019
650.177548	0.877877
650.520690	0.880298
650.863781	0.882192
651.206820	0.884067
651.549807	0.887039
651.892742	0.889541
652.235626	0.891551
652.578458	0.892301
652.921238	0.895677
653.263967	0.896211
653.606644	0.897304
653.949269	0.899480
654.291843	0.900362
654.634365	0.901951
654.976836	0.903235
655.319255	0.904527
655.661622	0.906143
656.003938	0.906917
656.346203	0.907698
656.688416	0.910681
657.030577	0.911367
657.372687	0.912524
657.714746	0.913363
658.056753	0.914368
658.398708	0.916001
658.740612	0.918041
659.082465	0.918283
659.424266	0.918720
659.766016	0.920288
660.107715	0.921815
660.449362	0.921916
660.790958	0.923386
661.132503	0.925257
661.473996	0.925470
661.815438	0.927070
662.156829	0.927976
662.498168	0.929444
662.839456	0.928862
663.180693	0.931579
663.521879	0.931676
663.863013	0.933004
664.204097	0.933172
664.545129	0.933699
664.886110	0.935602
665.227040	0.935368
665.567918	0.935318
665.908746	0.936327
666.249522	0.936789
666.590248	0.937397
666.930922	0.938093
667.271545	0.939184
667.612118	0.940427
667.952639	0.940493
668.293109	0.941789
668.633528	0.941776
668.973896	0.944194
669.314213	0.943911
669.654480	0.946131
669.994695	0.945295
670.334859	0.946600
670.674973	0.948078
671.015035	0.948601
671.355047	0.949336
671.695008	0.950407
672.034918	0.950731
672.374777	0.950767
672.714585	0.951482
673.054342	0.953201
673.394049	0.952350
673.733705	0.953281
674.073310	0.954610
674.412864	0.953858
674.752368	0.954721
675.091820	0.956671
675.431223	0.957497
675.770574	0.957355
676.109875	0.959298
676.449125	0.958954
676.788324	0.959273
677.127473	0.961396
677.466571	0.961576
677.805619	0.962359
678.144616	0.963566
678.483562	0.963535
678.822458	0.964625
679.161303	0.963162
679.500098	0.965543
679.838842	0.965857
680.177535	0.966118
680.516179	0.965880
680.854771	0.966291
681.193314	0.966290
681.531805	0.966045
681.870247	0.965461
682.208638	0.965105
682.546978	0.965313
682.885268	0.966911
683.223508	0.967125
683.561697	0.967698
683.899836	0.968658
684.237925	0.968852
684.575963	0.969221
684.913951	0.969739
685.251889	0.969485
685.589776	0.969985
685.927614	0.970391
686.265401	0.970090
686.603137	0.970503
686.940824	0.970186
687.278460	0.970285
687.616046	0.970602
687.953582	0.970250
688.291068	0.970333
688.628504	0.970430
688.965889	0.970065
689.303224	0.969430
689.640510	0.971464
689.977745	0.971701
690.314930	0.972440
690.652065	0.973997
690.989150	0.974045
691.326185	0.975952
691.663170	0.975952
692.000105	0.977083
692.336990	0.976844
692.673825	0.977389
693.010610	0.977546
693.347345	0.978607
693.684030	0.978600
694.020665	0.978580
694.357251	0.979713
694.693786	0.980537
695.030272	0.980056
695.366707	0.980616
695.703093	0.980556
696.039429	0.980676
696.375716	0.981880
696.711952	0.980982
697.048139	0.981360
697.384276	0.982537
697.720363	0.982224
698.056400	0.981019
698.392388	0.982282
698.728326	0.981933
699.064214	0.983799
699.400053	0.983012
699.735842	0.983971
700.071581	0.984033
700.407270	0.983876
700.742910	0.985693
701.078501	0.983715
701.414042	0.986094
701.749533	0.984756
702.084974	0.985746
702.420366	0.985670
702.755709	0.985215
703.091002	0.986415
703.426246	0.986757
703.761440	0.985968
704.096584	0.986365
704.431679	0.985983
704.766725	0.986777
705.101721	0.987299
705.436668	0.986995
705.771565	0.986789
706.106413	0.986525
706.441212	0.987280
706.775961	0.987311
707.110661	0.986970
707.445311	0.987970
707.779913	0.988413
708.114465	0.987887
708.448967	0.988654
708.783421	0.987749
709.117825	0.987545
709.452180	0.987397
709.786485	0.988146
710.120742	0.986373
710.454949	0.986181
710.789107	0.986915
711.123216	0.986137
711.457275	0.985216
711.791286	0.985821
712.125247	0.987347
712.459159	0.986054
712.793023	0.986300
713.126837	0.987053
713.460602	0.984746
713.794318	0.986237
714.127985	0.985656
714.461602	0.987233
714.795171	0.986723
715.128691	0.987051
715.462162	0.988021
715.795584	0.987805
716.128957	0.988765
716.462281	0.988317
716.795556	0.987491
717.128782	0.988912
717.461960	0.988972
717.795088	0.989218
718.128167	0.989653
718.461198	0.989086
718.794180	0.989238
719.127113	0.989120
719.459997	0.988431
719.792833	0.989786
720.125619	0.988887
720.458357	0.989662
720.791046	0.990795
721.123686	0.989756
721.456278	0.989848
721.788821	0.990902
722.121315	0.991020
722.453761	0.990209
722.786158	0.990642
723.118506	0.991461
723.450805	0.989589
723.783056	0.990378
724.115259	0.990019
724.447412	0.991969
724.779518	0.990615
725.111574	0.988880
725.443582	0.990439
725.775542	0.990512
726.107453	0.991155
726.439315	0.991125
726.771129	0.990551
727.102895	0.990003
727.434612	0.990178
727.766281	0.990096
728.097901	0.989791
728.429473	0.990854
728.760996	0.989362
729.092471	0.990402
729.423897	0.990265
729.755276	0.990122
730.086606	0.989640
730.417887	0.990040
730.749120	0.990603
731.080305	0.989630
731.411442	0.989205
731.742530	0.987775
732.073570	0.989392
732.404562	0.989797
732.735506	0.990116
733.066401	0.988603
733.397249	0.989060
733.728048	0.989918
734.058798	0.990521
734.389501	0.991297
734.720156	0.990596
735.050762	0.990720
735.381320	0.991384
735.711831	0.990674
736.042293	0.990305
736.372707	0.991841
736.703073	0.989776
737.033391	0.991139
737.363661	0.992171
737.693883	0.991498
738.024056	0.990662
738.354182	0.990933
738.684260	0.991434
739.014290	0.990862
739.344272	0.990643
739.674207	0.991410
740.004093	0.991442
740.333931	0.991173
740.663722	0.990875
740.993464	0.991122
741.323159	0.990739
741.652806	0.991260
741.982405	0.991238
742.311956	0.991402
742.641460	0.991696
742.970915	0.990347
743.300323	0.990946
743.629683	0.991178
743.958996	0.992324
744.288260	0.991046
744.617477	0.991687
744.946647	0.991458
745.275768	0.991807
745.604842	0.991500
745.933869	0.991406
746.262847	0.992701
746.591778	0.991587
746.920662	0.993054
747.249498	0.993275
747.578286	0.993419
747.907027	0.992878
748.235720	0.993064
748.564365	0.992158
748.892963	0.991718
749.221514	0.992716
749.550017	0.991393
749.878473	0.992223
750.206881	0.992869
750.535242	0.993059
750.863555	0.991775
751.191821	0.991972
751.520039	0.992490
751.848210	0.990968
752.176334	0.992735
752.504411	0.992351
752.832440	0.991199
753.160421	0.992641
753.488356	0.992483
753.816243	0.992590
754.144082	0.992147
754.471875	0.993300
754.799620	0.993690
755.127318	0.992416
755.454969	0.993177
755.782572	0.994399
756.110129	0.992382
756.437638	0.994155
756.765100	0.993629
757.092515	0.992595
757.419882	0.993183
757.747203	0.992502
758.074477	0.993790
758.401703	0.993599
758.728882	0.992841
759.056014	0.992123
759.383099	0.992456
759.710138	0.992349
760.037129	0.992395
760.364073	0.992241
760.690970	0.992492
761.017820	0.991237
761.344623	0.993290
761.671379	0.993147
761.998088	0.992795
762.324751	0.992159
762.651366	0.991375
762.977935	0.990243
763.304456	0.988462
763.630931	0.985138
763.957359	0.984816
764.283740	0.986960
764.610074	0.987838
764.936362	0.989398
765.262602	0.990515
765.588796	0.991163
765.914943	0.992040
766.241044	0.992327
766.567097	0.992024
766.893104	0.993177
767.219064	0.993709
767.544978	0.993097
767.870845	0.993636
768.196665	0.993091
768.522438	0.994840
768.848165	0.993941
769.173846	0.994430
769.499479	0.994919
769.825066	0.994787
770.150607	0.994974
770.476101	0.994077
770.801548	0.995407
771.126949	0.995830
771.452303	0.994026
771.777611	0.994960
772.102872	0.995057
772.428087	0.994421
772.753256	0.994672
773.078378	0.995407
773.403453	0.994532
773.728482	0.995782
774.053465	0.995380
774.378401	0.994835
774.703291	0.995195
775.028135	0.996188
775.352932	0.994426
775.677683	0.995964
776.002388	0.994284
776.327046	0.995210
776.651658	0.996639
776.976224	0.996081
777.300743	0.995502
777.625216	0.994746
777.949643	0.994893
778.274024	0.995295
778.598359	0.996005
778.922647	0.996142
779.246889	0.996141
779.571086	0.994783
779.895236	0.996347
780.219339	0.996958
780.543397	0.995537
780.867409	0.996252
781.191374	0.995866
781.515294	0.996974
781.839167	0.996482
782.162995	0.996498
782.486776	0.995154
782.810511	0.996570
783.134201	0.996003
783.457844	0.996957
783.781441	0.994917
784.104993	0.994880
784.428498	0.996065
784.751958	0.996500
785.075372	0.995909
785.398739	0.996475
785.722061	0.995856
786.045337	0.995633
786.368568	0.995309
786.691752	0.996222
787.014891	0.995468
787.337983	0.994995
787.661030	0.995639
787.984031	0.995413
788.306987	0.994759
788.629897	0.992939
788.952760	0.995195
789.275579	0.994910
789.598351	0.994000
789.921078	0.995668
790.243759	0.996770
790.566395	0.995291
790.888984	0.995447
791.211529	0.996444
791.534027	0.995549
791.856480	0.996647
792.178888	0.996085
792.501249	0.995334
792.823566	0.996981
793.145836	0.997072
793.468062	0.996581
793.790241	0.996614
794.112375	0.995728
794.434464	0.995978
794.756507	0.995572
795.078505	0.996634
795.400457	0.996877
795.722364	0.996495
796.044226	0.996187
796.366042	0.995096
796.687812	0.993659
797.009538	0.994390
797.331218	0.996576
797.652852	0.995537
797.974442	0.995179
798.295986	0.996165
798.617484	0.994723
798.938938	0.996311
799.260346	0.995401
799.581709	0.995461
799.903026	0.995685
800.224299	0.996128
800.545526	0.995749
800.866708	0.995684
801.187845	0.996438
801.508936	0.996159
801.829983	0.996399
802.150984	0.995050
802.471940	0.996640
802.792851	0.997512
803.113717	0.997714
803.434538	0.997062
803.755314	0.996257
804.076045	0.997324
804.396731	0.996049
804.717372	0.995706
805.037967	0.997690
805.358518	0.995878
805.679024	0.995799
805.999485	0.996280
806.319901	0.995948
806.640272	0.997514
806.960598	0.996441
807.280879	0.996308
807.601115	0.997232
807.921306	0.997151
808.241453	0.996399
808.561554	0.996784
808.881611	0.996527
809.201623	0.996157
809.521590	0.996583
809.841513	0.997050
810.161390	0.995488
810.481223	0.996030
810.801011	0.997976
811.120755	0.997710
811.440453	0.996064
811.760107	0.996794
812.079716	0.996198
812.399281	0.996416
812.718801	0.996334
813.038276	0.996443
813.357707	0.996376
813.677093	0.998103
813.996434	0.996692
814.315731	0.998624
814.634983	0.996992
814.954191	0.995837
815.273354	0.995541
815.592473	0.995551
815.911547	0.996484
816.230577	0.996419
816.549562	0.997273
816.868502	0.995489
817.187399	0.997343
817.506250	0.996807
817.825058	0.995412
818.143821	0.996898
818.462539	0.995540
818.781213	0.995577
819.099843	0.996271
819.418429	0.993768
819.736970	0.993746
820.055466	0.992606
820.373919	0.991122
820.692327	0.989194
821.010691	0.988244
821.329011	0.985652
821.647286	0.981982
821.965517	0.977429
822.283704	0.972311
822.601847	0.970079
822.919945	0.970848
823.237999	0.973295
823.556010	0.975132
823.873976	0.976725
824.191897	0.980328
824.509775	0.981047
824.827609	0.983000
825.145398	0.986238
825.463144	0.985833
825.780845	0.986163
826.098502	0.985667
826.416116	0.985554
826.733685	0.982217
827.051210	0.978907
827.368692	0.980320
827.686129	0.981103
828.003522	0.984128
828.320872	0.986249
828.638177	0.988373
828.955439	0.990323
829.272656	0.991393
829.589830	0.992025
829.906960	0.992997
830.224046	0.993238
830.541088	0.994484
830.858086	0.994299
831.175041	0.995748
831.491952	0.995233
831.808819	0.994334
832.125642	0.993954
832.442421	0.994028
832.759157	0.994337
833.075849	0.991383
833.392497	0.989846
833.709101	0.987515
834.025662	0.985507
834.342179	0.987096
834.658653	0.990108
834.975083	0.990351
835.291469	0.990538
835.607811	0.993285
835.924110	0.992767
836.240366	0.994955
836.556578	0.994873
836.872746	0.995600
837.188871	0.996191
837.504952	0.996153
837.820990	0.997480
838.136984	0.996893
838.452935	0.996964
838.768842	0.998114
839.084706	0.997150
839.400526	0.996837
839.716303	0.992828
840.032037	0.992843
840.347727	0.991929
840.663373	0.992885
840.978977	0.994252
841.294537	0.995417
841.610054	0.996267
841.925527	0.997108
842.240957	0.996573
842.556344	0.996583
842.871687	0.997302
843.186987	0.998281
843.502244	0.999037
843.817458	0.996652
844.132629	0.998017
844.447756	0.998718
844.762840	0.998334
845.077881	1.000375
845.392879	0.997792
845.707833	0.998456
846.022745	0.998215
846.337613	0.999108
846.652438	0.998073
846.967221	0.999253
847.281960	0.998637
847.596656	0.999815
847.911309	0.999146
848.225919	0.998371
848.540485	0.998579
848.855009	1.000832
849.169490	0.999738
849.483928	0.999784
849.798323	0.998123
850.112675	0.999705
850.426984	1.000482
850.741251	0.998697
851.055474	0.999263
851.369654	1.000080
851.683792	0.998976
851.997887	0.997997
852.311938	0.998829
852.625947	0.998442
852.939914	0.998509
853.253837	1.000849
853.567718	1.000464
853.881555	0.999374
854.195350	0.998546
854.509103	0.998886
854.822812	1.000239
855.136479	0.998887
855.450103	0.997855
855.763685	1.000038
856.077224	0.999954
856.390720	0.999460
856.704173	1.000088
857.017584	0.999175
857.330953	0.999295
857.644278	1.000511
857.957561	0.999313
858.270802	1.000092
858.584000	0.999192
858.897155	0.998372
859.210268	0.998738
859.523339	0.999696
859.836367	0.999355
860.149352	0.998540
860.462295	0.998486
860.775195	0.999085
861.088054	0.998686
861.400869	0.999020
861.713642	0.998308
862.026373	0.999497
862.339062	1.001235
862.651708	0.999026
862.964312	0.998957
863.276873	0.998767
863.589392	0.999576
863.901869	0.997737
864.214303	0.998424
864.526696	0.999266
864.839045	0.999138
865.151353	0.998981
865.463619	0.999606
865.775842	0.998877
866.088023	0.999062
866.400162	0.998835
866.712258	0.999365
867.024313	0.999820
867.336325	1.000130
867.648296	0.998825
867.960224	0.999514
868.272110	0.999306
868.583954	0.997962
868.895755	0.999252
869.207515	0.997684
869.519233	0.998700
869.830909	0.998049
870.142542	0.997541
870.454134	0.998188
870.765684	0.997041
871.077191	0.997950
871.388657	0.998646
871.700081	0.998325
872.011463	0.998416
872.322803	0.998331
872.634101	0.997090
872.945357	0.996899
873.256571	0.997402
873.567744	0.996309
873.878874	0.997084
874.189963	0.997183
874.501010	0.999861
874.812015	0.997988
875.122979	0.997305
875.433900	0.997282
875.744780	0.998614
876.055618	0.998126
876.366415	0.997517
876.677169	0.997356
876.987882	0.996976
877.298554	0.998946
877.609183	0.996011
877.919771	0.997209
878.230317	0.996956
878.540822	0.995976
878.851285	0.995596
879.161707	0.995090
879.472087	0.996075
879.782425	0.992503
880.092722	0.990540
880.402977	0.987089
880.713191	0.983728
881.023363	0.977546
881.333494	0.974614
881.643583	0.974980
881.953631	0.973745
882.263637	0.973301
882.573602	0.976280
882.883526	0.977656
883.193408	0.980027
883.503248	0.981497
883.813048	0.982601
884.122806	0.985974
884.432522	0.986885
884.742197	0.989838
885.051831	0.991335
885.361424	0.991029
885.670975	0.993979
885.980485	0.992604
886.289954	0.994463
886.599382	0.993426
886.908768	0.996171
887.218113	0.994628
887.527417	0.995752
887.836680	0.995626
888.145901	0.996879
888.455082	0.997484
888.764221	0.997146
889.073319	0.996786
889.382376	0.996952
889.691392	0.996025
890.000366	0.997972
890.309300	0.996954
890.618193	0.996895
890.927044	0.997389
891.235855	0.996526
891.544625	0.996036
891.853353	0.996613
892.162041	0.996103
892.470687	0.997026
892.779293	0.995092
893.087858	0.993967
893.396381	0.994284
893.704864	0.992506
894.013306	0.990613
894.321707	0.990117
894.630068	0.987571
894.938387	0.986236
895.246665	0.986899
895.554903	0.987388
895.863100	0.989573
896.171256	0.989936
896.479371	0.991819
896.787446	0.992210
897.095480	0.993211
897.403473	0.994027
897.711425	0.994778
898.019336	0.995355
898.327207	0.994484
898.635038	0.995522
898.942827	0.996126
899.250576	0.995309
899.558284	0.997282
899.865952	0.995889
900.173579	0.996650
900.481165	0.997155
900.788711	0.996500
901.096216	0.996954
901.403681	0.998191
901.711105	0.996681
902.018489	0.997636
902.325832	0.997537
902.633135	0.997582
902.940397	0.996422
903.247619	0.995132
903.554800	0.993789
903.861941	0.990505
904.169041	0.986290
904.476101	0.984259
904.783121	0.983391
905.090100	0.984732
905.397039	0.986911
905.703938	0.989632
906.010796	0.990881
906.317614	0.992198
906.624391	0.993907
906.931129	0.995958
907.237826	0.994334
907.544483	0.996529
907.851099	0.996653
908.157675	0.997012
908.464211	0.997225
908.770707	0.996782
909.077163	0.997220
909.383578	0.999451
909.689954	0.996882
909.996289	0.997989
910.302584	0.997420
910.608839	0.999131
910.915054	0.997194
911.221229	1.000509
911.527363	0.998302
911.833458	0.999025
912.139513	0.998865
912.445527	0.999458
912.751502	0.997345
913.057436	0.997785
913.363331	0.999218
913.669186	0.998330
913.975000	0.997765
914.280775	0.996466
914.586510	0.993906
914.892205	0.992724
915.197859	0.992562
915.503475	0.989909
915.809050	0.986706
916.114585	0.983602
916.420081	0.984305
916.725536	0.983972
917.030952	0.986119
917.336328	0.987050
917.641665	0.987886
917.946961	0.989365
918.252218	0.991035
918.557435	0.991855
918.862612	0.993341
919.167750	0.994617
919.472848	0.995429
919.777906	0.996722
920.082925	0.997041
920.387904	0.997204
920.692843	0.996015
920.997743	0.996834
921.302603	0.997157
921.607423	0.996657
921.912204	0.997247
922.216946	0.998108
922.521647	0.997049
922.826310	0.997034
923.130932	0.998784
923.435516	0.998276
923.740059	0.997278
924.044564	0.998945
924.349028	0.997248
924.653454	1.000549
924.957840	0.999258
925.262186	0.999442
925.566493	0.999432
925.870761	0.999066
926.174989	0.998632
926.479178	1.001139
926.783328	0.999410
927.087438	0.999780
927.391509	0.998521
927.695541	0.999670
927.999533	1.001073
928.303486	0.999227
928.607400	1.000105
928.911275	1.000139
929.215110	1.000776
929.518906	0.999810
929.822663	1.001033
930.126381	1.001384
930.430060	1.000070
930.733699	1.001230
931.037299	1.000784
931.340861	1.000124
931.644383	0.999095
931.947866	0.999715
932.251309	0.999576
932.554714	0.999923
932.858080	1.000255
933.161407	0.999917
933.464694	1.000139
933.767943	0.999518
934.071153	1.000145
934.374323	1.001208
934.677455	0.998993
934.980548	0.999397
935.283602	1.001009
935.586617	0.999556
935.889593	1.000630
936.192530	1.000988
936.495428	1.000047
936.798287	0.998134
937.101108	0.999130
937.403890	0.999474
937.706632	1.001835
938.009336	0.998716
938.312002	1.000477
938.614628	0.999759
938.917216	0.999075
939.219765	0.997893
939.522275	0.999466
939.824747	0.999777
940.127179	0.998574
940.429573	0.999820
940.731929	0.999019
941.034246	0.998270
941.336524	0.998593
941.638763	0.999643
941.940964	0.999815
942.243126	0.999239
942.545250	1.000030
942.847335	0.999803
943.149381	0.999579
943.451389	0.998251
943.753359	0.999569
944.055290	1.001191
944.357182	0.999098
944.659036	1.000090
944.960851	1.000785
945.262628	0.999837
945.564367	0.999512
945.866067	1.000395
946.167729	1.000519
946.469352	0.999444
946.770937	0.997839
947.072484	1.001057
947.373992	0.999756
947.675462	1.000409
947.976893	0.999036
948.278286	1.001347
948.579641	1.000742
948.880958	1.000083
949.182236	1.000532
949.483476	1.000483
949.784678	1.000242
950.085841	0.999877
950.386967	0.999949
950.688054	1.000912
950.989103	0.998761
951.290114	0.999798
951.591087	1.000804
951.892021	0.999324
952.192917	0.999535
952.493776	0.999268
952.794596	0.999653
953.095378	0.999954
953.396122	1.000021
953.696828	0.999706
953.997496	0.999481
954.298126	1.000104
954.598718	0.999380
954.899272	1.000551
955.199788	0.999404
955.500266	1.000978
955.800706	1.001240
956.101108	0.999602
956.401472	1.001294
956.701798	1.000795
957.002087	0.999700
957.302337	1.000379
957.602550	1.000854
957.902724	0.999753
958.202861	1.000164
958.502960	0.999666
958.803022	1.001398
959.103045	1.000922
959.403031	1.001933
959.702979	1.002708
960.002889	1.000454
960.302762	1.001121
960.602596	1.001289
960.902393	1.000834
961.202153	1.001525
961.501875	1.002148
961.801559	1.001141
962.101205	0.999455
962.400814	1.001892
962.700385	1.000855
962.999918	1.001967
963.299414	1.000685
963.598873	1.001350
963.898293	1.000814
964.197677	1.001245
964.497022	1.001709
964.796331	1.001632
965.095601	1.001809
965.394835	1.001634
965.694030	1.001711
965.993189	1.000895
966.292309	1.001666
966.591393	0.999808
966.890439	1.000739
967.189447	1.001113
967.488419	1.001165
967.787353	1.001448
968.086249	1.001508
968.385108	1.001197
968.683930	1.002439
968.982714	1.001285
969.281462	1.001748
969.580172	1.001399
969.878844	1.002334
970.177480	1.002359
970.476078	1.001894
970.774639	1.001818
971.073162	1.001163
971.371649	0.999906
971.670098	1.001419
971.968510	1.002048
972.266885	0.999700
972.565223	1.000595
972.863524	1.000198
973.161788	1.000925
973.460014	1.002331
973.758204	1.000787
974.056356	1.001675
974.354471	1.001093
974.652550	1.001578
974.950591	1.000398
975.248595	1.000553
975.546563	1.001866
975.844493	1.002282
976.142386	1.000456
976.440243	1.001456
976.738062	1.001457
977.035845	1.000072
977.333590	1.002905
977.631299	0.999571
977.928971	1.001439
978.226606	1.001511
978.524204	1.001777
978.821765	1.000806
979.119290	1.002553
979.416777	1.001914
979.714228	1.001751
980.011642	1.003548
980.309020	1.000656
980.606360	1.000520
980.903664	1.000578
981.200931	1.000948
981.498162	1.002278
981.795356	1.001685
982.092513	1.001502
982.389633	1.002344
982.686717	1.000103
982.983764	1.000789
983.280775	1.000278
983.577749	1.001241
983.874686	0.999717
984.171587	0.999233
984.468451	1.001254
984.765279	1.001776
985.062070	1.001078
985.358824	1.000949
985.655543	1.001576
985.952224	1.001606
986.248869	1.000665
986.545478	1.003002
986.842050	1.001302
987.138586	1.001864
987.435086	1.001636
987.731549	1.002435
988.027975	1.002688
988.324366	1.002104
988.620719	1.003097
988.917037	1.002221
989.213318	1.001829
989.509563	1.001884
989.805772	1.002057
990.101944	1.003043
990.398080	1.002608
990.694180	1.001787
990.990244	1.001264
991.286271	1.001041
991.582262	1.003252
991.878217	1.001359
992.174136	1.002649
992.470019	1.001226
992.765865	1.001725
993.061676	1.002995
993.357450	1.001174
993.653188	1.002259
993.948890	1.002736
994.244556	1.001061
994.540186	1.001770
994.835780	1.002472
995.131337	1.002584
995.426859	1.002336
995.722345	1.001565
996.017795	1.001232
996.313208	1.001849
996.608586	1.001889
996.903928	1.002624
997.199234	1.001666
997.494504	1.002511
997.789738	1.000324
998.084936	1.001830
998.380099	1.001185
998.675225	1.002877
998.970316	1.001820
999.265371	1.001066
999.560390	1.001750
999.855373	1.001557
1000.150320	1.001807
1000.445232	1.002563
1000.740108	1.001484
1001.034948	1.002115
1001.329752	1.002288
1001.624521	1.001431
1001.919254	1.001324
1002.213951	1.002200
1002.508613	1.001549
1002.803239	1.003167
1003.097829	1.001467
1003.392384	1.001560
1003.686903	1.002443
1003.981386	1.001810
1004.275834	1.002210
1004.570246	1.000976
1004.864623	1.002913
1005.158964	1.001936
1005.453270	1.001406
1005.747540	1.000899
1006.041775	1.001746
1006.335974	1.002748
1006.630138	1.002561
1006.924266	1.002047
1007.218359	1.001111
1007.512416	1.003076
1007.806438	1.002150
1008.100425	1.002425
1008.394376	1.002595
1008.688292	1.002339
1008.982172	1.001140
1009.276017	1.003258
1009.569827	1.003086
1009.863602	0.999737
1010.157341	1.003079
1010.451045	1.001889
1010.744714	1.002593
1011.038347	1.002524
1011.331945	1.002587
1011.625508	1.001723
1011.919036	1.001842
1012.212528	1.002430
1012.505986	1.001834
1012.799408	1.002647
1013.092795	1.002076
1013.386147	1.001286
1013.679464	1.002112
1013.972745	1.003552
1014.265992	1.002732
1014.559204	1.001268
1014.852380	1.002691
1015.145521	1.002883
1015.438628	1.002026
1015.731699	1.001012
1016.024736	1.001914
1016.317737	1.003005
1016.610703	1.002290
1016.903635	1.002717
1017.196531	1.001430
1017.489393	1.001427
1017.782219	1.002456
1018.075011	1.001515
1018.367768	1.001935
1018.660490	1.001217
1018.953177	1.001217
1019.245829	1.001217
