Dividing Wavelength (nm)	Counts (n)	Blue Motor Position (mm): 32.800000	Red Motor Position (mm): 0.000000	
326.493990	0.998784
326.888308	0.998784
327.282561	0.998784
327.676750	0.999900
328.070874	1.000083
328.464933	1.001083
328.858929	1.000476
329.252859	0.999946
329.646726	0.999411
330.040528	1.000205
330.434265	0.999206
330.827938	0.998717
331.221547	1.000170
331.615091	1.000384
332.008571	1.001010
332.401986	1.000427
332.795338	0.999972
333.188625	1.001301
333.581847	0.999696
333.975006	1.000126
334.368100	1.000572
334.761129	0.999537
335.154095	0.999521
335.546996	0.999687
335.939833	0.999086
336.332606	0.999699
336.725315	0.997447
337.117960	1.000667
337.510540	0.999404
337.903056	1.000244
338.295508	1.000114
338.687896	0.999389
339.080220	0.999710
339.472480	0.998628
339.864676	1.000150
340.256807	0.998859
340.648875	0.999400
341.040879	1.000380
341.432818	0.999587
341.824694	0.999684
342.216506	1.000729
342.608253	0.998822
342.999937	0.998610
343.391557	0.997627
343.783113	0.999206
344.174605	0.999749
344.566033	0.998811
344.957397	0.998860
345.348697	1.000256
345.739934	0.999017
346.131106	0.998923
346.522215	0.998214
346.913260	0.998719
347.304241	0.998611
347.695159	0.999243
348.086012	0.999171
348.476802	0.998537
348.867528	0.998875
349.258191	1.000219
349.648789	0.999514
350.039324	0.998631
350.429796	0.998474
350.820203	0.997196
351.210548	0.998084
351.600828	0.999418
351.991045	0.998549
352.381198	0.998869
352.771288	0.997584
353.161314	0.999554
353.551276	0.998001
353.941175	0.997234
354.331010	0.999422
354.720782	0.998228
355.110490	0.998769
355.500135	0.999049
355.889717	0.997652
356.279235	0.997573
356.668689	0.999079
357.058080	0.998000
357.447408	0.997867
357.836672	0.997987
358.225873	0.998088
358.615010	0.998244
359.004084	0.997644
359.393095	0.999012
359.782043	0.997553
360.170927	0.998596
360.559748	0.998395
360.948505	0.997635
361.337199	0.996826
361.725830	0.999064
362.114398	0.998657
362.502903	0.997148
362.891344	0.996173
363.279722	0.998511
363.668037	0.997442
364.056289	0.996660
364.444478	0.998505
364.832603	0.997373
365.220665	0.998120
365.608665	0.996797
365.996601	0.996344
366.384474	0.995516
366.772284	0.996136
367.160031	0.995352
367.547715	0.995335
367.935336	0.994906
368.322893	0.994402
368.710388	0.993293
369.097820	0.991305
369.485189	0.988556
369.872495	0.987084
370.259738	0.984390
370.646918	0.982498
371.034035	0.978963
371.421090	0.976676
371.808081	0.971558
372.195010	0.969027
372.581875	0.964919
372.968678	0.959658
373.355418	0.956587
373.742096	0.949217
374.128710	0.944317
374.515262	0.939811
374.901751	0.934176
375.288177	0.929080
375.674540	0.922126
376.060841	0.916316
376.447079	0.909545
376.833254	0.902682
377.219367	0.898027
377.605417	0.885801
377.991404	0.883256
378.377329	0.877955
378.763191	0.870250
379.148991	0.861310
379.534727	0.855217
379.920402	0.846101
380.306013	0.842261
380.691563	0.829101
381.077049	0.822848
381.462474	0.818818
381.847835	0.806943
382.233134	0.802713
382.618371	0.803173
383.003545	0.785477
383.388657	0.783838
383.773706	0.775950
384.158693	0.772781
384.543618	0.766349
384.928480	0.758239
385.313280	0.747180
385.698017	0.746836
386.082692	0.736572
386.467305	0.735224
386.851856	0.728718
387.236344	0.723896
387.620770	0.717725
388.005133	0.711929
388.389435	0.707117
388.773674	0.704510
389.157851	0.696068
389.541965	0.694314
389.926018	0.700224
390.310008	0.687325
390.693936	0.684362
391.077802	0.676268
391.461606	0.677397
391.845348	0.667225
392.229027	0.666510
392.612645	0.664987
392.996200	0.652147
393.379694	0.644997
393.763125	0.635196
394.146494	0.639222
394.529801	0.630177
394.913047	0.622509
395.296230	0.628438
395.679351	0.619858
396.062410	0.616853
396.445408	0.619747
396.828343	0.614689
397.211217	0.609278
397.594028	0.622091
397.976778	0.612490
398.359466	0.608800
398.742092	0.604648
399.124656	0.616187
399.507158	0.604455
399.889598	0.601856
400.271977	0.592231
400.654294	0.597413
401.036549	0.596241
401.418742	0.600527
401.800874	0.586200
402.182944	0.583472
402.564952	0.574649
402.946898	0.576415
403.328783	0.577172
403.710606	0.588503
404.092367	0.563691
404.474067	0.569139
404.855705	0.567309
405.237282	0.576485
405.618797	0.562860
406.000250	0.558201
406.381642	0.548824
406.762972	0.553869
407.144240	0.553127
407.525447	0.552239
407.906593	0.545365
408.287677	0.541196
408.668700	0.548902
409.049661	0.543834
409.430560	0.538468
409.811399	0.547012
410.192176	0.529275
410.572891	0.537539
410.953545	0.525434
411.334138	0.539431
411.714669	0.532514
412.095139	0.545089
412.475547	0.529427
412.855894	0.532691
413.236180	0.532846
413.616405	0.539028
413.996568	0.531344
414.376670	0.538529
414.756711	0.544179
415.136691	0.543747
415.516609	0.536986
415.896466	0.534960
416.276262	0.533634
416.655997	0.538256
417.035670	0.522530
417.415283	0.517428
417.794834	0.525171
418.174324	0.532184
418.553753	0.544445
418.933121	0.530119
419.312428	0.528500
419.691674	0.537358
420.070859	0.530440
420.449983	0.541734
420.829045	0.536028
421.208047	0.549005
421.586988	0.547123
421.965867	0.551313
422.344686	0.547677
422.723444	0.562856
423.102141	0.582764
423.480777	0.564895
423.859352	0.588616
424.237866	0.576557
424.616319	0.583391
424.994712	0.582578
425.373044	0.597260
425.751314	0.595974
426.129524	0.616371
426.507673	0.610526
426.885762	0.612649
427.263789	0.625669
427.641756	0.638509
428.019662	0.641060
428.397508	0.648664
428.775292	0.660698
429.153016	0.663068
429.530679	0.675241
429.908282	0.679853
430.285824	0.693203
430.663305	0.690524
431.040726	0.711574
431.418086	0.719640
431.795385	0.724361
432.172624	0.732618
432.549802	0.741771
432.926920	0.750009
433.303977	0.757291
433.680974	0.765514
434.057910	0.773624
434.434786	0.781882
434.811601	0.790751
435.188355	0.792594
435.565050	0.804871
435.941683	0.812110
436.318257	0.815003
436.694770	0.823813
437.071222	0.831808
437.447614	0.840479
437.823946	0.849285
438.200218	0.854067
438.576429	0.863235
438.952580	0.869311
439.328670	0.874549
439.704700	0.881883
440.080670	0.889736
440.456580	0.892540
440.832429	0.900298
441.208218	0.907719
441.583947	0.911110
441.959616	0.915409
442.335224	0.922922
442.710773	0.926375
443.086261	0.931753
443.461689	0.936387
443.837057	0.939843
444.212365	0.944044
444.587612	0.948009
444.962800	0.951675
445.337927	0.955394
445.712995	0.960815
446.088002	0.960967
446.462949	0.963876
446.837837	0.968492
447.212664	0.969218
447.587431	0.972584
447.962139	0.972278
448.336786	0.972259
448.711374	0.974699
449.085901	0.979649
449.460369	0.981388
449.834776	0.982655
450.209124	0.983885
450.583412	0.985901
450.957640	0.985968
451.331808	0.987672
451.705917	0.989024
452.079965	0.990393
452.453954	0.991147
452.827883	0.992225
453.201752	0.992855
453.575562	0.992489
453.949311	0.993833
454.323001	0.994125
454.696632	0.994581
455.070202	0.994629
455.443713	0.994887
455.817164	0.994885
456.190556	0.995421
456.563888	0.996773
456.937160	0.996242
457.310373	0.996308
457.683526	0.997040
458.056619	0.996470
458.429653	0.996753
458.802628	0.996618
459.175542	0.996733
459.548398	0.997595
459.921194	0.997365
460.293930	0.998566
460.666607	0.997844
461.039224	0.997156
461.411782	0.997856
461.784280	0.997291
462.156719	0.998434
462.529099	0.997999
462.901419	0.998128
463.273680	0.997137
463.645882	0.997676
464.018024	0.998369
464.390106	0.998183
464.762130	0.998037
465.134094	0.998551
465.505999	0.997931
465.877845	0.997281
466.249631	0.997706
466.621358	0.997095
466.993026	0.997387
467.364634	0.997832
467.736184	0.997893
468.107674	0.998286
468.479105	0.997451
468.850477	0.998269
469.221790	0.998182
469.593043	0.997853
469.964238	0.998393
470.335373	0.997849
470.706449	0.998320
471.077467	0.998320
471.448425	0.997842
471.819324	0.998423
472.190164	0.997738
472.560945	0.997878
472.931667	0.997504
473.302330	0.998168
473.672934	0.997847
474.043479	0.997979
474.413965	0.998778
474.784393	0.998497
475.154761	0.997108
475.525070	0.998143
475.895321	0.998271
476.265513	0.998264
476.635645	0.998200
477.005719	0.998129
477.375734	0.997919
477.745691	0.996928
478.115588	0.997930
478.485427	0.997398
478.855207	0.997902
479.224928	0.997727
479.594591	0.997861
479.964194	0.997649
480.333739	0.997230
480.703226	0.997355
481.072653	0.997073
481.442022	0.997785
481.811333	0.997388
482.180584	0.998146
482.549777	0.997727
482.918912	0.997813
483.287988	0.997608
483.657005	0.997433
484.025964	0.997984
484.394864	0.998014
484.763706	0.997722
485.132489	0.996939
485.501213	0.997727
485.869879	0.997217
486.238487	0.997165
486.607036	0.998297
486.975527	0.997383
487.343959	0.997984
487.712333	0.997480
488.080648	0.997454
488.448905	0.997580
488.817104	0.997610
489.185244	0.997329
489.553326	0.997872
489.921350	0.998255
490.289315	0.998132
490.657222	0.996997
491.025070	0.998116
491.392861	0.997941
491.760593	0.997668
492.128267	0.997984
492.495883	0.997388
492.863440	0.997672
493.230939	0.997583
493.598380	0.998831
493.965763	0.997266
494.333088	0.997160
494.700354	0.997361
495.067563	0.997603
495.434713	0.998217
495.801805	0.998003
496.168839	0.998208
496.535815	0.998189
496.902733	0.998342
497.269593	0.997668
497.636395	0.997453
498.003139	0.997822
498.369825	0.998241
498.736453	0.997911
499.103023	0.998202
499.469535	0.998205
499.835989	0.998617
500.202385	0.997939
500.568723	0.997890
500.935003	0.998614
501.301226	0.998133
501.667390	0.998245
502.033497	0.998486
502.399546	0.997794
502.765537	0.998064
503.131470	0.998132
503.497345	0.998344
503.863163	0.998325
504.228923	0.997814
504.594625	0.998140
504.960269	0.997377
505.325856	0.998302
505.691385	0.998227
506.056856	0.997998
506.422270	0.998453
506.787625	0.998328
507.152924	0.998894
507.518164	0.997876
507.883347	0.997850
508.248472	0.998985
508.613540	0.997570
508.978550	0.998567
509.343503	0.998035
509.708398	0.998619
510.073236	0.998151
510.438016	0.997463
510.802738	0.997321
511.167403	0.998666
511.532010	0.998789
511.896561	0.997982
512.261053	0.997502
512.625488	0.998148
512.989866	0.998486
513.354186	0.997896
513.718449	0.997986
514.082655	0.997786
514.446803	0.997851
514.810894	0.998807
515.174927	0.997979
515.538904	0.998491
515.902822	0.998552
516.266684	0.998451
516.630488	0.998700
516.994235	0.998544
517.357925	0.998334
517.721558	0.998533
518.085133	0.998128
518.448651	0.997793
518.812112	0.998117
519.175516	0.998321
519.538863	0.998015
519.902152	0.999166
520.265385	0.998349
520.628560	0.998251
520.991678	0.998335
521.354739	0.998817
521.717743	0.998412
522.080690	0.997957
522.443580	0.998523
522.806413	0.997601
523.169189	0.998303
523.531908	0.997296
523.894569	0.997458
524.257174	0.998194
524.619722	0.998370
524.982213	0.998128
525.344647	0.998206
525.707025	0.997566
526.069345	0.997842
526.431608	0.998490
526.793815	0.998097
527.155964	0.998500
527.518057	0.998585
527.880093	0.997747
528.242072	0.998059
528.603995	0.997238
528.965860	0.998672
529.327669	0.998256
529.689421	0.997605
530.051117	0.998513
530.412755	0.998376
530.774337	0.997788
531.135862	0.998310
531.497331	0.998125
531.858743	0.999137
532.220098	0.997541
532.581396	0.998213
532.942638	0.998644
533.303824	0.998723
533.664953	0.997868
534.026025	0.999099
534.387040	0.998091
534.747999	0.997748
535.108902	0.997289
535.469748	0.998493
535.830537	0.998216
536.191270	0.998141
536.551947	0.998217
536.912567	0.998176
537.273131	0.998580
537.633638	0.997851
537.994089	0.998848
538.354483	0.998119
538.714821	0.998090
539.075103	0.998108
539.435328	0.998204
539.795497	0.998052
540.155609	0.998211
540.515665	0.998745
540.875665	0.997610
541.235609	0.998058
541.595496	0.997437
541.955328	0.997658
542.315102	0.998455
542.674821	0.998169
543.034483	0.998669
543.394090	0.997602
543.753640	0.998804
544.113134	0.997123
544.472571	0.998364
544.831953	0.998087
545.191278	0.998193
545.550548	0.997738
545.909761	0.997583
546.268918	0.998847
546.628019	0.998757
546.987064	0.997821
547.346053	0.998659
547.704986	0.997889
548.063863	0.997527
548.422684	0.998178
548.781449	0.998420
549.140158	0.998587
549.498811	0.997754
549.857408	0.997387
550.215949	0.997457
550.574434	0.997328
550.932864	0.998313
551.291237	0.997885
551.649555	0.998676
552.007817	0.997986
552.366022	0.998217
552.724173	0.998635
553.082267	0.997703
553.440305	0.997329
553.798288	0.997871
554.156215	0.997772
554.514086	0.998391
554.871902	0.997504
555.229661	0.997382
555.587365	0.999065
555.945014	0.998624
556.302606	0.997329
556.660143	0.998635
557.017625	0.998966
557.375050	0.997952
557.732421	0.997931
558.089735	0.998106
558.446994	0.997715
558.804197	0.997935
559.161345	0.997433
559.518437	0.998035
559.875474	0.997904
560.232455	0.998335
560.589381	0.998435
560.946251	0.998046
561.303065	0.998887
561.659825	0.997808
562.016528	0.998211
562.373177	0.998314
562.729770	0.998592
563.086307	0.997071
563.442789	0.998469
563.799216	0.997621
564.155587	0.998574
564.511904	0.998276
564.868164	0.997175
565.224370	0.997643
565.580520	0.998015
565.936615	0.998354
566.292654	0.998292
566.648638	0.998373
567.004567	0.998137
567.360441	0.998257
567.716260	0.997699
568.072023	0.998288
568.427732	0.998771
568.783385	0.997955
569.138982	0.998184
569.494525	0.998555
569.850013	0.998016
570.205445	0.998870
570.560823	0.998112
570.916145	0.997897
571.271412	0.998388
571.626625	0.998442
571.981782	0.998428
572.336884	0.998017
572.691931	0.997934
573.046923	0.998585
573.401860	0.997661
573.756743	0.998273
574.111570	0.997707
574.466342	0.998821
574.821059	0.998173
575.175722	0.998547
575.530330	0.998364
575.884882	0.997559
576.239380	0.998059
576.593823	0.998264
576.948211	0.998554
577.302544	0.998029
577.656823	0.998293
578.011047	0.997301
578.365216	0.998823
578.719330	0.998040
579.073389	0.997711
579.427394	0.997923
579.781344	0.998761
580.135239	0.997614
580.489080	0.998107
580.842866	0.998063
581.196597	0.997823
581.550273	0.997693
581.903895	0.998125
582.257463	0.997670
582.610975	0.997797
582.964434	0.998441
583.317837	0.998145
583.671186	0.998091
584.024481	0.998232
584.377721	0.997681
584.730906	0.998875
585.084037	0.998749
585.437113	0.998838
585.790135	0.997956
586.143103	0.998879
586.496016	0.998439
586.848874	0.998457
587.201679	0.998131
587.554428	0.998079
587.907124	0.998695
588.259765	0.998504
588.612352	0.998678
588.964884	0.998149
589.317362	0.998512
589.669786	0.997496
590.022155	0.998098
590.374470	0.998144
590.726731	0.997722
591.078937	0.998597
591.431090	0.998255
591.783188	0.998364
592.135232	0.998238
592.487222	0.998388
592.839157	0.997854
593.191038	0.998394
593.542866	0.998269
593.894639	0.997757
594.246358	0.998310
594.598022	0.998280
594.949633	0.997840
595.301190	0.998538
595.652692	0.997109
596.004141	0.998012
596.355535	0.998257
596.706876	0.998352
597.058162	0.998153
597.409395	0.998435
597.760573	0.998330
598.111698	0.998492
598.462768	0.997629
598.813785	0.997375
599.164748	0.997560
599.515657	0.998066
599.866511	0.998387
600.217312	0.998893
600.568060	0.997432
600.918753	0.997957
601.269392	0.997464
601.619978	0.998483
601.970510	0.997954
602.320988	0.997873
602.671412	0.997666
603.021783	0.998641
603.372100	0.998139
603.722363	0.998404
604.072572	0.998027
604.422728	0.997985
604.772830	0.998203
605.122878	0.998367
605.472872	0.998265
605.822813	0.998149
606.172701	0.998720
606.522534	0.998537
606.872314	0.998063
607.222041	0.997863
607.571714	0.998607
607.921333	0.997987
608.270899	0.997723
608.620411	0.998100
608.969870	0.999365
609.319276	0.997112
609.668627	0.998233
610.017926	0.997801
610.367171	0.998188
610.716362	0.997988
611.065500	0.998067
611.414585	0.998499
611.763616	0.997351
612.112594	0.998750
612.461518	0.998330
612.810389	0.997594
613.159207	0.998825
613.507971	0.997473
613.856682	0.998716
614.205340	0.997486
614.553945	0.998034
614.902496	0.997791
615.250994	0.998555
615.599439	0.998279
615.947830	0.997694
616.296169	0.998085
616.644454	0.998513
616.992686	0.998082
617.340864	0.998245
617.688990	0.997938
618.037063	0.998105
618.385082	0.997666
618.733048	0.997886
619.080961	0.997702
619.428821	0.998355
619.776628	0.998233
620.124382	0.998610
620.472083	0.998417
620.819731	0.998685
621.167326	0.998234
621.514868	0.998418
621.862357	0.998060
622.209793	0.997937
622.557176	0.997882
622.904506	0.997825
623.251783	0.997374
623.599007	0.998295
623.946179	0.997764
624.293297	0.998177
624.640363	0.998277
624.987376	0.997073
625.334336	0.997148
625.681243	0.998209
626.028097	0.998188
626.374899	0.998096
626.721647	0.999064
627.068343	0.998166
627.414987	0.998202
627.761577	0.997874
628.108115	0.998314
628.454600	0.998816
628.801032	0.997697
629.147412	0.997981
629.493739	0.998777
629.840014	0.997454
630.186236	0.997973
630.532405	0.998541
630.878521	0.997927
631.224585	0.998103
631.570597	0.997880
631.916556	0.998024
632.262462	0.997011
632.608316	0.998205
632.954117	0.998134
633.299866	0.997365
633.645562	0.997141
633.991206	0.998359
634.336797	0.997217
634.682336	0.998514
635.027823	0.998133
635.373257	0.998566
635.718639	0.998737
636.063968	0.998376
636.409245	0.998150
636.754470	0.998388
637.099642	0.998490
637.444762	0.998652
637.789829	0.997241
638.134845	0.997643
638.479808	0.998159
638.824719	0.998210
639.169577	0.997784
639.514383	0.998774
639.859137	0.998867
640.203839	0.998158
640.548489	0.997484
640.893086	0.997918
641.237632	0.998191
641.582125	0.997773
641.926566	0.998873
642.270955	0.997963
642.615292	0.998072
642.959576	0.997458
643.303809	0.998796
643.647990	0.997251
643.992118	0.997703
644.336195	0.997451
644.680219	0.998310
645.024192	0.998018
645.368112	0.998219
645.711981	0.997386
646.055797	0.998402
646.399562	0.997427
646.743274	0.998980
647.086935	0.997588
647.430544	0.997117
647.774101	0.997518
648.117606	0.998009
648.461059	0.998176
648.804460	0.997323
649.147810	0.997409
649.491108	0.998233
649.834354	0.997811
650.177548	0.997891
650.520690	0.998259
650.863781	0.996897
651.206820	0.998102
651.549807	0.998100
651.892742	0.998778
652.235626	0.998130
652.578458	0.997866
652.921238	0.998472
653.263967	0.998205
653.606644	0.997908
653.949269	0.998783
654.291843	0.997549
654.634365	0.998368
654.976836	0.996847
655.319255	0.998192
655.661622	0.997650
656.003938	0.998214
656.346203	0.997773
656.688416	0.998270
657.030577	0.997515
657.372687	0.998419
657.714746	0.997704
658.056753	0.997896
658.398708	0.997735
658.740612	0.998624
659.082465	0.997779
659.424266	0.997720
659.766016	0.996924
660.107715	0.998244
660.449362	0.997614
660.790958	0.998014
661.132503	0.997831
661.473996	0.997938
661.815438	0.997881
662.156829	0.997969
662.498168	0.997992
662.839456	0.997204
663.180693	0.998445
663.521879	0.997501
663.863013	0.997717
664.204097	0.997512
664.545129	0.997970
664.886110	0.998094
665.227040	0.997677
665.567918	0.997594
665.908746	0.997706
666.249522	0.997634
666.590248	0.997182
666.930922	0.997351
667.271545	0.997672
667.612118	0.997838
667.952639	0.996991
668.293109	0.997474
668.633528	0.997135
668.973896	0.997695
669.314213	0.997402
669.654480	0.997685
669.994695	0.996789
670.334859	0.997625
670.674973	0.998271
671.015035	0.997294
671.355047	0.997473
671.695008	0.997140
672.034918	0.997075
672.374777	0.998092
672.714585	0.997543
673.054342	0.998445
673.394049	0.996712
673.733705	0.997499
674.073310	0.997772
674.412864	0.997420
674.752368	0.996810
675.091820	0.998748
675.431223	0.998012
675.770574	0.997471
676.109875	0.997460
676.449125	0.996861
676.788324	0.996990
677.127473	0.997881
677.466571	0.997838
677.805619	0.997810
678.144616	0.998463
678.483562	0.997435
678.822458	0.997273
679.161303	0.997108
679.500098	0.997665
679.838842	0.998230
680.177535	0.997432
680.516179	0.996632
680.854771	0.997728
681.193314	0.997328
681.531805	0.997535
681.870247	0.997343
682.208638	0.997832
682.546978	0.996785
682.885268	0.997025
683.223508	0.997032
683.561697	0.997213
683.899836	0.997760
684.237925	0.996857
684.575963	0.997100
684.913951	0.997216
685.251889	0.997837
685.589776	0.997256
685.927614	0.997150
686.265401	0.997133
686.603137	0.997135
686.940824	0.997225
687.278460	0.998686
687.616046	0.997802
687.953582	0.996960
688.291068	0.997323
688.628504	0.996763
688.965889	0.995938
689.303224	0.995501
689.640510	0.997127
689.977745	0.996760
690.314930	0.996682
690.652065	0.996638
690.989150	0.996576
691.326185	0.998558
691.663170	0.997057
692.000105	0.997511
692.336990	0.996828
692.673825	0.996765
693.010610	0.996395
693.347345	0.997559
693.684030	0.998058
694.020665	0.997421
694.357251	0.996705
694.693786	0.997253
695.030272	0.996542
695.366707	0.997171
695.703093	0.996884
696.039429	0.996505
696.375716	0.999282
696.711952	0.997277
697.048139	0.997642
697.384276	0.997029
697.720363	0.997854
698.056400	0.996639
698.392388	0.996923
698.728326	0.996939
699.064214	0.998212
699.400053	0.996720
699.735842	0.998422
700.071581	0.997001
700.407270	0.997219
700.742910	0.997587
701.078501	0.997851
701.414042	0.998696
701.749533	0.996327
702.084974	0.996769
702.420366	0.997647
702.755709	0.997509
703.091002	0.997636
703.426246	0.997808
703.761440	0.997340
704.096584	0.996890
704.431679	0.997372
704.766725	0.997476
705.101721	0.997725
705.436668	0.996456
705.771565	0.996855
706.106413	0.995948
706.441212	0.997516
706.775961	0.997598
707.110661	0.996686
707.445311	0.996728
707.779913	0.997872
708.114465	0.998084
708.448967	0.997473
708.783421	0.997606
709.117825	0.997137
709.452180	0.996863
709.786485	0.998530
710.120742	0.996921
710.454949	0.997187
710.789107	0.997148
711.123216	0.996040
711.457275	0.995802
711.791286	0.997342
712.125247	0.998269
712.459159	0.996911
712.793023	0.996962
713.126837	0.997643
713.460602	0.996824
713.794318	0.995906
714.127985	0.995713
714.461602	0.996440
714.795171	0.995771
715.128691	0.997139
715.462162	0.997395
715.795584	0.997295
716.128957	0.997290
716.462281	0.996895
716.795556	0.996479
717.128782	0.997856
717.461960	0.996952
717.795088	0.997488
718.128167	0.998120
718.461198	0.996981
718.794180	0.997725
719.127113	0.997394
719.459997	0.997081
719.792833	0.996767
720.125619	0.996208
720.458357	0.997957
720.791046	0.998401
721.123686	0.997805
721.456278	0.996976
721.788821	0.996797
722.121315	0.997865
722.453761	0.997846
722.786158	0.996783
723.118506	0.996914
723.450805	0.996650
723.783056	0.997143
724.115259	0.996423
724.447412	0.997776
724.779518	0.997171
725.111574	0.996554
725.443582	0.997705
725.775542	0.997922
726.107453	0.998229
726.439315	0.998148
726.771129	0.997852
727.102895	0.997230
727.434612	0.996849
727.766281	0.997049
728.097901	0.997069
728.429473	0.997644
728.760996	0.995995
729.092471	0.996434
729.423897	0.997312
729.755276	0.997744
730.086606	0.996366
730.417887	0.997559
730.749120	0.998012
731.080305	0.997782
731.411442	0.996166
731.742530	0.996449
732.073570	0.997062
732.404562	0.997168
732.735506	0.996472
733.066401	0.997401
733.397249	0.997094
733.728048	0.997132
734.058798	0.997498
734.389501	0.997662
734.720156	0.996593
735.050762	0.997853
735.381320	0.996883
735.711831	0.996399
736.042293	0.997211
736.372707	0.997872
736.703073	0.997756
737.033391	0.997103
737.363661	0.997675
737.693883	0.997544
738.024056	0.997790
738.354182	0.997455
738.684260	0.997478
739.014290	0.997299
739.344272	0.996860
739.674207	0.997321
740.004093	0.997258
740.333931	0.996257
740.663722	0.996595
740.993464	0.997033
741.323159	0.997401
741.652806	0.996953
741.982405	0.997982
742.311956	0.997604
742.641460	0.997458
742.970915	0.997284
743.300323	0.996122
743.629683	0.996960
743.958996	0.998211
744.288260	0.996147
744.617477	0.997059
744.946647	0.997854
745.275768	0.997524
745.604842	0.997373
745.933869	0.998042
746.262847	0.997360
746.591778	0.996278
746.920662	0.998201
747.249498	0.998929
747.578286	0.998479
747.907027	0.997035
748.235720	0.997490
748.564365	0.997462
748.892963	0.996875
749.221514	0.998337
749.550017	0.997235
749.878473	0.996810
750.206881	0.998998
750.535242	0.997441
750.863555	0.996940
751.191821	0.996974
751.520039	0.997067
751.848210	0.996918
752.176334	0.996655
752.504411	0.996993
752.832440	0.997469
753.160421	0.997563
753.488356	0.997980
753.816243	0.996731
754.144082	0.996779
754.471875	0.996083
754.799620	0.997644
755.127318	0.997979
755.454969	0.997518
755.782572	0.999348
756.110129	0.998414
756.437638	0.999261
756.765100	0.998276
757.092515	0.998318
757.419882	0.997654
757.747203	0.997174
758.074477	0.997721
758.401703	0.997359
758.728882	0.997326
759.056014	0.997384
759.383099	0.997398
759.710138	0.997159
760.037129	0.997443
760.364073	0.997818
760.690970	0.997739
761.017820	0.995897
761.344623	0.998756
761.671379	0.998269
761.998088	0.997840
762.324751	0.997761
762.651366	0.995923
762.977935	0.995781
763.304456	0.996630
763.630931	0.995878
763.957359	0.994886
764.283740	0.995165
764.610074	0.995069
764.936362	0.996351
765.262602	0.996822
765.588796	0.997070
765.914943	0.997535
766.241044	0.996671
766.567097	0.996972
766.893104	0.997366
767.219064	0.996808
767.544978	0.998129
767.870845	0.997481
768.196665	0.997276
768.522438	0.997858
768.848165	0.997566
769.173846	0.997763
769.499479	0.997821
769.825066	0.997341
770.150607	0.997924
770.476101	0.998555
770.801548	0.999303
771.126949	0.999077
771.452303	0.998396
771.777611	0.997487
772.102872	0.998118
772.428087	0.997428
772.753256	0.998712
773.078378	0.998258
773.403453	0.997116
773.728482	0.999490
774.053465	0.998194
774.378401	0.998892
774.703291	0.998918
775.028135	0.999338
775.352932	0.997449
775.677683	0.998815
776.002388	0.997896
776.327046	0.998365
776.651658	0.999529
776.976224	0.998406
777.300743	0.997834
777.625216	0.997207
777.949643	0.997873
778.274024	0.997567
778.598359	0.997907
778.922647	0.998311
779.246889	0.998806
779.571086	0.997450
779.895236	0.998346
780.219339	0.998489
780.543397	0.996890
780.867409	0.998924
781.191374	0.998260
781.515294	0.998848
781.839167	0.998929
782.162995	0.998063
782.486776	0.997675
782.810511	0.998367
783.134201	0.998773
783.457844	0.999169
783.781441	0.997826
784.104993	0.997874
784.428498	0.999313
784.751958	0.999613
785.075372	0.999354
785.398739	0.998060
785.722061	0.997585
786.045337	0.998891
786.368568	0.997738
786.691752	0.998074
787.014891	0.997791
787.337983	0.997210
787.661030	0.997332
787.984031	0.997991
788.306987	0.998485
788.629897	0.996927
788.952760	0.997997
789.275579	0.998113
789.598351	0.997511
789.921078	0.998459
790.243759	0.997666
790.566395	0.997695
790.888984	0.998384
791.211529	0.997337
791.534027	0.997813
791.856480	0.997717
792.178888	0.998128
792.501249	0.998340
792.823566	0.998466
793.145836	0.998668
793.468062	0.998115
793.790241	0.998267
794.112375	0.997651
794.434464	0.999420
794.756507	0.998971
795.078505	0.998303
795.400457	0.999240
795.722364	0.997480
796.044226	0.998233
796.366042	0.997308
796.687812	0.997888
797.009538	0.997490
797.331218	0.998476
797.652852	0.999655
797.974442	0.997777
798.295986	0.998409
798.617484	0.997595
798.938938	0.998440
799.260346	0.997166
799.581709	0.997465
799.903026	0.998882
800.224299	0.997640
800.545526	0.997490
800.866708	0.998346
801.187845	0.997695
801.508936	0.998070
801.829983	0.997976
802.150984	0.999028
802.471940	0.998485
802.792851	0.997295
803.113717	0.998877
803.434538	0.998782
803.755314	0.999574
804.076045	0.998723
804.396731	0.998032
804.717372	0.997348
805.037967	0.999901
805.358518	0.998933
805.679024	0.997617
805.999485	0.998849
806.319901	0.997969
806.640272	1.000097
806.960598	0.999054
807.280879	0.997018
807.601115	0.998687
807.921306	0.999330
808.241453	0.998473
808.561554	0.997352
808.881611	0.997776
809.201623	0.998475
809.521590	0.998791
809.841513	0.998606
810.161390	0.997383
810.481223	0.997395
810.801011	0.999368
811.120755	0.999468
811.440453	0.998349
811.760107	0.998570
812.079716	0.998509
812.399281	0.998467
812.718801	0.998180
813.038276	0.998322
813.357707	0.998722
813.677093	0.998879
813.996434	0.998828
814.315731	0.999767
814.634983	0.998291
814.954191	0.999281
815.273354	0.998866
815.592473	0.999160
815.911547	0.998236
816.230577	0.998451
816.549562	0.998559
816.868502	0.997330
817.187399	0.999126
817.506250	0.998947
817.825058	0.997115
818.143821	0.998580
818.462539	0.999060
818.781213	0.997847
819.099843	0.998012
819.418429	0.997987
819.736970	0.997324
820.055466	0.997582
820.373919	0.996436
820.692327	0.995569
821.010691	0.996282
821.329011	0.993762
821.647286	0.993241
821.965517	0.991886
822.283704	0.990012
822.601847	0.989371
822.919945	0.989419
823.237999	0.990351
823.556010	0.991305
823.873976	0.991775
824.191897	0.993356
824.509775	0.993360
824.827609	0.995450
825.145398	0.995564
825.463144	0.993902
825.780845	0.995252
826.098502	0.994324
826.416116	0.994798
826.733685	0.993834
827.051210	0.992382
827.368692	0.992966
827.686129	0.993217
828.003522	0.994849
828.320872	0.995328
828.638177	0.995725
828.955439	0.997211
829.272656	0.996974
829.589830	0.997728
829.906960	0.997850
830.224046	0.997336
830.541088	0.997478
830.858086	0.997913
831.175041	0.998358
831.491952	0.997274
831.808819	0.998307
832.125642	0.997979
832.442421	0.997821
832.759157	0.999141
833.075849	0.996142
833.392497	0.995499
833.709101	0.994174
834.025662	0.995357
834.342179	0.995254
834.658653	0.996726
834.975083	0.996877
835.291469	0.996656
835.607811	0.996784
835.924110	0.996350
836.240366	0.998309
836.556578	0.998293
836.872746	0.998582
837.188871	0.998305
837.504952	0.997985
837.820990	0.999001
838.136984	0.998088
838.452935	0.997790
838.768842	0.998374
839.084706	0.998742
839.400526	0.998397
839.716303	0.996553
840.032037	0.996870
840.347727	0.997061
840.663373	0.997705
840.978977	0.997695
841.294537	0.999202
841.610054	0.998991
841.925527	0.998251
842.240957	0.998661
842.556344	0.998506
842.871687	0.998838
843.186987	0.998906
843.502244	0.999805
843.817458	0.998257
844.132629	0.998467
844.447756	0.998842
844.762840	0.998904
845.077881	0.999774
845.392879	0.997545
845.707833	0.998985
846.022745	0.999121
846.337613	0.998702
846.652438	0.997577
846.967221	0.999135
847.281960	0.999321
847.596656	0.999864
847.911309	0.999488
848.225919	0.998264
848.540485	0.998834
848.855009	0.999226
849.169490	0.998895
849.483928	0.998115
849.798323	0.998103
850.112675	0.999625
850.426984	0.999504
850.741251	0.998958
851.055474	0.998861
851.369654	0.999488
851.683792	0.997515
851.997887	1.000092
852.311938	0.999789
852.625947	0.998127
852.939914	0.997620
853.253837	1.000453
853.567718	0.999895
853.881555	0.999388
854.195350	0.999104
854.509103	0.998917
854.822812	1.000054
855.136479	0.999501
855.450103	0.999195
855.763685	0.999040
856.077224	0.998261
856.390720	0.998624
856.704173	0.999606
857.017584	0.999686
857.330953	0.999450
857.644278	0.998568
857.957561	0.999633
858.270802	0.999220
858.584000	0.999242
858.897155	0.998058
859.210268	0.999359
859.523339	0.999648
859.836367	0.998651
860.149352	0.997974
860.462295	0.998470
860.775195	0.998381
861.088054	0.998242
861.400869	0.998556
861.713642	0.999526
862.026373	1.000067
862.339062	0.999184
862.651708	0.998287
862.964312	0.998965
863.276873	0.998936
863.589392	0.999838
863.901869	0.998428
864.214303	0.998993
864.526696	0.999234
864.839045	0.999013
865.151353	0.999739
865.463619	0.997462
865.775842	0.999485
866.088023	1.000012
866.400162	0.999531
866.712258	0.999425
867.024313	0.999471
867.336325	1.000063
867.648296	0.999961
867.960224	0.999427
868.272110	0.999747
868.583954	1.000832
868.895755	0.999895
869.207515	0.999474
869.519233	0.999683
869.830909	0.998234
870.142542	0.998048
870.454134	1.000055
870.765684	0.998213
871.077191	0.999468
871.388657	0.999108
871.700081	0.998510
872.011463	0.999410
872.322803	0.999351
872.634101	0.998764
872.945357	0.998883
873.256571	0.998039
873.567744	0.998861
873.878874	0.999041
874.189963	0.999382
874.501010	1.000279
874.812015	0.999113
875.122979	0.999870
875.433900	0.998723
875.744780	1.000275
876.055618	0.998569
876.366415	0.998995
876.677169	0.998560
876.987882	0.998275
877.298554	1.000169
877.609183	0.997947
877.919771	0.998538
878.230317	0.998678
878.540822	0.998415
878.851285	0.998502
879.161707	0.997610
879.472087	0.998567
879.782425	0.996274
880.092722	0.997564
880.402977	0.995039
880.713191	0.993187
881.023363	0.991300
881.333494	0.989854
881.643583	0.991422
881.953631	0.989909
882.263637	0.990289
882.573602	0.990525
882.883526	0.992309
883.193408	0.993376
883.503248	0.992769
883.813048	0.992635
884.122806	0.994651
884.432522	0.995122
884.742197	0.996223
885.051831	0.996100
885.361424	0.996913
885.670975	0.997236
885.980485	0.997942
886.289954	0.997463
886.599382	0.996944
886.908768	0.997560
887.218113	0.997604
887.527417	0.998187
887.836680	0.998867
888.145901	0.998534
888.455082	0.999334
888.764221	0.998983
889.073319	0.997856
889.382376	0.998245
889.691392	0.997819
890.000366	0.999162
890.309300	0.997584
890.618193	0.999722
890.927044	0.998714
891.235855	0.998483
891.544625	0.997752
891.853353	0.997686
892.162041	0.997914
892.470687	0.999472
892.779293	0.997346
893.087858	0.996960
893.396381	0.997235
893.704864	0.996744
894.013306	0.995616
894.321707	0.996166
894.630068	0.994266
894.938387	0.994870
895.246665	0.994848
895.554903	0.994738
895.863100	0.996910
896.171256	0.995745
896.479371	0.996000
896.787446	0.996971
897.095480	0.997648
897.403473	0.997486
897.711425	0.997500
898.019336	0.998028
898.327207	0.997990
898.635038	0.996313
898.942827	0.998053
899.250576	0.998016
899.558284	0.998600
899.865952	0.997781
900.173579	0.998576
900.481165	0.997525
900.788711	0.997285
901.096216	0.997986
901.403681	0.998599
901.711105	0.998047
902.018489	0.998444
902.325832	0.998213
902.633135	0.998241
902.940397	0.998363
903.247619	0.997540
903.554800	0.997063
903.861941	0.996319
904.169041	0.995032
904.476101	0.994238
904.783121	0.994181
905.090100	0.993881
905.397039	0.994805
905.703938	0.995449
906.010796	0.996209
906.317614	0.997097
906.624391	0.997316
906.931129	0.998384
907.237826	0.998240
907.544483	0.998300
907.851099	0.998192
908.157675	0.997143
908.464211	0.998457
908.770707	0.997382
909.077163	0.998740
909.383578	0.998001
909.689954	0.997718
909.996289	0.999541
910.302584	0.999640
910.608839	1.000481
910.915054	0.998142
911.221229	1.000069
911.527363	0.998907
911.833458	0.999171
912.139513	0.998454
912.445527	0.999769
912.751502	0.997995
913.057436	0.997254
913.363331	0.998940
913.669186	0.999071
913.975000	0.998122
914.280775	0.998497
914.586510	0.996988
914.892205	0.996883
915.197859	0.995752
915.503475	0.996418
915.809050	0.994263
916.114585	0.993256
916.420081	0.993725
916.725536	0.994107
917.030952	0.995257
917.336328	0.995179
917.641665	0.994839
917.946961	0.995977
918.252218	0.995547
918.557435	0.995844
918.862612	0.997196
919.167750	0.996736
919.472848	0.997714
919.777906	0.998781
920.082925	0.998701
920.387904	0.998564
920.692843	0.998359
920.997743	0.998941
921.302603	0.998175
921.607423	0.997889
921.912204	0.999200
922.216946	0.999859
922.521647	0.998287
922.826310	0.998356
923.130932	0.998180
923.435516	0.999653
923.740059	0.998705
924.044564	0.998602
924.349028	0.997590
924.653454	0.998909
924.957840	0.999403
925.262186	0.999315
925.566493	0.998926
925.870761	0.998435
926.174989	0.998752
926.479178	0.999905
926.783328	0.999855
927.087438	0.999636
927.391509	0.999202
927.695541	0.999347
927.999533	0.999558
928.303486	0.998825
928.607400	0.999686
928.911275	1.000433
929.215110	1.000704
929.518906	0.999644
929.822663	1.002295
930.126381	0.999985
930.430060	0.999034
930.733699	0.999801
931.037299	1.000013
931.340861	0.999867
931.644383	0.998184
931.947866	0.999194
932.251309	0.999584
932.554714	0.998728
932.858080	0.998547
933.161407	0.998249
933.464694	0.999000
933.767943	0.999402
934.071153	0.999794
934.374323	1.000219
934.677455	0.999533
934.980548	1.000095
935.283602	1.000164
935.586617	0.998760
935.889593	1.000299
936.192530	0.999526
936.495428	0.999456
936.798287	0.997996
937.101108	0.999833
937.403890	0.999222
937.706632	0.999604
938.009336	1.000005
938.312002	0.998199
938.614628	0.998197
938.917216	0.998700
939.219765	0.998388
939.522275	0.999285
939.824747	0.999011
940.127179	0.999422
940.429573	0.999986
940.731929	0.998047
941.034246	0.999056
941.336524	0.998371
941.638763	0.998633
941.940964	0.998308
942.243126	0.998710
942.545250	1.000050
942.847335	0.999138
943.149381	0.999219
943.451389	0.998130
943.753359	0.998908
944.055290	1.000179
944.357182	0.998971
944.659036	1.000615
944.960851	0.998682
945.262628	0.999838
945.564367	0.999052
945.866067	0.998971
946.167729	0.999967
946.469352	0.998519
946.770937	0.997024
947.072484	1.000950
947.373992	0.999254
947.675462	0.997774
947.976893	0.997945
948.278286	1.000973
948.579641	0.999737
948.880958	0.998524
949.182236	0.999739
949.483476	0.999672
949.784678	0.999088
950.085841	0.998987
950.386967	1.000143
950.688054	0.999872
950.989103	0.997713
951.290114	0.998478
951.591087	0.999708
951.892021	0.998152
952.192917	0.998982
952.493776	0.998142
952.794596	0.998092
953.095378	0.999075
953.396122	0.998847
953.696828	0.999931
953.997496	0.998667
954.298126	1.000974
954.598718	0.998474
954.899272	0.999970
955.199788	0.998317
955.500266	1.000386
955.800706	1.000078
956.101108	0.998382
956.401472	1.000634
956.701798	0.999205
957.002087	0.999153
957.302337	0.999539
957.602550	0.999965
957.902724	0.999076
958.202861	0.998886
958.502960	0.999256
958.803022	0.999545
959.103045	0.999620
959.403031	1.000670
959.702979	0.999658
960.002889	0.999804
960.302762	0.998874
960.602596	1.000321
960.902393	0.999085
961.202153	0.999122
961.501875	1.000076
961.801559	0.999830
962.101205	0.998959
962.400814	1.000329
962.700385	0.999390
962.999918	1.001294
963.299414	0.999675
963.598873	0.999703
963.898293	0.999797
964.197677	0.999481
964.497022	0.999800
964.796331	1.000262
965.095601	1.000086
965.394835	0.999518
965.694030	0.999595
965.993189	0.999347
966.292309	1.000261
966.591393	0.998703
966.890439	1.000036
967.189447	0.999351
967.488419	0.999477
967.787353	1.000313
968.086249	0.999620
968.385108	1.000311
968.683930	1.001035
968.982714	1.000646
969.281462	0.999367
969.580172	0.998907
969.878844	1.000328
970.177480	1.000114
970.476078	1.001103
970.774639	1.000628
971.073162	0.999756
971.371649	0.998857
971.670098	0.998909
971.968510	0.999614
972.266885	0.998001
972.565223	0.998846
972.863524	0.999422
973.161788	0.999333
973.460014	0.999863
973.758204	0.999734
974.056356	1.000801
974.354471	0.999038
974.652550	1.000079
974.950591	0.999719
975.248595	0.998295
975.546563	1.000153
975.844493	0.999871
976.142386	0.999352
976.440243	1.000115
976.738062	0.999507
977.035845	0.999669
977.333590	1.000338
977.631299	0.999181
977.928971	0.999069
978.226606	0.999635
978.524204	0.998568
978.821765	0.999114
979.119290	1.000528
979.416777	0.999525
979.714228	0.999743
980.011642	0.999580
980.309020	0.999273
980.606360	0.999856
980.903664	0.999445
981.200931	0.998595
981.498162	1.000246
981.795356	0.999461
982.092513	0.998699
982.389633	1.000358
982.686717	0.998262
982.983764	0.999482
983.280775	0.998379
983.577749	0.999858
983.874686	0.999027
984.171587	0.999011
984.468451	0.998220
984.765279	1.000318
985.062070	0.999227
985.358824	0.999488
985.655543	0.999533
985.952224	0.999024
986.248869	0.999776
986.545478	1.001165
986.842050	0.999395
987.138586	0.999158
987.435086	0.999372
987.731549	1.000867
988.027975	1.000550
988.324366	0.999375
988.620719	1.000870
988.917037	1.000126
989.213318	0.999626
989.509563	0.999577
989.805772	1.001152
990.101944	1.000304
990.398080	0.999815
990.694180	1.000738
990.990244	0.999195
991.286271	0.998357
991.582262	1.000072
991.878217	1.000257
992.174136	1.000427
992.470019	1.000264
992.765865	1.001311
993.061676	1.000188
993.357450	1.001111
993.653188	1.000363
993.948890	0.999968
994.244556	0.999010
994.540186	0.999375
994.835780	0.999500
995.131337	1.000230
995.426859	0.999244
995.722345	0.999453
996.017795	0.999073
996.313208	0.999845
996.608586	0.999645
996.903928	1.000245
997.199234	0.999692
997.494504	1.000486
997.789738	0.999032
998.084936	1.000118
998.380099	0.999469
998.675225	1.000702
998.970316	1.000485
999.265371	0.999262
999.560390	1.000306
999.855373	1.000190
1000.150320	0.998927
1000.445232	1.000403
1000.740108	0.998661
1001.034948	0.999205
1001.329752	1.000806
1001.624521	0.999654
1001.919254	0.999190
1002.213951	0.999688
1002.508613	0.999121
1002.803239	0.999709
1003.097829	1.000001
1003.392384	1.000749
1003.686903	1.000657
1003.981386	0.999373
1004.275834	1.001631
1004.570246	0.998977
1004.864623	1.000748
1005.158964	1.001104
1005.453270	1.000096
1005.747540	0.999528
1006.041775	0.999932
1006.335974	0.999871
1006.630138	0.999906
1006.924266	0.998702
1007.218359	0.997719
1007.512416	1.000077
1007.806438	0.999956
1008.100425	1.000330
1008.394376	1.001005
1008.688292	0.999626
1008.982172	0.999452
1009.276017	1.000627
1009.569827	1.001304
1009.863602	0.997237
1010.157341	1.000393
1010.451045	0.999386
1010.744714	1.001522
1011.038347	1.000148
1011.331945	0.997835
1011.625508	1.000423
1011.919036	0.999378
1012.212528	0.999475
1012.505986	1.000885
1012.799408	0.999207
1013.092795	0.999490
1013.386147	1.000091
1013.679464	1.001585
1013.972745	0.999170
1014.265992	1.000342
1014.559204	0.999712
1014.852380	1.000774
1015.145521	0.999518
1015.438628	0.999742
1015.731699	0.998215
1016.024736	0.999157
1016.317737	1.000390
1016.610703	0.999975
1016.903635	0.999453
1017.196531	0.999543
1017.489393	1.000515
1017.782219	0.998813
1018.075011	0.999804
1018.367768	0.998893
1018.660490	0.999542
1018.953177	0.999542
1019.245829	0.999542
