Dividing Wavelength (nm)	Counts (n)	Blue Motor Position (mm): 2.200000	Red Motor Position (mm): 0.000000	
326.493990	1.006384
326.888308	1.006384
327.282561	1.006384
327.676750	1.007542
328.070874	1.008269
328.464933	1.007534
328.858929	1.008004
329.252859	1.006985
329.646726	1.005885
330.040528	1.006326
330.434265	1.007642
330.827938	1.006597
331.221547	1.007129
331.615091	1.007243
332.008571	1.007401
332.401986	1.006483
332.795338	1.005486
333.188625	1.007163
333.581847	1.006555
333.975006	1.006710
334.368100	1.005997
334.761129	1.006165
335.154095	1.007685
335.546996	1.004157
335.939833	1.000546
336.332606	0.999885
336.725315	0.998565
337.117960	1.000585
337.510540	0.999724
337.903056	0.999183
338.295508	1.001443
338.687896	1.000869
339.080220	0.999232
339.472480	0.998701
339.864676	1.000753
340.256807	0.999130
340.648875	1.000507
341.040879	0.999171
341.432818	1.000436
341.824694	0.999839
342.216506	1.000223
342.608253	0.999650
342.999937	0.999918
343.391557	0.999514
343.783113	1.000888
344.174605	0.999737
344.566033	0.998297
344.957397	1.000760
345.348697	1.000131
345.739934	1.000179
346.131106	0.999524
346.522215	0.998586
346.913260	0.999958
347.304241	0.998186
347.695159	0.999326
348.086012	1.000106
348.476802	0.999089
348.867528	0.998696
349.258191	1.000193
349.648789	1.000443
350.039324	0.999672
350.429796	0.998502
350.820203	0.998779
351.210548	0.999359
351.600828	1.000020
351.991045	0.998818
352.381198	1.000280
352.771288	0.998592
353.161314	0.999889
353.551276	0.997537
353.941175	0.999036
354.331010	1.000734
354.720782	0.998645
355.110490	0.999188
355.500135	0.999662
355.889717	0.998693
356.279235	0.999349
356.668689	0.999954
357.058080	0.999879
357.447408	0.998237
357.836672	0.999215
358.225873	0.997911
358.615010	0.999672
359.004084	0.997842
359.393095	0.999503
359.782043	0.999201
360.170927	0.998484
360.559748	0.998491
360.948505	0.998277
361.337199	0.998571
361.725830	0.999435
362.114398	0.998595
362.502903	0.996966
362.891344	0.995980
363.279722	0.997827
363.668037	0.998921
364.056289	0.997075
364.444478	1.000589
364.832603	0.996734
365.220665	0.997534
365.608665	0.997901
365.996601	0.996915
366.384474	0.996823
366.772284	0.996370
367.160031	0.997127
367.547715	0.995693
367.935336	0.996210
368.322893	0.994080
368.710388	0.993757
369.097820	0.990871
369.485189	0.989027
369.872495	0.987481
370.259738	0.985892
370.646918	0.982444
371.034035	0.979910
371.421090	0.977020
371.808081	0.972820
372.195010	0.969438
372.581875	0.965425
372.968678	0.960697
373.355418	0.957265
373.742096	0.948190
374.128710	0.944480
374.515262	0.938990
374.901751	0.933834
375.288177	0.929805
375.674540	0.922536
376.060841	0.916266
376.447079	0.907525
376.833254	0.902822
377.219367	0.898302
377.605417	0.887052
377.991404	0.883131
378.377329	0.877121
378.763191	0.871980
379.148991	0.862132
379.534727	0.854324
379.920402	0.846729
380.306013	0.842310
380.691563	0.829377
381.077049	0.822639
381.462474	0.818495
381.847835	0.807516
382.233134	0.802829
382.618371	0.802861
383.003545	0.786117
383.388657	0.783132
383.773706	0.775700
384.158693	0.772864
384.543618	0.766854
384.928480	0.757936
385.313280	0.747853
385.698017	0.746357
386.082692	0.736126
386.467305	0.733669
386.851856	0.728304
387.236344	0.723748
387.620770	0.717908
388.005133	0.712222
388.389435	0.706780
388.773674	0.704229
389.157851	0.696972
389.541965	0.694375
389.926018	0.700448
390.310008	0.687038
390.693936	0.684042
391.077802	0.675773
391.461606	0.678101
391.845348	0.666093
392.229027	0.665962
392.612645	0.663908
392.996200	0.651447
393.379694	0.644790
393.763125	0.634751
394.146494	0.639671
394.529801	0.629941
394.913047	0.621860
395.296230	0.626982
395.679351	0.619140
396.062410	0.615285
396.445408	0.619232
396.828343	0.613875
397.211217	0.609545
397.594028	0.621446
397.976778	0.611439
398.359466	0.607682
398.742092	0.603693
399.124656	0.615471
399.507158	0.603392
399.889598	0.600967
400.271977	0.591647
400.654294	0.596028
401.036549	0.594683
401.418742	0.598792
401.800874	0.585311
402.182944	0.582080
402.564952	0.573836
402.946898	0.575041
403.328783	0.576698
403.710606	0.587200
404.092367	0.562378
404.474067	0.567205
404.855705	0.565885
405.237282	0.575609
405.618797	0.561473
406.000250	0.556942
406.381642	0.546812
406.762972	0.552631
407.144240	0.550480
407.525447	0.550429
407.906593	0.543448
408.287677	0.537985
408.668700	0.547184
409.049661	0.541195
409.430560	0.535834
409.811399	0.545656
410.192176	0.526811
410.572891	0.534142
410.953545	0.521898
411.334138	0.535447
411.714669	0.527366
412.095139	0.540096
412.475547	0.523806
412.855894	0.526500
413.236180	0.525164
413.616405	0.530661
413.996568	0.520894
414.376670	0.527018
414.756711	0.531680
415.136691	0.528779
415.516609	0.520001
415.896466	0.516371
416.276262	0.512316
416.655997	0.514222
417.035670	0.496169
417.415283	0.487740
417.794834	0.492281
418.174324	0.497986
418.553753	0.506884
418.933121	0.489146
419.312428	0.483021
419.691674	0.488285
420.070859	0.476980
420.449983	0.485254
420.829045	0.474055
421.208047	0.482937
421.586988	0.476207
421.965867	0.475427
422.344686	0.463982
422.723444	0.476469
423.102141	0.493614
423.480777	0.466334
423.859352	0.486878
424.237866	0.463769
424.616319	0.464703
424.994712	0.455652
425.373044	0.466339
425.751314	0.454104
426.129524	0.470599
426.507673	0.454273
426.885762	0.447750
427.263789	0.452842
427.641756	0.463575
428.019662	0.453082
428.397508	0.452826
428.775292	0.457400
429.153016	0.448690
429.530679	0.455064
429.908282	0.447990
430.285824	0.458588
430.663305	0.436390
431.040726	0.457570
431.418086	0.457472
431.795385	0.449368
432.172624	0.448592
432.549802	0.448913
432.926920	0.447879
433.303977	0.447022
433.680974	0.444152
434.057910	0.443197
434.434786	0.442134
434.811601	0.444952
435.188355	0.427458
435.565050	0.436682
435.941683	0.437919
436.318257	0.422322
436.694770	0.422738
437.071222	0.421203
437.447614	0.425462
437.823946	0.431484
438.200218	0.421148
438.576429	0.430158
438.952580	0.423198
439.328670	0.420480
439.704700	0.426951
440.080670	0.428249
440.456580	0.409666
440.832429	0.417667
441.208218	0.428704
441.583947	0.417641
441.959616	0.416900
442.335224	0.422554
442.710773	0.413070
443.086261	0.411109
443.461689	0.424647
443.837057	0.414676
444.212365	0.404972
444.587612	0.411825
444.962800	0.401580
445.337927	0.403517
445.712995	0.429581
446.088002	0.391481
446.462949	0.401827
446.837837	0.407060
447.212664	0.395501
447.587431	0.386921
447.962139	0.357459
448.336786	0.316297
448.711374	0.326684
449.085901	0.371461
449.460369	0.375410
449.834776	0.379170
450.209124	0.358033
450.583412	0.350861
450.957640	0.343824
451.331808	0.355460
451.705917	0.378479
452.079965	0.383528
452.453954	0.371512
452.827883	0.378518
453.201752	0.373163
453.575562	0.384334
453.949311	0.373085
454.323001	0.378723
454.696632	0.375284
455.070202	0.367652
455.443713	0.359259
455.817164	0.354034
456.190556	0.349915
456.563888	0.346483
456.937160	0.344112
457.310373	0.361230
457.683526	0.360388
458.056619	0.365865
458.429653	0.366682
458.802628	0.370248
459.175542	0.364808
459.548398	0.346617
459.921194	0.339524
460.293930	0.339594
460.666607	0.316936
461.039224	0.305311
461.411782	0.300958
461.784280	0.300101
462.156719	0.303942
462.529099	0.308783
462.901419	0.324714
463.273680	0.328967
463.645882	0.328274
464.018024	0.334432
464.390106	0.327326
464.762130	0.311916
465.134094	0.294861
465.505999	0.263414
465.877845	0.233972
466.249631	0.220735
466.621358	0.228199
466.993026	0.242436
467.364634	0.248436
467.736184	0.257473
468.107674	0.265887
468.479105	0.265123
468.850477	0.272214
469.221790	0.279002
469.593043	0.288905
469.964238	0.293667
470.335373	0.293242
470.706449	0.291303
471.077467	0.291906
471.448425	0.254111
471.819324	0.229331
472.190164	0.228938
472.560945	0.258131
472.931667	0.280481
473.302330	0.284599
473.672934	0.296200
474.043479	0.284339
474.413965	0.286420
474.784393	0.289449
475.154761	0.284648
475.525070	0.281619
475.895321	0.287558
476.265513	0.281732
476.635645	0.277022
477.005719	0.276844
477.375734	0.273850
477.745691	0.266735
478.115588	0.262991
478.485427	0.256767
478.855207	0.243703
479.224928	0.225965
479.594591	0.213901
479.964194	0.217551
480.333739	0.218553
480.703226	0.220316
481.072653	0.218407
481.442022	0.214182
481.811333	0.210726
482.180584	0.214377
482.549777	0.219518
482.918912	0.223005
483.287988	0.222664
483.657005	0.222251
484.025964	0.229058
484.394864	0.226072
484.763706	0.226697
485.132489	0.231561
485.501213	0.232397
485.869879	0.230686
486.238487	0.233994
486.607036	0.231789
486.975527	0.236892
487.343959	0.232359
487.712333	0.231283
488.080648	0.232709
488.448905	0.231907
488.817104	0.233405
489.185244	0.228101
489.553326	0.224405
489.921350	0.214657
490.289315	0.196833
490.657222	0.191826
491.025070	0.193440
491.392861	0.195133
491.760593	0.201062
492.128267	0.206622
492.495883	0.212056
492.863440	0.218490
493.230939	0.224844
493.598380	0.226372
493.965763	0.228542
494.333088	0.230611
494.700354	0.232332
495.067563	0.231297
495.434713	0.234599
495.801805	0.232349
496.168839	0.233977
496.535815	0.235458
496.902733	0.235255
497.269593	0.236900
497.636395	0.234133
498.003139	0.234674
498.369825	0.237798
498.736453	0.234371
499.103023	0.235853
499.469535	0.235450
499.835989	0.235616
500.202385	0.236113
500.568723	0.239556
500.935003	0.234735
501.301226	0.238864
501.667390	0.233193
502.033497	0.231195
502.399546	0.234118
502.765537	0.236230
503.131470	0.234898
503.497345	0.230900
503.863163	0.239178
504.228923	0.232424
504.594625	0.231289
504.960269	0.236939
505.325856	0.232129
505.691385	0.236486
506.056856	0.232933
506.422270	0.232510
506.787625	0.235088
507.152924	0.232327
507.518164	0.232976
507.883347	0.234511
508.248472	0.236411
508.613540	0.231170
508.978550	0.233764
509.343503	0.234419
509.708398	0.232085
510.073236	0.229563
510.438016	0.229152
510.802738	0.229918
511.167403	0.229161
511.532010	0.231256
511.896561	0.226625
512.261053	0.225260
512.625488	0.227654
512.989866	0.227947
513.354186	0.228310
513.718449	0.230077
514.082655	0.226242
514.446803	0.228605
514.810894	0.226247
515.174927	0.229290
515.538904	0.228357
515.902822	0.225344
516.266684	0.227612
516.630488	0.228893
516.994235	0.227725
517.357925	0.226496
517.721558	0.224875
518.085133	0.224389
518.448651	0.224168
518.812112	0.226548
519.175516	0.226548
519.538863	0.223733
519.902152	0.225845
520.265385	0.222382
520.628560	0.223775
520.991678	0.224369
521.354739	0.223470
521.717743	0.224613
522.080690	0.224824
522.443580	0.222221
522.806413	0.223271
523.169189	0.222757
523.531908	0.221493
523.894569	0.224896
524.257174	0.224844
524.619722	0.222666
524.982213	0.223897
525.344647	0.222756
525.707025	0.223664
526.069345	0.221652
526.431608	0.223604
526.793815	0.221038
527.155964	0.225511
527.518057	0.224353
527.880093	0.225464
528.242072	0.224243
528.603995	0.225968
528.965860	0.227718
529.327669	0.226387
529.689421	0.227518
530.051117	0.228037
530.412755	0.225924
530.774337	0.228101
531.135862	0.228878
531.497331	0.227859
531.858743	0.230818
532.220098	0.227580
532.581396	0.230073
532.942638	0.230626
533.303824	0.231699
533.664953	0.231123
534.026025	0.233246
534.387040	0.231075
534.747999	0.230990
535.108902	0.229888
535.469748	0.235352
535.830537	0.232788
536.191270	0.233272
536.551947	0.232576
536.912567	0.232542
537.273131	0.234249
537.633638	0.234755
537.994089	0.234728
538.354483	0.236106
538.714821	0.233044
539.075103	0.232825
539.435328	0.233466
539.795497	0.237329
540.155609	0.233906
540.515665	0.232009
540.875665	0.237558
541.235609	0.236224
541.595496	0.236272
541.955328	0.233011
542.315102	0.235296
542.674821	0.236484
543.034483	0.236952
543.394090	0.236568
543.753640	0.238316
544.113134	0.232907
544.472571	0.236636
544.831953	0.233332
545.191278	0.237679
545.550548	0.236785
545.909761	0.233712
546.268918	0.234473
546.628019	0.232807
546.987064	0.235694
547.346053	0.237140
547.704986	0.235023
548.063863	0.235302
548.422684	0.235497
548.781449	0.237558
549.140158	0.235018
549.498811	0.237994
549.857408	0.240948
550.215949	0.235525
550.574434	0.238790
550.932864	0.236962
551.291237	0.235203
551.649555	0.236748
552.007817	0.236558
552.366022	0.237634
552.724173	0.237850
553.082267	0.238008
553.440305	0.234797
553.798288	0.239161
554.156215	0.235912
554.514086	0.236595
554.871902	0.239873
555.229661	0.238858
555.587365	0.239600
555.945014	0.242226
556.302606	0.239137
556.660143	0.241470
557.017625	0.238081
557.375050	0.240375
557.732421	0.237364
558.089735	0.239200
558.446994	0.239287
558.804197	0.238327
559.161345	0.238511
559.518437	0.241779
559.875474	0.239947
560.232455	0.239236
560.589381	0.240231
560.946251	0.240363
561.303065	0.238023
561.659825	0.239335
562.016528	0.241015
562.373177	0.243451
562.729770	0.240764
563.086307	0.242825
563.442789	0.240746
563.799216	0.243700
564.155587	0.242706
564.511904	0.243746
564.868164	0.243721
565.224370	0.243669
565.580520	0.245439
565.936615	0.245085
566.292654	0.248103
566.648638	0.245296
567.004567	0.245843
567.360441	0.246300
567.716260	0.248638
568.072023	0.246402
568.427732	0.247157
568.783385	0.249466
569.138982	0.247570
569.494525	0.247411
569.850013	0.250199
570.205445	0.248847
570.560823	0.251055
570.916145	0.253347
571.271412	0.251483
571.626625	0.252687
571.981782	0.253945
572.336884	0.254292
572.691931	0.253981
573.046923	0.255484
573.401860	0.256514
573.756743	0.258384
574.111570	0.257107
574.466342	0.257808
574.821059	0.256826
575.175722	0.259670
575.530330	0.259223
575.884882	0.259460
576.239380	0.261413
576.593823	0.262038
576.948211	0.261666
577.302544	0.264660
577.656823	0.264447
578.011047	0.264097
578.365216	0.265314
578.719330	0.267602
579.073389	0.266938
579.427394	0.268336
579.781344	0.269119
580.135239	0.270514
580.489080	0.270143
580.842866	0.273106
581.196597	0.273323
581.550273	0.271799
581.903895	0.272720
582.257463	0.270874
582.610975	0.274420
582.964434	0.273601
583.317837	0.276439
583.671186	0.276620
584.024481	0.276594
584.377721	0.278822
584.730906	0.279671
585.084037	0.279226
585.437113	0.281006
585.790135	0.280236
586.143103	0.283422
586.496016	0.284253
586.848874	0.282172
587.201679	0.282659
587.554428	0.286139
587.907124	0.284392
588.259765	0.285258
588.612352	0.285833
588.964884	0.289675
589.317362	0.289183
589.669786	0.289150
590.022155	0.287830
590.374470	0.286791
590.726731	0.288838
591.078937	0.294112
591.431090	0.290464
591.783188	0.294469
592.135232	0.294917
592.487222	0.294925
592.839157	0.293229
593.191038	0.295425
593.542866	0.297275
593.894639	0.300511
594.246358	0.299078
594.598022	0.298423
594.949633	0.302198
595.301190	0.302559
595.652692	0.301794
596.004141	0.297764
596.355535	0.306137
596.706876	0.306432
597.058162	0.308906
597.409395	0.306116
597.760573	0.303755
598.111698	0.307008
598.462768	0.307750
598.813785	0.308576
599.164748	0.310056
599.515657	0.310224
599.866511	0.314188
600.217312	0.309273
600.568060	0.314627
600.918753	0.310884
601.269392	0.311887
601.619978	0.315143
601.970510	0.312818
602.320988	0.312717
602.671412	0.310656
603.021783	0.313477
603.372100	0.314328
603.722363	0.314309
604.072572	0.315161
604.422728	0.314627
604.772830	0.316896
605.122878	0.316485
605.472872	0.316923
605.822813	0.315765
606.172701	0.318047
606.522534	0.315647
606.872314	0.315537
607.222041	0.316914
607.571714	0.314398
607.921333	0.316247
608.270899	0.315484
608.620411	0.312479
608.969870	0.316239
609.319276	0.316571
609.668627	0.316617
610.017926	0.314615
610.367171	0.313435
610.716362	0.314261
611.065500	0.314447
611.414585	0.313144
611.763616	0.313240
612.112594	0.313947
612.461518	0.313034
612.810389	0.311188
613.159207	0.313325
613.507971	0.315448
613.856682	0.311192
614.205340	0.312326
614.553945	0.309524
614.902496	0.313069
615.250994	0.311096
615.599439	0.311939
615.947830	0.311125
616.296169	0.312519
616.644454	0.312078
616.992686	0.311929
617.340864	0.309874
617.688990	0.313551
618.037063	0.309859
618.385082	0.311744
618.733048	0.308536
619.080961	0.310899
619.428821	0.310661
619.776628	0.310405
620.124382	0.312286
620.472083	0.312955
620.819731	0.311917
621.167326	0.316160
621.514868	0.315512
621.862357	0.319781
622.209793	0.318762
622.557176	0.321849
622.904506	0.322392
623.251783	0.325306
623.599007	0.327459
623.946179	0.326904
624.293297	0.328948
624.640363	0.332679
624.987376	0.333420
625.334336	0.335593
625.681243	0.338164
626.028097	0.338787
626.374899	0.339970
626.721647	0.340300
627.068343	0.343189
627.414987	0.344666
627.761577	0.346541
628.108115	0.344540
628.454600	0.350137
628.801032	0.347471
629.147412	0.349458
629.493739	0.350265
629.840014	0.353101
630.186236	0.350236
630.532405	0.355777
630.878521	0.353003
631.224585	0.355420
631.570597	0.359108
631.916556	0.358080
632.262462	0.357219
632.608316	0.359943
632.954117	0.360594
633.299866	0.361144
633.645562	0.361905
633.991206	0.366105
634.336797	0.369048
634.682336	0.371698
635.027823	0.372938
635.373257	0.373805
635.718639	0.377648
636.063968	0.376638
636.409245	0.382212
636.754470	0.383137
637.099642	0.384998
637.444762	0.388530
637.789829	0.387576
638.134845	0.391206
638.479808	0.392285
638.824719	0.392058
639.169577	0.396539
639.514383	0.395050
639.859137	0.399640
640.203839	0.399098
640.548489	0.399624
640.893086	0.400734
641.237632	0.402397
641.582125	0.401500
641.926566	0.403218
642.270955	0.403034
642.615292	0.403230
642.959576	0.402610
643.303809	0.403049
643.647990	0.402331
643.992118	0.403724
644.336195	0.406227
644.680219	0.404655
645.024192	0.405756
645.368112	0.399391
645.711981	0.397698
646.055797	0.393266
646.399562	0.395782
646.743274	0.388712
647.086935	0.384996
647.430544	0.385737
647.774101	0.384264
648.117606	0.383727
648.461059	0.384661
648.804460	0.387290
649.147810	0.391813
649.491108	0.393636
649.834354	0.395522
650.177548	0.400663
650.520690	0.406287
650.863781	0.407228
651.206820	0.406300
651.549807	0.410780
651.892742	0.415192
652.235626	0.414965
652.578458	0.415477
652.921238	0.422074
653.263967	0.419262
653.606644	0.423268
653.949269	0.423520
654.291843	0.427507
654.634365	0.424419
654.976836	0.427088
655.319255	0.427710
655.661622	0.428582
656.003938	0.428837
656.346203	0.432059
656.688416	0.429492
657.030577	0.433345
657.372687	0.435443
657.714746	0.436330
658.056753	0.432895
658.398708	0.436145
658.740612	0.438314
659.082465	0.434073
659.424266	0.434658
659.766016	0.433871
660.107715	0.437016
660.449362	0.435350
660.790958	0.436153
661.132503	0.437793
661.473996	0.434806
661.815438	0.435443
662.156829	0.436010
662.498168	0.436878
662.839456	0.438104
663.180693	0.435538
663.521879	0.435584
663.863013	0.436796
664.204097	0.434667
664.545129	0.431890
664.886110	0.432145
665.227040	0.429273
665.567918	0.431760
665.908746	0.429814
666.249522	0.429581
666.590248	0.430784
666.930922	0.428214
667.271545	0.428362
667.612118	0.427872
667.952639	0.429590
668.293109	0.428584
668.633528	0.430615
668.973896	0.430536
669.314213	0.431788
669.654480	0.433182
669.994695	0.433159
670.334859	0.434455
670.674973	0.434496
671.015035	0.434323
671.355047	0.434473
671.695008	0.435356
672.034918	0.437079
672.374777	0.436650
672.714585	0.437689
673.054342	0.437941
673.394049	0.437729
673.733705	0.435285
674.073310	0.436913
674.412864	0.439416
674.752368	0.440095
675.091820	0.440497
675.431223	0.445134
675.770574	0.444680
676.109875	0.447951
676.449125	0.447524
676.788324	0.449954
677.127473	0.455099
677.466571	0.455308
677.805619	0.456633
678.144616	0.458419
678.483562	0.459968
678.822458	0.462944
679.161303	0.462772
679.500098	0.463690
679.838842	0.464988
680.177535	0.464777
680.516179	0.462842
680.854771	0.462009
681.193314	0.456181
681.531805	0.446897
681.870247	0.435588
682.208638	0.427589
682.546978	0.427022
682.885268	0.428372
683.223508	0.434660
683.561697	0.439020
683.899836	0.440817
684.237925	0.444452
684.575963	0.447774
684.913951	0.450922
685.251889	0.446046
685.589776	0.448787
685.927614	0.450150
686.265401	0.444556
686.603137	0.445985
686.940824	0.440426
687.278460	0.439104
687.616046	0.437370
687.953582	0.432735
688.291068	0.433889
688.628504	0.429593
688.965889	0.432263
689.303224	0.435435
689.640510	0.439923
689.977745	0.445511
690.314930	0.453658
690.652065	0.458726
690.989150	0.465704
691.326185	0.472464
691.663170	0.476669
692.000105	0.484270
692.336990	0.491967
692.673825	0.493723
693.010610	0.500076
693.347345	0.506861
693.684030	0.507337
694.020665	0.512457
694.357251	0.521553
694.693786	0.521037
695.030272	0.523937
695.366707	0.528755
695.703093	0.531898
696.039429	0.529559
696.375716	0.531614
696.711952	0.534636
697.048139	0.536395
697.384276	0.538262
697.720363	0.537057
698.056400	0.535716
698.392388	0.541147
698.728326	0.543946
699.064214	0.546829
699.400053	0.547455
699.735842	0.551570
700.071581	0.553667
700.407270	0.557240
700.742910	0.559396
701.078501	0.566120
701.414042	0.566781
701.749533	0.569385
702.084974	0.579053
702.420366	0.571776
702.755709	0.578945
703.091002	0.586999
703.426246	0.580539
703.761440	0.584945
704.096584	0.589817
704.431679	0.587035
704.766725	0.590066
705.101721	0.591441
705.436668	0.587871
705.771565	0.594699
706.106413	0.590557
706.441212	0.586589
706.775961	0.585891
707.110661	0.587632
707.445311	0.584939
707.779913	0.581995
708.114465	0.579840
708.448967	0.576839
708.783421	0.568643
709.117825	0.563228
709.452180	0.562803
709.786485	0.557543
710.120742	0.546828
710.454949	0.549051
710.789107	0.540557
711.123216	0.531530
711.457275	0.532741
711.791286	0.524804
712.125247	0.523056
712.459159	0.534053
712.793023	0.526184
713.126837	0.530626
713.460602	0.530366
713.794318	0.539646
714.127985	0.538558
714.461602	0.548971
714.795171	0.552573
715.128691	0.560637
715.462162	0.568083
715.795584	0.573597
716.128957	0.577284
716.462281	0.583085
716.795556	0.586639
717.128782	0.591938
717.461960	0.601886
717.795088	0.600283
718.128167	0.606088
718.461198	0.615323
718.794180	0.615948
719.127113	0.618389
719.459997	0.621794
719.792833	0.628053
720.125619	0.629826
720.458357	0.635779
720.791046	0.633966
721.123686	0.638160
721.456278	0.645457
721.788821	0.643140
722.121315	0.647473
722.453761	0.651689
722.786158	0.649116
723.118506	0.644878
723.450805	0.653756
723.783056	0.650007
724.115259	0.646551
724.447412	0.646606
724.779518	0.647710
725.111574	0.646588
725.443582	0.642074
725.775542	0.644298
726.107453	0.636652
726.439315	0.636521
726.771129	0.634352
727.102895	0.628187
727.434612	0.620900
727.766281	0.618974
728.097901	0.618105
728.429473	0.617304
728.760996	0.616012
729.092471	0.616938
729.423897	0.620081
729.755276	0.618749
730.086606	0.618671
730.417887	0.614451
730.749120	0.604451
731.080305	0.595134
731.411442	0.590499
731.742530	0.594778
732.073570	0.595027
732.404562	0.586758
732.735506	0.588725
733.066401	0.593099
733.397249	0.602443
733.728048	0.613304
734.058798	0.627099
734.389501	0.638075
734.720156	0.648326
735.050762	0.656347
735.381320	0.656112
735.711831	0.665083
736.042293	0.670014
736.372707	0.666879
736.703073	0.670211
737.033391	0.672278
737.363661	0.670407
737.693883	0.666043
738.024056	0.664216
738.354182	0.664291
738.684260	0.653336
739.014290	0.650369
739.344272	0.650067
739.674207	0.643567
740.004093	0.643434
740.333931	0.644873
740.663722	0.643255
740.993464	0.644325
741.323159	0.648579
741.652806	0.653303
741.982405	0.657618
742.311956	0.663673
742.641460	0.664822
742.970915	0.669064
743.300323	0.675752
743.629683	0.682231
743.958996	0.685570
744.288260	0.689454
744.617477	0.695110
744.946647	0.697041
745.275768	0.703104
745.604842	0.702499
745.933869	0.712107
746.262847	0.713559
746.591778	0.706095
746.920662	0.713473
747.249498	0.719219
747.578286	0.711001
747.907027	0.706249
748.235720	0.706816
748.564365	0.702835
748.892963	0.701996
749.221514	0.704810
749.550017	0.710245
749.878473	0.710165
750.206881	0.717285
750.535242	0.716691
750.863555	0.716073
751.191821	0.717741
751.520039	0.721117
751.848210	0.725122
752.176334	0.719089
752.504411	0.716863
752.832440	0.725496
753.160421	0.729205
753.488356	0.727188
753.816243	0.725248
754.144082	0.733574
754.471875	0.737199
754.799620	0.732793
755.127318	0.734287
755.454969	0.735120
755.782572	0.734116
756.110129	0.739164
756.437638	0.740920
756.765100	0.738518
757.092515	0.735353
757.419882	0.734934
757.747203	0.740032
758.074477	0.739846
758.401703	0.735971
758.728882	0.731047
759.056014	0.729937
759.383099	0.729921
759.710138	0.730787
760.037129	0.726556
760.364073	0.720258
760.690970	0.723385
761.017820	0.727241
761.344623	0.724303
761.671379	0.715910
761.998088	0.703629
762.324751	0.680745
762.651366	0.637534
762.977935	0.569501
763.304456	0.518313
763.630931	0.508007
763.957359	0.547636
764.283740	0.591682
764.610074	0.619921
764.936362	0.652007
765.262602	0.679568
765.588796	0.700269
765.914943	0.717374
766.241044	0.736213
766.567097	0.741843
766.893104	0.752347
767.219064	0.759009
767.544978	0.766237
767.870845	0.778462
768.196665	0.783475
768.522438	0.780934
768.848165	0.783200
769.173846	0.792005
769.499479	0.796695
769.825066	0.801102
770.150607	0.805170
770.476101	0.800189
770.801548	0.802196
771.126949	0.814649
771.452303	0.818214
771.777611	0.815277
772.102872	0.815021
772.428087	0.820202
772.753256	0.824638
773.078378	0.826001
773.403453	0.834500
773.728482	0.838432
774.053465	0.832023
774.378401	0.835935
774.703291	0.845238
775.028135	0.845216
775.352932	0.844983
775.677683	0.850183
776.002388	0.849944
776.327046	0.849456
776.651658	0.853464
776.976224	0.856295
777.300743	0.854899
777.625216	0.858735
777.949643	0.861010
778.274024	0.858904
778.598359	0.861843
778.922647	0.859573
779.246889	0.861389
779.571086	0.864253
779.895236	0.868166
780.219339	0.864808
780.543397	0.860956
780.867409	0.859327
781.191374	0.861945
781.515294	0.863533
781.839167	0.862868
782.162995	0.864581
782.486776	0.862678
782.810511	0.864121
783.134201	0.868208
783.457844	0.865211
783.781441	0.868178
784.104993	0.872888
784.428498	0.875218
784.751958	0.871339
785.075372	0.872085
785.398739	0.875903
785.722061	0.871029
786.045337	0.867128
786.368568	0.871759
786.691752	0.875829
787.014891	0.860519
787.337983	0.851381
787.661030	0.844058
787.984031	0.825681
788.306987	0.813936
788.629897	0.815172
788.952760	0.819398
789.275579	0.823741
789.598351	0.840204
789.921078	0.852685
790.243759	0.854413
790.566395	0.858992
790.888984	0.867458
791.211529	0.871042
791.534027	0.874930
791.856480	0.878692
792.178888	0.882511
792.501249	0.883759
792.823566	0.887201
793.145836	0.886515
793.468062	0.888378
793.790241	0.889777
794.112375	0.886467
794.434464	0.883117
794.756507	0.883150
795.078505	0.880278
795.400457	0.875437
795.722364	0.863002
796.044226	0.857143
796.366042	0.854377
796.687812	0.857728
797.009538	0.854070
797.331218	0.859013
797.652852	0.862106
797.974442	0.866475
798.295986	0.868721
798.617484	0.868822
798.938938	0.874322
799.260346	0.878263
799.581709	0.880684
799.903026	0.883433
800.224299	0.884072
800.545526	0.887772
800.866708	0.892237
801.187845	0.895476
801.508936	0.895171
801.829983	0.892111
802.150984	0.897234
802.471940	0.900839
802.792851	0.900400
803.113717	0.902073
803.434538	0.899793
803.755314	0.901850
804.076045	0.903776
804.396731	0.902114
804.717372	0.902155
805.037967	0.906652
805.358518	0.903538
805.679024	0.898942
805.999485	0.900005
806.319901	0.900239
806.640272	0.901792
806.960598	0.900387
807.280879	0.896439
807.601115	0.895108
807.921306	0.899597
808.241453	0.899239
808.561554	0.897238
808.881611	0.898237
809.201623	0.899318
809.521590	0.899430
809.841513	0.900619
810.161390	0.898976
810.481223	0.901117
810.801011	0.904057
811.120755	0.906376
811.440453	0.904562
811.760107	0.905949
812.079716	0.904339
812.399281	0.906772
812.718801	0.910472
813.038276	0.910696
813.357707	0.910950
813.677093	0.909304
813.996434	0.909753
814.315731	0.912401
814.634983	0.913648
814.954191	0.912888
815.273354	0.906406
815.592473	0.904511
815.911547	0.905496
816.230577	0.900993
816.549562	0.898294
816.868502	0.899914
817.187399	0.895976
817.506250	0.892183
817.825058	0.892763
818.143821	0.889370
818.462539	0.883825
818.781213	0.876524
819.099843	0.865321
819.418429	0.849117
819.736970	0.831510
820.055466	0.811088
820.373919	0.784971
820.692327	0.751907
821.010691	0.715340
821.329011	0.634586
821.647286	0.518054
821.965517	0.403434
822.283704	0.359442
822.601847	0.360241
822.919945	0.395811
823.237999	0.430604
823.556010	0.479383
823.873976	0.535690
824.191897	0.586986
824.509775	0.631107
824.827609	0.676143
825.145398	0.699465
825.463144	0.701861
825.780845	0.685005
826.098502	0.666032
826.416116	0.619570
826.733685	0.575489
827.051210	0.565730
827.368692	0.581297
827.686129	0.619302
828.003522	0.674332
828.320872	0.722102
828.638177	0.766700
828.955439	0.800880
829.272656	0.822581
829.589830	0.839841
829.906960	0.856410
830.224046	0.868633
830.541088	0.879363
830.858086	0.883781
831.175041	0.891843
831.491952	0.889388
831.808819	0.885600
832.125642	0.878223
832.442421	0.865346
832.759157	0.841602
833.075849	0.793467
833.392497	0.728328
833.709101	0.687584
834.025662	0.698067
834.342179	0.730343
834.658653	0.770063
834.975083	0.806960
835.291469	0.834139
835.607811	0.856408
835.924110	0.874652
836.240366	0.891312
836.556578	0.903722
836.872746	0.912641
837.188871	0.919205
837.504952	0.924473
837.820990	0.927543
838.136984	0.931426
838.452935	0.934710
838.768842	0.936595
839.084706	0.929149
839.400526	0.904021
839.716303	0.859824
840.032037	0.837851
840.347727	0.842612
840.663373	0.860471
840.978977	0.881749
841.294537	0.907379
841.610054	0.920988
841.925527	0.930283
842.240957	0.937393
842.556344	0.944767
842.871687	0.951055
843.186987	0.953076
843.502244	0.955100
843.817458	0.956787
844.132629	0.961645
844.447756	0.965211
844.762840	0.964217
845.077881	0.965142
845.392879	0.963899
845.707833	0.966334
846.022745	0.970273
846.337613	0.969522
846.652438	0.970946
846.967221	0.970074
847.281960	0.971676
847.596656	0.972079
847.911309	0.972257
848.225919	0.971525
848.540485	0.974197
848.855009	0.973666
849.169490	0.973872
849.483928	0.973002
849.798323	0.972543
850.112675	0.975456
850.426984	0.974304
850.741251	0.975879
851.055474	0.974945
851.369654	0.973620
851.683792	0.972943
851.997887	0.974914
852.311938	0.975124
852.625947	0.973960
852.939914	0.973425
853.253837	0.974600
853.567718	0.975417
853.881555	0.975447
854.195350	0.973773
854.509103	0.974892
854.822812	0.976402
855.136479	0.975694
855.450103	0.975380
855.763685	0.973271
856.077224	0.974790
856.390720	0.975623
856.704173	0.975069
857.017584	0.973810
857.330953	0.973554
857.644278	0.972084
857.957561	0.973733
858.270802	0.974353
858.584000	0.974379
858.897155	0.972331
859.210268	0.971608
859.523339	0.974999
859.836367	0.976083
860.149352	0.974972
860.462295	0.975161
860.775195	0.975410
861.088054	0.974048
861.400869	0.973996
861.713642	0.974672
862.026373	0.976797
862.339062	0.975230
862.651708	0.974563
862.964312	0.974231
863.276873	0.975175
863.589392	0.973979
863.901869	0.970551
864.214303	0.969963
864.526696	0.967720
864.839045	0.969324
865.151353	0.966752
865.463619	0.966622
865.775842	0.967645
866.088023	0.968389
866.400162	0.967257
866.712258	0.968691
867.024313	0.968659
867.336325	0.969599
867.648296	0.969657
867.960224	0.967180
868.272110	0.968649
868.583954	0.969089
868.895755	0.968520
869.207515	0.966691
869.519233	0.965263
869.830909	0.964942
870.142542	0.966593
870.454134	0.966135
870.765684	0.964153
871.077191	0.965197
871.388657	0.962661
871.700081	0.963852
872.011463	0.963496
872.322803	0.962703
872.634101	0.960784
872.945357	0.958710
873.256571	0.956837
873.567744	0.957810
873.878874	0.958269
874.189963	0.957812
874.501010	0.958680
874.812015	0.954750
875.122979	0.955068
875.433900	0.957193
875.744780	0.958293
876.055618	0.954959
876.366415	0.954646
876.677169	0.953347
876.987882	0.956067
877.298554	0.955271
877.609183	0.951085
877.919771	0.949383
878.230317	0.946620
878.540822	0.944770
878.851285	0.939022
879.161707	0.930123
879.472087	0.917405
879.782425	0.900961
880.092722	0.865035
880.402977	0.810826
880.713191	0.747942
881.023363	0.686608
881.333494	0.651424
881.643583	0.623704
881.953631	0.623780
882.263637	0.652405
882.573602	0.693339
882.883526	0.719780
883.193408	0.744914
883.503248	0.767718
883.813048	0.796370
884.122806	0.827263
884.432522	0.850998
884.742197	0.871999
885.051831	0.882856
885.361424	0.894568
885.670975	0.906018
885.980485	0.915880
886.289954	0.922220
886.599382	0.926531
886.908768	0.932328
887.218113	0.936721
887.527417	0.943004
887.836680	0.946604
888.145901	0.947895
888.455082	0.951676
888.764221	0.955112
889.073319	0.955960
889.382376	0.957924
889.691392	0.955702
890.000366	0.957273
890.309300	0.958553
890.618193	0.958116
890.927044	0.956677
891.235855	0.956580
891.544625	0.956498
891.853353	0.956704
892.162041	0.953923
892.470687	0.948222
892.779293	0.941926
893.087858	0.938017
893.396381	0.929780
893.704864	0.914222
894.013306	0.890272
894.321707	0.863551
894.630068	0.847543
894.938387	0.841283
895.246665	0.843818
895.554903	0.856360
895.863100	0.870633
896.171256	0.888067
896.479371	0.907740
896.787446	0.921723
897.095480	0.928134
897.403473	0.930527
897.711425	0.936282
898.019336	0.942296
898.327207	0.948602
898.635038	0.948481
898.942827	0.950310
899.250576	0.952700
899.558284	0.957276
899.865952	0.957567
900.173579	0.959358
900.481165	0.959992
900.788711	0.962334
901.096216	0.965644
901.403681	0.966418
901.711105	0.966771
902.018489	0.966646
902.325832	0.967208
902.633135	0.965593
902.940397	0.959987
903.247619	0.946105
903.554800	0.919777
903.861941	0.878790
904.169041	0.841348
904.476101	0.823493
904.783121	0.824930
905.090100	0.840497
905.397039	0.864046
905.703938	0.886592
906.010796	0.906972
906.317614	0.925550
906.624391	0.938875
906.931129	0.947927
907.237826	0.956321
907.544483	0.963273
907.851099	0.966940
908.157675	0.972512
908.464211	0.974872
908.770707	0.976566
909.077163	0.980153
909.383578	0.979888
909.689954	0.978900
909.996289	0.981983
910.302584	0.983335
910.608839	0.985118
910.915054	0.984524
911.221229	0.983835
911.527363	0.981478
911.833458	0.982660
912.139513	0.982501
912.445527	0.982121
912.751502	0.979961
913.057436	0.975940
913.363331	0.975405
913.669186	0.971109
913.975000	0.965602
914.280775	0.959759
914.586510	0.952097
914.892205	0.938602
915.197859	0.914620
915.503475	0.887086
915.809050	0.865947
916.114585	0.860223
916.420081	0.857222
916.725536	0.855039
917.030952	0.862930
917.336328	0.877299
917.641665	0.892216
917.946961	0.909374
918.252218	0.920091
918.557435	0.929876
918.862612	0.938484
919.167750	0.945492
919.472848	0.950796
919.777906	0.956641
920.082925	0.962235
920.387904	0.965436
920.692843	0.967409
920.997743	0.967601
921.302603	0.972866
921.607423	0.973518
921.912204	0.977215
922.216946	0.979001
922.521647	0.978568
922.826310	0.979454
923.130932	0.982512
923.435516	0.984259
923.740059	0.984349
924.044564	0.985441
924.349028	0.985504
924.653454	0.987763
924.957840	0.988617
925.262186	0.988745
925.566493	0.990318
925.870761	0.990927
926.174989	0.991005
926.479178	0.994264
926.783328	0.993261
927.087438	0.993876
927.391509	0.993444
927.695541	0.993680
927.999533	0.994641
928.303486	0.995376
928.607400	0.995238
928.911275	0.995369
929.215110	0.996628
929.518906	0.996783
929.822663	0.996966
930.126381	0.996915
930.430060	0.997105
930.733699	0.995102
931.037299	0.995950
931.340861	0.996587
931.644383	0.994589
931.947866	0.995763
932.251309	0.997060
932.554714	0.994891
932.858080	0.996413
933.161407	0.994974
933.464694	0.995967
933.767943	0.996201
934.071153	0.997413
934.374323	0.996965
934.677455	0.996761
934.980548	0.996028
935.283602	0.998224
935.586617	0.996724
935.889593	0.997809
936.192530	0.997431
936.495428	0.996563
936.798287	0.996449
937.101108	0.997011
937.403890	0.993460
937.706632	0.994928
938.009336	0.992397
938.312002	0.990985
938.614628	0.989040
938.917216	0.987789
939.219765	0.986971
939.522275	0.988139
939.824747	0.988499
940.127179	0.988095
940.429573	0.990576
940.731929	0.989597
941.034246	0.988466
941.336524	0.989600
941.638763	0.991361
941.940964	0.991187
942.243126	0.992968
942.545250	0.993353
942.847335	0.993495
943.149381	0.993909
943.451389	0.993073
943.753359	0.994941
944.055290	0.996104
944.357182	0.996402
944.659036	0.994902
944.960851	0.996573
945.262628	0.996309
945.564367	0.995377
945.866067	0.995190
946.167729	0.996108
946.469352	0.995219
946.770937	0.994151
947.072484	0.995679
947.373992	0.996151
947.675462	0.995329
947.976893	0.995005
948.278286	0.997305
948.579641	0.997838
948.880958	0.997338
949.182236	0.997262
949.483476	0.997188
949.784678	0.996782
950.085841	0.997000
950.386967	0.997213
950.688054	0.996786
950.989103	0.995839
951.290114	0.994119
951.591087	0.995002
951.892021	0.994882
952.192917	0.994895
952.493776	0.994273
952.794596	0.993911
953.095378	0.993284
953.396122	0.993279
953.696828	0.994624
953.997496	0.995116
954.298126	0.996698
954.598718	0.995077
954.899272	0.996893
955.199788	0.996451
955.500266	0.997612
955.800706	0.996897
956.101108	0.997970
956.401472	1.000721
956.701798	0.998314
957.002087	0.998684
957.302337	0.999274
957.602550	1.000393
957.902724	1.000357
958.202861	1.001424
958.502960	1.000926
958.803022	1.001935
959.103045	1.001603
959.403031	1.001437
959.702979	1.002152
960.002889	1.001996
960.302762	1.001842
960.602596	1.002392
960.902393	1.002459
961.202153	1.001627
961.501875	1.001409
961.801559	1.003684
962.101205	1.001836
962.400814	1.003309
962.700385	1.002385
962.999918	1.004192
963.299414	1.001965
963.598873	1.003441
963.898293	1.003234
964.197677	1.001643
964.497022	1.002952
964.796331	1.002862
965.095601	1.003601
965.394835	1.003181
965.694030	1.004629
965.993189	1.002743
966.292309	1.004051
966.591393	1.002262
966.890439	1.003413
967.189447	1.002074
967.488419	1.001616
967.787353	1.002609
968.086249	1.004188
968.385108	1.004226
968.683930	1.004398
968.982714	1.003246
969.281462	1.003328
969.580172	1.001572
969.878844	1.003834
970.177480	1.002915
970.476078	1.004217
970.774639	1.003211
971.073162	1.001100
971.371649	1.003419
971.670098	1.001518
971.968510	1.003408
972.266885	1.002827
972.565223	1.003162
972.863524	1.000444
973.161788	1.002505
973.460014	1.002173
973.758204	1.001051
974.056356	1.002585
974.354471	1.001676
974.652550	1.002488
974.950591	1.001873
975.248595	1.002740
975.546563	1.003475
975.844493	1.003303
976.142386	1.003539
976.440243	1.003092
976.738062	1.002812
977.035845	1.002506
977.333590	1.004058
977.631299	1.003637
977.928971	1.002791
978.226606	1.003583
978.524204	1.002199
978.821765	1.004229
979.119290	1.004819
979.416777	1.002585
979.714228	1.002658
980.011642	1.003961
980.309020	1.002583
980.606360	1.002653
980.903664	1.003671
981.200931	1.002880
981.498162	1.002685
981.795356	1.001341
982.092513	1.000041
982.389633	1.000767
982.686717	0.997395
982.983764	0.996408
983.280775	0.996741
983.577749	0.998618
983.874686	0.995359
984.171587	0.997558
984.468451	0.999480
984.765279	1.000005
985.062070	1.001583
985.358824	1.001508
985.655543	1.002770
985.952224	1.003099
986.248869	1.001001
986.545478	1.005261
986.842050	1.003275
987.138586	1.002840
987.435086	1.003488
987.731549	1.004232
988.027975	1.005600
988.324366	1.002937
988.620719	1.004111
988.917037	1.003934
989.213318	1.004161
989.509563	1.004965
989.805772	1.005624
990.101944	1.004739
990.398080	1.004849
990.694180	1.004672
990.990244	1.003328
991.286271	1.004934
991.582262	1.005306
991.878217	1.004820
992.174136	1.004731
992.470019	1.005554
992.765865	1.004937
993.061676	1.003999
993.357450	1.004705
993.653188	1.005135
993.948890	1.003968
994.244556	1.003771
994.540186	1.003191
994.835780	1.003785
995.131337	1.004729
995.426859	1.002777
995.722345	1.003283
996.017795	1.001767
996.313208	1.003066
996.608586	1.002195
996.903928	1.002348
997.199234	1.002629
997.494504	1.004061
997.789738	1.001748
998.084936	1.002882
998.380099	1.003341
998.675225	1.003654
998.970316	1.005037
999.265371	1.003591
999.560390	1.004150
999.855373	1.005105
1000.150320	1.003766
1000.445232	1.004221
1000.740108	1.004041
1001.034948	1.004638
1001.329752	1.005225
1001.624521	1.003753
1001.919254	1.004463
1002.213951	1.005275
1002.508613	1.003707
1002.803239	1.005244
1003.097829	1.005472
1003.392384	1.005668
1003.686903	1.004588
1003.981386	1.005265
1004.275834	1.006334
1004.570246	1.004247
1004.864623	1.005279
1005.158964	1.005945
1005.453270	1.004823
1005.747540	1.003636
1006.041775	1.004758
1006.335974	1.004723
1006.630138	1.003944
1006.924266	1.004069
1007.218359	1.002996
1007.512416	1.005939
1007.806438	1.004433
1008.100425	1.005308
1008.394376	1.005479
1008.688292	1.004940
1008.982172	1.005522
1009.276017	1.006301
1009.569827	1.005819
1009.863602	1.004775
1010.157341	1.005937
1010.451045	1.005440
1010.744714	1.006044
1011.038347	1.005189
1011.331945	1.004434
1011.625508	1.005543
1011.919036	1.005020
1012.212528	1.004975
1012.505986	1.004682
1012.799408	1.005227
1013.092795	1.005036
1013.386147	1.004655
1013.679464	1.005965
1013.972745	1.004420
1014.265992	1.004223
1014.559204	1.004139
1014.852380	1.005528
1015.145521	1.005192
1015.438628	1.005173
1015.731699	1.005292
1016.024736	1.005080
1016.317737	1.005718
1016.610703	1.004835
1016.903635	1.005180
1017.196531	1.005190
1017.489393	1.005407
1017.782219	1.005099
1018.075011	1.004297
1018.367768	1.003181
1018.660490	1.006305
1018.953177	1.006305
1019.245829	1.006305
