Dividing Wavelength (nm)	Counts (n)	Blue Motor Position (mm): 44.400000	Red Motor Position (mm): 0.000000	
326.493990	0.999884
326.888308	0.999884
327.282561	0.999884
327.676750	1.000523
328.070874	1.000389
328.464933	1.001290
328.858929	0.998916
329.252859	0.999954
329.646726	0.999267
330.040528	1.000013
330.434265	0.999747
330.827938	0.999777
331.221547	1.001214
331.615091	1.001158
332.008571	1.000585
332.401986	0.998682
332.795338	1.000030
333.188625	1.000612
333.581847	0.998961
333.975006	1.000975
334.368100	0.999849
334.761129	0.998724
335.154095	0.999175
335.546996	1.000651
335.939833	0.999387
336.332606	1.000160
336.725315	0.999102
337.117960	1.000003
337.510540	0.998611
337.903056	0.999884
338.295508	1.000983
338.687896	0.999772
339.080220	1.000737
339.472480	1.000045
339.864676	1.000892
340.256807	0.998682
340.648875	1.000684
341.040879	0.999413
341.432818	0.999872
341.824694	0.999040
342.216506	1.000889
342.608253	0.999745
342.999937	0.998967
343.391557	1.000212
343.783113	1.001642
344.174605	1.000571
344.566033	0.999394
344.957397	0.999579
345.348697	1.000131
345.739934	0.999599
346.131106	0.999525
346.522215	0.999499
346.913260	1.000302
347.304241	0.998512
347.695159	0.999702
348.086012	0.999505
348.476802	1.000747
348.867528	0.999655
349.258191	1.000696
349.648789	0.999318
350.039324	1.000541
350.429796	0.999440
350.820203	0.997993
351.210548	0.999534
351.600828	0.999836
351.991045	0.999614
352.381198	1.000548
352.771288	0.999557
353.161314	0.999091
353.551276	0.998258
353.941175	0.997960
354.331010	1.000381
354.720782	0.999195
355.110490	0.999229
355.500135	1.001064
355.889717	0.998747
356.279235	1.000478
356.668689	0.998636
357.058080	0.999462
357.447408	0.998085
357.836672	0.999547
358.225873	0.998705
358.615010	0.998614
359.004084	0.998783
359.393095	0.999605
359.782043	0.998338
360.170927	1.000222
360.559748	1.000295
360.948505	0.998462
361.337199	0.999644
361.725830	0.999415
362.114398	0.999474
362.502903	0.998305
362.891344	0.998613
363.279722	0.999442
363.668037	0.999595
364.056289	0.999288
364.444478	1.000992
364.832603	0.999615
365.220665	0.998738
365.608665	0.998563
365.996601	0.999644
366.384474	0.997779
366.772284	0.998040
367.160031	0.997552
367.547715	0.997874
367.935336	0.997824
368.322893	0.996632
368.710388	0.994771
369.097820	0.993127
369.485189	0.991383
369.872495	0.990058
370.259738	0.987958
370.646918	0.984021
371.034035	0.983082
371.421090	0.979857
371.808081	0.975265
372.195010	0.972610
372.581875	0.967129
372.968678	0.962473
373.355418	0.958901
373.742096	0.951649
374.128710	0.947584
374.515262	0.943344
374.901751	0.937744
375.288177	0.933565
375.674540	0.928333
376.060841	0.921241
376.447079	0.915571
376.833254	0.910755
377.219367	0.907189
377.605417	0.897494
377.991404	0.895544
378.377329	0.892749
378.763191	0.887990
379.148991	0.882477
379.534727	0.878560
379.920402	0.873675
380.306013	0.873169
380.691563	0.866578
381.077049	0.864663
381.462474	0.864247
381.847835	0.859553
382.233134	0.859882
382.618371	0.863820
383.003545	0.856510
383.388657	0.859091
383.773706	0.858407
384.158693	0.861876
384.543618	0.863355
384.928480	0.861790
385.313280	0.862614
385.698017	0.868093
386.082692	0.868013
386.467305	0.871711
386.851856	0.875832
387.236344	0.879052
387.620770	0.883441
388.005133	0.887424
388.389435	0.891615
388.773674	0.895984
389.157851	0.899757
389.541965	0.904611
389.926018	0.911710
390.310008	0.914629
390.693936	0.920308
391.077802	0.924506
391.461606	0.928326
391.845348	0.933193
392.229027	0.937275
392.612645	0.942223
392.996200	0.944715
393.379694	0.946953
393.763125	0.952134
394.146494	0.956396
394.529801	0.959038
394.913047	0.961871
395.296230	0.967402
395.679351	0.969201
396.062410	0.973707
396.445408	0.976114
396.828343	0.979271
397.211217	0.981190
397.594028	0.983491
397.976778	0.985903
398.359466	0.987439
398.742092	0.989414
399.124656	0.989893
399.507158	0.990782
399.889598	0.993254
400.271977	0.993945
400.654294	0.994520
401.036549	0.995769
401.418742	0.995550
401.800874	0.996678
402.182944	0.996454
402.564952	0.996485
402.946898	0.997003
403.328783	0.998286
403.710606	0.996969
404.092367	0.998445
404.474067	0.998649
404.855705	0.999995
405.237282	0.998179
405.618797	0.998330
406.000250	0.998098
406.381642	0.998366
406.762972	1.000040
407.144240	0.998396
407.525447	0.997652
407.906593	0.998166
408.287677	0.998422
408.668700	0.998828
409.049661	0.999687
409.430560	0.998878
409.811399	0.998974
410.192176	0.998186
410.572891	1.000215
410.953545	0.998481
411.334138	0.998955
411.714669	0.998858
412.095139	0.999318
412.475547	0.998984
412.855894	0.999237
413.236180	0.999772
413.616405	0.998792
413.996568	0.999140
414.376670	0.998792
414.756711	0.998858
415.136691	0.999249
415.516609	0.998942
415.896466	0.999557
416.276262	0.998527
416.655997	0.999660
417.035670	0.999730
417.415283	0.999140
417.794834	0.999920
418.174324	0.999841
418.553753	0.998644
418.933121	0.998940
419.312428	1.000154
419.691674	1.000063
420.070859	1.000309
420.449983	0.999609
420.829045	0.998749
421.208047	0.999556
421.586988	0.999403
421.965867	0.997122
422.344686	0.999059
422.723444	0.998563
423.102141	0.999635
423.480777	0.998726
423.859352	0.999113
424.237866	1.000001
424.616319	0.999814
424.994712	0.999687
425.373044	0.999201
425.751314	0.999237
426.129524	1.000253
426.507673	0.998959
426.885762	0.999629
427.263789	0.999665
427.641756	0.999345
428.019662	0.999397
428.397508	0.998852
428.775292	0.998753
429.153016	0.999637
429.530679	0.999293
429.908282	0.999804
430.285824	0.999294
430.663305	0.999750
431.040726	0.999585
431.418086	0.999570
431.795385	0.999709
432.172624	0.999911
432.549802	0.999058
432.926920	0.999404
433.303977	0.999546
433.680974	0.999845
434.057910	0.999816
434.434786	0.999459
434.811601	1.000466
435.188355	0.999382
435.565050	1.000014
435.941683	0.999156
436.318257	0.998579
436.694770	0.999108
437.071222	1.000270
437.447614	0.999951
437.823946	0.999680
438.200218	0.999325
438.576429	0.999776
438.952580	1.000003
439.328670	0.998510
439.704700	0.998701
440.080670	0.999244
440.456580	1.000267
440.832429	0.999467
441.208218	0.999601
441.583947	0.999940
441.959616	0.998702
442.335224	1.000545
442.710773	1.000506
443.086261	0.999792
443.461689	0.998763
443.837057	0.999625
444.212365	0.999470
444.587612	0.999939
444.962800	0.999613
445.337927	1.000348
445.712995	0.999735
446.088002	0.998973
446.462949	0.999418
446.837837	1.000378
447.212664	0.999319
447.587431	0.999568
447.962139	0.999982
448.336786	0.999362
448.711374	0.998913
449.085901	1.000359
449.460369	0.999895
449.834776	0.998946
450.209124	1.000163
450.583412	1.000053
450.957640	0.999233
451.331808	0.999936
451.705917	0.999243
452.079965	1.000096
452.453954	1.000132
452.827883	0.999966
453.201752	1.000108
453.575562	0.999535
453.949311	0.999380
454.323001	0.999309
454.696632	1.000422
455.070202	0.999371
455.443713	0.999398
455.817164	0.999150
456.190556	0.999671
456.563888	1.000350
456.937160	0.999618
457.310373	0.999498
457.683526	0.999666
458.056619	1.000181
458.429653	0.999233
458.802628	0.999298
459.175542	1.000191
459.548398	0.999371
459.921194	0.999675
460.293930	1.000411
460.666607	0.999819
461.039224	0.999638
461.411782	0.999662
461.784280	1.000007
462.156719	1.000395
462.529099	0.999857
462.901419	1.000073
463.273680	0.999390
463.645882	0.999076
464.018024	0.999816
464.390106	0.999988
464.762130	0.999844
465.134094	0.999729
465.505999	0.999882
465.877845	0.999987
466.249631	0.999944
466.621358	0.998565
466.993026	1.000103
467.364634	0.999972
467.736184	0.999734
468.107674	0.999970
468.479105	0.999573
468.850477	1.000350
469.221790	0.999851
469.593043	0.999066
469.964238	0.999708
470.335373	0.999431
470.706449	0.999927
471.077467	0.999593
471.448425	0.999642
471.819324	0.999698
472.190164	0.999627
472.560945	0.999701
472.931667	0.999952
473.302330	0.999921
473.672934	1.000518
474.043479	0.999359
474.413965	1.000285
474.784393	0.999643
475.154761	0.999743
475.525070	0.999973
475.895321	1.000230
476.265513	1.000123
476.635645	0.999688
477.005719	0.999864
477.375734	1.000304
477.745691	0.999349
478.115588	0.999397
478.485427	0.999325
478.855207	1.000066
479.224928	1.000003
479.594591	1.000189
479.964194	1.000041
480.333739	1.000013
480.703226	0.999389
481.072653	0.998829
481.442022	0.999950
481.811333	0.999832
482.180584	0.999577
482.549777	0.999522
482.918912	0.999427
483.287988	0.999951
483.657005	0.999572
484.025964	0.999501
484.394864	0.999396
484.763706	0.999775
485.132489	1.000433
485.501213	0.999539
485.869879	0.999371
486.238487	0.998829
486.607036	0.999837
486.975527	0.999452
487.343959	0.999187
487.712333	0.999749
488.080648	0.999002
488.448905	0.999378
488.817104	0.999380
489.185244	0.999687
489.553326	0.999669
489.921350	0.999433
490.289315	0.999647
490.657222	0.999104
491.025070	0.999254
491.392861	1.000038
491.760593	1.000370
492.128267	0.999180
492.495883	0.999396
492.863440	0.999889
493.230939	1.000314
493.598380	0.999840
493.965763	0.999580
494.333088	0.999325
494.700354	0.998780
495.067563	0.999371
495.434713	0.999692
495.801805	0.999547
496.168839	0.999061
496.535815	0.999155
496.902733	0.999031
497.269593	0.999414
497.636395	0.998843
498.003139	0.999469
498.369825	0.999828
498.736453	0.999654
499.103023	1.000057
499.469535	0.999455
499.835989	0.999678
500.202385	0.999832
500.568723	0.999390
500.935003	0.999502
501.301226	0.999589
501.667390	0.999093
502.033497	0.999544
502.399546	0.999096
502.765537	0.999340
503.131470	0.999665
503.497345	0.998661
503.863163	0.999423
504.228923	0.999619
504.594625	0.999246
504.960269	0.999817
505.325856	1.000621
505.691385	0.999456
506.056856	0.999805
506.422270	0.999130
506.787625	0.999609
507.152924	0.999475
507.518164	0.999412
507.883347	0.999037
508.248472	1.000002
508.613540	0.998987
508.978550	0.999934
509.343503	0.999755
509.708398	0.999861
510.073236	1.000107
510.438016	0.998664
510.802738	0.999191
511.167403	0.999812
511.532010	0.999973
511.896561	0.999638
512.261053	0.999025
512.625488	0.999219
512.989866	0.999809
513.354186	0.998807
513.718449	0.999547
514.082655	0.999048
514.446803	0.999680
514.810894	0.999977
515.174927	0.999841
515.538904	0.999952
515.902822	0.999539
516.266684	0.999617
516.630488	0.999868
516.994235	1.000038
517.357925	1.000048
517.721558	0.999866
518.085133	0.999462
518.448651	0.999121
518.812112	0.999803
519.175516	0.999324
519.538863	0.999137
519.902152	1.000092
520.265385	0.999434
520.628560	0.998740
520.991678	0.999004
521.354739	1.000382
521.717743	0.999968
522.080690	0.999128
522.443580	0.999526
522.806413	0.999472
523.169189	0.999560
523.531908	0.999501
523.894569	0.999016
524.257174	0.999377
524.619722	0.999522
524.982213	1.000266
525.344647	0.999038
525.707025	0.999060
526.069345	0.998825
526.431608	0.999387
526.793815	0.999923
527.155964	1.000076
527.518057	0.999458
527.880093	0.998883
528.242072	0.998825
528.603995	0.999247
528.965860	0.999451
529.327669	0.999922
529.689421	0.999478
530.051117	1.000136
530.412755	0.999882
530.774337	0.999354
531.135862	0.999603
531.497331	0.999270
531.858743	1.000239
532.220098	0.999071
532.581396	0.999640
532.942638	0.999157
533.303824	1.000881
533.664953	0.999191
534.026025	1.000576
534.387040	0.999684
534.747999	0.998867
535.108902	0.999507
535.469748	0.999958
535.830537	0.999992
536.191270	0.999832
536.551947	0.999601
536.912567	0.999617
537.273131	0.999798
537.633638	0.999927
537.994089	0.999778
538.354483	0.999822
538.714821	1.000366
539.075103	0.999815
539.435328	0.999634
539.795497	0.999627
540.155609	0.999643
540.515665	0.999984
540.875665	0.999754
541.235609	1.000559
541.595496	0.999116
541.955328	0.999670
542.315102	0.999564
542.674821	1.000531
543.034483	0.999807
543.394090	0.999431
543.753640	0.999704
544.113134	0.999311
544.472571	1.000010
544.831953	0.999498
545.191278	0.999519
545.550548	0.999267
545.909761	0.999306
546.268918	1.000165
546.628019	1.000409
546.987064	0.999176
547.346053	0.998823
547.704986	0.999568
548.063863	0.999074
548.422684	0.999580
548.781449	1.000121
549.140158	0.999828
549.498811	0.998953
549.857408	0.999699
550.215949	0.998928
550.574434	0.999396
550.932864	1.000136
551.291237	0.999721
551.649555	1.000187
552.007817	0.999421
552.366022	1.000580
552.724173	1.000059
553.082267	0.999741
553.440305	0.999254
553.798288	0.999213
554.156215	1.000043
554.514086	0.999916
554.871902	1.000005
555.229661	0.999382
555.587365	0.999735
555.945014	0.999956
556.302606	0.999783
556.660143	1.000322
557.017625	0.999889
557.375050	0.998946
557.732421	0.999524
558.089735	0.999011
558.446994	0.999282
558.804197	1.000107
559.161345	0.999553
559.518437	0.999254
559.875474	0.999911
560.232455	0.999856
560.589381	1.000496
560.946251	0.999600
561.303065	0.999722
561.659825	0.999350
562.016528	0.999835
562.373177	0.999697
562.729770	0.999920
563.086307	0.998600
563.442789	0.999600
563.799216	0.998825
564.155587	0.999669
564.511904	1.000282
564.868164	0.999140
565.224370	0.999144
565.580520	0.999459
565.936615	0.999681
566.292654	0.999741
566.648638	1.000199
567.004567	0.999156
567.360441	0.999708
567.716260	0.999550
568.072023	0.999251
568.427732	0.999661
568.783385	0.999572
569.138982	0.999429
569.494525	0.999589
569.850013	1.000488
570.205445	1.000453
570.560823	0.999706
570.916145	0.999245
571.271412	0.999459
571.626625	0.999684
571.981782	0.999832
572.336884	0.999849
572.691931	0.999961
573.046923	1.000099
573.401860	1.000020
573.756743	1.000088
574.111570	0.999187
574.466342	1.000683
574.821059	0.999512
575.175722	0.999790
575.530330	0.999937
575.884882	1.000000
576.239380	0.999197
576.593823	0.999082
576.948211	0.999733
577.302544	1.000054
577.656823	0.999821
578.011047	0.999920
578.365216	1.000393
578.719330	1.000213
579.073389	0.999774
579.427394	0.999545
579.781344	0.999997
580.135239	0.999034
580.489080	0.999994
580.842866	1.000053
581.196597	0.999702
581.550273	0.999606
581.903895	1.000507
582.257463	1.000023
582.610975	0.999517
582.964434	1.000118
583.317837	1.000173
583.671186	1.000997
584.024481	0.999680
584.377721	0.999128
584.730906	0.999667
585.084037	1.000945
585.437113	1.000215
585.790135	1.000190
586.143103	1.000337
586.496016	1.000127
586.848874	0.999890
587.201679	0.999886
587.554428	0.999005
587.907124	1.000855
588.259765	1.000084
588.612352	1.000727
588.964884	0.999983
589.317362	0.999375
589.669786	0.999505
590.022155	0.999497
590.374470	0.999626
590.726731	0.999361
591.078937	0.999200
591.431090	0.999651
591.783188	0.999135
592.135232	0.999960
592.487222	0.999891
592.839157	0.999890
593.191038	0.999657
593.542866	1.000407
593.894639	0.998158
594.246358	1.000277
594.598022	1.000397
594.949633	1.000277
595.301190	0.999931
595.652692	0.999984
596.004141	0.999350
596.355535	0.999745
596.706876	0.999871
597.058162	1.000392
597.409395	0.999908
597.760573	0.999460
598.111698	1.000049
598.462768	0.999473
598.813785	0.999218
599.164748	0.999282
599.515657	0.999930
599.866511	1.000478
600.217312	1.000289
600.568060	0.999777
600.918753	1.000402
601.269392	0.999512
601.619978	0.999886
601.970510	1.000122
602.320988	0.999703
602.671412	0.999549
603.021783	0.999654
603.372100	1.001047
603.722363	0.999857
604.072572	0.999562
604.422728	0.999025
604.772830	0.999342
605.122878	0.999775
605.472872	1.000207
605.822813	0.999467
606.172701	0.999608
606.522534	1.000365
606.872314	1.000414
607.222041	0.999858
607.571714	0.999786
607.921333	0.999888
608.270899	0.999592
608.620411	0.999655
608.969870	1.000615
609.319276	1.000313
609.668627	1.000721
610.017926	0.999347
610.367171	0.999640
610.716362	1.000160
611.065500	1.000217
611.414585	0.999549
611.763616	0.999290
612.112594	1.000060
612.461518	0.998898
612.810389	1.000182
613.159207	1.000173
613.507971	0.998718
613.856682	1.000594
614.205340	0.998871
614.553945	1.000388
614.902496	0.999245
615.250994	1.000322
615.599439	1.000251
615.947830	0.999250
616.296169	0.999986
616.644454	0.999559
616.992686	0.999388
617.340864	1.001346
617.688990	1.000351
618.037063	1.000166
618.385082	0.999481
618.733048	0.999224
619.080961	0.999933
619.428821	1.000323
619.776628	0.999495
620.124382	1.000687
620.472083	1.000256
620.819731	1.000873
621.167326	1.000431
621.514868	1.000176
621.862357	0.999543
622.209793	1.000187
622.557176	0.999941
622.904506	0.999785
623.251783	0.999655
623.599007	1.000172
623.946179	0.999145
624.293297	1.000082
624.640363	1.000553
624.987376	0.999153
625.334336	0.999774
625.681243	0.999590
626.028097	1.000751
626.374899	0.999948
626.721647	1.000535
627.068343	0.999527
627.414987	1.000182
627.761577	0.998987
628.108115	0.999499
628.454600	1.000575
628.801032	0.999769
629.147412	1.000127
629.493739	1.000864
629.840014	1.000173
630.186236	1.000173
630.532405	1.000171
630.878521	1.000187
631.224585	1.000375
631.570597	0.999392
631.916556	1.000433
632.262462	0.999361
632.608316	0.999787
632.954117	0.999334
633.299866	0.999684
633.645562	0.999619
633.991206	0.999904
634.336797	0.999325
634.682336	1.000642
635.027823	0.999561
635.373257	1.000066
635.718639	1.000230
636.063968	0.999933
636.409245	0.999373
636.754470	1.000076
637.099642	1.000314
637.444762	1.000137
637.789829	0.999248
638.134845	1.000263
638.479808	0.999909
638.824719	0.999856
639.169577	0.999509
639.514383	1.000007
639.859137	1.000460
640.203839	0.999548
640.548489	0.999335
640.893086	0.999040
641.237632	1.000728
641.582125	0.999275
641.926566	1.000279
642.270955	1.000319
642.615292	1.000037
642.959576	1.000090
643.303809	1.000438
643.647990	1.000178
643.992118	1.000684
644.336195	0.999132
644.680219	0.999335
645.024192	0.999730
645.368112	0.999526
645.711981	1.000351
646.055797	0.999224
646.399562	0.998623
646.743274	0.999909
647.086935	0.999449
647.430544	0.999592
647.774101	0.998591
648.117606	1.000052
648.461059	1.000181
648.804460	1.000169
649.147810	0.999019
649.491108	0.999986
649.834354	0.999876
650.177548	0.999766
650.520690	0.999843
650.863781	0.999017
651.206820	1.000329
651.549807	0.999688
651.892742	1.000042
652.235626	0.999540
652.578458	0.999946
652.921238	1.000795
653.263967	0.999536
653.606644	0.999401
653.949269	1.000951
654.291843	0.999577
654.634365	1.000669
654.976836	0.999575
655.319255	1.000096
655.661622	1.000481
656.003938	1.000086
656.346203	0.999722
656.688416	1.000560
657.030577	0.999848
657.372687	1.000018
657.714746	0.999201
658.056753	0.999773
658.398708	0.998814
658.740612	1.000546
659.082465	0.999722
659.424266	1.000842
659.766016	0.998228
660.107715	1.000402
660.449362	0.998534
660.790958	0.999645
661.132503	1.000614
661.473996	0.998976
661.815438	0.999990
662.156829	1.000161
662.498168	1.000550
662.839456	0.999638
663.180693	0.999834
663.521879	0.999646
663.863013	0.999966
664.204097	0.999803
664.545129	1.000498
664.886110	1.000101
665.227040	0.999509
665.567918	0.999385
665.908746	0.999084
666.249522	0.999218
666.590248	1.000015
666.930922	0.999105
667.271545	0.999950
667.612118	0.999832
667.952639	0.999407
668.293109	0.999667
668.633528	0.999621
668.973896	0.999895
669.314213	0.998889
669.654480	0.999522
669.994695	0.998474
670.334859	0.999131
670.674973	0.999496
671.015035	0.999767
671.355047	1.000006
671.695008	0.999031
672.034918	1.000351
672.374777	0.999757
672.714585	1.000197
673.054342	0.999758
673.394049	0.999079
673.733705	0.999322
674.073310	0.999941
674.412864	0.999403
674.752368	0.999085
675.091820	1.000760
675.431223	1.000019
675.770574	0.999074
676.109875	0.999700
676.449125	0.999216
676.788324	0.999282
677.127473	0.999961
677.466571	1.000345
677.805619	1.000019
678.144616	1.000161
678.483562	0.999784
678.822458	1.000042
679.161303	0.998989
679.500098	0.999769
679.838842	0.999707
680.177535	0.998897
680.516179	0.998432
680.854771	0.998562
681.193314	0.999261
681.531805	0.999142
681.870247	0.999285
682.208638	0.999317
682.546978	0.999421
682.885268	0.999223
683.223508	0.999192
683.561697	0.998745
683.899836	0.998823
684.237925	0.999261
684.575963	0.999704
684.913951	0.999041
685.251889	0.998939
685.589776	0.999613
685.927614	0.998699
686.265401	0.999248
686.603137	0.999871
686.940824	0.999856
687.278460	1.000384
687.616046	0.999100
687.953582	0.999151
688.291068	0.999635
688.628504	0.999307
688.965889	0.999328
689.303224	0.998067
689.640510	0.999690
689.977745	0.998821
690.314930	0.998620
690.652065	0.999684
690.989150	0.998978
691.326185	0.999320
691.663170	0.998263
692.000105	0.999154
692.336990	0.998760
692.673825	0.999107
693.010610	0.999478
693.347345	0.999277
693.684030	0.998902
694.020665	0.998942
694.357251	0.998517
694.693786	0.998989
695.030272	0.998803
695.366707	0.998967
695.703093	0.999217
696.039429	0.998188
696.375716	0.998720
696.711952	0.998933
697.048139	1.000237
697.384276	0.998902
697.720363	0.998646
698.056400	0.998024
698.392388	0.997828
698.728326	0.998350
699.064214	0.998611
699.400053	0.998837
699.735842	0.999681
700.071581	0.999035
700.407270	0.998162
700.742910	0.998776
701.078501	0.999084
701.414042	0.999246
701.749533	0.998540
702.084974	0.999211
702.420366	0.999599
702.755709	0.998439
703.091002	0.999085
703.426246	0.999191
703.761440	0.999391
704.096584	0.998182
704.431679	0.998074
704.766725	0.998100
705.101721	0.998713
705.436668	0.998981
705.771565	0.998729
706.106413	0.998461
706.441212	0.998274
706.775961	0.999151
707.110661	0.999121
707.445311	0.998753
707.779913	0.999748
708.114465	1.000012
708.448967	0.999686
708.783421	0.999253
709.117825	0.998603
709.452180	0.998888
709.786485	0.999006
710.120742	0.998751
710.454949	0.998528
710.789107	0.998686
711.123216	0.998841
711.457275	0.998433
711.791286	0.998695
712.125247	1.000688
712.459159	0.998354
712.793023	0.998613
713.126837	0.999303
713.460602	0.998806
713.794318	0.998295
714.127985	0.997456
714.461602	0.999040
714.795171	0.997569
715.128691	0.998434
715.462162	0.999843
715.795584	0.998009
716.128957	0.999622
716.462281	0.998887
716.795556	0.998356
717.128782	0.999002
717.461960	0.999305
717.795088	0.998569
718.128167	1.000286
718.461198	0.998273
718.794180	0.998866
719.127113	0.998883
719.459997	0.999132
719.792833	0.998655
720.125619	0.997616
720.458357	0.999551
720.791046	0.999757
721.123686	0.998429
721.456278	0.999395
721.788821	0.998832
722.121315	1.000038
722.453761	0.998710
722.786158	0.998907
723.118506	0.999408
723.450805	0.997954
723.783056	0.999619
724.115259	0.999196
724.447412	0.999152
724.779518	0.998654
725.111574	0.998532
725.443582	0.998601
725.775542	0.998150
726.107453	0.999370
726.439315	1.000054
726.771129	0.999304
727.102895	0.998956
727.434612	0.997914
727.766281	0.998144
728.097901	0.998171
728.429473	0.998691
728.760996	0.997959
729.092471	0.998886
729.423897	0.999355
729.755276	0.999168
730.086606	0.998290
730.417887	0.998827
730.749120	0.999737
731.080305	0.998830
731.411442	0.997653
731.742530	0.998102
732.073570	0.998308
732.404562	0.998046
732.735506	0.998408
733.066401	0.998790
733.397249	0.998854
733.728048	0.999004
734.058798	0.999515
734.389501	0.999068
734.720156	0.998307
735.050762	0.999797
735.381320	0.998181
735.711831	0.998131
736.042293	0.998998
736.372707	0.999202
736.703073	0.997686
737.033391	0.998516
737.363661	0.998775
737.693883	0.998494
738.024056	0.998270
738.354182	0.999181
738.684260	0.998757
739.014290	0.999190
739.344272	0.998707
739.674207	0.998906
740.004093	0.999219
740.333931	0.998781
740.663722	0.998991
740.993464	0.999210
741.323159	0.999322
741.652806	0.998485
741.982405	0.998131
742.311956	0.998892
742.641460	0.999616
742.970915	0.999013
743.300323	0.998532
743.629683	0.997813
743.958996	0.999629
744.288260	0.998157
744.617477	0.998315
744.946647	0.998291
745.275768	0.999425
745.604842	0.998723
745.933869	0.999342
746.262847	0.999466
746.591778	0.998434
746.920662	0.999837
747.249498	0.999206
747.578286	1.000449
747.907027	0.998867
748.235720	0.998785
748.564365	0.999223
748.892963	0.999161
749.221514	0.998732
749.550017	0.997766
749.878473	0.999217
750.206881	1.000547
750.535242	0.997956
750.863555	0.998216
751.191821	0.998309
751.520039	0.998799
751.848210	0.997749
752.176334	0.999222
752.504411	0.998585
752.832440	0.997772
753.160421	0.998835
753.488356	0.998851
753.816243	0.998183
754.144082	0.999042
754.471875	0.998783
754.799620	0.998125
755.127318	0.998908
755.454969	0.998807
755.782572	0.999798
756.110129	0.998973
756.437638	0.999837
756.765100	0.999028
757.092515	0.999269
757.419882	0.998748
757.747203	0.998023
758.074477	0.998975
758.401703	0.999042
758.728882	0.999687
759.056014	0.999313
759.383099	0.999624
759.710138	0.998440
760.037129	0.998621
760.364073	0.998620
760.690970	0.998658
761.017820	0.997889
761.344623	0.999108
761.671379	0.999159
761.998088	0.998325
762.324751	0.999320
762.651366	0.999006
762.977935	0.997980
763.304456	0.998968
763.630931	0.998103
763.957359	0.997033
764.283740	0.997410
764.610074	0.997493
764.936362	0.997704
765.262602	0.998555
765.588796	0.998770
765.914943	0.998509
766.241044	0.998926
766.567097	0.998422
766.893104	0.999003
767.219064	0.996909
767.544978	0.998581
767.870845	0.998517
768.196665	0.998584
768.522438	0.998937
768.848165	0.999838
769.173846	0.999080
769.499479	0.999303
769.825066	0.999132
770.150607	1.000411
770.476101	0.999495
770.801548	0.999926
771.126949	0.998522
771.452303	0.998870
771.777611	0.999452
772.102872	0.999239
772.428087	0.998703
772.753256	0.998445
773.078378	1.000120
773.403453	0.998725
773.728482	0.999501
774.053465	0.998241
774.378401	0.999250
774.703291	0.999346
775.028135	1.000265
775.352932	0.997829
775.677683	0.999933
776.002388	0.999170
776.327046	0.997919
776.651658	0.999792
776.976224	0.999313
777.300743	0.999422
777.625216	0.998689
777.949643	0.998534
778.274024	0.998609
778.598359	0.999330
778.922647	0.999710
779.246889	0.999403
779.571086	0.998745
779.895236	0.998793
780.219339	1.000238
780.543397	0.998979
780.867409	0.999364
781.191374	0.999412
781.515294	0.999034
781.839167	1.000253
782.162995	0.999873
782.486776	0.998645
782.810511	0.999221
783.134201	0.999394
783.457844	0.999048
783.781441	0.998942
784.104993	0.997881
784.428498	0.999309
784.751958	0.999645
785.075372	0.999343
785.398739	0.998977
785.722061	0.998671
786.045337	0.998889
786.368568	0.998866
786.691752	0.999083
787.014891	0.998643
787.337983	0.998235
787.661030	0.999186
787.984031	0.998850
788.306987	0.998868
788.629897	0.997673
788.952760	0.999399
789.275579	0.999327
789.598351	0.999222
789.921078	0.999486
790.243759	0.998107
790.566395	0.998817
790.888984	0.999624
791.211529	0.998837
791.534027	0.998853
791.856480	0.998712
792.178888	0.997893
792.501249	0.998054
792.823566	1.000319
793.145836	0.999189
793.468062	0.998911
793.790241	1.000460
794.112375	0.998747
794.434464	0.999030
794.756507	0.999403
795.078505	0.998839
795.400457	0.999649
795.722364	0.999909
796.044226	0.998587
796.366042	0.998570
796.687812	0.996894
797.009538	0.998941
797.331218	0.999516
797.652852	0.999757
797.974442	0.998751
798.295986	0.999066
798.617484	0.998978
798.938938	0.999572
799.260346	0.999301
799.581709	0.999129
799.903026	0.999488
800.224299	0.999365
800.545526	0.999048
800.866708	0.998539
801.187845	0.999710
801.508936	0.998677
801.829983	0.998562
802.150984	0.999949
802.471940	0.998899
802.792851	0.997972
803.113717	0.999608
803.434538	0.999819
803.755314	1.000046
804.076045	0.999026
804.396731	0.999422
804.717372	0.998177
805.037967	0.999464
805.358518	0.999762
805.679024	0.998142
805.999485	0.999698
806.319901	0.999782
806.640272	0.999414
806.960598	0.999218
807.280879	0.998868
807.601115	0.999595
807.921306	1.000004
808.241453	0.999344
808.561554	0.999596
808.881611	0.999683
809.201623	0.998515
809.521590	0.999280
809.841513	0.999884
810.161390	0.997990
810.481223	0.998753
810.801011	1.000297
811.120755	1.000167
811.440453	0.998986
811.760107	0.999282
812.079716	0.998520
812.399281	0.998925
812.718801	0.998976
813.038276	0.999338
813.357707	0.999044
813.677093	1.000022
813.996434	0.999573
814.315731	1.000671
814.634983	0.998954
814.954191	0.999980
815.273354	0.999360
815.592473	0.998198
815.911547	0.999900
816.230577	0.998321
816.549562	0.999851
816.868502	0.997354
817.187399	0.999761
817.506250	0.999787
817.825058	0.997849
818.143821	0.999121
818.462539	0.999155
818.781213	0.999225
819.099843	0.998882
819.418429	0.998425
819.736970	0.999077
820.055466	0.997825
820.373919	0.998846
820.692327	0.997652
821.010691	0.997785
821.329011	0.996541
821.647286	0.996409
821.965517	0.996785
822.283704	0.996767
822.601847	0.994966
822.919945	0.995172
823.237999	0.995345
823.556010	0.995256
823.873976	0.996288
824.191897	0.996808
824.509775	0.997210
824.827609	0.997874
825.145398	0.997242
825.463144	0.996145
825.780845	0.996096
826.098502	0.997475
826.416116	0.997391
826.733685	0.997135
827.051210	0.996439
827.368692	0.996361
827.686129	0.996224
828.003522	0.998347
828.320872	0.998384
828.638177	0.998566
828.955439	0.998773
829.272656	0.998990
829.589830	0.998307
829.906960	0.999233
830.224046	0.998243
830.541088	0.999591
830.858086	0.999565
831.175041	1.000367
831.491952	0.998594
831.808819	0.998406
832.125642	0.998336
832.442421	0.999773
832.759157	1.000114
833.075849	0.998123
833.392497	0.997223
833.709101	0.996732
834.025662	0.997934
834.342179	0.998377
834.658653	0.998141
834.975083	0.998736
835.291469	0.998459
835.607811	0.998639
835.924110	0.998472
836.240366	0.999679
836.556578	1.000337
836.872746	0.999162
837.188871	0.999221
837.504952	0.999315
837.820990	1.000315
838.136984	0.997687
838.452935	0.998932
838.768842	0.998931
839.084706	0.999324
839.400526	0.998667
839.716303	0.998428
840.032037	0.998932
840.347727	0.998563
840.663373	0.999449
840.978977	0.998511
841.294537	0.998427
841.610054	0.998755
841.925527	0.999667
842.240957	0.999437
842.556344	0.999001
842.871687	0.998121
843.186987	0.998679
843.502244	1.000096
843.817458	0.999254
844.132629	0.998465
844.447756	1.000287
844.762840	0.997691
845.077881	1.000417
845.392879	0.998025
845.707833	0.998853
846.022745	0.999970
846.337613	0.999631
846.652438	0.999493
846.967221	0.999445
847.281960	1.000325
847.596656	0.999670
847.911309	0.999669
848.225919	0.999246
848.540485	1.000270
848.855009	1.000322
849.169490	0.999849
849.483928	0.999719
849.798323	0.998034
850.112675	1.001242
850.426984	0.999018
850.741251	0.999553
851.055474	1.000297
851.369654	1.000107
851.683792	0.998617
851.997887	0.999581
852.311938	1.000242
852.625947	0.998286
852.939914	0.998810
853.253837	1.000510
853.567718	1.000817
853.881555	1.000381
854.195350	0.998280
854.509103	1.000072
854.822812	0.999585
855.136479	0.999747
855.450103	0.999870
855.763685	0.999813
856.077224	0.999089
856.390720	0.999392
856.704173	0.999938
857.017584	1.000998
857.330953	0.999049
857.644278	1.000072
857.957561	1.000765
858.270802	1.000874
858.584000	0.998832
858.897155	0.999240
859.210268	0.999738
859.523339	1.000061
859.836367	1.000600
860.149352	0.998905
860.462295	0.999357
860.775195	0.999131
861.088054	1.000754
861.400869	0.999261
861.713642	0.998834
862.026373	0.999222
862.339062	0.999786
862.651708	0.999416
862.964312	1.000845
863.276873	1.000357
863.589392	1.000162
863.901869	0.999190
864.214303	1.000196
864.526696	0.999541
864.839045	1.000545
865.151353	0.998499
865.463619	0.998233
865.775842	1.000509
866.088023	1.000110
866.400162	0.999860
866.712258	1.000846
867.024313	0.999674
867.336325	1.000478
867.648296	0.999521
867.960224	0.999853
868.272110	1.000894
868.583954	1.000012
868.895755	1.000223
869.207515	0.998827
869.519233	0.999518
869.830909	0.999534
870.142542	0.998662
870.454134	0.998590
870.765684	0.998979
871.077191	1.000871
871.388657	0.998704
871.700081	1.000219
872.011463	1.000184
872.322803	0.999233
872.634101	0.999185
872.945357	0.999549
873.256571	0.998900
873.567744	0.999392
873.878874	1.000397
874.189963	0.999462
874.501010	1.000602
874.812015	1.000108
875.122979	0.999917
875.433900	0.999397
875.744780	0.999844
876.055618	0.999442
876.366415	0.998881
876.677169	0.999102
876.987882	0.998880
877.298554	0.999567
877.609183	0.998854
877.919771	1.000245
878.230317	0.999721
878.540822	0.998587
878.851285	0.999853
879.161707	0.999948
879.472087	0.999897
879.782425	0.998541
880.092722	0.998321
880.402977	0.998471
880.713191	0.996708
881.023363	0.997093
881.333494	0.996692
881.643583	0.996992
881.953631	0.996741
882.263637	0.995547
882.573602	0.997243
882.883526	0.997480
883.193408	0.998875
883.503248	0.996948
883.813048	0.996968
884.122806	0.998500
884.432522	0.999275
884.742197	0.999222
885.051831	0.997812
885.361424	0.999710
885.670975	0.999892
885.980485	0.998520
886.289954	0.999112
886.599382	0.998905
886.908768	0.999874
887.218113	0.999075
887.527417	0.999222
887.836680	1.000654
888.145901	0.999696
888.455082	1.000388
888.764221	0.999923
889.073319	0.999508
889.382376	1.000423
889.691392	0.998841
890.000366	1.000067
890.309300	0.999464
890.618193	0.999180
890.927044	1.000146
891.235855	0.998289
891.544625	0.999501
891.853353	0.999657
892.162041	0.998684
892.470687	0.999599
892.779293	0.998894
893.087858	0.999198
893.396381	0.999099
893.704864	0.998217
894.013306	0.998389
894.321707	0.998604
894.630068	0.998058
894.938387	0.997994
895.246665	0.998882
895.554903	0.997917
895.863100	0.997749
896.171256	0.998845
896.479371	0.997996
896.787446	0.999871
897.095480	0.998406
897.403473	0.999422
897.711425	0.998998
898.019336	1.000791
898.327207	0.999624
898.635038	0.998923
898.942827	1.000398
899.250576	0.999711
899.558284	1.000227
899.865952	0.998580
900.173579	0.999690
900.481165	0.999646
900.788711	0.998543
901.096216	0.999625
901.403681	0.999317
901.711105	0.999129
902.018489	0.998494
902.325832	1.000555
902.633135	1.000119
902.940397	0.999778
903.247619	0.998461
903.554800	0.998985
903.861941	0.999020
904.169041	0.997424
904.476101	0.998609
904.783121	0.998223
905.090100	0.998833
905.397039	0.999079
905.703938	0.998947
906.010796	0.998837
906.317614	0.997976
906.624391	0.999203
906.931129	0.999507
907.237826	0.999545
907.544483	0.999967
907.851099	0.999284
908.157675	0.998592
908.464211	0.999558
908.770707	0.998787
909.077163	1.000422
909.383578	1.000056
909.689954	0.999240
909.996289	0.999476
910.302584	1.000738
910.608839	1.000824
910.915054	0.999883
911.221229	1.000026
911.527363	0.998986
911.833458	0.999622
912.139513	0.998777
912.445527	1.000569
912.751502	0.999321
913.057436	0.998885
913.363331	0.999766
913.669186	0.999510
913.975000	1.000281
914.280775	0.999735
914.586510	0.999238
914.892205	0.998122
915.197859	0.999231
915.503475	1.000119
915.809050	0.998033
916.114585	0.996735
916.420081	0.998635
916.725536	0.998650
917.030952	0.998130
917.336328	0.998061
917.641665	0.997387
917.946961	0.998646
918.252218	0.998408
918.557435	0.998909
918.862612	1.000274
919.167750	0.998798
919.472848	0.999305
919.777906	1.000082
920.082925	1.000807
920.387904	0.999262
920.692843	0.999076
920.997743	0.999740
921.302603	0.999326
921.607423	0.997991
921.912204	0.999950
922.216946	1.001649
922.521647	1.000287
922.826310	0.999592
923.130932	0.999876
923.435516	0.999877
923.740059	1.000222
924.044564	0.998692
924.349028	0.999396
924.653454	0.999049
924.957840	0.998925
925.262186	0.999817
925.566493	1.000314
925.870761	0.999536
926.174989	1.000365
926.479178	1.001449
926.783328	1.000199
927.087438	1.000405
927.391509	0.998852
927.695541	0.999817
927.999533	1.000399
928.303486	1.000029
928.607400	0.999958
928.911275	1.000304
929.215110	1.000426
929.518906	1.000023
929.822663	0.999869
930.126381	1.000624
930.430060	0.999818
930.733699	1.000308
931.037299	1.000403
931.340861	1.000291
931.644383	0.998745
931.947866	1.000195
932.251309	1.000344
932.554714	0.999382
932.858080	1.000543
933.161407	0.998877
933.464694	1.000629
933.767943	1.000991
934.071153	0.999070
934.374323	0.999959
934.677455	0.999739
934.980548	0.999515
935.283602	0.999100
935.586617	0.999492
935.889593	1.001303
936.192530	1.000128
936.495428	1.000222
936.798287	0.999381
937.101108	0.999572
937.403890	0.998445
937.706632	1.000072
938.009336	1.000035
938.312002	0.999513
938.614628	1.000905
938.917216	1.000067
939.219765	0.999765
939.522275	0.999782
939.824747	0.999610
940.127179	0.998827
940.429573	1.001415
940.731929	0.999778
941.034246	0.999603
941.336524	0.999218
941.638763	0.999446
941.940964	0.998925
942.243126	0.999481
942.545250	1.000655
942.847335	0.999863
943.149381	1.000043
943.451389	0.998752
943.753359	1.000128
944.055290	1.000643
944.357182	0.999374
944.659036	1.000988
944.960851	1.001591
945.262628	1.000801
945.564367	0.999639
945.866067	0.999305
946.167729	1.000576
946.469352	0.999453
946.770937	0.997193
947.072484	1.000853
947.373992	0.999916
947.675462	1.000137
947.976893	1.000103
948.278286	1.001331
948.579641	0.999987
948.880958	0.999140
949.182236	0.999661
949.483476	1.000974
949.784678	0.999998
950.085841	0.998525
950.386967	0.999721
950.688054	0.999236
950.989103	0.998059
951.290114	0.998985
951.591087	1.000440
951.892021	0.998671
952.192917	1.000581
952.493776	0.999576
952.794596	0.999297
953.095378	0.999590
953.396122	1.000334
953.696828	1.001056
953.997496	1.001291
954.298126	1.000527
954.598718	0.998553
954.899272	0.998851
955.199788	0.999201
955.500266	1.000885
955.800706	0.999472
956.101108	0.998916
956.401472	1.000869
956.701798	0.999776
957.002087	0.999192
957.302337	0.999558
957.602550	1.000053
957.902724	1.000546
958.202861	1.000085
958.502960	0.999337
958.803022	1.000397
959.103045	0.999777
959.403031	1.000390
959.702979	1.000210
960.002889	0.999481
960.302762	0.999163
960.602596	1.000976
960.902393	1.000103
961.202153	0.999923
961.501875	1.000483
961.801559	1.000705
962.101205	0.998882
962.400814	1.000129
962.700385	0.999611
962.999918	0.999215
963.299414	0.999790
963.598873	1.001238
963.898293	0.999318
964.197677	0.999370
964.497022	0.998649
964.796331	1.000584
965.095601	0.999847
965.394835	0.999719
965.694030	1.000876
965.993189	0.999764
966.292309	1.000198
966.591393	0.997465
966.890439	1.000691
967.189447	1.000620
967.488419	0.999729
967.787353	0.999491
968.086249	0.999617
968.385108	1.000916
968.683930	0.999840
968.982714	1.000256
969.281462	0.999673
969.580172	0.999929
969.878844	0.999978
970.177480	0.999939
970.476078	1.000846
970.774639	1.000275
971.073162	1.000630
971.371649	1.000118
971.670098	0.999228
971.968510	0.999923
972.266885	0.999641
972.565223	0.999460
972.863524	0.998446
973.161788	0.999447
973.460014	0.999784
973.758204	0.999070
974.056356	1.000319
974.354471	0.999225
974.652550	1.000510
974.950591	0.998667
975.248595	0.998836
975.546563	1.000146
975.844493	1.000689
976.142386	0.999514
976.440243	1.000636
976.738062	0.999710
977.035845	0.999466
977.333590	0.999693
977.631299	0.998767
977.928971	0.998945
978.226606	1.000546
978.524204	0.998497
978.821765	1.000276
979.119290	0.999466
979.416777	0.999659
979.714228	1.000435
980.011642	1.000154
980.309020	0.999491
980.606360	0.999658
980.903664	0.999791
981.200931	0.998681
981.498162	0.999587
981.795356	0.999530
982.092513	1.000129
982.389633	1.001518
982.686717	0.998187
982.983764	1.000335
983.280775	0.999448
983.577749	1.000632
983.874686	0.998911
984.171587	0.998526
984.468451	0.999612
984.765279	1.000643
985.062070	0.999915
985.358824	1.000637
985.655543	1.000023
985.952224	1.000137
986.248869	1.000705
986.545478	1.000903
986.842050	0.999071
987.138586	0.999620
987.435086	0.998729
987.731549	1.000873
988.027975	0.999636
988.324366	0.999447
988.620719	1.000601
988.917037	0.998772
989.213318	1.000198
989.509563	0.999215
989.805772	1.000650
990.101944	1.000616
990.398080	0.999972
990.694180	1.000683
990.990244	0.999435
991.286271	0.999451
991.582262	1.001124
991.878217	0.999901
992.174136	1.000759
992.470019	0.999524
992.765865	1.002301
993.061676	1.001056
993.357450	1.001128
993.653188	1.000183
993.948890	1.000777
994.244556	0.998776
994.540186	0.999732
994.835780	1.000033
995.131337	0.999410
995.426859	1.000742
995.722345	0.999894
996.017795	0.999524
996.313208	0.998873
996.608586	1.000036
996.903928	0.999792
997.199234	0.999995
997.494504	0.999943
997.789738	0.999168
998.084936	1.000665
998.380099	0.998291
998.675225	1.001170
998.970316	1.000421
999.265371	0.999222
999.560390	0.999639
999.855373	1.000758
1000.150320	0.999672
1000.445232	1.000519
1000.740108	1.000288
1001.034948	0.999694
1001.329752	1.000347
1001.624521	0.999650
1001.919254	0.999135
1002.213951	1.000213
1002.508613	0.998802
1002.803239	0.999431
1003.097829	0.998905
1003.392384	0.999640
1003.686903	1.000267
1003.981386	0.999754
1004.275834	1.001068
1004.570246	0.998133
1004.864623	0.999838
1005.158964	0.999892
1005.453270	0.999315
1005.747540	0.999743
1006.041775	1.000196
1006.335974	0.999625
1006.630138	1.001068
1006.924266	1.000244
1007.218359	0.997837
1007.512416	1.000895
1007.806438	0.999074
1008.100425	1.000708
1008.394376	1.000020
1008.688292	0.999892
1008.982172	1.000267
1009.276017	0.999694
1009.569827	1.001448
1009.863602	0.998920
1010.157341	0.999903
1010.451045	1.000114
1010.744714	1.001940
1011.038347	1.000771
1011.331945	1.000030
1011.625508	0.999099
1011.919036	0.998932
1012.212528	0.999579
1012.505986	0.999162
1012.799408	0.999820
1013.092795	1.000142
1013.386147	1.000054
1013.679464	1.001306
1013.972745	1.000120
1014.265992	0.999628
1014.559204	0.998429
1014.852380	1.001055
1015.145521	1.000118
1015.438628	0.998803
1015.731699	1.000320
1016.024736	1.000511
1016.317737	0.999564
1016.610703	1.000550
1016.903635	0.999652
1017.196531	0.999225
1017.489393	0.999507
1017.782219	0.999216
1018.075011	0.999598
1018.367768	0.998492
1018.660490	0.999481
1018.953177	0.999481
1019.245829	0.999481
