Dividing Wavelength (nm)	Counts (n)	Blue Motor Position (mm): 29.600000	Red Motor Position (mm): 0.000000	
326.493990	1.000470
326.888308	1.000470
327.282561	1.000470
327.676750	1.002792
328.070874	1.002244
328.464933	1.001826
328.858929	1.000893
329.252859	0.999882
329.646726	1.000020
330.040528	0.999133
330.434265	1.001051
330.827938	1.000620
331.221547	1.000125
331.615091	1.001231
332.008571	1.001710
332.401986	1.000053
332.795338	1.000220
333.188625	1.000857
333.581847	0.999789
333.975006	1.002249
334.368100	1.001011
334.761129	1.000413
335.154095	1.001148
335.546996	1.000537
335.939833	0.998783
336.332606	0.999951
336.725315	0.999602
337.117960	1.001155
337.510540	0.997460
337.903056	0.999488
338.295508	1.000939
338.687896	1.001100
339.080220	1.000863
339.472480	0.999679
339.864676	1.000550
340.256807	0.998410
340.648875	1.000124
341.040879	1.000946
341.432818	0.999354
341.824694	1.000340
342.216506	0.999994
342.608253	1.000741
342.999937	1.000924
343.391557	0.999410
343.783113	1.001456
344.174605	0.999267
344.566033	0.998729
344.957397	1.000384
345.348697	1.000237
345.739934	1.000699
346.131106	1.000024
346.522215	1.000568
346.913260	0.999977
347.304241	0.998199
347.695159	1.000142
348.086012	0.999031
348.476802	0.999751
348.867528	0.999422
349.258191	1.000304
349.648789	0.998905
350.039324	1.000015
350.429796	0.998608
350.820203	0.999165
351.210548	0.999179
351.600828	0.999463
351.991045	0.999111
352.381198	0.999938
352.771288	0.999507
353.161314	0.999866
353.551276	0.999271
353.941175	0.998038
354.331010	0.999659
354.720782	0.998608
355.110490	0.998468
355.500135	0.998803
355.889717	0.998555
356.279235	0.998069
356.668689	0.999819
357.058080	0.999355
357.447408	0.997853
357.836672	0.998867
358.225873	0.997839
358.615010	0.998069
359.004084	0.998127
359.393095	0.999169
359.782043	0.998746
360.170927	0.998268
360.559748	0.999752
360.948505	0.998339
361.337199	0.998128
361.725830	0.998609
362.114398	0.997624
362.502903	0.997384
362.891344	0.997552
363.279722	0.997904
363.668037	0.998114
364.056289	0.998518
364.444478	0.999560
364.832603	0.997416
365.220665	0.997492
365.608665	0.996656
365.996601	0.997078
366.384474	0.996610
366.772284	0.996179
367.160031	0.995377
367.547715	0.996161
367.935336	0.995458
368.322893	0.994997
368.710388	0.992824
369.097820	0.992146
369.485189	0.989545
369.872495	0.988434
370.259738	0.986375
370.646918	0.982954
371.034035	0.981420
371.421090	0.977502
371.808081	0.971605
372.195010	0.970313
372.581875	0.964914
372.968678	0.959554
373.355418	0.956184
373.742096	0.949106
374.128710	0.945095
374.515262	0.941351
374.901751	0.934572
375.288177	0.929994
375.674540	0.923119
376.060841	0.917108
376.447079	0.910641
376.833254	0.904237
377.219367	0.898306
377.605417	0.886893
377.991404	0.884245
378.377329	0.878063
378.763191	0.870736
379.148991	0.861703
379.534727	0.853695
379.920402	0.845837
380.306013	0.843290
380.691563	0.830198
381.077049	0.823641
381.462474	0.819076
381.847835	0.808403
382.233134	0.802543
382.618371	0.803623
383.003545	0.785705
383.388657	0.784644
383.773706	0.776092
384.158693	0.772618
384.543618	0.766980
384.928480	0.758313
385.313280	0.747541
385.698017	0.747029
386.082692	0.736516
386.467305	0.735143
386.851856	0.729783
387.236344	0.723851
387.620770	0.718627
388.005133	0.712976
388.389435	0.707107
388.773674	0.704384
389.157851	0.697375
389.541965	0.693898
389.926018	0.700747
390.310008	0.687527
390.693936	0.684516
391.077802	0.676868
391.461606	0.677669
391.845348	0.668202
392.229027	0.666508
392.612645	0.664979
392.996200	0.652371
393.379694	0.644726
393.763125	0.635444
394.146494	0.639968
394.529801	0.630146
394.913047	0.622745
395.296230	0.628649
395.679351	0.619509
396.062410	0.617014
396.445408	0.619435
396.828343	0.615133
397.211217	0.609531
397.594028	0.621222
397.976778	0.612439
398.359466	0.608941
398.742092	0.603674
399.124656	0.615993
399.507158	0.604621
399.889598	0.601384
400.271977	0.592505
400.654294	0.596558
401.036549	0.596464
401.418742	0.599743
401.800874	0.586011
402.182944	0.582875
402.564952	0.574886
402.946898	0.576582
403.328783	0.577562
403.710606	0.587950
404.092367	0.563620
404.474067	0.567514
404.855705	0.567590
405.237282	0.576043
405.618797	0.562394
406.000250	0.557201
406.381642	0.548004
406.762972	0.552852
407.144240	0.552012
407.525447	0.551250
407.906593	0.544317
408.287677	0.540319
408.668700	0.548475
409.049661	0.542256
409.430560	0.537550
409.811399	0.546208
410.192176	0.528091
410.572891	0.535187
410.953545	0.523026
411.334138	0.537037
411.714669	0.529108
412.095139	0.541324
412.475547	0.525560
412.855894	0.527678
413.236180	0.526823
413.616405	0.531826
413.996568	0.522508
414.376670	0.528731
414.756711	0.533404
415.136691	0.530141
415.516609	0.521100
415.896466	0.518332
416.276262	0.514038
416.655997	0.516310
417.035670	0.497463
417.415283	0.489438
417.794834	0.494292
418.174324	0.499609
418.553753	0.508120
418.933121	0.490938
419.312428	0.484876
419.691674	0.490663
420.070859	0.478427
420.449983	0.486888
420.829045	0.475763
421.208047	0.484925
421.586988	0.478403
421.965867	0.477171
422.344686	0.465624
422.723444	0.478156
423.102141	0.496064
423.480777	0.468881
423.859352	0.489365
424.237866	0.467162
424.616319	0.468301
424.994712	0.459908
425.373044	0.469874
425.751314	0.458457
426.129524	0.475835
426.507673	0.459535
426.885762	0.453639
427.263789	0.460106
427.641756	0.470315
428.019662	0.461564
428.397508	0.461894
428.775292	0.467353
429.153016	0.460331
429.530679	0.467872
429.908282	0.462473
430.285824	0.473838
430.663305	0.454392
431.040726	0.477030
431.418086	0.478087
431.795385	0.472835
432.172624	0.473392
432.549802	0.475887
432.926920	0.477376
433.303977	0.478785
433.680974	0.479495
434.057910	0.480884
434.434786	0.482758
434.811601	0.488187
435.188355	0.475050
435.565050	0.486981
435.941683	0.491552
436.318257	0.481011
436.694770	0.485441
437.071222	0.488158
437.447614	0.495668
437.823946	0.505209
438.200218	0.500645
438.576429	0.513828
438.952580	0.512990
439.328670	0.514970
439.704700	0.526285
440.080670	0.532205
440.456580	0.521959
440.832429	0.534635
441.208218	0.549426
441.583947	0.546491
441.959616	0.551655
442.335224	0.562463
442.710773	0.562004
443.086261	0.568288
443.461689	0.584253
443.837057	0.584010
444.212365	0.584012
444.587612	0.596197
444.962800	0.596284
445.337927	0.605682
445.712995	0.630687
446.088002	0.612644
446.462949	0.627659
446.837837	0.640013
447.212664	0.638280
447.587431	0.643884
447.962139	0.634770
448.336786	0.618592
448.711374	0.631903
449.085901	0.667558
449.460369	0.677917
449.834776	0.689024
450.209124	0.686911
450.583412	0.692837
450.957640	0.695378
451.331808	0.711100
451.705917	0.730197
452.079965	0.740424
452.453954	0.744333
452.827883	0.754983
453.201752	0.760711
453.575562	0.772954
453.949311	0.778001
454.323001	0.786524
454.696632	0.792478
455.070202	0.797913
455.443713	0.802136
455.817164	0.807775
456.190556	0.814251
456.563888	0.821144
456.937160	0.826713
457.310373	0.838937
457.683526	0.846251
458.056619	0.855394
458.429653	0.861435
458.802628	0.867938
459.175542	0.873133
459.548398	0.874526
459.921194	0.878751
460.293930	0.883368
460.666607	0.882984
461.039224	0.885165
461.411782	0.889258
461.784280	0.895683
462.156719	0.903611
462.529099	0.909476
462.901419	0.917685
463.273680	0.922399
463.645882	0.926906
464.018024	0.933492
464.390106	0.935509
464.762130	0.938205
465.134094	0.938963
465.505999	0.936599
465.877845	0.935515
466.249631	0.938993
466.621358	0.945057
466.993026	0.950666
467.364634	0.955226
467.736184	0.959323
468.107674	0.962009
468.479105	0.964441
468.850477	0.967307
469.221790	0.970659
469.593043	0.972661
469.964238	0.974484
470.335373	0.975649
470.706449	0.977603
471.077467	0.979909
471.448425	0.979967
471.819324	0.979951
472.190164	0.980346
472.560945	0.982744
472.931667	0.984273
473.302330	0.985191
473.672934	0.986885
474.043479	0.986646
474.413965	0.987665
474.784393	0.987978
475.154761	0.988159
475.525070	0.988862
475.895321	0.989896
476.265513	0.990621
476.635645	0.991228
477.005719	0.991077
477.375734	0.991673
477.745691	0.990994
478.115588	0.991094
478.485427	0.991760
478.855207	0.992322
479.224928	0.991453
479.594591	0.991648
479.964194	0.991864
480.333739	0.991978
480.703226	0.991796
481.072653	0.992340
481.442022	0.993075
481.811333	0.992580
482.180584	0.992808
482.549777	0.992852
482.918912	0.993355
483.287988	0.993335
483.657005	0.993205
484.025964	0.993502
484.394864	0.993881
484.763706	0.992790
485.132489	0.994105
485.501213	0.994227
485.869879	0.993982
486.238487	0.993171
486.607036	0.994247
486.975527	0.994388
487.343959	0.993086
487.712333	0.994659
488.080648	0.993572
488.448905	0.994159
488.817104	0.993953
489.185244	0.993934
489.553326	0.994644
489.921350	0.994334
490.289315	0.993868
490.657222	0.993651
491.025070	0.994576
491.392861	0.994313
491.760593	0.994194
492.128267	0.994630
492.495883	0.993958
492.863440	0.994627
493.230939	0.994429
493.598380	0.994796
493.965763	0.994863
494.333088	0.993735
494.700354	0.994579
495.067563	0.994420
495.434713	0.994990
495.801805	0.995305
496.168839	0.995156
496.535815	0.994989
496.902733	0.994093
497.269593	0.994202
497.636395	0.994823
498.003139	0.994639
498.369825	0.995213
498.736453	0.994512
499.103023	0.995367
499.469535	0.994969
499.835989	0.995212
500.202385	0.994674
500.568723	0.994930
500.935003	0.995229
501.301226	0.994891
501.667390	0.994434
502.033497	0.995329
502.399546	0.995185
502.765537	0.994572
503.131470	0.995375
503.497345	0.995438
503.863163	0.994978
504.228923	0.995037
504.594625	0.995331
504.960269	0.995592
505.325856	0.996411
505.691385	0.995544
506.056856	0.995243
506.422270	0.995372
506.787625	0.995515
507.152924	0.995428
507.518164	0.994913
507.883347	0.995674
508.248472	0.995492
508.613540	0.994741
508.978550	0.995418
509.343503	0.995668
509.708398	0.996028
510.073236	0.995720
510.438016	0.995151
510.802738	0.995120
511.167403	0.995056
511.532010	0.996143
511.896561	0.995439
512.261053	0.995333
512.625488	0.995429
512.989866	0.994782
513.354186	0.995237
513.718449	0.995093
514.082655	0.994446
514.446803	0.995417
514.810894	0.996048
515.174927	0.995459
515.538904	0.995598
515.902822	0.995648
516.266684	0.995753
516.630488	0.995547
516.994235	0.995506
517.357925	0.996111
517.721558	0.995324
518.085133	0.994875
518.448651	0.995114
518.812112	0.996168
519.175516	0.994710
519.538863	0.995024
519.902152	0.996019
520.265385	0.995238
520.628560	0.995084
520.991678	0.995391
521.354739	0.996172
521.717743	0.995365
522.080690	0.995174
522.443580	0.995798
522.806413	0.995072
523.169189	0.995452
523.531908	0.995550
523.894569	0.995176
524.257174	0.995103
524.619722	0.995608
524.982213	0.995127
525.344647	0.994953
525.707025	0.994608
526.069345	0.994794
526.431608	0.995402
526.793815	0.995188
527.155964	0.995921
527.518057	0.995907
527.880093	0.995030
528.242072	0.995161
528.603995	0.994579
528.965860	0.995707
529.327669	0.995594
529.689421	0.995107
530.051117	0.995131
530.412755	0.996027
530.774337	0.995198
531.135862	0.995526
531.497331	0.995553
531.858743	0.995694
532.220098	0.994628
532.581396	0.995288
532.942638	0.995187
533.303824	0.996152
533.664953	0.994920
534.026025	0.996091
534.387040	0.995171
534.747999	0.995143
535.108902	0.995208
535.469748	0.995868
535.830537	0.994997
536.191270	0.995258
536.551947	0.995021
536.912567	0.994597
537.273131	0.995969
537.633638	0.994994
537.994089	0.995428
538.354483	0.995061
538.714821	0.995314
539.075103	0.995071
539.435328	0.995385
539.795497	0.995575
540.155609	0.995371
540.515665	0.995340
540.875665	0.994860
541.235609	0.995634
541.595496	0.994692
541.955328	0.995253
542.315102	0.995882
542.674821	0.995266
543.034483	0.996131
543.394090	0.994786
543.753640	0.995258
544.113134	0.994691
544.472571	0.995762
544.831953	0.995310
545.191278	0.995668
545.550548	0.995162
545.909761	0.994978
546.268918	0.995828
546.628019	0.995894
546.987064	0.994892
547.346053	0.994858
547.704986	0.995107
548.063863	0.995283
548.422684	0.995103
548.781449	0.994954
549.140158	0.995367
549.498811	0.995042
549.857408	0.994995
550.215949	0.994843
550.574434	0.994685
550.932864	0.995188
551.291237	0.994550
551.649555	0.996100
552.007817	0.994947
552.366022	0.995583
552.724173	0.995146
553.082267	0.994819
553.440305	0.994222
553.798288	0.993817
554.156215	0.994480
554.514086	0.994899
554.871902	0.995117
555.229661	0.995015
555.587365	0.994915
555.945014	0.996041
556.302606	0.994625
556.660143	0.995685
557.017625	0.995181
557.375050	0.995474
557.732421	0.995068
558.089735	0.994787
558.446994	0.995330
558.804197	0.994621
559.161345	0.994510
559.518437	0.994364
559.875474	0.995249
560.232455	0.995742
560.589381	0.995397
560.946251	0.995031
561.303065	0.995526
561.659825	0.994976
562.016528	0.995266
562.373177	0.994233
562.729770	0.995297
563.086307	0.993749
563.442789	0.995064
563.799216	0.994373
564.155587	0.995073
564.511904	0.995741
564.868164	0.993888
565.224370	0.995084
565.580520	0.994635
565.936615	0.994858
566.292654	0.994974
566.648638	0.995273
567.004567	0.994830
567.360441	0.995119
567.716260	0.994561
568.072023	0.994821
568.427732	0.994950
568.783385	0.994335
569.138982	0.994979
569.494525	0.994643
569.850013	0.995474
570.205445	0.995550
570.560823	0.994781
570.916145	0.995244
571.271412	0.994933
571.626625	0.995594
571.981782	0.994680
572.336884	0.995059
572.691931	0.994475
573.046923	0.995400
573.401860	0.994836
573.756743	0.994867
574.111570	0.994798
574.466342	0.996034
574.821059	0.995530
575.175722	0.995492
575.530330	0.995124
575.884882	0.994736
576.239380	0.994903
576.593823	0.995023
576.948211	0.995403
577.302544	0.994893
577.656823	0.995296
578.011047	0.993812
578.365216	0.995465
578.719330	0.995062
579.073389	0.994308
579.427394	0.994862
579.781344	0.995473
580.135239	0.993871
580.489080	0.995411
580.842866	0.995016
581.196597	0.994845
581.550273	0.995234
581.903895	0.995932
582.257463	0.994846
582.610975	0.994280
582.964434	0.994755
583.317837	0.995433
583.671186	0.995867
584.024481	0.994201
584.377721	0.994469
584.730906	0.995460
585.084037	0.995616
585.437113	0.995724
585.790135	0.995231
586.143103	0.994784
586.496016	0.995269
586.848874	0.995647
587.201679	0.994698
587.554428	0.994684
587.907124	0.995264
588.259765	0.995099
588.612352	0.995658
588.964884	0.995759
589.317362	0.995057
589.669786	0.995990
590.022155	0.995011
590.374470	0.994415
590.726731	0.994705
591.078937	0.995446
591.431090	0.995291
591.783188	0.994731
592.135232	0.995009
592.487222	0.995490
592.839157	0.994944
593.191038	0.994886
593.542866	0.994853
593.894639	0.994222
594.246358	0.995829
594.598022	0.995413
594.949633	0.995046
595.301190	0.994374
595.652692	0.994980
596.004141	0.994712
596.355535	0.994714
596.706876	0.995893
597.058162	0.995289
597.409395	0.995353
597.760573	0.994852
598.111698	0.995522
598.462768	0.994319
598.813785	0.994926
599.164748	0.994980
599.515657	0.994485
599.866511	0.995342
600.217312	0.996050
600.568060	0.995189
600.918753	0.995459
601.269392	0.995035
601.619978	0.995177
601.970510	0.995209
602.320988	0.995247
602.671412	0.995211
603.021783	0.996398
603.372100	0.995540
603.722363	0.995989
604.072572	0.994507
604.422728	0.994818
604.772830	0.994940
605.122878	0.995296
605.472872	0.995854
605.822813	0.995303
606.172701	0.995037
606.522534	0.995476
606.872314	0.995669
607.222041	0.995139
607.571714	0.995445
607.921333	0.995159
608.270899	0.995612
608.620411	0.995484
608.969870	0.995578
609.319276	0.995601
609.668627	0.995476
610.017926	0.995306
610.367171	0.995622
610.716362	0.995019
611.065500	0.995349
611.414585	0.995845
611.763616	0.994033
612.112594	0.995755
612.461518	0.994603
612.810389	0.995210
613.159207	0.995088
613.507971	0.994489
613.856682	0.996313
614.205340	0.994662
614.553945	0.995520
614.902496	0.995566
615.250994	0.995257
615.599439	0.994668
615.947830	0.995149
616.296169	0.995183
616.644454	0.995550
616.992686	0.995498
617.340864	0.995576
617.688990	0.995138
618.037063	0.995579
618.385082	0.994954
618.733048	0.995024
619.080961	0.995832
619.428821	0.995888
619.776628	0.995064
620.124382	0.996114
620.472083	0.995931
620.819731	0.995935
621.167326	0.995346
621.514868	0.995206
621.862357	0.994926
622.209793	0.995453
622.557176	0.995133
622.904506	0.995127
623.251783	0.995564
623.599007	0.996065
623.946179	0.995089
624.293297	0.996665
624.640363	0.995996
624.987376	0.995220
625.334336	0.995668
625.681243	0.995530
626.028097	0.995345
626.374899	0.995723
626.721647	0.996326
627.068343	0.995396
627.414987	0.995338
627.761577	0.995387
628.108115	0.995112
628.454600	0.996085
628.801032	0.996540
629.147412	0.995283
629.493739	0.996122
629.840014	0.995620
630.186236	0.995465
630.532405	0.995739
630.878521	0.995739
631.224585	0.995792
631.570597	0.995263
631.916556	0.996093
632.262462	0.994751
632.608316	0.996142
632.954117	0.996017
633.299866	0.996002
633.645562	0.995168
633.991206	0.996131
634.336797	0.995510
634.682336	0.996405
635.027823	0.995553
635.373257	0.995637
635.718639	0.996530
636.063968	0.995598
636.409245	0.996379
636.754470	0.995833
637.099642	0.996050
637.444762	0.996483
637.789829	0.996019
638.134845	0.995508
638.479808	0.995945
638.824719	0.996704
639.169577	0.996570
639.514383	0.996116
639.859137	0.996227
640.203839	0.996235
640.548489	0.995550
640.893086	0.995750
641.237632	0.996369
641.582125	0.995721
641.926566	0.997260
642.270955	0.995972
642.615292	0.995229
642.959576	0.996410
643.303809	0.997409
643.647990	0.996186
643.992118	0.996077
644.336195	0.996014
644.680219	0.995999
645.024192	0.995866
645.368112	0.995453
645.711981	0.996255
646.055797	0.996473
646.399562	0.996067
646.743274	0.996838
647.086935	0.995721
647.430544	0.996194
647.774101	0.995638
648.117606	0.997409
648.461059	0.996480
648.804460	0.996561
649.147810	0.996416
649.491108	0.996137
649.834354	0.996440
650.177548	0.995245
650.520690	0.996407
650.863781	0.996096
651.206820	0.996590
651.549807	0.996346
651.892742	0.996841
652.235626	0.996600
652.578458	0.995950
652.921238	0.997526
653.263967	0.996342
653.606644	0.996740
653.949269	0.997220
654.291843	0.995552
654.634365	0.997229
654.976836	0.995872
655.319255	0.997025
655.661622	0.996150
656.003938	0.995980
656.346203	0.996442
656.688416	0.997098
657.030577	0.996056
657.372687	0.996582
657.714746	0.996410
658.056753	0.996135
658.398708	0.996313
658.740612	0.996590
659.082465	0.996620
659.424266	0.996583
659.766016	0.996279
660.107715	0.996759
660.449362	0.996225
660.790958	0.997110
661.132503	0.997081
661.473996	0.996012
661.815438	0.997351
662.156829	0.996715
662.498168	0.997740
662.839456	0.996197
663.180693	0.996717
663.521879	0.997358
663.863013	0.997337
664.204097	0.996851
664.545129	0.996242
664.886110	0.997624
665.227040	0.996915
665.567918	0.996478
665.908746	0.996064
666.249522	0.995925
666.590248	0.996333
666.930922	0.996571
667.271545	0.996385
667.612118	0.996723
667.952639	0.996453
668.293109	0.996656
668.633528	0.996474
668.973896	0.996784
669.314213	0.996547
669.654480	0.997305
669.994695	0.995608
670.334859	0.997072
670.674973	0.996564
671.015035	0.997145
671.355047	0.997392
671.695008	0.996782
672.034918	0.995814
672.374777	0.996980
672.714585	0.996363
673.054342	0.997001
673.394049	0.996448
673.733705	0.996137
674.073310	0.996786
674.412864	0.996986
674.752368	0.995844
675.091820	0.997407
675.431223	0.997589
675.770574	0.996373
676.109875	0.997248
676.449125	0.995685
676.788324	0.995902
677.127473	0.997358
677.466571	0.996582
677.805619	0.997213
678.144616	0.997409
678.483562	0.997343
678.822458	0.997327
679.161303	0.996351
679.500098	0.997167
679.838842	0.997108
680.177535	0.996713
680.516179	0.995970
680.854771	0.996591
681.193314	0.996604
681.531805	0.996976
681.870247	0.996750
682.208638	0.997515
682.546978	0.995418
682.885268	0.996775
683.223508	0.996898
683.561697	0.996278
683.899836	0.996349
684.237925	0.996997
684.575963	0.996910
684.913951	0.997211
685.251889	0.996676
685.589776	0.996836
685.927614	0.997672
686.265401	0.996457
686.603137	0.996592
686.940824	0.997245
687.278460	0.997533
687.616046	0.996658
687.953582	0.996419
688.291068	0.997103
688.628504	0.996591
688.965889	0.996428
689.303224	0.995211
689.640510	0.996875
689.977745	0.996869
690.314930	0.997380
690.652065	0.996626
690.989150	0.996257
691.326185	0.998635
691.663170	0.996544
692.000105	0.997558
692.336990	0.997277
692.673825	0.997040
693.010610	0.996857
693.347345	0.997742
693.684030	0.996355
694.020665	0.996675
694.357251	0.997061
694.693786	0.997366
695.030272	0.995341
695.366707	0.996402
695.703093	0.997268
696.039429	0.996411
696.375716	0.996696
696.711952	0.996982
697.048139	0.997459
697.384276	0.997904
697.720363	0.997083
698.056400	0.995846
698.392388	0.996293
698.728326	0.997392
699.064214	0.997645
699.400053	0.996543
699.735842	0.996932
700.071581	0.996836
700.407270	0.996397
700.742910	0.997470
701.078501	0.997087
701.414042	0.998110
701.749533	0.995767
702.084974	0.998036
702.420366	0.997527
702.755709	0.996657
703.091002	0.997856
703.426246	0.997842
703.761440	0.996389
704.096584	0.996360
704.431679	0.997790
704.766725	0.996064
705.101721	0.998147
705.436668	0.997731
705.771565	0.997432
706.106413	0.996531
706.441212	0.997817
706.775961	0.997853
707.110661	0.996336
707.445311	0.998059
707.779913	0.998810
708.114465	0.998273
708.448967	0.998443
708.783421	0.998157
709.117825	0.997391
709.452180	0.997368
709.786485	0.997254
710.120742	0.996559
710.454949	0.997218
710.789107	0.997050
711.123216	0.996705
711.457275	0.996514
711.791286	0.998226
712.125247	0.998575
712.459159	0.996987
712.793023	0.997129
713.126837	0.997390
713.460602	0.996384
713.794318	0.996980
714.127985	0.997184
714.461602	0.997360
714.795171	0.997122
715.128691	0.996110
715.462162	0.997479
715.795584	0.997649
716.128957	0.998003
716.462281	0.997523
716.795556	0.996784
717.128782	0.998023
717.461960	0.997283
717.795088	0.997395
718.128167	0.998599
718.461198	0.997639
718.794180	0.997566
719.127113	0.997542
719.459997	0.997250
719.792833	0.997548
720.125619	0.996935
720.458357	0.998268
720.791046	0.997758
721.123686	0.997307
721.456278	0.997514
721.788821	0.997165
722.121315	0.998209
722.453761	0.997884
722.786158	0.998115
723.118506	0.997972
723.450805	0.996381
723.783056	0.997572
724.115259	0.997138
724.447412	0.998586
724.779518	0.997838
725.111574	0.996908
725.443582	0.997769
725.775542	0.998707
726.107453	0.998164
726.439315	0.998212
726.771129	0.997851
727.102895	0.998468
727.434612	0.998239
727.766281	0.997665
728.097901	0.997345
728.429473	0.998160
728.760996	0.996793
729.092471	0.997920
729.423897	0.997339
729.755276	0.997620
730.086606	0.997226
730.417887	0.997930
730.749120	0.997397
731.080305	0.997564
731.411442	0.996877
731.742530	0.997119
732.073570	0.996017
732.404562	0.996693
732.735506	0.997409
733.066401	0.997392
733.397249	0.998195
733.728048	0.997476
734.058798	0.998084
734.389501	0.998142
734.720156	0.997930
735.050762	0.998551
735.381320	0.998179
735.711831	0.996428
736.042293	0.997682
736.372707	0.998768
736.703073	0.996926
737.033391	0.998611
737.363661	0.998052
737.693883	0.997937
738.024056	0.997924
738.354182	0.998399
738.684260	0.998391
739.014290	0.998098
739.344272	0.997427
739.674207	0.998104
740.004093	0.997834
740.333931	0.998161
740.663722	0.997724
740.993464	0.998163
741.323159	0.997936
741.652806	0.997585
741.982405	0.998246
742.311956	0.998717
742.641460	0.998205
742.970915	0.997491
743.300323	0.996821
743.629683	0.998117
743.958996	0.999335
744.288260	0.997391
744.617477	0.998470
744.946647	0.997830
745.275768	0.997828
745.604842	0.997516
745.933869	0.998646
746.262847	0.998086
746.591778	0.997305
746.920662	0.998775
747.249498	0.998760
747.578286	0.999657
747.907027	0.997966
748.235720	0.998825
748.564365	0.998434
748.892963	0.996912
749.221514	0.998744
749.550017	0.997237
749.878473	0.998503
750.206881	0.998960
750.535242	0.997762
750.863555	0.998283
751.191821	0.998292
751.520039	0.997466
751.848210	0.996720
752.176334	0.997734
752.504411	0.997796
752.832440	0.998295
753.160421	0.997912
753.488356	0.998878
753.816243	0.998345
754.144082	0.998288
754.471875	0.998560
754.799620	0.999112
755.127318	0.997874
755.454969	0.999031
755.782572	0.999774
756.110129	0.997115
756.437638	1.000234
756.765100	0.998890
757.092515	0.997636
757.419882	0.999263
757.747203	0.997787
758.074477	0.999473
758.401703	0.998597
758.728882	0.997361
759.056014	0.998481
759.383099	0.998519
759.710138	0.998382
760.037129	0.998553
760.364073	0.998965
760.690970	0.998595
761.017820	0.997055
761.344623	0.998756
761.671379	0.999478
761.998088	0.998185
762.324751	0.998553
762.651366	0.997731
762.977935	0.997194
763.304456	0.997846
763.630931	0.996037
763.957359	0.995674
764.283740	0.996447
764.610074	0.996852
764.936362	0.996832
765.262602	0.997916
765.588796	0.997465
765.914943	0.997373
766.241044	0.997861
766.567097	0.997827
766.893104	0.998154
767.219064	0.996801
767.544978	0.998508
767.870845	0.998503
768.196665	0.997674
768.522438	0.998711
768.848165	0.999084
769.173846	0.998944
769.499479	0.999250
769.825066	0.999447
770.150607	0.999236
770.476101	0.998521
770.801548	0.999002
771.126949	0.998875
771.452303	0.999627
771.777611	0.999094
772.102872	0.998826
772.428087	0.998191
772.753256	0.998769
773.078378	0.999608
773.403453	0.997570
773.728482	0.999835
774.053465	0.998855
774.378401	0.998860
774.703291	0.999513
775.028135	0.999811
775.352932	0.998184
775.677683	0.999505
776.002388	0.999913
776.327046	0.998436
776.651658	1.000285
776.976224	0.998985
777.300743	0.998415
777.625216	0.997429
777.949643	0.998182
778.274024	0.997828
778.598359	0.998514
778.922647	0.999062
779.246889	1.000035
779.571086	0.998591
779.895236	0.999565
780.219339	0.999080
780.543397	0.997948
780.867409	0.999600
781.191374	0.998509
781.515294	0.999723
781.839167	0.998768
782.162995	1.000031
782.486776	0.999181
782.810511	0.999159
783.134201	0.999822
783.457844	1.000317
783.781441	0.999391
784.104993	0.997379
784.428498	0.999396
784.751958	1.000292
785.075372	1.000916
785.398739	0.998707
785.722061	0.998310
786.045337	0.999868
786.368568	0.998099
786.691752	0.999301
787.014891	0.999377
787.337983	0.997978
787.661030	0.998675
787.984031	0.999536
788.306987	1.000558
788.629897	0.997288
788.952760	0.998782
789.275579	0.999871
789.598351	0.998891
789.921078	0.999449
790.243759	0.998377
790.566395	0.998584
790.888984	0.999723
791.211529	1.000084
791.534027	0.998894
791.856480	0.999492
792.178888	1.000029
792.501249	0.998497
792.823566	1.000926
793.145836	0.999305
793.468062	0.998891
793.790241	0.998616
794.112375	0.998024
794.434464	0.999267
794.756507	0.999503
795.078505	1.000317
795.400457	0.999613
795.722364	0.999887
796.044226	0.998392
796.366042	0.997302
796.687812	0.998079
797.009538	0.998818
797.331218	0.999410
797.652852	0.999893
797.974442	0.998705
798.295986	0.999473
798.617484	0.998677
798.938938	0.999448
799.260346	0.998904
799.581709	0.999059
799.903026	0.999617
800.224299	0.999021
800.545526	0.998978
800.866708	0.998850
801.187845	0.998861
801.508936	0.999546
801.829983	0.998356
802.150984	0.999496
802.471940	0.999924
802.792851	0.998527
803.113717	0.999916
803.434538	0.999481
803.755314	1.000322
804.076045	1.000381
804.396731	0.999451
804.717372	0.997790
805.037967	1.000279
805.358518	1.000144
805.679024	0.998674
805.999485	0.999234
806.319901	0.999548
806.640272	0.999618
806.960598	0.999502
807.280879	0.998985
807.601115	0.999550
807.921306	0.999907
808.241453	0.999614
808.561554	0.998775
808.881611	0.999295
809.201623	0.999223
809.521590	0.998870
809.841513	0.998743
810.161390	0.998055
810.481223	0.998350
810.801011	0.999963
811.120755	1.001131
811.440453	0.998413
811.760107	0.998956
812.079716	0.998572
812.399281	0.999191
812.718801	0.997892
813.038276	1.000166
813.357707	0.999108
813.677093	0.999720
813.996434	0.999869
814.315731	0.999870
814.634983	0.999897
814.954191	1.000429
815.273354	0.999540
815.592473	0.998879
815.911547	0.999658
816.230577	0.998475
816.549562	0.999350
816.868502	0.997473
817.187399	0.999069
817.506250	0.999372
817.825058	0.998082
818.143821	0.998423
818.462539	0.997956
818.781213	0.999214
819.099843	0.999735
819.418429	0.997764
819.736970	0.998266
820.055466	0.997106
820.373919	0.997010
820.692327	0.996567
821.010691	0.996691
821.329011	0.994590
821.647286	0.993061
821.965517	0.991780
822.283704	0.990232
822.601847	0.988505
822.919945	0.989488
823.237999	0.990899
823.556010	0.991159
823.873976	0.992060
824.191897	0.992828
824.509775	0.994623
824.827609	0.994053
825.145398	0.995293
825.463144	0.994937
825.780845	0.994653
826.098502	0.995882
826.416116	0.995592
826.733685	0.994282
827.051210	0.992249
827.368692	0.993820
827.686129	0.992776
828.003522	0.996022
828.320872	0.995205
828.638177	0.995928
828.955439	0.998173
829.272656	0.997565
829.589830	0.997862
829.906960	0.998031
830.224046	0.998016
830.541088	0.998333
830.858086	0.998294
831.175041	0.999840
831.491952	0.997999
831.808819	0.998385
832.125642	0.998255
832.442421	0.998604
832.759157	0.999482
833.075849	0.996678
833.392497	0.995980
833.709101	0.994860
834.025662	0.995718
834.342179	0.994717
834.658653	0.997589
834.975083	0.997541
835.291469	0.997399
835.607811	0.997966
835.924110	0.998583
836.240366	0.999123
836.556578	0.999067
836.872746	0.999639
837.188871	0.998800
837.504952	0.999212
837.820990	1.000564
838.136984	0.997844
838.452935	0.999398
838.768842	1.000252
839.084706	0.998926
839.400526	1.000071
839.716303	0.997026
840.032037	0.998752
840.347727	0.997460
840.663373	0.998473
840.978977	0.998412
841.294537	0.998997
841.610054	0.999529
841.925527	0.998885
842.240957	0.999374
842.556344	0.998873
842.871687	0.999491
843.186987	0.999376
843.502244	0.999801
843.817458	0.998751
844.132629	0.999565
844.447756	1.000010
844.762840	0.999733
845.077881	1.000584
845.392879	0.998300
845.707833	0.999852
846.022745	1.000028
846.337613	0.998880
846.652438	0.999626
846.967221	0.999975
847.281960	0.999774
847.596656	0.999818
847.911309	1.000118
848.225919	0.999219
848.540485	1.000083
848.855009	1.001202
849.169490	1.000238
849.483928	0.998900
849.798323	0.998609
850.112675	1.000565
850.426984	1.000164
850.741251	0.999146
851.055474	0.999666
851.369654	1.000525
851.683792	0.999904
851.997887	1.000655
852.311938	1.000633
852.625947	0.999108
852.939914	0.999783
853.253837	0.999983
853.567718	0.999601
853.881555	1.000645
854.195350	1.000221
854.509103	0.999490
854.822812	1.000368
855.136479	1.000277
855.450103	0.999235
855.763685	1.000191
856.077224	1.000460
856.390720	0.998378
856.704173	1.001501
857.017584	1.000423
857.330953	0.999677
857.644278	1.000046
857.957561	1.000133
858.270802	1.000527
858.584000	1.000411
858.897155	0.999447
859.210268	0.999689
859.523339	1.000557
859.836367	0.999567
860.149352	0.999468
860.462295	0.999087
860.775195	1.000638
861.088054	0.998880
861.400869	0.999602
861.713642	0.998927
862.026373	1.001284
862.339062	1.000525
862.651708	1.000136
862.964312	1.000210
863.276873	0.999585
863.589392	0.999542
863.901869	0.999406
864.214303	0.999775
864.526696	1.000130
864.839045	0.999715
865.151353	0.999995
865.463619	0.999374
865.775842	0.999618
866.088023	1.000609
866.400162	1.000196
866.712258	1.000004
867.024313	1.001052
867.336325	0.999702
867.648296	1.000364
867.960224	1.000209
868.272110	0.999982
868.583954	0.999859
868.895755	0.999341
869.207515	0.999296
869.519233	1.001384
869.830909	0.999551
870.142542	0.999735
870.454134	0.999324
870.765684	0.998366
871.077191	0.999932
871.388657	0.999817
871.700081	1.000209
872.011463	1.000356
872.322803	1.000243
872.634101	0.999422
872.945357	0.999441
873.256571	0.999056
873.567744	0.999608
873.878874	0.999240
874.189963	1.000313
874.501010	1.000311
874.812015	0.999056
875.122979	0.999858
875.433900	0.998381
875.744780	0.999989
876.055618	0.998359
876.366415	0.999107
876.677169	0.999397
876.987882	0.999361
877.298554	1.001279
877.609183	0.998647
877.919771	0.998954
878.230317	0.999416
878.540822	0.998117
878.851285	0.998921
879.161707	0.998324
879.472087	1.000557
879.782425	0.996972
880.092722	0.997600
880.402977	0.995019
880.713191	0.993576
881.023363	0.990380
881.333494	0.989003
881.643583	0.990494
881.953631	0.989649
882.263637	0.989512
882.573602	0.990304
882.883526	0.990852
883.193408	0.992905
883.503248	0.993298
883.813048	0.993232
884.122806	0.995617
884.432522	0.995951
884.742197	0.996579
885.051831	0.996671
885.361424	0.997521
885.670975	0.998904
885.980485	0.997640
886.289954	0.997402
886.599382	0.997408
886.908768	0.999373
887.218113	0.998939
887.527417	0.998120
887.836680	0.998863
888.145901	0.998411
888.455082	1.000408
888.764221	0.999837
889.073319	0.999154
889.382376	0.999724
889.691392	0.998383
890.000366	0.999778
890.309300	0.998446
890.618193	0.999895
890.927044	0.999693
891.235855	0.998710
891.544625	0.999164
891.853353	0.998465
892.162041	0.998483
892.470687	0.999150
892.779293	0.998270
893.087858	0.996811
893.396381	0.998520
893.704864	0.997215
894.013306	0.998061
894.321707	0.996158
894.630068	0.994445
894.938387	0.995765
895.246665	0.994664
895.554903	0.995603
895.863100	0.996420
896.171256	0.996330
896.479371	0.997056
896.787446	0.996079
897.095480	0.997790
897.403473	0.997890
897.711425	0.998750
898.019336	0.998319
898.327207	0.999048
898.635038	0.997939
898.942827	0.999489
899.250576	0.998654
899.558284	0.999718
899.865952	0.997557
900.173579	0.999627
900.481165	0.999260
900.788711	0.999206
901.096216	0.999211
901.403681	0.999980
901.711105	0.998879
902.018489	1.000298
902.325832	0.998685
902.633135	0.999582
902.940397	0.998553
903.247619	0.998961
903.554800	0.997347
903.861941	0.996749
904.169041	0.993841
904.476101	0.994467
904.783121	0.993003
905.090100	0.994395
905.397039	0.994813
905.703938	0.996169
906.010796	0.996745
906.317614	0.997049
906.624391	0.998189
906.931129	0.997706
907.237826	1.000096
907.544483	0.999889
907.851099	0.999003
908.157675	0.999485
908.464211	0.998949
908.770707	0.999128
909.077163	0.998812
909.383578	0.999790
909.689954	0.999050
909.996289	1.000025
910.302584	0.999432
910.608839	1.000617
910.915054	0.999148
911.221229	1.000706
911.527363	0.999228
911.833458	0.999211
912.139513	0.999687
912.445527	0.999510
912.751502	1.001396
913.057436	0.999363
913.363331	1.000255
913.669186	1.000474
913.975000	0.999175
914.280775	0.998916
914.586510	0.999310
914.892205	0.996920
915.197859	0.996292
915.503475	0.995686
915.809050	0.995268
916.114585	0.992395
916.420081	0.993257
916.725536	0.994655
917.030952	0.995367
917.336328	0.994464
917.641665	0.994529
917.946961	0.995401
918.252218	0.995416
918.557435	0.996900
918.862612	0.996898
919.167750	0.998321
919.472848	0.998201
919.777906	0.999227
920.082925	0.998251
920.387904	0.999135
920.692843	0.998809
920.997743	0.998126
921.302603	0.998494
921.607423	0.997523
921.912204	0.999565
922.216946	1.000103
922.521647	0.998782
922.826310	0.999306
923.130932	0.999950
923.435516	1.000129
923.740059	0.999038
924.044564	0.999526
924.349028	0.999446
924.653454	1.000642
924.957840	0.999431
925.262186	0.999842
925.566493	0.998681
925.870761	1.000634
926.174989	1.000001
926.479178	1.001510
926.783328	1.000910
927.087438	0.999770
927.391509	0.999755
927.695541	0.999314
927.999533	1.000836
928.303486	0.999389
928.607400	1.000431
928.911275	1.000528
929.215110	1.001196
929.518906	1.000906
929.822663	1.001771
930.126381	1.001500
930.430060	1.000934
930.733699	0.999559
931.037299	1.001085
931.340861	1.001947
931.644383	0.999432
931.947866	1.000240
932.251309	1.001350
932.554714	1.001017
932.858080	1.001000
933.161407	1.000099
933.464694	0.999984
933.767943	1.000642
934.071153	1.000510
934.374323	0.999765
934.677455	1.000071
934.980548	0.998854
935.283602	1.001377
935.586617	0.999695
935.889593	1.001875
936.192530	1.002036
936.495428	0.999789
936.798287	1.000596
937.101108	1.000630
937.403890	1.000225
937.706632	1.000802
938.009336	0.999382
938.312002	0.999172
938.614628	0.999917
938.917216	0.999952
939.219765	0.999569
939.522275	1.001020
939.824747	1.000885
940.127179	0.999996
940.429573	1.001062
940.731929	0.999170
941.034246	1.000467
941.336524	0.998438
941.638763	0.999549
941.940964	0.999468
942.243126	0.999211
942.545250	1.000052
942.847335	0.999877
943.149381	1.000397
943.451389	0.999978
943.753359	1.000341
944.055290	1.000398
944.357182	1.000065
944.659036	1.000321
944.960851	1.000834
945.262628	1.000332
945.564367	0.999779
945.866067	1.000275
946.167729	1.001128
946.469352	0.999627
946.770937	0.998864
947.072484	0.999963
947.373992	1.000160
947.675462	0.998825
947.976893	0.998407
948.278286	1.001963
948.579641	1.001584
948.880958	1.000371
949.182236	1.000739
949.483476	1.000074
949.784678	0.999418
950.085841	0.999754
950.386967	1.000068
950.688054	1.000633
950.989103	0.998788
951.290114	0.999549
951.591087	1.001195
951.892021	0.999648
952.192917	1.000884
952.493776	0.999101
952.794596	1.000029
953.095378	0.999197
953.396122	0.999168
953.696828	0.999990
953.997496	1.001281
954.298126	1.000366
954.598718	1.000035
954.899272	1.000273
955.199788	0.999866
955.500266	1.000512
955.800706	1.001003
956.101108	0.999304
956.401472	1.002175
956.701798	1.000602
957.002087	0.999374
957.302337	0.999702
957.602550	1.001213
957.902724	1.000229
958.202861	1.001428
958.502960	0.999410
958.803022	1.001724
959.103045	1.001138
959.403031	1.000445
959.702979	1.001338
960.002889	1.001011
960.302762	0.999963
960.602596	1.001845
960.902393	1.000404
961.202153	1.001845
961.501875	0.999558
961.801559	1.001338
962.101205	1.000232
962.400814	1.001873
962.700385	1.000989
962.999918	1.001079
963.299414	0.999645
963.598873	0.999943
963.898293	1.000823
964.197677	1.000841
964.497022	1.000728
964.796331	1.000868
965.095601	1.001529
965.394835	1.000964
965.694030	1.001054
965.993189	1.000275
966.292309	1.000825
966.591393	0.999567
966.890439	1.000544
967.189447	0.999666
967.488419	1.000721
967.787353	1.000537
968.086249	1.001112
968.385108	1.000741
968.683930	1.001454
968.982714	1.000085
969.281462	1.000980
969.580172	1.000499
969.878844	1.001468
970.177480	1.000034
970.476078	1.001998
970.774639	1.000875
971.073162	1.001627
971.371649	1.000778
971.670098	1.000021
971.968510	1.000839
972.266885	1.000523
972.565223	1.000011
972.863524	1.000027
973.161788	1.000367
973.460014	1.001026
973.758204	1.000040
974.056356	1.000493
974.354471	1.000447
974.652550	1.001337
974.950591	1.001338
975.248595	1.000168
975.546563	1.001525
975.844493	1.001535
976.142386	1.000254
976.440243	1.001176
976.738062	1.001089
977.035845	1.000321
977.333590	1.001219
977.631299	0.999748
977.928971	1.000260
978.226606	1.000320
978.524204	1.001126
978.821765	1.001071
979.119290	1.001842
979.416777	1.000176
979.714228	1.000324
980.011642	1.001562
980.309020	0.999830
980.606360	0.999968
980.903664	0.999889
981.200931	0.999920
981.498162	1.000437
981.795356	1.000658
982.092513	1.000951
982.389633	1.001815
982.686717	0.999859
982.983764	0.999358
983.280775	0.999887
983.577749	1.000946
983.874686	0.999734
984.171587	0.999897
984.468451	1.000153
984.765279	1.000894
985.062070	1.000853
985.358824	0.999846
985.655543	1.000409
985.952224	1.001990
986.248869	1.000474
986.545478	1.001358
986.842050	0.998974
987.138586	0.999254
987.435086	1.000009
987.731549	1.001374
988.027975	1.001988
988.324366	1.000009
988.620719	1.000885
988.917037	1.000661
989.213318	1.001123
989.509563	1.001003
989.805772	1.001750
990.101944	1.001227
990.398080	1.000875
990.694180	1.001799
990.990244	0.999660
991.286271	1.000047
991.582262	1.001509
991.878217	1.000609
992.174136	1.000998
992.470019	1.001078
992.765865	1.002783
993.061676	1.001255
993.357450	1.001878
993.653188	1.003047
993.948890	1.000382
994.244556	1.000782
994.540186	1.000398
994.835780	1.000207
995.131337	1.001758
995.426859	1.001682
995.722345	0.999866
996.017795	0.999784
996.313208	1.000062
996.608586	0.999833
996.903928	1.001301
997.199234	1.000250
997.494504	1.002396
997.789738	0.998997
998.084936	1.001167
998.380099	0.999416
998.675225	1.001822
998.970316	1.001117
999.265371	1.000356
999.560390	1.000799
999.855373	1.001120
1000.150320	1.000791
1000.445232	1.001030
1000.740108	1.000596
1001.034948	1.000037
1001.329752	1.002025
1001.624521	1.000270
1001.919254	1.000801
1002.213951	1.001059
1002.508613	0.999516
1002.803239	1.000012
1003.097829	1.000526
1003.392384	1.000121
1003.686903	1.001056
1003.981386	0.999753
1004.275834	1.002310
1004.570246	0.999584
1004.864623	1.001229
1005.158964	1.000925
1005.453270	1.001287
1005.747540	1.000104
1006.041775	1.000319
1006.335974	1.001397
1006.630138	1.001077
1006.924266	0.999326
1007.218359	1.000641
1007.512416	1.001465
1007.806438	1.000672
1008.100425	1.001773
1008.394376	1.001560
1008.688292	1.000475
1008.982172	1.000756
1009.276017	1.001728
1009.569827	1.001140
1009.863602	0.999511
1010.157341	1.001290
1010.451045	1.000256
1010.744714	1.003109
1011.038347	1.001784
1011.331945	1.001274
1011.625508	1.000691
1011.919036	1.000981
1012.212528	1.000941
1012.505986	1.000184
1012.799408	1.001736
1013.092795	1.001850
1013.386147	1.000665
1013.679464	1.002740
1013.972745	1.000429
1014.265992	1.001240
1014.559204	1.000146
1014.852380	1.000978
1015.145521	1.000864
1015.438628	1.001460
1015.731699	1.000823
1016.024736	1.001592
1016.317737	1.000467
1016.610703	1.001407
1016.903635	1.001616
1017.196531	1.001387
1017.489393	1.000078
1017.782219	1.000518
1018.075011	1.001165
1018.367768	1.000545
1018.660490	1.000817
1018.953177	1.000817
1019.245829	1.000817
