Dividing Wavelength (nm)	Counts (n)	Blue Motor Position (mm): 5.900000	Red Motor Position (mm): 0.000000	
326.493990	1.004887
326.888308	1.004887
327.282561	1.004887
327.676750	1.006239
328.070874	1.006357
328.464933	1.006043
328.858929	1.005832
329.252859	1.006664
329.646726	1.005314
330.040528	1.005689
330.434265	1.005952
330.827938	1.004266
331.221547	1.005761
331.615091	1.006445
332.008571	1.005834
332.401986	1.004955
332.795338	1.005271
333.188625	1.005824
333.581847	1.004908
333.975006	1.005610
334.368100	1.005736
334.761129	1.005309
335.154095	1.005424
335.546996	1.003467
335.939833	0.999137
336.332606	1.000939
336.725315	0.998177
337.117960	0.999772
337.510540	0.997759
337.903056	0.999164
338.295508	0.999219
338.687896	0.999527
339.080220	0.998100
339.472480	0.998182
339.864676	1.000402
340.256807	0.997342
340.648875	0.999260
341.040879	0.998032
341.432818	0.999170
341.824694	0.997841
342.216506	0.999123
342.608253	0.998420
342.999937	0.999254
343.391557	0.999114
343.783113	0.999852
344.174605	0.999105
344.566033	0.997634
344.957397	1.000873
345.348697	0.998998
345.739934	0.999056
346.131106	0.999041
346.522215	0.997938
346.913260	0.998456
347.304241	0.997745
347.695159	0.998754
348.086012	0.998567
348.476802	0.998255
348.867528	0.997873
349.258191	0.998445
349.648789	0.998109
350.039324	0.999083
350.429796	0.997480
350.820203	0.996913
351.210548	0.998375
351.600828	0.999206
351.991045	0.996545
352.381198	0.998444
352.771288	0.997997
353.161314	0.998413
353.551276	0.997655
353.941175	0.996823
354.331010	0.998554
354.720782	0.997565
355.110490	0.997302
355.500135	0.998378
355.889717	0.997675
356.279235	0.998145
356.668689	0.997689
357.058080	0.998303
357.447408	0.995850
357.836672	0.998285
358.225873	0.996556
358.615010	0.997577
359.004084	0.996230
359.393095	0.996767
359.782043	0.996883
360.170927	0.997740
360.559748	0.998758
360.948505	0.997248
361.337199	0.996302
361.725830	0.997347
362.114398	0.996694
362.502903	0.995446
362.891344	0.995392
363.279722	0.995840
363.668037	0.997433
364.056289	0.995380
364.444478	0.998356
364.832603	0.996330
365.220665	0.997931
365.608665	0.996053
365.996601	0.995502
366.384474	0.994698
366.772284	0.996034
367.160031	0.994460
367.547715	0.995269
367.935336	0.993875
368.322893	0.993818
368.710388	0.991646
369.097820	0.989320
369.485189	0.987974
369.872495	0.986013
370.259738	0.984831
370.646918	0.981716
371.034035	0.979560
371.421090	0.976101
371.808081	0.970192
372.195010	0.968827
372.581875	0.962389
372.968678	0.959265
373.355418	0.954995
373.742096	0.948625
374.128710	0.943682
374.515262	0.938480
374.901751	0.934486
375.288177	0.928589
375.674540	0.921986
376.060841	0.914545
376.447079	0.908099
376.833254	0.901876
377.219367	0.897557
377.605417	0.886313
377.991404	0.883139
378.377329	0.876148
378.763191	0.870073
379.148991	0.861754
379.534727	0.853242
379.920402	0.846417
380.306013	0.842242
380.691563	0.828688
381.077049	0.822656
381.462474	0.818267
381.847835	0.806625
382.233134	0.802113
382.618371	0.801772
383.003545	0.784849
383.388657	0.782771
383.773706	0.774564
384.158693	0.771333
384.543618	0.765963
384.928480	0.756809
385.313280	0.747482
385.698017	0.747109
386.082692	0.735117
386.467305	0.733391
386.851856	0.727809
387.236344	0.722314
387.620770	0.717225
388.005133	0.710884
388.389435	0.705750
388.773674	0.703353
389.157851	0.695406
389.541965	0.692428
389.926018	0.699654
390.310008	0.686326
390.693936	0.683439
391.077802	0.675509
391.461606	0.677045
391.845348	0.665987
392.229027	0.665863
392.612645	0.663511
392.996200	0.650963
393.379694	0.643617
393.763125	0.634579
394.146494	0.637657
394.529801	0.629146
394.913047	0.621221
395.296230	0.627834
395.679351	0.618229
396.062410	0.615610
396.445408	0.617520
396.828343	0.613429
397.211217	0.608306
397.594028	0.620430
397.976778	0.610748
398.359466	0.606914
398.742092	0.602149
399.124656	0.614373
399.507158	0.602633
399.889598	0.600207
400.271977	0.591475
400.654294	0.594368
401.036549	0.594798
401.418742	0.598288
401.800874	0.584486
402.182944	0.580914
402.564952	0.573496
402.946898	0.574651
403.328783	0.575341
403.710606	0.586593
404.092367	0.561758
404.474067	0.566696
404.855705	0.565878
405.237282	0.574432
405.618797	0.560427
406.000250	0.556049
406.381642	0.546367
406.762972	0.551713
407.144240	0.549852
407.525447	0.549749
407.906593	0.542810
408.287677	0.538546
408.668700	0.547009
409.049661	0.540437
409.430560	0.535352
409.811399	0.545113
410.192176	0.525970
410.572891	0.533645
410.953545	0.521419
411.334138	0.535306
411.714669	0.526797
412.095139	0.539504
412.475547	0.523371
412.855894	0.526224
413.236180	0.523816
413.616405	0.529830
413.996568	0.519832
414.376670	0.526694
414.756711	0.531191
415.136691	0.528378
415.516609	0.519697
415.896466	0.515894
416.276262	0.512458
416.655997	0.513488
417.035670	0.495482
417.415283	0.486883
417.794834	0.491566
418.174324	0.497466
418.553753	0.506474
418.933121	0.488223
419.312428	0.482993
419.691674	0.488080
420.070859	0.476460
420.449983	0.484182
420.829045	0.473836
421.208047	0.482334
421.586988	0.475470
421.965867	0.474515
422.344686	0.463382
422.723444	0.475729
423.102141	0.492642
423.480777	0.466125
423.859352	0.486300
424.237866	0.463680
424.616319	0.464419
424.994712	0.455140
425.373044	0.465378
425.751314	0.454031
426.129524	0.470258
426.507673	0.453547
426.885762	0.447048
427.263789	0.452722
427.641756	0.462430
428.019662	0.452625
428.397508	0.452293
428.775292	0.456411
429.153016	0.448012
429.530679	0.454584
429.908282	0.447518
430.285824	0.457532
430.663305	0.435913
431.040726	0.457365
431.418086	0.457045
431.795385	0.448968
432.172624	0.447827
432.549802	0.448322
432.926920	0.447098
433.303977	0.446784
433.680974	0.444233
434.057910	0.442395
434.434786	0.441525
434.811601	0.444201
435.188355	0.426936
435.565050	0.436112
435.941683	0.437107
436.318257	0.421119
436.694770	0.422249
437.071222	0.420606
437.447614	0.424720
437.823946	0.430977
438.200218	0.420644
438.576429	0.430410
438.952580	0.423226
439.328670	0.420048
439.704700	0.426257
440.080670	0.427627
440.456580	0.409247
440.832429	0.416860
441.208218	0.428101
441.583947	0.416932
441.959616	0.416439
442.335224	0.422125
442.710773	0.412394
443.086261	0.410358
443.461689	0.424427
443.837057	0.414581
444.212365	0.404473
444.587612	0.411386
444.962800	0.401702
445.337927	0.402954
445.712995	0.428826
446.088002	0.390886
446.462949	0.401685
446.837837	0.406787
447.212664	0.394917
447.587431	0.386490
447.962139	0.357048
448.336786	0.315818
448.711374	0.326094
449.085901	0.370588
449.460369	0.374369
449.834776	0.378617
450.209124	0.357809
450.583412	0.350310
450.957640	0.343084
451.331808	0.354232
451.705917	0.377933
452.079965	0.383040
452.453954	0.370761
452.827883	0.377602
453.201752	0.372293
453.575562	0.383662
453.949311	0.372534
454.323001	0.379007
454.696632	0.374271
455.070202	0.367003
455.443713	0.358597
455.817164	0.353512
456.190556	0.349084
456.563888	0.346145
456.937160	0.343634
457.310373	0.361252
457.683526	0.359847
458.056619	0.365799
458.429653	0.366082
458.802628	0.369773
459.175542	0.363797
459.548398	0.346292
459.921194	0.338919
460.293930	0.339233
460.666607	0.316587
461.039224	0.304712
461.411782	0.300085
461.784280	0.299831
462.156719	0.303694
462.529099	0.308379
462.901419	0.324075
463.273680	0.328935
463.645882	0.327752
464.018024	0.334086
464.390106	0.326920
464.762130	0.311390
465.134094	0.294305
465.505999	0.263267
465.877845	0.233663
466.249631	0.220766
466.621358	0.227656
466.993026	0.242195
467.364634	0.247991
467.736184	0.257123
468.107674	0.265811
468.479105	0.264956
468.850477	0.271833
469.221790	0.278461
469.593043	0.288659
469.964238	0.293522
470.335373	0.293020
470.706449	0.290843
471.077467	0.291628
471.448425	0.253579
471.819324	0.229036
472.190164	0.228757
472.560945	0.257896
472.931667	0.280299
473.302330	0.284196
473.672934	0.296194
474.043479	0.283951
474.413965	0.286121
474.784393	0.289572
475.154761	0.284229
475.525070	0.281542
475.895321	0.287587
476.265513	0.281344
476.635645	0.276618
477.005719	0.276615
477.375734	0.273238
477.745691	0.266159
478.115588	0.262670
478.485427	0.256205
478.855207	0.243246
479.224928	0.225751
479.594591	0.213915
479.964194	0.217347
480.333739	0.218461
480.703226	0.219635
481.072653	0.218398
481.442022	0.213899
481.811333	0.210500
482.180584	0.213924
482.549777	0.219370
482.918912	0.222910
483.287988	0.222387
483.657005	0.222109
484.025964	0.228433
484.394864	0.225733
484.763706	0.226472
485.132489	0.231463
485.501213	0.232361
485.869879	0.230638
486.238487	0.233708
486.607036	0.231728
486.975527	0.236402
487.343959	0.232197
487.712333	0.231221
488.080648	0.232681
488.448905	0.231912
488.817104	0.233178
489.185244	0.227642
489.553326	0.224612
489.921350	0.214188
490.289315	0.196705
490.657222	0.191705
491.025070	0.193151
491.392861	0.195010
491.760593	0.200808
492.128267	0.206420
492.495883	0.211952
492.863440	0.217950
493.230939	0.224729
493.598380	0.225734
493.965763	0.228240
494.333088	0.230396
494.700354	0.231826
495.067563	0.231004
495.434713	0.234188
495.801805	0.231991
496.168839	0.233570
496.535815	0.234980
496.902733	0.235073
497.269593	0.236602
497.636395	0.234311
498.003139	0.234480
498.369825	0.237515
498.736453	0.234010
499.103023	0.235256
499.469535	0.234782
499.835989	0.235385
500.202385	0.236106
500.568723	0.239409
500.935003	0.234278
501.301226	0.238640
501.667390	0.232829
502.033497	0.231045
502.399546	0.234129
502.765537	0.235970
503.131470	0.234514
503.497345	0.230458
503.863163	0.239147
504.228923	0.232296
504.594625	0.230943
504.960269	0.236546
505.325856	0.231915
505.691385	0.236291
506.056856	0.232742
506.422270	0.232341
506.787625	0.234659
507.152924	0.232184
507.518164	0.232570
507.883347	0.234191
508.248472	0.235946
508.613540	0.231108
508.978550	0.233333
509.343503	0.234096
509.708398	0.231426
510.073236	0.229217
510.438016	0.228911
510.802738	0.230003
511.167403	0.228893
511.532010	0.231343
511.896561	0.226567
512.261053	0.224997
512.625488	0.227553
512.989866	0.227644
513.354186	0.227871
513.718449	0.229919
514.082655	0.226210
514.446803	0.228507
514.810894	0.226225
515.174927	0.228673
515.538904	0.228143
515.902822	0.224994
516.266684	0.227350
516.630488	0.228571
516.994235	0.227554
517.357925	0.226360
517.721558	0.224498
518.085133	0.224289
518.448651	0.224064
518.812112	0.226367
519.175516	0.225936
519.538863	0.223465
519.902152	0.225318
520.265385	0.222219
520.628560	0.223858
520.991678	0.224417
521.354739	0.223152
521.717743	0.224296
522.080690	0.224622
522.443580	0.222002
522.806413	0.222941
523.169189	0.222533
523.531908	0.221037
523.894569	0.224615
524.257174	0.224588
524.619722	0.222387
524.982213	0.223458
525.344647	0.222183
525.707025	0.223231
526.069345	0.221224
526.431608	0.223190
526.793815	0.220774
527.155964	0.225512
527.518057	0.224091
527.880093	0.225014
528.242072	0.223953
528.603995	0.225712
528.965860	0.227172
529.327669	0.226416
529.689421	0.227272
530.051117	0.228029
530.412755	0.226130
530.774337	0.227951
531.135862	0.228587
531.497331	0.227797
531.858743	0.230843
532.220098	0.227054
532.581396	0.229971
532.942638	0.230243
533.303824	0.231481
533.664953	0.230825
534.026025	0.232924
534.387040	0.230744
534.747999	0.230605
535.108902	0.229468
535.469748	0.235121
535.830537	0.232774
536.191270	0.232826
536.551947	0.232196
536.912567	0.232095
537.273131	0.234302
537.633638	0.234426
537.994089	0.234836
538.354483	0.235774
538.714821	0.232470
539.075103	0.232514
539.435328	0.233393
539.795497	0.237267
540.155609	0.233601
540.515665	0.231951
540.875665	0.237296
541.235609	0.235870
541.595496	0.236084
541.955328	0.232628
542.315102	0.235344
542.674821	0.236176
543.034483	0.236250
543.394090	0.236132
543.753640	0.237701
544.113134	0.232671
544.472571	0.236172
544.831953	0.232803
545.191278	0.237550
545.550548	0.236704
545.909761	0.233495
546.268918	0.234169
546.628019	0.232562
546.987064	0.235609
547.346053	0.236762
547.704986	0.235139
548.063863	0.234888
548.422684	0.235126
548.781449	0.237187
549.140158	0.234694
549.498811	0.237715
549.857408	0.240641
550.215949	0.235308
550.574434	0.238295
550.932864	0.236711
551.291237	0.234997
551.649555	0.237026
552.007817	0.236448
552.366022	0.237331
552.724173	0.237649
553.082267	0.237806
553.440305	0.234721
553.798288	0.239048
554.156215	0.235703
554.514086	0.236382
554.871902	0.239717
555.229661	0.238572
555.587365	0.239212
555.945014	0.241871
556.302606	0.238675
556.660143	0.241337
557.017625	0.237867
557.375050	0.240078
557.732421	0.236867
558.089735	0.239103
558.446994	0.238652
558.804197	0.238117
559.161345	0.237943
559.518437	0.241711
559.875474	0.239441
560.232455	0.238955
560.589381	0.240011
560.946251	0.240265
561.303065	0.237804
561.659825	0.238926
562.016528	0.240594
562.373177	0.243316
562.729770	0.240783
563.086307	0.242750
563.442789	0.240502
563.799216	0.243181
564.155587	0.242395
564.511904	0.243805
564.868164	0.243252
565.224370	0.243242
565.580520	0.245222
565.936615	0.244902
566.292654	0.247684
566.648638	0.244850
567.004567	0.245799
567.360441	0.246039
567.716260	0.248158
568.072023	0.245835
568.427732	0.247013
568.783385	0.249402
569.138982	0.247265
569.494525	0.246892
569.850013	0.250062
570.205445	0.248291
570.560823	0.250892
570.916145	0.252877
571.271412	0.251300
571.626625	0.252661
571.981782	0.253362
572.336884	0.253992
572.691931	0.253457
573.046923	0.255244
573.401860	0.256295
573.756743	0.258092
574.111570	0.256736
574.466342	0.257405
574.821059	0.256202
575.175722	0.259409
575.530330	0.258980
575.884882	0.259345
576.239380	0.261439
576.593823	0.262039
576.948211	0.261382
577.302544	0.264408
577.656823	0.264387
578.011047	0.264312
578.365216	0.265209
578.719330	0.266871
579.073389	0.266534
579.427394	0.267577
579.781344	0.268667
580.135239	0.269997
580.489080	0.269892
580.842866	0.272945
581.196597	0.272897
581.550273	0.271241
581.903895	0.272427
582.257463	0.270593
582.610975	0.273688
582.964434	0.273320
583.317837	0.275732
583.671186	0.276269
584.024481	0.276227
584.377721	0.278619
584.730906	0.279439
585.084037	0.278703
585.437113	0.280540
585.790135	0.279980
586.143103	0.282897
586.496016	0.283950
586.848874	0.281666
587.201679	0.282116
587.554428	0.285526
587.907124	0.284518
588.259765	0.284965
588.612352	0.285395
588.964884	0.289557
589.317362	0.288640
589.669786	0.288927
590.022155	0.287305
590.374470	0.286808
590.726731	0.288886
591.078937	0.293715
591.431090	0.290219
591.783188	0.294042
592.135232	0.294746
592.487222	0.294620
592.839157	0.292510
593.191038	0.295151
593.542866	0.296880
593.894639	0.299749
594.246358	0.298486
594.598022	0.297801
594.949633	0.301736
595.301190	0.302284
595.652692	0.301521
596.004141	0.297185
596.355535	0.305432
596.706876	0.305868
597.058162	0.308620
597.409395	0.305759
597.760573	0.303319
598.111698	0.306995
598.462768	0.307017
598.813785	0.308295
599.164748	0.310011
599.515657	0.310054
599.866511	0.313683
600.217312	0.309192
600.568060	0.314133
600.918753	0.310397
601.269392	0.311239
601.619978	0.314563
601.970510	0.312266
602.320988	0.312488
602.671412	0.310258
603.021783	0.312743
603.372100	0.313823
603.722363	0.313583
604.072572	0.314941
604.422728	0.314318
604.772830	0.316649
605.122878	0.316431
605.472872	0.316601
605.822813	0.315275
606.172701	0.317721
606.522534	0.314870
606.872314	0.315242
607.222041	0.316082
607.571714	0.314153
607.921333	0.315747
608.270899	0.315265
608.620411	0.312088
608.969870	0.316253
609.319276	0.316228
609.668627	0.316222
610.017926	0.314672
610.367171	0.313331
610.716362	0.313906
611.065500	0.313849
611.414585	0.312803
611.763616	0.313162
612.112594	0.313658
612.461518	0.312851
612.810389	0.310869
613.159207	0.313220
613.507971	0.314785
613.856682	0.311023
614.205340	0.312142
614.553945	0.309310
614.902496	0.312569
615.250994	0.311109
615.599439	0.311563
615.947830	0.311030
616.296169	0.312011
616.644454	0.312023
616.992686	0.311661
617.340864	0.309574
617.688990	0.313003
618.037063	0.310093
618.385082	0.311272
618.733048	0.308237
619.080961	0.310684
619.428821	0.309929
619.776628	0.309679
620.124382	0.311732
620.472083	0.312622
620.819731	0.311357
621.167326	0.315261
621.514868	0.315610
621.862357	0.319671
622.209793	0.318744
622.557176	0.321239
622.904506	0.322093
623.251783	0.324528
623.599007	0.326928
623.946179	0.326318
624.293297	0.328751
624.640363	0.332500
624.987376	0.332917
625.334336	0.335372
625.681243	0.337412
626.028097	0.338407
626.374899	0.339395
626.721647	0.340283
627.068343	0.342772
627.414987	0.343525
627.761577	0.345852
628.108115	0.343970
628.454600	0.349623
628.801032	0.347459
629.147412	0.348858
629.493739	0.349899
629.840014	0.352599
630.186236	0.349552
630.532405	0.355875
630.878521	0.352703
631.224585	0.355469
631.570597	0.358275
631.916556	0.357463
632.262462	0.357118
632.608316	0.359441
632.954117	0.360021
633.299866	0.360805
633.645562	0.361583
633.991206	0.365809
634.336797	0.368506
634.682336	0.371449
635.027823	0.372606
635.373257	0.373028
635.718639	0.377035
636.063968	0.376166
636.409245	0.382098
636.754470	0.382160
637.099642	0.384700
637.444762	0.387884
637.789829	0.387183
638.134845	0.390859
638.479808	0.391752
638.824719	0.391799
639.169577	0.395738
639.514383	0.395069
639.859137	0.398788
640.203839	0.398649
640.548489	0.399551
640.893086	0.400031
641.237632	0.402072
641.582125	0.400517
641.926566	0.402390
642.270955	0.402639
642.615292	0.403006
642.959576	0.401697
643.303809	0.402228
643.647990	0.402273
643.992118	0.402437
644.336195	0.405818
644.680219	0.404049
645.024192	0.405105
645.368112	0.398782
645.711981	0.397603
646.055797	0.393309
646.399562	0.395205
646.743274	0.388012
647.086935	0.384580
647.430544	0.385004
647.774101	0.383077
648.117606	0.383487
648.461059	0.383802
648.804460	0.386444
649.147810	0.391859
649.491108	0.392980
649.834354	0.394523
650.177548	0.400229
650.520690	0.405732
650.863781	0.406997
651.206820	0.405945
651.549807	0.410688
651.892742	0.414889
652.235626	0.414483
652.578458	0.415164
652.921238	0.421887
653.263967	0.418959
653.606644	0.422818
653.949269	0.422817
654.291843	0.426395
654.634365	0.423512
654.976836	0.426113
655.319255	0.427681
655.661622	0.428475
656.003938	0.428848
656.346203	0.431248
656.688416	0.429765
657.030577	0.432388
657.372687	0.434969
657.714746	0.435554
658.056753	0.432646
658.398708	0.436322
658.740612	0.437151
659.082465	0.433585
659.424266	0.433820
659.766016	0.434070
660.107715	0.436617
660.449362	0.434931
660.790958	0.435551
661.132503	0.437256
661.473996	0.434249
661.815438	0.435587
662.156829	0.435413
662.498168	0.436485
662.839456	0.437528
663.180693	0.434870
663.521879	0.434784
663.863013	0.436131
664.204097	0.434004
664.545129	0.431697
664.886110	0.431602
665.227040	0.428908
665.567918	0.431536
665.908746	0.429218
666.249522	0.429257
666.590248	0.430594
666.930922	0.427885
667.271545	0.427707
667.612118	0.427431
667.952639	0.428926
668.293109	0.427593
668.633528	0.430281
668.973896	0.430368
669.314213	0.430893
669.654480	0.432436
669.994695	0.432441
670.334859	0.433441
670.674973	0.433634
671.015035	0.433986
671.355047	0.433925
671.695008	0.434869
672.034918	0.436535
672.374777	0.435981
672.714585	0.437482
673.054342	0.437049
673.394049	0.437445
673.733705	0.434676
674.073310	0.436612
674.412864	0.439484
674.752368	0.439484
675.091820	0.439880
675.431223	0.444512
675.770574	0.444534
676.109875	0.447423
676.449125	0.446952
676.788324	0.449473
677.127473	0.455331
677.466571	0.454598
677.805619	0.456825
678.144616	0.458284
678.483562	0.459407
678.822458	0.461701
679.161303	0.462645
679.500098	0.462872
679.838842	0.464794
680.177535	0.463533
680.516179	0.462543
680.854771	0.461424
681.193314	0.455105
681.531805	0.446577
681.870247	0.434961
682.208638	0.427883
682.546978	0.426254
682.885268	0.428321
683.223508	0.434365
683.561697	0.438215
683.899836	0.440305
684.237925	0.443931
684.575963	0.447155
684.913951	0.450173
685.251889	0.445696
685.589776	0.447422
685.927614	0.450137
686.265401	0.443587
686.603137	0.445735
686.940824	0.439926
687.278460	0.438414
687.616046	0.436959
687.953582	0.432120
688.291068	0.433455
688.628504	0.429356
688.965889	0.431587
689.303224	0.435378
689.640510	0.439573
689.977745	0.445421
690.314930	0.453016
690.652065	0.457705
690.989150	0.465286
691.326185	0.472300
691.663170	0.476681
692.000105	0.483465
692.336990	0.491252
692.673825	0.493206
693.010610	0.500302
693.347345	0.506216
693.684030	0.507129
694.020665	0.511807
694.357251	0.520819
694.693786	0.520235
695.030272	0.523788
695.366707	0.528297
695.703093	0.531365
696.039429	0.529040
696.375716	0.531277
696.711952	0.533306
697.048139	0.535621
697.384276	0.537950
697.720363	0.536264
698.056400	0.534297
698.392388	0.540545
698.728326	0.543312
699.064214	0.546590
699.400053	0.546376
699.735842	0.551147
700.071581	0.554561
700.407270	0.556427
700.742910	0.559422
701.078501	0.565851
701.414042	0.565684
701.749533	0.569111
702.084974	0.578136
702.420366	0.570638
702.755709	0.578398
703.091002	0.585612
703.426246	0.580605
703.761440	0.584898
704.096584	0.590054
704.431679	0.586603
704.766725	0.589195
705.101721	0.590981
705.436668	0.587065
705.771565	0.594199
706.106413	0.589693
706.441212	0.585807
706.775961	0.585100
707.110661	0.587430
707.445311	0.583604
707.779913	0.581361
708.114465	0.579276
708.448967	0.576551
708.783421	0.568736
709.117825	0.562727
709.452180	0.562638
709.786485	0.556938
710.120742	0.546002
710.454949	0.548120
710.789107	0.539440
711.123216	0.531003
711.457275	0.533069
711.791286	0.525038
712.125247	0.523410
712.459159	0.533455
712.793023	0.525720
713.126837	0.530242
713.460602	0.530564
713.794318	0.539327
714.127985	0.538937
714.461602	0.549162
714.795171	0.552296
715.128691	0.560290
715.462162	0.567536
715.795584	0.573989
716.128957	0.576478
716.462281	0.582444
716.795556	0.586312
717.128782	0.592077
717.461960	0.601158
717.795088	0.599781
718.128167	0.605951
718.461198	0.614977
718.794180	0.615177
719.127113	0.618274
719.459997	0.621141
719.792833	0.627546
720.125619	0.628493
720.458357	0.634609
720.791046	0.634763
721.123686	0.637688
721.456278	0.645022
721.788821	0.642626
722.121315	0.647360
722.453761	0.651078
722.786158	0.648466
723.118506	0.644674
723.450805	0.652220
723.783056	0.649000
724.115259	0.646717
724.447412	0.646157
724.779518	0.647653
725.111574	0.645938
725.443582	0.641074
725.775542	0.643947
726.107453	0.636117
726.439315	0.635462
726.771129	0.633567
727.102895	0.628096
727.434612	0.619868
727.766281	0.618727
728.097901	0.617867
728.429473	0.617082
728.760996	0.615372
729.092471	0.615835
729.423897	0.620294
729.755276	0.618728
730.086606	0.619097
730.417887	0.613504
730.749120	0.603799
731.080305	0.595252
731.411442	0.590486
731.742530	0.594633
732.073570	0.594774
732.404562	0.587235
732.735506	0.588748
733.066401	0.592850
733.397249	0.602118
733.728048	0.614168
734.058798	0.627122
734.389501	0.637630
734.720156	0.648428
735.050762	0.655821
735.381320	0.656173
735.711831	0.665059
736.042293	0.669331
736.372707	0.666265
736.703073	0.670750
737.033391	0.672903
737.363661	0.669587
737.693883	0.665244
738.024056	0.663839
738.354182	0.664713
738.684260	0.652902
739.014290	0.649968
739.344272	0.651093
739.674207	0.644292
740.004093	0.643530
740.333931	0.644106
740.663722	0.643165
740.993464	0.644567
741.323159	0.647972
741.652806	0.652799
741.982405	0.657866
742.311956	0.663048
742.641460	0.665202
742.970915	0.668347
743.300323	0.675949
743.629683	0.681463
743.958996	0.684522
744.288260	0.688950
744.617477	0.694958
744.946647	0.696258
745.275768	0.702212
745.604842	0.701531
745.933869	0.711352
746.262847	0.712965
746.591778	0.705537
746.920662	0.712132
747.249498	0.719486
747.578286	0.710854
747.907027	0.706661
748.235720	0.706312
748.564365	0.702236
748.892963	0.701301
749.221514	0.705525
749.550017	0.708464
749.878473	0.709797
750.206881	0.716522
750.535242	0.716839
750.863555	0.716209
751.191821	0.717882
751.520039	0.721185
751.848210	0.725174
752.176334	0.718816
752.504411	0.717483
752.832440	0.725528
753.160421	0.729163
753.488356	0.727288
753.816243	0.725255
754.144082	0.733615
754.471875	0.737014
754.799620	0.733315
755.127318	0.734216
755.454969	0.734882
755.782572	0.734704
756.110129	0.738224
756.437638	0.741227
756.765100	0.737878
757.092515	0.735472
757.419882	0.734134
757.747203	0.739951
758.074477	0.740196
758.401703	0.736233
758.728882	0.731733
759.056014	0.730581
759.383099	0.729181
759.710138	0.731226
760.037129	0.726356
760.364073	0.720886
760.690970	0.723255
761.017820	0.727490
761.344623	0.724057
761.671379	0.715732
761.998088	0.703796
762.324751	0.680436
762.651366	0.637997
762.977935	0.570709
763.304456	0.518320
763.630931	0.508970
763.957359	0.548022
764.283740	0.592356
764.610074	0.620064
764.936362	0.652160
765.262602	0.679047
765.588796	0.700800
765.914943	0.717280
766.241044	0.736027
766.567097	0.742137
766.893104	0.752772
767.219064	0.759724
767.544978	0.765506
767.870845	0.779223
768.196665	0.783142
768.522438	0.782270
768.848165	0.782517
769.173846	0.791697
769.499479	0.796385
769.825066	0.800392
770.150607	0.804363
770.476101	0.800293
770.801548	0.801892
771.126949	0.813749
771.452303	0.817289
771.777611	0.815506
772.102872	0.814617
772.428087	0.820499
772.753256	0.823793
773.078378	0.825576
773.403453	0.834590
773.728482	0.838674
774.053465	0.831914
774.378401	0.834865
774.703291	0.844419
775.028135	0.844505
775.352932	0.844309
775.677683	0.850129
776.002388	0.849211
776.327046	0.848679
776.651658	0.853394
776.976224	0.855852
777.300743	0.855413
777.625216	0.858358
777.949643	0.860759
778.274024	0.858773
778.598359	0.860922
778.922647	0.859422
779.246889	0.861583
779.571086	0.863887
779.895236	0.866916
780.219339	0.864709
780.543397	0.859570
780.867409	0.860099
781.191374	0.861505
781.515294	0.862811
781.839167	0.862399
782.162995	0.864726
782.486776	0.862543
782.810511	0.863801
783.134201	0.866915
783.457844	0.865571
783.781441	0.867700
784.104993	0.872989
784.428498	0.874063
784.751958	0.870037
785.075372	0.871972
785.398739	0.875242
785.722061	0.871058
786.045337	0.866590
786.368568	0.872672
786.691752	0.874535
787.014891	0.860611
787.337983	0.851617
787.661030	0.843401
787.984031	0.825290
788.306987	0.813219
788.629897	0.813021
788.952760	0.819450
789.275579	0.823787
789.598351	0.840259
789.921078	0.852377
790.243759	0.854765
790.566395	0.858876
790.888984	0.866951
791.211529	0.871878
791.534027	0.874341
791.856480	0.877274
792.178888	0.882271
792.501249	0.884069
792.823566	0.885951
793.145836	0.886702
793.468062	0.888300
793.790241	0.887735
794.112375	0.884931
794.434464	0.882782
794.756507	0.881516
795.078505	0.879656
795.400457	0.874888
795.722364	0.863440
796.044226	0.856399
796.366042	0.855020
796.687812	0.858198
797.009538	0.853128
797.331218	0.857126
797.652852	0.862450
797.974442	0.866211
798.295986	0.867095
798.617484	0.868836
798.938938	0.873948
799.260346	0.877837
799.581709	0.878953
799.903026	0.883388
800.224299	0.883993
800.545526	0.886236
800.866708	0.890639
801.187845	0.896679
801.508936	0.893485
801.829983	0.892214
802.150984	0.896522
802.471940	0.900912
802.792851	0.900172
803.113717	0.902749
803.434538	0.899574
803.755314	0.901892
804.076045	0.902729
804.396731	0.902882
804.717372	0.901985
805.037967	0.905448
805.358518	0.903037
805.679024	0.898483
805.999485	0.900658
806.319901	0.898893
806.640272	0.902413
806.960598	0.900378
807.280879	0.896388
807.601115	0.894876
807.921306	0.899308
808.241453	0.900132
808.561554	0.898676
808.881611	0.897841
809.201623	0.899708
809.521590	0.899769
809.841513	0.901076
810.161390	0.898720
810.481223	0.900794
810.801011	0.904294
811.120755	0.906748
811.440453	0.904677
811.760107	0.905001
812.079716	0.904330
812.399281	0.906987
812.718801	0.909694
813.038276	0.910735
813.357707	0.910677
813.677093	0.907867
813.996434	0.910442
814.315731	0.912160
814.634983	0.911939
814.954191	0.913037
815.273354	0.907416
815.592473	0.903925
815.911547	0.904454
816.230577	0.902074
816.549562	0.899918
816.868502	0.898614
817.187399	0.896463
817.506250	0.891106
817.825058	0.892328
818.143821	0.888530
818.462539	0.884263
818.781213	0.875780
819.099843	0.865371
819.418429	0.848299
819.736970	0.831894
820.055466	0.810960
820.373919	0.786043
820.692327	0.752593
821.010691	0.717084
821.329011	0.636339
821.647286	0.520211
821.965517	0.405723
822.283704	0.362584
822.601847	0.364302
822.919945	0.399977
823.237999	0.434899
823.556010	0.482283
823.873976	0.539190
824.191897	0.590131
824.509775	0.633890
824.827609	0.678375
825.145398	0.702230
825.463144	0.704170
825.780845	0.686679
826.098502	0.668587
826.416116	0.622066
826.733685	0.577544
827.051210	0.568690
827.368692	0.584249
827.686129	0.621883
828.003522	0.676737
828.320872	0.724784
828.638177	0.767909
828.955439	0.802172
829.272656	0.822383
829.589830	0.840147
829.906960	0.856746
830.224046	0.870141
830.541088	0.879707
830.858086	0.884969
831.175041	0.890461
831.491952	0.889655
831.808819	0.885966
832.125642	0.878131
832.442421	0.866351
832.759157	0.842923
833.075849	0.795038
833.392497	0.729803
833.709101	0.689073
834.025662	0.699765
834.342179	0.731995
834.658653	0.770945
834.975083	0.808430
835.291469	0.835658
835.607811	0.857359
835.924110	0.874770
836.240366	0.891354
836.556578	0.903852
836.872746	0.911502
837.188871	0.917960
837.504952	0.924459
837.820990	0.928239
838.136984	0.929757
838.452935	0.933587
838.768842	0.935963
839.084706	0.929139
839.400526	0.902707
839.716303	0.859744
840.032037	0.839578
840.347727	0.842151
840.663373	0.861078
840.978977	0.884107
841.294537	0.906741
841.610054	0.921670
841.925527	0.929042
842.240957	0.936570
842.556344	0.943793
842.871687	0.949198
843.186987	0.953057
843.502244	0.954935
843.817458	0.955753
844.132629	0.960103
844.447756	0.964266
844.762840	0.964561
845.077881	0.966098
845.392879	0.963031
845.707833	0.966512
846.022745	0.968472
846.337613	0.968794
846.652438	0.968330
846.967221	0.969227
847.281960	0.970837
847.596656	0.971393
847.911309	0.970165
848.225919	0.971708
848.540485	0.974101
848.855009	0.974401
849.169490	0.972975
849.483928	0.972424
849.798323	0.972704
850.112675	0.974438
850.426984	0.974146
850.741251	0.973684
851.055474	0.974070
851.369654	0.972476
851.683792	0.972301
851.997887	0.973374
852.311938	0.974098
852.625947	0.973703
852.939914	0.972308
853.253837	0.974377
853.567718	0.974273
853.881555	0.974527
854.195350	0.973750
854.509103	0.974521
854.822812	0.974822
855.136479	0.975155
855.450103	0.974337
855.763685	0.973932
856.077224	0.974270
856.390720	0.975277
856.704173	0.973638
857.017584	0.973481
857.330953	0.972514
857.644278	0.971086
857.957561	0.972235
858.270802	0.973664
858.584000	0.972416
858.897155	0.971600
859.210268	0.970402
859.523339	0.973590
859.836367	0.975027
860.149352	0.975122
860.462295	0.974798
860.775195	0.974880
861.088054	0.973259
861.400869	0.974337
861.713642	0.974231
862.026373	0.976425
862.339062	0.976002
862.651708	0.973618
862.964312	0.973211
863.276873	0.973733
863.589392	0.971481
863.901869	0.970583
864.214303	0.969467
864.526696	0.969356
864.839045	0.967685
865.151353	0.967224
865.463619	0.966429
865.775842	0.966792
866.088023	0.967385
866.400162	0.967140
866.712258	0.967622
867.024313	0.966883
867.336325	0.968621
867.648296	0.967217
867.960224	0.965588
868.272110	0.966554
868.583954	0.968402
868.895755	0.969470
869.207515	0.965658
869.519233	0.964654
869.830909	0.963799
870.142542	0.966048
870.454134	0.965543
870.765684	0.963428
871.077191	0.963496
871.388657	0.962168
871.700081	0.963818
872.011463	0.964040
872.322803	0.962108
872.634101	0.960632
872.945357	0.957844
873.256571	0.957375
873.567744	0.957937
873.878874	0.958919
874.189963	0.957088
874.501010	0.957440
874.812015	0.954368
875.122979	0.953923
875.433900	0.957259
875.744780	0.957855
876.055618	0.955137
876.366415	0.952768
876.677169	0.954199
876.987882	0.955420
877.298554	0.955614
877.609183	0.951863
877.919771	0.949402
878.230317	0.947478
878.540822	0.943065
878.851285	0.938929
879.161707	0.929874
879.472087	0.919898
879.782425	0.901202
880.092722	0.868031
880.402977	0.813738
880.713191	0.750204
881.023363	0.688756
881.333494	0.654963
881.643583	0.627862
881.953631	0.627712
882.263637	0.656523
882.573602	0.696287
882.883526	0.723442
883.193408	0.748405
883.503248	0.770829
883.813048	0.798342
884.122806	0.828572
884.432522	0.852482
884.742197	0.871494
885.051831	0.883896
885.361424	0.894923
885.670975	0.907026
885.980485	0.917036
886.289954	0.923570
886.599382	0.926510
886.908768	0.932264
887.218113	0.937740
887.527417	0.942130
887.836680	0.946985
888.145901	0.947554
888.455082	0.952003
888.764221	0.955093
889.073319	0.956160
889.382376	0.956966
889.691392	0.956072
890.000366	0.956960
890.309300	0.957863
890.618193	0.957161
890.927044	0.955076
891.235855	0.956252
891.544625	0.956297
891.853353	0.955578
892.162041	0.953538
892.470687	0.945546
892.779293	0.941849
893.087858	0.937524
893.396381	0.929035
893.704864	0.915463
894.013306	0.891160
894.321707	0.863973
894.630068	0.849534
894.938387	0.843166
895.246665	0.845434
895.554903	0.858640
895.863100	0.872188
896.171256	0.890030
896.479371	0.909435
896.787446	0.922030
897.095480	0.928941
897.403473	0.931143
897.711425	0.936846
898.019336	0.943333
898.327207	0.948397
898.635038	0.947675
898.942827	0.948434
899.250576	0.953634
899.558284	0.956559
899.865952	0.956452
900.173579	0.958580
900.481165	0.960047
900.788711	0.962896
901.096216	0.965971
901.403681	0.966441
901.711105	0.966474
902.018489	0.966895
902.325832	0.964885
902.633135	0.964458
902.940397	0.960270
903.247619	0.946216
903.554800	0.922071
903.861941	0.880250
904.169041	0.842997
904.476101	0.825117
904.783121	0.826001
905.090100	0.842364
905.397039	0.865148
905.703938	0.887827
906.010796	0.908873
906.317614	0.924850
906.624391	0.938114
906.931129	0.947463
907.237826	0.956567
907.544483	0.962894
907.851099	0.967128
908.157675	0.970506
908.464211	0.973595
908.770707	0.974941
909.077163	0.978670
909.383578	0.979663
909.689954	0.978912
909.996289	0.981779
910.302584	0.982276
910.608839	0.984939
910.915054	0.981912
911.221229	0.983141
911.527363	0.980311
911.833458	0.982815
912.139513	0.981318
912.445527	0.981132
912.751502	0.979065
913.057436	0.976995
913.363331	0.975281
913.669186	0.970932
913.975000	0.965686
914.280775	0.959114
914.586510	0.952027
914.892205	0.938778
915.197859	0.916331
915.503475	0.888842
915.809050	0.868147
916.114585	0.861369
916.420081	0.858579
916.725536	0.856605
917.030952	0.865096
917.336328	0.878319
917.641665	0.892817
917.946961	0.909180
918.252218	0.921445
918.557435	0.929243
918.862612	0.939601
919.167750	0.944839
919.472848	0.951910
919.777906	0.956487
920.082925	0.962369
920.387904	0.965809
920.692843	0.966434
920.997743	0.967978
921.302603	0.971542
921.607423	0.972411
921.912204	0.976035
922.216946	0.977805
922.521647	0.978626
922.826310	0.979340
923.130932	0.982384
923.435516	0.983376
923.740059	0.983913
924.044564	0.984045
924.349028	0.984054
924.653454	0.986834
924.957840	0.987474
925.262186	0.987650
925.566493	0.988510
925.870761	0.989348
926.174989	0.990621
926.479178	0.992055
926.783328	0.992007
927.087438	0.992695
927.391509	0.992493
927.695541	0.993014
927.999533	0.995464
928.303486	0.994736
928.607400	0.995058
928.911275	0.994762
929.215110	0.995735
929.518906	0.995863
929.822663	0.996965
930.126381	0.996107
930.430060	0.995361
930.733699	0.995787
931.037299	0.994676
931.340861	0.994973
931.644383	0.993872
931.947866	0.995489
932.251309	0.994871
932.554714	0.994746
932.858080	0.995419
933.161407	0.994197
933.464694	0.995786
933.767943	0.995786
934.071153	0.995256
934.374323	0.995791
934.677455	0.995955
934.980548	0.996373
935.283602	0.996162
935.586617	0.996905
935.889593	0.997261
936.192530	0.997307
936.495428	0.996699
936.798287	0.994930
937.101108	0.995264
937.403890	0.993857
937.706632	0.993438
938.009336	0.991785
938.312002	0.988999
938.614628	0.988727
938.917216	0.986705
939.219765	0.986795
939.522275	0.986615
939.824747	0.987398
940.127179	0.988065
940.429573	0.989117
940.731929	0.987854
941.034246	0.988873
941.336524	0.988924
941.638763	0.990267
941.940964	0.990355
942.243126	0.990917
942.545250	0.991786
942.847335	0.992167
943.149381	0.993138
943.451389	0.992872
943.753359	0.994200
944.055290	0.994910
944.357182	0.994988
944.659036	0.994789
944.960851	0.993631
945.262628	0.994788
945.564367	0.994309
945.866067	0.994145
946.167729	0.993758
946.469352	0.994556
946.770937	0.991789
947.072484	0.996042
947.373992	0.995226
947.675462	0.994790
947.976893	0.995016
948.278286	0.997114
948.579641	0.996808
948.880958	0.995671
949.182236	0.996641
949.483476	0.997047
949.784678	0.996510
950.085841	0.996004
950.386967	0.995561
950.688054	0.996838
950.989103	0.993860
951.290114	0.993853
951.591087	0.994733
951.892021	0.993858
952.192917	0.994669
952.493776	0.992815
952.794596	0.993290
953.095378	0.992179
953.396122	0.991974
953.696828	0.993657
953.997496	0.994055
954.298126	0.996600
954.598718	0.993603
954.899272	0.995379
955.199788	0.994769
955.500266	0.997818
955.800706	0.997943
956.101108	0.997258
956.401472	0.999236
956.701798	0.997091
957.002087	0.997887
957.302337	0.998927
957.602550	0.999503
957.902724	1.000116
958.202861	0.999263
958.502960	0.999771
958.803022	1.000248
959.103045	1.000532
959.403031	1.001224
959.702979	1.000793
960.002889	0.999098
960.302762	1.000411
960.602596	1.000852
960.902393	1.001739
961.202153	1.000987
961.501875	1.001965
961.801559	1.001753
962.101205	1.001329
962.400814	1.001406
962.700385	1.001629
962.999918	1.001143
963.299414	1.001253
963.598873	1.002213
963.898293	1.002476
964.197677	1.001048
964.497022	1.001730
964.796331	1.001877
965.095601	1.003570
965.394835	1.001161
965.694030	1.002422
965.993189	1.000820
966.292309	1.002512
966.591393	0.999945
966.890439	1.003161
967.189447	1.002021
967.488419	1.001321
967.787353	1.002259
968.086249	1.002392
968.385108	1.001431
968.683930	1.003624
968.982714	1.001957
969.281462	1.002098
969.580172	1.002267
969.878844	1.002021
970.177480	1.002367
970.476078	1.002392
970.774639	1.002018
971.073162	1.001079
971.371649	1.000603
971.670098	1.000331
971.968510	1.001726
972.266885	1.001420
972.565223	1.000623
972.863524	0.999115
973.161788	1.000670
973.460014	1.001898
973.758204	1.000135
974.056356	1.001293
974.354471	1.000491
974.652550	1.001987
974.950591	1.000282
975.248595	1.000876
975.546563	1.002257
975.844493	1.002563
976.142386	1.001400
976.440243	1.002548
976.738062	1.002866
977.035845	1.000510
977.333590	1.003537
977.631299	1.001665
977.928971	1.001497
978.226606	1.002821
978.524204	1.001143
978.821765	1.002660
979.119290	1.002937
979.416777	1.001155
979.714228	1.002417
980.011642	1.003025
980.309020	1.001892
980.606360	1.001938
980.903664	1.000310
981.200931	1.001471
981.498162	1.001332
981.795356	0.999561
982.092513	0.999048
982.389633	0.999123
982.686717	0.995867
982.983764	0.995715
983.280775	0.995082
983.577749	0.996748
983.874686	0.995013
984.171587	0.996871
984.468451	0.999862
984.765279	0.999391
985.062070	1.000374
985.358824	1.000672
985.655543	1.001931
985.952224	1.002010
986.248869	1.001172
986.545478	1.003209
986.842050	1.002295
987.138586	1.002231
987.435086	1.001471
987.731549	1.004849
988.027975	1.003645
988.324366	1.004010
988.620719	1.002494
988.917037	1.002916
989.213318	1.004220
989.509563	1.003014
989.805772	1.003562
990.101944	1.004796
990.398080	1.003432
990.694180	1.003752
990.990244	1.002902
991.286271	1.003317
991.582262	1.003106
991.878217	1.002349
992.174136	1.005197
992.470019	1.003567
992.765865	1.004539
993.061676	1.003997
993.357450	1.003191
993.653188	1.003171
993.948890	1.002789
994.244556	1.001856
994.540186	1.003026
994.835780	1.003045
995.131337	1.003000
995.426859	1.003726
995.722345	1.001340
996.017795	1.001641
996.313208	1.000699
996.608586	1.001451
996.903928	1.002529
997.199234	1.002152
997.494504	1.002546
997.789738	1.001271
998.084936	1.002290
998.380099	1.001551
998.675225	1.003298
998.970316	1.003872
999.265371	1.003478
999.560390	1.002781
999.855373	1.002726
1000.150320	1.003294
1000.445232	1.002588
1000.740108	1.003882
1001.034948	1.002967
1001.329752	1.004583
1001.624521	1.003950
1001.919254	1.004067
1002.213951	1.003484
1002.508613	1.003582
1002.803239	1.003352
1003.097829	1.004559
1003.392384	1.004081
1003.686903	1.003269
1003.981386	1.003887
1004.275834	1.004716
1004.570246	1.003189
1004.864623	1.004436
1005.158964	1.005144
1005.453270	1.003750
1005.747540	1.002590
1006.041775	1.004671
1006.335974	1.004628
1006.630138	1.004674
1006.924266	1.002544
1007.218359	1.002538
1007.512416	1.004496
1007.806438	1.003044
1008.100425	1.003827
1008.394376	1.003889
1008.688292	1.003402
1008.982172	1.002991
1009.276017	1.005664
1009.569827	1.004581
1009.863602	1.004294
1010.157341	1.003883
1010.451045	1.002990
1010.744714	1.005027
1011.038347	1.004266
1011.331945	1.004808
1011.625508	1.004931
1011.919036	1.003761
1012.212528	1.004583
1012.505986	1.003827
1012.799408	1.004047
1013.092795	1.004011
1013.386147	1.003281
1013.679464	1.005221
1013.972745	1.003211
1014.265992	1.005607
1014.559204	1.003191
1014.852380	1.004145
1015.145521	1.003875
1015.438628	1.004334
1015.731699	1.003902
1016.024736	1.005368
1016.317737	1.003717
1016.610703	1.004169
1016.903635	1.004230
1017.196531	1.004121
1017.489393	1.004422
1017.782219	1.004591
1018.075011	1.003337
1018.367768	1.002482
1018.660490	1.004932
1018.953177	1.004932
1019.245829	1.004932
