Dividing Wavelength (nm)	Counts (n)	Blue Motor Position (mm): 27.900000	Red Motor Position (mm): 0.000000	
326.493990	1.001166
326.888308	1.001166
327.282561	1.001166
327.676750	1.002375
328.070874	1.001299
328.464933	1.002150
328.858929	1.002007
329.252859	1.001855
329.646726	1.000936
330.040528	1.001004
330.434265	1.001602
330.827938	1.000054
331.221547	1.002659
331.615091	1.001979
332.008571	1.002288
332.401986	1.000353
332.795338	1.001467
333.188625	1.001475
333.581847	1.001396
333.975006	1.001397
334.368100	1.002524
334.761129	0.999966
335.154095	1.001882
335.546996	1.001050
335.939833	0.999077
336.332606	0.999119
336.725315	0.999941
337.117960	1.000066
337.510540	0.999863
337.903056	1.000153
338.295508	1.000642
338.687896	1.000512
339.080220	1.000720
339.472480	1.000204
339.864676	1.000336
340.256807	0.998561
340.648875	1.001036
341.040879	1.000052
341.432818	0.999970
341.824694	0.999484
342.216506	1.000575
342.608253	0.998706
342.999937	0.999259
343.391557	0.999920
343.783113	1.000841
344.174605	0.999836
344.566033	0.999203
344.957397	0.999726
345.348697	1.000337
345.739934	1.000121
346.131106	0.999121
346.522215	0.999052
346.913260	1.000694
347.304241	0.999284
347.695159	0.999265
348.086012	0.999860
348.476802	0.999271
348.867528	0.998786
349.258191	0.999970
349.648789	1.000073
350.039324	0.998287
350.429796	0.999405
350.820203	0.998833
351.210548	0.998792
351.600828	0.999006
351.991045	0.999650
352.381198	0.999584
352.771288	0.999645
353.161314	0.999113
353.551276	0.998819
353.941175	0.997241
354.331010	0.999491
354.720782	0.999838
355.110490	0.999567
355.500135	0.999574
355.889717	0.998478
356.279235	0.998896
356.668689	0.999999
357.058080	0.998979
357.447408	0.997782
357.836672	0.998308
358.225873	0.998091
358.615010	0.998095
359.004084	0.997825
359.393095	0.999962
359.782043	0.998219
360.170927	0.998978
360.559748	0.998641
360.948505	0.998153
361.337199	0.997185
361.725830	0.998487
362.114398	0.998333
362.502903	0.998020
362.891344	0.997646
363.279722	0.998158
363.668037	0.998354
364.056289	0.997777
364.444478	0.999045
364.832603	0.997788
365.220665	0.998785
365.608665	0.997638
365.996601	0.998072
366.384474	0.996622
366.772284	0.997715
367.160031	0.996699
367.547715	0.996464
367.935336	0.995701
368.322893	0.994347
368.710388	0.993689
369.097820	0.991365
369.485189	0.988912
369.872495	0.987867
370.259738	0.985251
370.646918	0.982989
371.034035	0.980902
371.421090	0.976724
371.808081	0.971968
372.195010	0.970361
372.581875	0.964513
372.968678	0.960627
373.355418	0.957259
373.742096	0.949115
374.128710	0.945404
374.515262	0.940564
374.901751	0.934199
375.288177	0.929453
375.674540	0.922643
376.060841	0.916509
376.447079	0.910074
376.833254	0.903285
377.219367	0.899157
377.605417	0.886646
377.991404	0.883726
378.377329	0.877253
378.763191	0.871266
379.148991	0.861568
379.534727	0.855061
379.920402	0.845884
380.306013	0.843768
380.691563	0.830129
381.077049	0.823470
381.462474	0.819867
381.847835	0.807966
382.233134	0.802775
382.618371	0.804461
383.003545	0.786482
383.388657	0.784006
383.773706	0.776390
384.158693	0.772072
384.543618	0.767120
384.928480	0.758591
385.313280	0.747922
385.698017	0.748379
386.082692	0.735843
386.467305	0.734958
386.851856	0.729627
387.236344	0.723659
387.620770	0.719133
388.005133	0.712836
388.389435	0.707617
388.773674	0.703756
389.157851	0.696514
389.541965	0.693886
389.926018	0.701265
390.310008	0.687057
390.693936	0.684068
391.077802	0.676810
391.461606	0.678053
391.845348	0.667147
392.229027	0.666746
392.612645	0.664738
392.996200	0.652061
393.379694	0.644784
393.763125	0.634647
394.146494	0.640471
394.529801	0.630574
394.913047	0.621801
395.296230	0.628408
395.679351	0.618779
396.062410	0.616852
396.445408	0.619108
396.828343	0.614843
397.211217	0.609991
397.594028	0.620845
397.976778	0.611710
398.359466	0.608641
398.742092	0.603725
399.124656	0.615551
399.507158	0.603353
399.889598	0.601140
400.271977	0.592159
400.654294	0.596652
401.036549	0.596086
401.418742	0.600381
401.800874	0.585697
402.182944	0.582174
402.564952	0.574667
402.946898	0.576084
403.328783	0.576556
403.710606	0.587872
404.092367	0.563161
404.474067	0.568400
404.855705	0.567091
405.237282	0.575477
405.618797	0.562166
406.000250	0.558020
406.381642	0.547329
406.762972	0.553194
407.144240	0.551454
407.525447	0.551634
407.906593	0.543861
408.287677	0.540167
408.668700	0.548202
409.049661	0.541991
409.430560	0.537097
409.811399	0.545572
410.192176	0.527460
410.572891	0.534934
410.953545	0.522274
411.334138	0.536923
411.714669	0.528270
412.095139	0.541233
412.475547	0.524798
412.855894	0.527712
413.236180	0.525434
413.616405	0.531308
413.996568	0.521540
414.376670	0.528021
414.756711	0.532769
415.136691	0.529282
415.516609	0.521506
415.896466	0.517410
416.276262	0.513197
416.655997	0.515490
417.035670	0.497271
417.415283	0.488410
417.794834	0.493180
418.174324	0.499193
418.553753	0.507911
418.933121	0.489957
419.312428	0.484046
419.691674	0.489886
420.070859	0.477768
420.449983	0.486105
420.829045	0.475333
421.208047	0.484531
421.586988	0.477529
421.965867	0.476322
422.344686	0.465261
422.723444	0.477493
423.102141	0.494805
423.480777	0.467453
423.859352	0.488361
424.237866	0.465209
424.616319	0.466298
424.994712	0.456401
425.373044	0.467615
425.751314	0.455581
426.129524	0.472590
426.507673	0.455843
426.885762	0.449700
427.263789	0.454899
427.641756	0.463991
428.019662	0.455176
428.397508	0.454664
428.775292	0.458550
429.153016	0.450404
429.530679	0.456892
429.908282	0.450045
430.285824	0.460620
430.663305	0.438789
431.040726	0.460430
431.418086	0.459828
431.795385	0.452103
432.172624	0.451045
432.549802	0.451472
432.926920	0.451175
433.303977	0.450371
433.680974	0.447784
434.057910	0.447244
434.434786	0.446506
434.811601	0.449967
435.188355	0.432487
435.565050	0.442525
435.941683	0.444006
436.318257	0.429014
436.694770	0.430998
437.071222	0.430118
437.447614	0.434869
437.823946	0.442203
438.200218	0.432972
438.576429	0.443627
438.952580	0.438353
439.328670	0.436123
439.704700	0.444244
440.080670	0.446609
440.456580	0.430769
440.832429	0.440096
441.208218	0.452292
441.583947	0.443840
441.959616	0.444851
442.335224	0.452630
442.710773	0.446022
443.086261	0.446364
443.461689	0.461961
443.837057	0.455270
444.212365	0.448363
444.587612	0.458100
444.962800	0.451346
445.337927	0.456341
445.712995	0.483702
446.088002	0.452097
446.462949	0.465318
446.837837	0.473605
447.212664	0.466476
447.587431	0.464027
447.962139	0.442931
448.336786	0.411356
448.711374	0.425049
449.085901	0.468051
449.460369	0.476519
449.834776	0.484919
450.209124	0.473122
450.583412	0.474038
450.957640	0.471949
451.331808	0.487553
451.705917	0.512647
452.079965	0.522625
452.453954	0.519526
452.827883	0.531030
453.201752	0.533539
453.575562	0.548377
453.949311	0.547484
454.323001	0.557951
454.696632	0.561524
455.070202	0.564027
455.443713	0.565128
455.817164	0.569185
456.190556	0.573769
456.563888	0.580262
456.937160	0.585496
457.310373	0.604095
457.683526	0.611178
458.056619	0.622938
458.429653	0.631523
458.802628	0.641132
459.175542	0.644878
459.548398	0.642990
459.921194	0.646726
460.293930	0.655195
460.666607	0.651579
461.039224	0.652752
461.411782	0.658804
461.784280	0.666868
462.156719	0.678036
462.529099	0.689013
462.901419	0.706243
463.273680	0.715630
463.645882	0.723040
464.018024	0.736094
464.390106	0.739867
464.762130	0.741152
465.134094	0.740633
465.505999	0.733923
465.877845	0.729128
466.249631	0.732597
466.621358	0.745531
466.993026	0.761348
467.364634	0.773100
467.736184	0.784295
468.107674	0.794244
468.479105	0.802667
468.850477	0.810448
469.221790	0.820389
469.593043	0.830450
469.964238	0.839625
470.335373	0.845619
470.706449	0.851472
471.077467	0.857654
471.448425	0.855582
471.819324	0.855129
472.190164	0.861026
472.560945	0.873671
472.931667	0.884174
473.302330	0.890168
473.672934	0.896449
474.043479	0.898876
474.413965	0.904957
474.784393	0.909493
475.154761	0.913628
475.525070	0.917814
475.895321	0.922626
476.265513	0.926719
476.635645	0.930035
477.005719	0.933125
477.375734	0.936704
477.745691	0.938305
478.115588	0.941631
478.485427	0.944532
478.855207	0.946628
479.224928	0.947331
479.594591	0.948736
479.964194	0.952133
480.333739	0.955801
480.703226	0.958669
481.072653	0.960555
481.442022	0.963459
481.811333	0.964379
482.180584	0.967401
482.549777	0.969768
482.918912	0.971699
483.287988	0.973336
483.657005	0.974077
484.025964	0.976374
484.394864	0.977771
484.763706	0.978643
485.132489	0.980758
485.501213	0.981873
485.869879	0.983000
486.238487	0.982875
486.607036	0.985293
486.975527	0.985287
487.343959	0.986323
487.712333	0.987134
488.080648	0.987380
488.448905	0.988765
488.817104	0.989254
489.185244	0.989330
489.553326	0.990010
489.921350	0.991008
490.289315	0.990048
490.657222	0.989992
491.025070	0.991338
491.392861	0.990553
491.760593	0.991115
492.128267	0.991577
492.495883	0.991721
492.863440	0.992469
493.230939	0.992629
493.598380	0.993360
493.965763	0.993318
494.333088	0.992942
494.700354	0.992705
495.067563	0.993476
495.434713	0.994031
495.801805	0.993905
496.168839	0.994306
496.535815	0.993992
496.902733	0.994009
497.269593	0.993812
497.636395	0.994047
498.003139	0.994449
498.369825	0.995386
498.736453	0.994403
499.103023	0.994975
499.469535	0.995243
499.835989	0.994766
500.202385	0.995103
500.568723	0.994696
500.935003	0.995316
501.301226	0.995572
501.667390	0.994970
502.033497	0.995098
502.399546	0.994989
502.765537	0.995238
503.131470	0.995889
503.497345	0.994955
503.863163	0.995516
504.228923	0.995310
504.594625	0.995540
504.960269	0.995880
505.325856	0.996025
505.691385	0.996150
506.056856	0.995761
506.422270	0.995548
506.787625	0.995889
507.152924	0.995987
507.518164	0.995303
507.883347	0.995361
508.248472	0.995964
508.613540	0.995874
508.978550	0.995723
509.343503	0.995966
509.708398	0.996973
510.073236	0.996437
510.438016	0.995560
510.802738	0.995678
511.167403	0.995630
511.532010	0.996381
511.896561	0.995888
512.261053	0.995340
512.625488	0.995437
512.989866	0.996371
513.354186	0.995109
513.718449	0.996104
514.082655	0.995302
514.446803	0.995868
514.810894	0.995969
515.174927	0.996212
515.538904	0.996268
515.902822	0.996179
516.266684	0.996182
516.630488	0.996097
516.994235	0.996539
517.357925	0.996630
517.721558	0.996361
518.085133	0.995771
518.448651	0.995957
518.812112	0.996678
519.175516	0.996231
519.538863	0.996032
519.902152	0.996649
520.265385	0.996326
520.628560	0.996150
520.991678	0.996375
521.354739	0.997071
521.717743	0.995824
522.080690	0.995920
522.443580	0.996561
522.806413	0.995904
523.169189	0.996736
523.531908	0.995907
523.894569	0.996643
524.257174	0.996959
524.619722	0.996195
524.982213	0.996822
525.344647	0.996134
525.707025	0.995599
526.069345	0.995563
526.431608	0.996786
526.793815	0.995997
527.155964	0.995886
527.518057	0.997266
527.880093	0.996640
528.242072	0.995574
528.603995	0.995652
528.965860	0.996956
529.327669	0.996686
529.689421	0.996034
530.051117	0.996242
530.412755	0.996542
530.774337	0.996165
531.135862	0.996420
531.497331	0.996419
531.858743	0.996792
532.220098	0.995738
532.581396	0.996691
532.942638	0.996607
533.303824	0.996678
533.664953	0.995971
534.026025	0.997571
534.387040	0.996497
534.747999	0.996672
535.108902	0.996025
535.469748	0.996970
535.830537	0.996353
536.191270	0.996840
536.551947	0.995648
536.912567	0.996346
537.273131	0.997137
537.633638	0.996223
537.994089	0.996556
538.354483	0.996322
538.714821	0.996488
539.075103	0.997023
539.435328	0.996888
539.795497	0.996490
540.155609	0.996173
540.515665	0.996660
540.875665	0.996921
541.235609	0.996212
541.595496	0.995921
541.955328	0.996036
542.315102	0.996392
542.674821	0.996723
543.034483	0.997039
543.394090	0.996229
543.753640	0.996052
544.113134	0.995961
544.472571	0.996984
544.831953	0.996948
545.191278	0.996264
545.550548	0.996230
545.909761	0.996069
546.268918	0.996849
546.628019	0.996900
546.987064	0.996315
547.346053	0.996127
547.704986	0.996253
548.063863	0.996858
548.422684	0.996535
548.781449	0.996407
549.140158	0.996828
549.498811	0.996096
549.857408	0.995724
550.215949	0.995350
550.574434	0.996022
550.932864	0.996328
551.291237	0.996169
551.649555	0.996943
552.007817	0.996074
552.366022	0.996446
552.724173	0.996817
553.082267	0.996418
553.440305	0.995676
553.798288	0.996013
554.156215	0.995607
554.514086	0.995991
554.871902	0.996363
555.229661	0.996094
555.587365	0.995801
555.945014	0.997307
556.302606	0.996300
556.660143	0.996924
557.017625	0.996551
557.375050	0.996044
557.732421	0.996919
558.089735	0.996325
558.446994	0.995590
558.804197	0.996645
559.161345	0.995763
559.518437	0.996239
559.875474	0.996971
560.232455	0.996178
560.589381	0.996711
560.946251	0.996079
561.303065	0.996464
561.659825	0.995693
562.016528	0.996332
562.373177	0.996625
562.729770	0.995937
563.086307	0.995442
563.442789	0.996023
563.799216	0.995441
564.155587	0.996323
564.511904	0.996176
564.868164	0.994956
565.224370	0.995761
565.580520	0.995980
565.936615	0.996248
566.292654	0.996409
566.648638	0.996870
567.004567	0.995560
567.360441	0.995946
567.716260	0.995355
568.072023	0.995998
568.427732	0.996431
568.783385	0.995777
569.138982	0.995585
569.494525	0.996277
569.850013	0.996100
570.205445	0.996567
570.560823	0.995952
570.916145	0.995792
571.271412	0.995857
571.626625	0.996421
571.981782	0.996391
572.336884	0.996687
572.691931	0.996246
573.046923	0.997301
573.401860	0.995616
573.756743	0.996740
574.111570	0.996379
574.466342	0.996989
574.821059	0.995988
575.175722	0.996375
575.530330	0.995985
575.884882	0.996432
576.239380	0.996200
576.593823	0.996636
576.948211	0.996723
577.302544	0.996014
577.656823	0.996683
578.011047	0.995203
578.365216	0.996364
578.719330	0.996037
579.073389	0.995301
579.427394	0.995416
579.781344	0.996205
580.135239	0.994884
580.489080	0.995356
580.842866	0.995495
581.196597	0.995361
581.550273	0.995278
581.903895	0.996330
582.257463	0.995252
582.610975	0.996163
582.964434	0.996160
583.317837	0.995805
583.671186	0.996270
584.024481	0.995940
584.377721	0.995187
584.730906	0.996342
585.084037	0.996665
585.437113	0.996565
585.790135	0.995240
586.143103	0.996013
586.496016	0.995504
586.848874	0.996439
587.201679	0.995913
587.554428	0.995648
587.907124	0.996394
588.259765	0.996236
588.612352	0.996796
588.964884	0.996250
589.317362	0.995865
589.669786	0.996443
590.022155	0.995719
590.374470	0.995743
590.726731	0.995388
591.078937	0.996750
591.431090	0.995830
591.783188	0.995599
592.135232	0.996589
592.487222	0.995786
592.839157	0.995848
593.191038	0.996344
593.542866	0.996335
593.894639	0.995860
594.246358	0.996536
594.598022	0.995909
594.949633	0.995727
595.301190	0.996300
595.652692	0.996198
596.004141	0.995563
596.355535	0.995808
596.706876	0.996527
597.058162	0.996351
597.409395	0.995986
597.760573	0.995619
598.111698	0.995676
598.462768	0.995291
598.813785	0.995404
599.164748	0.995512
599.515657	0.995193
599.866511	0.996152
600.217312	0.996883
600.568060	0.996211
600.918753	0.996336
601.269392	0.995939
601.619978	0.996209
601.970510	0.995914
602.320988	0.995957
602.671412	0.995933
603.021783	0.995895
603.372100	0.996298
603.722363	0.996821
604.072572	0.995550
604.422728	0.996510
604.772830	0.995496
605.122878	0.996345
605.472872	0.996914
605.822813	0.995716
606.172701	0.995964
606.522534	0.996304
606.872314	0.996790
607.222041	0.996334
607.571714	0.996310
607.921333	0.995801
608.270899	0.996193
608.620411	0.996104
608.969870	0.997081
609.319276	0.996652
609.668627	0.996679
610.017926	0.996364
610.367171	0.995894
610.716362	0.996476
611.065500	0.996073
611.414585	0.996103
611.763616	0.994782
612.112594	0.996474
612.461518	0.995745
612.810389	0.995807
613.159207	0.996029
613.507971	0.995066
613.856682	0.996906
614.205340	0.995063
614.553945	0.996670
614.902496	0.996248
615.250994	0.996079
615.599439	0.996027
615.947830	0.995840
616.296169	0.996482
616.644454	0.995746
616.992686	0.996385
617.340864	0.996502
617.688990	0.995443
618.037063	0.995473
618.385082	0.995865
618.733048	0.995480
619.080961	0.995574
619.428821	0.996064
619.776628	0.995443
620.124382	0.996349
620.472083	0.996134
620.819731	0.997000
621.167326	0.996272
621.514868	0.996879
621.862357	0.995956
622.209793	0.996289
622.557176	0.995586
622.904506	0.995939
623.251783	0.995929
623.599007	0.996834
623.946179	0.995188
624.293297	0.996581
624.640363	0.996900
624.987376	0.995599
625.334336	0.996055
625.681243	0.996305
626.028097	0.996515
626.374899	0.996218
626.721647	0.996960
627.068343	0.996307
627.414987	0.995904
627.761577	0.995673
628.108115	0.995890
628.454600	0.997255
628.801032	0.996940
629.147412	0.996195
629.493739	0.997219
629.840014	0.996034
630.186236	0.996012
630.532405	0.996876
630.878521	0.995503
631.224585	0.996119
631.570597	0.996717
631.916556	0.996788
632.262462	0.995718
632.608316	0.996729
632.954117	0.995667
633.299866	0.996717
633.645562	0.995572
633.991206	0.996114
634.336797	0.996352
634.682336	0.997332
635.027823	0.996149
635.373257	0.996762
635.718639	0.996876
636.063968	0.995991
636.409245	0.996567
636.754470	0.995679
637.099642	0.996485
637.444762	0.996900
637.789829	0.995735
638.134845	0.996397
638.479808	0.996513
638.824719	0.996792
639.169577	0.996025
639.514383	0.996801
639.859137	0.996806
640.203839	0.996465
640.548489	0.996514
640.893086	0.996106
641.237632	0.996811
641.582125	0.996070
641.926566	0.997947
642.270955	0.996173
642.615292	0.996204
642.959576	0.996925
643.303809	0.997110
643.647990	0.996646
643.992118	0.996838
644.336195	0.996361
644.680219	0.996864
645.024192	0.996501
645.368112	0.995532
645.711981	0.996799
646.055797	0.996306
646.399562	0.996706
646.743274	0.997543
647.086935	0.996425
647.430544	0.995783
647.774101	0.995792
648.117606	0.996557
648.461059	0.997609
648.804460	0.996041
649.147810	0.996736
649.491108	0.996417
649.834354	0.995466
650.177548	0.995999
650.520690	0.996560
650.863781	0.995643
651.206820	0.996865
651.549807	0.996649
651.892742	0.996680
652.235626	0.996215
652.578458	0.996865
652.921238	0.997191
653.263967	0.997346
653.606644	0.995650
653.949269	0.996818
654.291843	0.996375
654.634365	0.997340
654.976836	0.995896
655.319255	0.997554
655.661622	0.996770
656.003938	0.995959
656.346203	0.996225
656.688416	0.997879
657.030577	0.995934
657.372687	0.996575
657.714746	0.996629
658.056753	0.996515
658.398708	0.996798
658.740612	0.996758
659.082465	0.996541
659.424266	0.996653
659.766016	0.996416
660.107715	0.996690
660.449362	0.996718
660.790958	0.995969
661.132503	0.996247
661.473996	0.996633
661.815438	0.996399
662.156829	0.996881
662.498168	0.998199
662.839456	0.995450
663.180693	0.997028
663.521879	0.997130
663.863013	0.997028
664.204097	0.996256
664.545129	0.996780
664.886110	0.997103
665.227040	0.996651
665.567918	0.996522
665.908746	0.996368
666.249522	0.996333
666.590248	0.996802
666.930922	0.996893
667.271545	0.997121
667.612118	0.996680
667.952639	0.996176
668.293109	0.996145
668.633528	0.996601
668.973896	0.996306
669.314213	0.995817
669.654480	0.996559
669.994695	0.996118
670.334859	0.996809
670.674973	0.996948
671.015035	0.996803
671.355047	0.995862
671.695008	0.996308
672.034918	0.996877
672.374777	0.997209
672.714585	0.997167
673.054342	0.997174
673.394049	0.996147
673.733705	0.997097
674.073310	0.996434
674.412864	0.996868
674.752368	0.996925
675.091820	0.997837
675.431223	0.997574
675.770574	0.995709
676.109875	0.997184
676.449125	0.996814
676.788324	0.996171
677.127473	0.997365
677.466571	0.997339
677.805619	0.996962
678.144616	0.997093
678.483562	0.997953
678.822458	0.998266
679.161303	0.996376
679.500098	0.997346
679.838842	0.997033
680.177535	0.997373
680.516179	0.995780
680.854771	0.996671
681.193314	0.996566
681.531805	0.996536
681.870247	0.997682
682.208638	0.996646
682.546978	0.996181
682.885268	0.996026
683.223508	0.996676
683.561697	0.996200
683.899836	0.996918
684.237925	0.996617
684.575963	0.997292
684.913951	0.996537
685.251889	0.996720
685.589776	0.996499
685.927614	0.997284
686.265401	0.996380
686.603137	0.997228
686.940824	0.996710
687.278460	0.997698
687.616046	0.997015
687.953582	0.997274
688.291068	0.996763
688.628504	0.996479
688.965889	0.995554
689.303224	0.995602
689.640510	0.996880
689.977745	0.996181
690.314930	0.995552
690.652065	0.996516
690.989150	0.996417
691.326185	0.997165
691.663170	0.996638
692.000105	0.997506
692.336990	0.997068
692.673825	0.996469
693.010610	0.997278
693.347345	0.997702
693.684030	0.996977
694.020665	0.997435
694.357251	0.996235
694.693786	0.997863
695.030272	0.996190
695.366707	0.996916
695.703093	0.997230
696.039429	0.997271
696.375716	0.997156
696.711952	0.997182
697.048139	0.997329
697.384276	0.997203
697.720363	0.997927
698.056400	0.996308
698.392388	0.996656
698.728326	0.996910
699.064214	0.998408
699.400053	0.997420
699.735842	0.997995
700.071581	0.996575
700.407270	0.996951
700.742910	0.997228
701.078501	0.996430
701.414042	0.998198
701.749533	0.995982
702.084974	0.997227
702.420366	0.997965
702.755709	0.997995
703.091002	0.997688
703.426246	0.998000
703.761440	0.996415
704.096584	0.996974
704.431679	0.996609
704.766725	0.996829
705.101721	0.998103
705.436668	0.997536
705.771565	0.997872
706.106413	0.996429
706.441212	0.997638
706.775961	0.996945
707.110661	0.996657
707.445311	0.996914
707.779913	0.997767
708.114465	0.998212
708.448967	0.998731
708.783421	0.998494
709.117825	0.997400
709.452180	0.996775
709.786485	0.997439
710.120742	0.996667
710.454949	0.996495
710.789107	0.996756
711.123216	0.996538
711.457275	0.996352
711.791286	0.997846
712.125247	0.998623
712.459159	0.996074
712.793023	0.996906
713.126837	0.997356
713.460602	0.996319
713.794318	0.996040
714.127985	0.996937
714.461602	0.997783
714.795171	0.996244
715.128691	0.996315
715.462162	0.997150
715.795584	0.997332
716.128957	0.998011
716.462281	0.997455
716.795556	0.997297
717.128782	0.997419
717.461960	0.997211
717.795088	0.996682
718.128167	0.998136
718.461198	0.997248
718.794180	0.998755
719.127113	0.997566
719.459997	0.997074
719.792833	0.997669
720.125619	0.996191
720.458357	0.997958
720.791046	0.998295
721.123686	0.997045
721.456278	0.996856
721.788821	0.997478
722.121315	0.997469
722.453761	0.998066
722.786158	0.997266
723.118506	0.997784
723.450805	0.996736
723.783056	0.998116
724.115259	0.997537
724.447412	0.998300
724.779518	0.997679
725.111574	0.996713
725.443582	0.997101
725.775542	0.998489
726.107453	0.998143
726.439315	0.998256
726.771129	0.997498
727.102895	0.998312
727.434612	0.998246
727.766281	0.997336
728.097901	0.996830
728.429473	0.997451
728.760996	0.997596
729.092471	0.997258
729.423897	0.997431
729.755276	0.997255
730.086606	0.996547
730.417887	0.998031
730.749120	0.997699
731.080305	0.996855
731.411442	0.996727
731.742530	0.996586
732.073570	0.997464
732.404562	0.997860
732.735506	0.996815
733.066401	0.996557
733.397249	0.996203
733.728048	0.997520
734.058798	0.997476
734.389501	0.997043
734.720156	0.997536
735.050762	0.998064
735.381320	0.997427
735.711831	0.997196
736.042293	0.996915
736.372707	0.998635
736.703073	0.997343
737.033391	0.998546
737.363661	0.998204
737.693883	0.997557
738.024056	0.997062
738.354182	0.997298
738.684260	0.997179
739.014290	0.997815
739.344272	0.997840
739.674207	0.998092
740.004093	0.997179
740.333931	0.997124
740.663722	0.996305
740.993464	0.998222
741.323159	0.996761
741.652806	0.997754
741.982405	0.997783
742.311956	0.997714
742.641460	0.997468
742.970915	0.997201
743.300323	0.996453
743.629683	0.997211
743.958996	0.998183
744.288260	0.997816
744.617477	0.997962
744.946647	0.997677
745.275768	0.998457
745.604842	0.997597
745.933869	0.997802
746.262847	0.998216
746.591778	0.997194
746.920662	0.998815
747.249498	0.998178
747.578286	0.999470
747.907027	0.997652
748.235720	0.997745
748.564365	0.997934
748.892963	0.997197
749.221514	0.997852
749.550017	0.996862
749.878473	0.996807
750.206881	0.998955
750.535242	0.997738
750.863555	0.996956
751.191821	0.997794
751.520039	0.997640
751.848210	0.996432
752.176334	0.997501
752.504411	0.997188
752.832440	0.997721
753.160421	0.997065
753.488356	0.998560
753.816243	0.997346
754.144082	0.996898
754.471875	0.997842
754.799620	0.998376
755.127318	0.997704
755.454969	0.997640
755.782572	0.999054
756.110129	0.997300
756.437638	0.998252
756.765100	0.998452
757.092515	0.997980
757.419882	0.997588
757.747203	0.998382
758.074477	0.998857
758.401703	0.998290
758.728882	0.997227
759.056014	0.997272
759.383099	0.998459
759.710138	0.997469
760.037129	0.998271
760.364073	0.998936
760.690970	0.997989
761.017820	0.996450
761.344623	0.998366
761.671379	0.998831
761.998088	0.998054
762.324751	0.997449
762.651366	0.997478
762.977935	0.996426
763.304456	0.997413
763.630931	0.995379
763.957359	0.995080
764.283740	0.994807
764.610074	0.995237
764.936362	0.996648
765.262602	0.997734
765.588796	0.996770
765.914943	0.997192
766.241044	0.997404
766.567097	0.997311
766.893104	0.997598
767.219064	0.996221
767.544978	0.998369
767.870845	0.998479
768.196665	0.997924
768.522438	0.998726
768.848165	0.998469
769.173846	0.999057
769.499479	0.998916
769.825066	0.999562
770.150607	0.999344
770.476101	0.997780
770.801548	0.999462
771.126949	0.998147
771.452303	0.998747
771.777611	0.998255
772.102872	0.998132
772.428087	0.998461
772.753256	0.998665
773.078378	0.999088
773.403453	0.997348
773.728482	1.000102
774.053465	0.998755
774.378401	0.997827
774.703291	0.999667
775.028135	1.000049
775.352932	0.997793
775.677683	0.999431
776.002388	0.999015
776.327046	0.997235
776.651658	1.000395
776.976224	0.999060
777.300743	0.998792
777.625216	0.997928
777.949643	0.999167
778.274024	0.998302
778.598359	0.998983
778.922647	0.998707
779.246889	0.999526
779.571086	0.998498
779.895236	0.999702
780.219339	1.000637
780.543397	0.999060
780.867409	0.999718
781.191374	0.999762
781.515294	0.998287
781.839167	0.999268
782.162995	0.998652
782.486776	0.998462
782.810511	0.998890
783.134201	1.000053
783.457844	0.999931
783.781441	0.998794
784.104993	0.997942
784.428498	0.998788
784.751958	1.000202
785.075372	0.999141
785.398739	0.999589
785.722061	0.998798
786.045337	0.999816
786.368568	0.999788
786.691752	0.998692
787.014891	0.998553
787.337983	0.997963
787.661030	0.998101
787.984031	0.998874
788.306987	0.999027
788.629897	0.996548
788.952760	0.998953
789.275579	0.998083
789.598351	0.998289
789.921078	0.999191
790.243759	0.998928
790.566395	0.998520
790.888984	0.998593
791.211529	0.999576
791.534027	0.998867
791.856480	0.999090
792.178888	0.998152
792.501249	0.999229
792.823566	0.999273
793.145836	0.998375
793.468062	0.998698
793.790241	0.999861
794.112375	0.998906
794.434464	0.998775
794.756507	0.998991
795.078505	0.999307
795.400457	0.999118
795.722364	0.999802
796.044226	0.998604
796.366042	0.998035
796.687812	0.998116
797.009538	0.997965
797.331218	1.000356
797.652852	0.999033
797.974442	0.997937
798.295986	0.998959
798.617484	0.998526
798.938938	0.999372
799.260346	0.998912
799.581709	0.997526
799.903026	1.000217
800.224299	0.998419
800.545526	0.998884
800.866708	0.999055
801.187845	0.998947
801.508936	0.999202
801.829983	0.998890
802.150984	0.999631
802.471940	0.999938
802.792851	0.998510
803.113717	1.000374
803.434538	1.000285
803.755314	1.000941
804.076045	0.999614
804.396731	0.998511
804.717372	0.997915
805.037967	0.999691
805.358518	0.998911
805.679024	0.998578
805.999485	0.998344
806.319901	0.999449
806.640272	0.999809
806.960598	0.999616
807.280879	0.999439
807.601115	0.999070
807.921306	1.000220
808.241453	0.999032
808.561554	0.999431
808.881611	0.999285
809.201623	0.998637
809.521590	0.998541
809.841513	1.000592
810.161390	0.998708
810.481223	0.999464
810.801011	1.000246
811.120755	1.000889
811.440453	0.997895
811.760107	0.999304
812.079716	0.998789
812.399281	0.998279
812.718801	0.999246
813.038276	0.999283
813.357707	0.999618
813.677093	0.999035
813.996434	0.998725
814.315731	1.000879
814.634983	0.999660
814.954191	0.999782
815.273354	0.998837
815.592473	0.999060
815.911547	0.999589
816.230577	0.998230
816.549562	0.998843
816.868502	0.997154
817.187399	0.999965
817.506250	0.999320
817.825058	0.997336
818.143821	0.998410
818.462539	0.998583
818.781213	0.998970
819.099843	0.999866
819.418429	0.998156
819.736970	0.998431
820.055466	0.997363
820.373919	0.997650
820.692327	0.996349
821.010691	0.995539
821.329011	0.994164
821.647286	0.992729
821.965517	0.992492
822.283704	0.990054
822.601847	0.988470
822.919945	0.987959
823.237999	0.990464
823.556010	0.990478
823.873976	0.990410
824.191897	0.992392
824.509775	0.993674
824.827609	0.994504
825.145398	0.995767
825.463144	0.994264
825.780845	0.993794
826.098502	0.994969
826.416116	0.994403
826.733685	0.993951
827.051210	0.991893
827.368692	0.993041
827.686129	0.993040
828.003522	0.995116
828.320872	0.995492
828.638177	0.995258
828.955439	0.997018
829.272656	0.996909
829.589830	0.996996
829.906960	0.997493
830.224046	0.997756
830.541088	0.998582
830.858086	0.998413
831.175041	0.999227
831.491952	0.997384
831.808819	0.998183
832.125642	0.998851
832.442421	0.998745
832.759157	0.998180
833.075849	0.996443
833.392497	0.996293
833.709101	0.995576
834.025662	0.995522
834.342179	0.995153
834.658653	0.995729
834.975083	0.996997
835.291469	0.997120
835.607811	0.997767
835.924110	0.998673
836.240366	0.999483
836.556578	0.999435
836.872746	0.999089
837.188871	0.998691
837.504952	0.998077
837.820990	1.000022
838.136984	0.998860
838.452935	0.998829
838.768842	0.999500
839.084706	0.999642
839.400526	0.999276
839.716303	0.998110
840.032037	0.996496
840.347727	0.996986
840.663373	0.998075
840.978977	0.997952
841.294537	0.999258
841.610054	0.999559
841.925527	0.999387
842.240957	0.999363
842.556344	0.999798
842.871687	0.998784
843.186987	0.999962
843.502244	1.000384
843.817458	0.999156
844.132629	0.999445
844.447756	0.999365
844.762840	0.999940
845.077881	1.000110
845.392879	0.998733
845.707833	1.000149
846.022745	1.000131
846.337613	1.000044
846.652438	1.000126
846.967221	1.000256
847.281960	1.001271
847.596656	0.999990
847.911309	0.999490
848.225919	0.998839
848.540485	0.999556
848.855009	1.000423
849.169490	0.999689
849.483928	0.999961
849.798323	0.999054
850.112675	1.000985
850.426984	1.000484
850.741251	1.000203
851.055474	1.000490
851.369654	1.000703
851.683792	1.000348
851.997887	0.999760
852.311938	1.000402
852.625947	0.999251
852.939914	0.999624
853.253837	1.000554
853.567718	0.999835
853.881555	0.999640
854.195350	0.999997
854.509103	1.000032
854.822812	1.000429
855.136479	0.999358
855.450103	1.000076
855.763685	1.000455
856.077224	1.001056
856.390720	0.999829
856.704173	1.001237
857.017584	1.000985
857.330953	1.000491
857.644278	0.999674
857.957561	1.000028
858.270802	1.000052
858.584000	0.999689
858.897155	0.999049
859.210268	1.000103
859.523339	1.000465
859.836367	0.999432
860.149352	0.999049
860.462295	1.000482
860.775195	1.000668
861.088054	0.998329
861.400869	1.000162
861.713642	0.999021
862.026373	0.999861
862.339062	1.000315
862.651708	1.000595
862.964312	0.999994
863.276873	1.000139
863.589392	0.999938
863.901869	0.999594
864.214303	1.001331
864.526696	1.000426
864.839045	1.000267
865.151353	1.001060
865.463619	0.998843
865.775842	0.999047
866.088023	1.000509
866.400162	1.000139
866.712258	1.001074
867.024313	1.000388
867.336325	0.999933
867.648296	0.999191
867.960224	1.001281
868.272110	1.000266
868.583954	0.999445
868.895755	0.999992
869.207515	1.000184
869.519233	1.000822
869.830909	0.999120
870.142542	0.999602
870.454134	0.999673
870.765684	1.000148
871.077191	1.000222
871.388657	1.000717
871.700081	1.000225
872.011463	1.001060
872.322803	0.999466
872.634101	0.999067
872.945357	0.998777
873.256571	0.998546
873.567744	0.999372
873.878874	0.999348
874.189963	0.998561
874.501010	1.000621
874.812015	0.999771
875.122979	1.000074
875.433900	0.999234
875.744780	0.999175
876.055618	0.998815
876.366415	0.999383
876.677169	0.999083
876.987882	0.998129
877.298554	1.000603
877.609183	0.998621
877.919771	0.998026
878.230317	0.999791
878.540822	0.998360
878.851285	0.999186
879.161707	0.998111
879.472087	0.999456
879.782425	0.997992
880.092722	0.996519
880.402977	0.994276
880.713191	0.993641
881.023363	0.991211
881.333494	0.989920
881.643583	0.990794
881.953631	0.990350
882.263637	0.989130
882.573602	0.989981
882.883526	0.991663
883.193408	0.993244
883.503248	0.993313
883.813048	0.993592
884.122806	0.994318
884.432522	0.995043
884.742197	0.997128
885.051831	0.996528
885.361424	0.998136
885.670975	0.998358
885.980485	0.997072
886.289954	0.995922
886.599382	0.997694
886.908768	0.998470
887.218113	0.998504
887.527417	0.999296
887.836680	0.999292
888.145901	0.999539
888.455082	1.001158
888.764221	0.999147
889.073319	0.998349
889.382376	0.999223
889.691392	0.998125
890.000366	1.000403
890.309300	0.998659
890.618193	1.000735
890.927044	0.998311
891.235855	0.998255
891.544625	0.999130
891.853353	0.998627
892.162041	0.998460
892.470687	0.999101
892.779293	0.998629
893.087858	0.998048
893.396381	0.997969
893.704864	0.997529
894.013306	0.996940
894.321707	0.996769
894.630068	0.995322
894.938387	0.994541
895.246665	0.995519
895.554903	0.994623
895.863100	0.995697
896.171256	0.995808
896.479371	0.996395
896.787446	0.997291
897.095480	0.997076
897.403473	0.998783
897.711425	0.997555
898.019336	0.999335
898.327207	0.999231
898.635038	0.996997
898.942827	0.999090
899.250576	0.998647
899.558284	0.999308
899.865952	0.998408
900.173579	0.999194
900.481165	0.999019
900.788711	0.999385
901.096216	0.999753
901.403681	0.998923
901.711105	0.999987
902.018489	0.999713
902.325832	0.999638
902.633135	0.999055
902.940397	0.999309
903.247619	0.999319
903.554800	0.997432
903.861941	0.996666
904.169041	0.995119
904.476101	0.993371
904.783121	0.992600
905.090100	0.994193
905.397039	0.993926
905.703938	0.996122
906.010796	0.996768
906.317614	0.997285
906.624391	0.998345
906.931129	0.998424
907.237826	0.998607
907.544483	0.998420
907.851099	0.998865
908.157675	0.998617
908.464211	0.999870
908.770707	0.998510
909.077163	1.000388
909.383578	0.999276
909.689954	0.999949
909.996289	0.999850
910.302584	1.000588
910.608839	1.001728
910.915054	0.999354
911.221229	1.001164
911.527363	0.998830
911.833458	0.998972
912.139513	1.000408
912.445527	1.001059
912.751502	0.999690
913.057436	0.999802
913.363331	1.000177
913.669186	1.000050
913.975000	0.998986
914.280775	0.999617
914.586510	0.998245
914.892205	0.996390
915.197859	0.996071
915.503475	0.996762
915.809050	0.995563
916.114585	0.993213
916.420081	0.994699
916.725536	0.994527
917.030952	0.994301
917.336328	0.994950
917.641665	0.994775
917.946961	0.995648
918.252218	0.996298
918.557435	0.996997
918.862612	0.997779
919.167750	0.998047
919.472848	0.997874
919.777906	0.998666
920.082925	0.998613
920.387904	0.998692
920.692843	0.999801
920.997743	0.998332
921.302603	0.999816
921.607423	0.997604
921.912204	1.000066
922.216946	1.000589
922.521647	1.000091
922.826310	0.999138
923.130932	1.000132
923.435516	1.000687
923.740059	1.000048
924.044564	0.999813
924.349028	0.999224
924.653454	0.999508
924.957840	0.999546
925.262186	1.000393
925.566493	0.999929
925.870761	1.000443
926.174989	0.999164
926.479178	1.001031
926.783328	1.000526
927.087438	0.999566
927.391509	1.000850
927.695541	1.001057
927.999533	1.000161
928.303486	1.001287
928.607400	1.001019
928.911275	1.000985
929.215110	1.001598
929.518906	0.999837
929.822663	1.001192
930.126381	1.000836
930.430060	1.000868
930.733699	1.001162
931.037299	1.000814
931.340861	1.001447
931.644383	0.999357
931.947866	1.000143
932.251309	1.000858
932.554714	1.001319
932.858080	1.000853
933.161407	0.998815
933.464694	1.001036
933.767943	1.001684
934.071153	0.999689
934.374323	1.000639
934.677455	1.000174
934.980548	1.000579
935.283602	1.000178
935.586617	1.001078
935.889593	1.000771
936.192530	1.000922
936.495428	1.000110
936.798287	0.999386
937.101108	1.000861
937.403890	0.999634
937.706632	1.001178
938.009336	1.000463
938.312002	1.000378
938.614628	0.999635
938.917216	0.999428
939.219765	0.999295
939.522275	1.000775
939.824747	1.000399
940.127179	0.999392
940.429573	1.001206
940.731929	0.998926
941.034246	0.999604
941.336524	0.998628
941.638763	0.999498
941.940964	0.999648
942.243126	1.000118
942.545250	0.999617
942.847335	0.999458
943.149381	1.001145
943.451389	0.999519
943.753359	1.001058
944.055290	1.000636
944.357182	1.000709
944.659036	1.001065
944.960851	1.000863
945.262628	1.000540
945.564367	0.999584
945.866067	1.000576
946.167729	1.001100
946.469352	1.000447
946.770937	0.997813
947.072484	1.002552
947.373992	1.000449
947.675462	0.999597
947.976893	1.000153
948.278286	1.002517
948.579641	1.000417
948.880958	1.001886
949.182236	1.001268
949.483476	1.001009
949.784678	1.000374
950.085841	0.999599
950.386967	0.999932
950.688054	1.000047
950.989103	0.999907
951.290114	0.999111
951.591087	1.000798
951.892021	0.999408
952.192917	1.000770
952.493776	1.000940
952.794596	1.000834
953.095378	0.999643
953.396122	1.000862
953.696828	1.000205
953.997496	0.999976
954.298126	1.001407
954.598718	0.999441
954.899272	1.001080
955.199788	1.000609
955.500266	1.000603
955.800706	0.999648
956.101108	0.999307
956.401472	1.001493
956.701798	1.000522
957.002087	1.000843
957.302337	1.000138
957.602550	1.001619
957.902724	1.001101
958.202861	1.000186
958.502960	1.000496
958.803022	1.001698
959.103045	1.000824
959.403031	1.002673
959.702979	1.002531
960.002889	1.000399
960.302762	1.000750
960.602596	1.000783
960.902393	1.001200
961.202153	1.000543
961.501875	1.000733
961.801559	1.002059
962.101205	1.000100
962.400814	1.001948
962.700385	1.001704
962.999918	1.001853
963.299414	0.999578
963.598873	1.000633
963.898293	1.000424
964.197677	1.000996
964.497022	1.000930
964.796331	1.001622
965.095601	1.001260
965.394835	1.000422
965.694030	1.003046
965.993189	0.999857
966.292309	0.999579
966.591393	0.999955
966.890439	1.001633
967.189447	1.000584
967.488419	0.999858
967.787353	1.000661
968.086249	1.000168
968.385108	1.000971
968.683930	1.000511
968.982714	1.000856
969.281462	1.000692
969.580172	1.000617
969.878844	1.001840
970.177480	1.000058
970.476078	1.002570
970.774639	1.001573
971.073162	1.000474
971.371649	1.000121
971.670098	1.000155
971.968510	1.000717
972.266885	0.999827
972.565223	1.001568
972.863524	1.000492
973.161788	1.001312
973.460014	1.001353
973.758204	0.999674
974.056356	1.000876
974.354471	1.000921
974.652550	1.000969
974.950591	1.001150
975.248595	1.000592
975.546563	1.002311
975.844493	1.001785
976.142386	0.999660
976.440243	1.000176
976.738062	1.001906
977.035845	1.000292
977.333590	1.000957
977.631299	1.000061
977.928971	1.000355
978.226606	1.000344
978.524204	1.000324
978.821765	1.001315
979.119290	1.001219
979.416777	1.001822
979.714228	1.000533
980.011642	1.001418
980.309020	1.000287
980.606360	1.000717
980.903664	1.002375
981.200931	1.001088
981.498162	1.000243
981.795356	1.000324
982.092513	1.000446
982.389633	1.001428
982.686717	1.000204
982.983764	0.999860
983.280775	1.000423
983.577749	1.001734
983.874686	1.001111
984.171587	1.000254
984.468451	1.000910
984.765279	1.001867
985.062070	1.001296
985.358824	1.000902
985.655543	1.000750
985.952224	1.001483
986.248869	1.000133
986.545478	1.002937
986.842050	1.000378
987.138586	0.999678
987.435086	1.000554
987.731549	1.001964
988.027975	1.001995
988.324366	1.000418
988.620719	1.001278
988.917037	1.002201
989.213318	1.001554
989.509563	1.002016
989.805772	1.001787
990.101944	1.000873
990.398080	1.002096
990.694180	1.001614
990.990244	1.000605
991.286271	1.000574
991.582262	1.000964
991.878217	1.001606
992.174136	1.001346
992.470019	1.001383
992.765865	1.001814
993.061676	1.002491
993.357450	1.001338
993.653188	1.002024
993.948890	1.001190
994.244556	1.000230
994.540186	0.999810
994.835780	1.001671
995.131337	1.001521
995.426859	1.001246
995.722345	1.000458
996.017795	1.000826
996.313208	1.000158
996.608586	1.000099
996.903928	1.000982
997.199234	1.000517
997.494504	1.000637
997.789738	0.999991
998.084936	1.001423
998.380099	0.999376
998.675225	1.000918
998.970316	1.001580
999.265371	1.001069
999.560390	1.000187
999.855373	1.000492
1000.150320	1.001798
1000.445232	1.001465
1000.740108	1.001893
1001.034948	0.999504
1001.329752	1.002187
1001.624521	1.000802
1001.919254	1.001128
1002.213951	1.001519
1002.508613	1.001396
1002.803239	1.000494
1003.097829	1.001524
1003.392384	1.000920
1003.686903	1.000867
1003.981386	1.001683
1004.275834	1.001789
1004.570246	0.999846
1004.864623	1.002055
1005.158964	1.001335
1005.453270	1.000537
1005.747540	1.000887
1006.041775	1.002149
1006.335974	1.001134
1006.630138	1.001937
1006.924266	1.000237
1007.218359	0.999585
1007.512416	1.001062
1007.806438	1.000575
1008.100425	1.001580
1008.394376	1.001448
1008.688292	1.000316
1008.982172	1.000443
1009.276017	1.000536
1009.569827	1.002673
1009.863602	1.000574
1010.157341	1.001325
1010.451045	1.000548
1010.744714	1.001587
1011.038347	1.000440
1011.331945	1.000348
1011.625508	1.001186
1011.919036	1.000570
1012.212528	1.001507
1012.505986	1.001081
1012.799408	1.001455
1013.092795	1.001310
1013.386147	1.001063
1013.679464	1.002074
1013.972745	1.001711
1014.265992	1.001067
1014.559204	1.001191
1014.852380	1.002947
1015.145521	0.999773
1015.438628	1.000756
1015.731699	1.000021
1016.024736	1.001723
1016.317737	1.001420
1016.610703	1.001306
1016.903635	1.001166
1017.196531	1.001578
1017.489393	1.001351
1017.782219	1.001159
1018.075011	1.000785
1018.367768	0.999793
1018.660490	1.002166
1018.953177	1.002166
1019.245829	1.002166
