Dividing Wavelength (nm)	Counts (n)	Blue Motor Position (mm): 38.300000	Red Motor Position (mm): 0.000000	
326.493990	1.000033
326.888308	1.000033
327.282561	1.000033
327.676750	0.999568
328.070874	1.000722
328.464933	1.000452
328.858929	1.001209
329.252859	1.000230
329.646726	1.000121
330.040528	0.999763
330.434265	0.998989
330.827938	0.999342
331.221547	0.999883
331.615091	1.000350
332.008571	1.000953
332.401986	0.999622
332.795338	0.999962
333.188625	1.000323
333.581847	0.999645
333.975006	0.999409
334.368100	1.001183
334.761129	0.999338
335.154095	0.999360
335.546996	1.000328
335.939833	0.998698
336.332606	1.000129
336.725315	0.998801
337.117960	1.001394
337.510540	0.999247
337.903056	0.999605
338.295508	1.000760
338.687896	0.999729
339.080220	0.999706
339.472480	0.999848
339.864676	1.000308
340.256807	0.999523
340.648875	1.000500
341.040879	0.999830
341.432818	1.000540
341.824694	0.999716
342.216506	1.000575
342.608253	0.999728
342.999937	0.999556
343.391557	1.000291
343.783113	1.001342
344.174605	0.999983
344.566033	0.998822
344.957397	1.000165
345.348697	1.000802
345.739934	1.000331
346.131106	0.998691
346.522215	1.000193
346.913260	0.999498
347.304241	1.000018
347.695159	1.000196
348.086012	0.999326
348.476802	0.999095
348.867528	0.999152
349.258191	1.000400
349.648789	1.000244
350.039324	0.999010
350.429796	0.999357
350.820203	0.998666
351.210548	0.999075
351.600828	0.999398
351.991045	0.999194
352.381198	1.001175
352.771288	0.999001
353.161314	1.000239
353.551276	0.998167
353.941175	0.997642
354.331010	0.999889
354.720782	0.998904
355.110490	0.999830
355.500135	0.999877
355.889717	0.998427
356.279235	0.998595
356.668689	0.999468
357.058080	1.000598
357.447408	0.997432
357.836672	0.999713
358.225873	0.998455
358.615010	0.998445
359.004084	0.997544
359.393095	0.999952
359.782043	0.999687
360.170927	0.998260
360.559748	0.998919
360.948505	0.997681
361.337199	0.998579
361.725830	0.998366
362.114398	0.999065
362.502903	0.997843
362.891344	0.998112
363.279722	0.997377
363.668037	0.998523
364.056289	0.998115
364.444478	0.998649
364.832603	0.998139
365.220665	0.998168
365.608665	0.997625
365.996601	0.997915
366.384474	0.997822
366.772284	0.996991
367.160031	0.996012
367.547715	0.997669
367.935336	0.995770
368.322893	0.994259
368.710388	0.993361
369.097820	0.991641
369.485189	0.989802
369.872495	0.988360
370.259738	0.987066
370.646918	0.983226
371.034035	0.980531
371.421090	0.978720
371.808081	0.972795
372.195010	0.970808
372.581875	0.965899
372.968678	0.960985
373.355418	0.957540
373.742096	0.949936
374.128710	0.945489
374.515262	0.942059
374.901751	0.935426
375.288177	0.930469
375.674540	0.924496
376.060841	0.917195
376.447079	0.911593
376.833254	0.904415
377.219367	0.899957
377.605417	0.887495
377.991404	0.884645
378.377329	0.878690
378.763191	0.872322
379.148991	0.862649
379.534727	0.855823
379.920402	0.847471
380.306013	0.843845
380.691563	0.831227
381.077049	0.824583
381.462474	0.821178
381.847835	0.808851
382.233134	0.804243
382.618371	0.805138
383.003545	0.786940
383.388657	0.786084
383.773706	0.777703
384.158693	0.774585
384.543618	0.769677
384.928480	0.759785
385.313280	0.750762
385.698017	0.749235
386.082692	0.738052
386.467305	0.736807
386.851856	0.731413
387.236344	0.725576
387.620770	0.720904
388.005133	0.714043
388.389435	0.709283
388.773674	0.706845
389.157851	0.698588
389.541965	0.695935
389.926018	0.702744
390.310008	0.689077
390.693936	0.687613
391.077802	0.679055
391.461606	0.681028
391.845348	0.669938
392.229027	0.670635
392.612645	0.669736
392.996200	0.657215
393.379694	0.651628
393.763125	0.642867
394.146494	0.648542
394.529801	0.641228
394.913047	0.634741
395.296230	0.643657
395.679351	0.637382
396.062410	0.637783
396.445408	0.643145
396.828343	0.642218
397.211217	0.641237
397.594028	0.656937
397.976778	0.651127
398.359466	0.651876
398.742092	0.653118
399.124656	0.667965
399.507158	0.662814
399.889598	0.666276
400.271977	0.663947
400.654294	0.673419
401.036549	0.679424
401.418742	0.689366
401.800874	0.684525
402.182944	0.688290
402.564952	0.689783
402.946898	0.698589
403.328783	0.706745
403.710606	0.722590
404.092367	0.713906
404.474067	0.725531
404.855705	0.733059
405.237282	0.746108
405.618797	0.746834
406.000250	0.753856
406.381642	0.755175
406.762972	0.768347
407.144240	0.775214
407.525447	0.783812
407.906593	0.788812
408.287677	0.796878
408.668700	0.808711
409.049661	0.815565
409.430560	0.821271
409.811399	0.833541
410.192176	0.834926
410.572891	0.846108
410.953545	0.850027
411.334138	0.862869
411.714669	0.868264
412.095139	0.878548
412.475547	0.881901
412.855894	0.890685
413.236180	0.896757
413.616405	0.904808
413.996568	0.909032
414.376670	0.916726
414.756711	0.921853
415.136691	0.928229
415.516609	0.931955
415.896466	0.936661
416.276262	0.940657
416.655997	0.946006
417.035670	0.948342
417.415283	0.952230
417.794834	0.956728
418.174324	0.960716
418.553753	0.964608
418.933121	0.966588
419.312428	0.970978
419.691674	0.973970
420.070859	0.975680
420.449983	0.978603
420.829045	0.979334
421.208047	0.982461
421.586988	0.983760
421.965867	0.984836
422.344686	0.986562
422.723444	0.988601
423.102141	0.990204
423.480777	0.990035
423.859352	0.991375
424.237866	0.992300
424.616319	0.993553
424.994712	0.993728
425.373044	0.994741
425.751314	0.994974
426.129524	0.995978
426.507673	0.994691
426.885762	0.995693
427.263789	0.997153
427.641756	0.996914
428.019662	0.996916
428.397508	0.997574
428.775292	0.997086
429.153016	0.997372
429.530679	0.998062
429.908282	0.997930
430.285824	0.996946
430.663305	0.999059
431.040726	0.999214
431.418086	0.997772
431.795385	0.998828
432.172624	0.998848
432.549802	0.998261
432.926920	0.998907
433.303977	0.998393
433.680974	0.999090
434.057910	0.999096
434.434786	0.998423
434.811601	0.999130
435.188355	0.999280
435.565050	0.998745
435.941683	0.997835
436.318257	0.997955
436.694770	0.998515
437.071222	0.999725
437.447614	0.999286
437.823946	0.999519
438.200218	0.998629
438.576429	0.998642
438.952580	0.999622
439.328670	0.998606
439.704700	0.997875
440.080670	0.998755
440.456580	0.998868
440.832429	0.998770
441.208218	0.998761
441.583947	0.998452
441.959616	0.998065
442.335224	0.999556
442.710773	0.999049
443.086261	0.998807
443.461689	0.998158
443.837057	0.998985
444.212365	0.999129
444.587612	0.999675
444.962800	0.999102
445.337927	0.999663
445.712995	0.999043
446.088002	0.999136
446.462949	0.999194
446.837837	0.999332
447.212664	0.998611
447.587431	0.999126
447.962139	0.998435
448.336786	0.998283
448.711374	0.998833
449.085901	0.999300
449.460369	0.999279
449.834776	0.998663
450.209124	0.998648
450.583412	0.999465
450.957640	0.999215
451.331808	0.999664
451.705917	0.998335
452.079965	0.999245
452.453954	0.999649
452.827883	0.998933
453.201752	0.999033
453.575562	0.999040
453.949311	0.999954
454.323001	0.998738
454.696632	0.999134
455.070202	0.998675
455.443713	0.999203
455.817164	0.998354
456.190556	0.998371
456.563888	1.000097
456.937160	0.999427
457.310373	0.998195
457.683526	0.999459
458.056619	0.999614
458.429653	0.998960
458.802628	0.998825
459.175542	0.998902
459.548398	0.999263
459.921194	0.999334
460.293930	0.999280
460.666607	0.998708
461.039224	0.999095
461.411782	0.999010
461.784280	0.998430
462.156719	0.999196
462.529099	0.998990
462.901419	0.998983
463.273680	0.997656
463.645882	0.997869
464.018024	0.999344
464.390106	0.998836
464.762130	0.998532
465.134094	0.998668
465.505999	0.998233
465.877845	0.998403
466.249631	0.998018
466.621358	0.997156
466.993026	0.998308
467.364634	0.998150
467.736184	0.998350
468.107674	0.998141
468.479105	0.998321
468.850477	0.999227
469.221790	0.998345
469.593043	0.997982
469.964238	0.998659
470.335373	0.998275
470.706449	0.998214
471.077467	0.998691
471.448425	0.998611
471.819324	0.998271
472.190164	0.998373
472.560945	0.997759
472.931667	0.998499
473.302330	0.998812
473.672934	0.998381
474.043479	0.997948
474.413965	0.998424
474.784393	0.998368
475.154761	0.998337
475.525070	0.997978
475.895321	0.998325
476.265513	0.998699
476.635645	0.998730
477.005719	0.999012
477.375734	0.998292
477.745691	0.998205
478.115588	0.998568
478.485427	0.997965
478.855207	0.998575
479.224928	0.997985
479.594591	0.998135
479.964194	0.998092
480.333739	0.998094
480.703226	0.997439
481.072653	0.997984
481.442022	0.998426
481.811333	0.998142
482.180584	0.998101
482.549777	0.997552
482.918912	0.998204
483.287988	0.998241
483.657005	0.997667
484.025964	0.998002
484.394864	0.998124
484.763706	0.997711
485.132489	0.997960
485.501213	0.998313
485.869879	0.997610
486.238487	0.998027
486.607036	0.998921
486.975527	0.998204
487.343959	0.997970
487.712333	0.998474
488.080648	0.998269
488.448905	0.998225
488.817104	0.997756
489.185244	0.998412
489.553326	0.998741
489.921350	0.998079
490.289315	0.998398
490.657222	0.997950
491.025070	0.998310
491.392861	0.998400
491.760593	0.998134
492.128267	0.998288
492.495883	0.997214
492.863440	0.998131
493.230939	0.998607
493.598380	0.998909
493.965763	0.998194
494.333088	0.997190
494.700354	0.997696
495.067563	0.998492
495.434713	0.998559
495.801805	0.998035
496.168839	0.998320
496.535815	0.998682
496.902733	0.998136
497.269593	0.998083
497.636395	0.997353
498.003139	0.998117
498.369825	0.998748
498.736453	0.998325
499.103023	0.998205
499.469535	0.998596
499.835989	0.998381
500.202385	0.998843
500.568723	0.998041
500.935003	0.998446
501.301226	0.998426
501.667390	0.998058
502.033497	0.998302
502.399546	0.998199
502.765537	0.998262
503.131470	0.998021
503.497345	0.998458
503.863163	0.998487
504.228923	0.998447
504.594625	0.998552
504.960269	0.998699
505.325856	0.999174
505.691385	0.998221
506.056856	0.998144
506.422270	0.998419
506.787625	0.998649
507.152924	0.998784
507.518164	0.998582
507.883347	0.997951
508.248472	0.998396
508.613540	0.998088
508.978550	0.999029
509.343503	0.997840
509.708398	0.999064
510.073236	0.998503
510.438016	0.997919
510.802738	0.998026
511.167403	0.998168
511.532010	0.998785
511.896561	0.999314
512.261053	0.997857
512.625488	0.998267
512.989866	0.997875
513.354186	0.998194
513.718449	0.998639
514.082655	0.997838
514.446803	0.998093
514.810894	0.998907
515.174927	0.999056
515.538904	0.998864
515.902822	0.997944
516.266684	0.998524
516.630488	0.998271
516.994235	0.998340
517.357925	0.998763
517.721558	0.999030
518.085133	0.998519
518.448651	0.998036
518.812112	0.998784
519.175516	0.998308
519.538863	0.997908
519.902152	0.999492
520.265385	0.998382
520.628560	0.998096
520.991678	0.998440
521.354739	0.998466
521.717743	0.998732
522.080690	0.997776
522.443580	0.998323
522.806413	0.998051
523.169189	0.998864
523.531908	0.998515
523.894569	0.998242
524.257174	0.997821
524.619722	0.998901
524.982213	0.998205
525.344647	0.998293
525.707025	0.998282
526.069345	0.998503
526.431608	0.998150
526.793815	0.998443
527.155964	0.998752
527.518057	0.998932
527.880093	0.998307
528.242072	0.998298
528.603995	0.998619
528.965860	0.998957
529.327669	0.998289
529.689421	0.998834
530.051117	0.998732
530.412755	0.999171
530.774337	0.999113
531.135862	0.998992
531.497331	0.997951
531.858743	0.998456
532.220098	0.998020
532.581396	0.998901
532.942638	0.998016
533.303824	0.999150
533.664953	0.998428
534.026025	0.999450
534.387040	0.998724
534.747999	0.997946
535.108902	0.998666
535.469748	0.999316
535.830537	0.998947
536.191270	0.998535
536.551947	0.997993
536.912567	0.998889
537.273131	0.999205
537.633638	0.998760
537.994089	0.999365
538.354483	0.998828
538.714821	0.998628
539.075103	0.998612
539.435328	0.999224
539.795497	0.998556
540.155609	0.998756
540.515665	0.998767
540.875665	0.997990
541.235609	0.999426
541.595496	0.998287
541.955328	0.999209
542.315102	0.999308
542.674821	0.999462
543.034483	0.998590
543.394090	0.997960
543.753640	0.999261
544.113134	0.998517
544.472571	0.999417
544.831953	0.998671
545.191278	0.999245
545.550548	0.998610
545.909761	0.998733
546.268918	0.999280
546.628019	0.998947
546.987064	0.998609
547.346053	0.998169
547.704986	0.998025
548.063863	0.998548
548.422684	0.998677
548.781449	0.998353
549.140158	0.998592
549.498811	0.998367
549.857408	0.998543
550.215949	0.997722
550.574434	0.998500
550.932864	0.999459
551.291237	0.998390
551.649555	0.998689
552.007817	0.998576
552.366022	0.998897
552.724173	0.999145
553.082267	0.998455
553.440305	0.997919
553.798288	0.997866
554.156215	0.998334
554.514086	0.998577
554.871902	0.998915
555.229661	0.998032
555.587365	0.998546
555.945014	0.999011
556.302606	0.998379
556.660143	0.999036
557.017625	0.999228
557.375050	0.998115
557.732421	0.998396
558.089735	0.998474
558.446994	0.998391
558.804197	0.999028
559.161345	0.998118
559.518437	0.998240
559.875474	0.999038
560.232455	0.999046
560.589381	0.998456
560.946251	0.998619
561.303065	0.999402
561.659825	0.998306
562.016528	0.999091
562.373177	0.998383
562.729770	0.998400
563.086307	0.998157
563.442789	0.998891
563.799216	0.998295
564.155587	0.998517
564.511904	0.999140
564.868164	0.998254
565.224370	0.998647
565.580520	0.998486
565.936615	0.998716
566.292654	0.998544
566.648638	0.999425
567.004567	0.998895
567.360441	0.999225
567.716260	0.998317
568.072023	0.998112
568.427732	0.998484
568.783385	0.998655
569.138982	0.998693
569.494525	0.998193
569.850013	0.998638
570.205445	0.998875
570.560823	0.998044
570.916145	0.998339
571.271412	0.998879
571.626625	0.998204
571.981782	0.998944
572.336884	0.998897
572.691931	0.998714
573.046923	0.998951
573.401860	0.998322
573.756743	0.998847
574.111570	0.999099
574.466342	0.999525
574.821059	0.998865
575.175722	0.998894
575.530330	0.998633
575.884882	0.998590
576.239380	0.998949
576.593823	0.998318
576.948211	0.999054
577.302544	0.998302
577.656823	0.999126
578.011047	0.998024
578.365216	0.999502
578.719330	0.998973
579.073389	0.997847
579.427394	0.998634
579.781344	1.000146
580.135239	0.998009
580.489080	0.998678
580.842866	0.998859
581.196597	0.998056
581.550273	0.997982
581.903895	0.999058
582.257463	0.998552
582.610975	0.998200
582.964434	0.999357
583.317837	0.999443
583.671186	0.999418
584.024481	0.998742
584.377721	0.998854
584.730906	0.999035
585.084037	0.999506
585.437113	0.998251
585.790135	0.998855
586.143103	0.998874
586.496016	0.998673
586.848874	0.998732
587.201679	0.998087
587.554428	0.997718
587.907124	0.999042
588.259765	0.999087
588.612352	0.999094
588.964884	0.998966
589.317362	0.998326
589.669786	0.998971
590.022155	0.998193
590.374470	0.998381
590.726731	0.998467
591.078937	0.998902
591.431090	0.998974
591.783188	0.998659
592.135232	0.999027
592.487222	0.999081
592.839157	0.998842
593.191038	0.999017
593.542866	0.998548
593.894639	0.998536
594.246358	0.998741
594.598022	0.998759
594.949633	0.999037
595.301190	0.998116
595.652692	0.997838
596.004141	0.998502
596.355535	0.998356
596.706876	0.998900
597.058162	0.999094
597.409395	0.998756
597.760573	0.998266
598.111698	0.998465
598.462768	0.998622
598.813785	0.998016
599.164748	0.998779
599.515657	0.998152
599.866511	0.998529
600.217312	0.999226
600.568060	0.998238
600.918753	0.998925
601.269392	0.999044
601.619978	0.999063
601.970510	0.998942
602.320988	0.999102
602.671412	0.998796
603.021783	0.999153
603.372100	0.999381
603.722363	0.998507
604.072572	0.998879
604.422728	0.998273
604.772830	0.998655
605.122878	0.998992
605.472872	0.998492
605.822813	0.997857
606.172701	0.998552
606.522534	0.998675
606.872314	0.999257
607.222041	0.998654
607.571714	0.998984
607.921333	0.999171
608.270899	0.998415
608.620411	0.998722
608.969870	0.999594
609.319276	0.998039
609.668627	0.999170
610.017926	0.998881
610.367171	0.998222
610.716362	0.998436
611.065500	0.998651
611.414585	0.998804
611.763616	0.998030
612.112594	0.998530
612.461518	0.998435
612.810389	0.998765
613.159207	0.998279
613.507971	0.998342
613.856682	0.999418
614.205340	0.997724
614.553945	0.998467
614.902496	0.998521
615.250994	0.998351
615.599439	0.998392
615.947830	0.998108
616.296169	0.998795
616.644454	0.998558
616.992686	0.998259
617.340864	0.998672
617.688990	0.998697
618.037063	0.998032
618.385082	0.997395
618.733048	0.998291
619.080961	0.998255
619.428821	0.999102
619.776628	0.998208
620.124382	0.998889
620.472083	0.998879
620.819731	0.999147
621.167326	0.998803
621.514868	0.998670
621.862357	0.998918
622.209793	0.998360
622.557176	0.998370
622.904506	0.998909
623.251783	0.998399
623.599007	0.998948
623.946179	0.998183
624.293297	0.999139
624.640363	0.999077
624.987376	0.997730
625.334336	0.998280
625.681243	0.998761
626.028097	0.998746
626.374899	0.998567
626.721647	0.999401
627.068343	0.998951
627.414987	0.998527
627.761577	0.997837
628.108115	0.998260
628.454600	0.998723
628.801032	0.999351
629.147412	0.998290
629.493739	0.999499
629.840014	0.998397
630.186236	0.998019
630.532405	0.998821
630.878521	0.998280
631.224585	0.998338
631.570597	0.998399
631.916556	0.998736
632.262462	0.997112
632.608316	0.997921
632.954117	0.997787
633.299866	0.998783
633.645562	0.998016
633.991206	0.998434
634.336797	0.998703
634.682336	0.999346
635.027823	0.999447
635.373257	0.999019
635.718639	0.998786
636.063968	0.997764
636.409245	0.998525
636.754470	0.998944
637.099642	0.998757
637.444762	0.998488
637.789829	0.998343
638.134845	0.998014
638.479808	0.998871
638.824719	0.998196
639.169577	0.998412
639.514383	0.998980
639.859137	0.998981
640.203839	0.997764
640.548489	0.998750
640.893086	0.997989
641.237632	0.998665
641.582125	0.998373
641.926566	0.999283
642.270955	0.998648
642.615292	0.998896
642.959576	0.998345
643.303809	0.998261
643.647990	0.999628
643.992118	0.999436
644.336195	0.997455
644.680219	0.999174
645.024192	0.998468
645.368112	0.998164
645.711981	0.998295
646.055797	0.998560
646.399562	0.998623
646.743274	0.998864
647.086935	0.997661
647.430544	0.997836
647.774101	0.997706
648.117606	0.998579
648.461059	0.998806
648.804460	0.998784
649.147810	0.997753
649.491108	0.998388
649.834354	0.998020
650.177548	0.998028
650.520690	0.998223
650.863781	0.997924
651.206820	0.998814
651.549807	0.997775
651.892742	0.999028
652.235626	0.999020
652.578458	0.998128
652.921238	0.998488
653.263967	0.999296
653.606644	0.997752
653.949269	0.999377
654.291843	0.997951
654.634365	0.998719
654.976836	0.997864
655.319255	0.998747
655.661622	0.998691
656.003938	0.998304
656.346203	0.998130
656.688416	0.998258
657.030577	0.998710
657.372687	0.998413
657.714746	0.998326
658.056753	0.997260
658.398708	0.998188
658.740612	0.998739
659.082465	0.997908
659.424266	0.998224
659.766016	0.997874
660.107715	0.998103
660.449362	0.998494
660.790958	0.997856
661.132503	0.999007
661.473996	0.997569
661.815438	0.999090
662.156829	0.998593
662.498168	0.998882
662.839456	0.998103
663.180693	0.998361
663.521879	0.997626
663.863013	0.998397
664.204097	0.996954
664.545129	0.998135
664.886110	0.999188
665.227040	0.998439
665.567918	0.998263
665.908746	0.997497
666.249522	0.997882
666.590248	0.997822
666.930922	0.997838
667.271545	0.998305
667.612118	0.998796
667.952639	0.997872
668.293109	0.997213
668.633528	0.997499
668.973896	0.998474
669.314213	0.997875
669.654480	0.997965
669.994695	0.997345
670.334859	0.997563
670.674973	0.997566
671.015035	0.998456
671.355047	0.998196
671.695008	0.998105
672.034918	0.997480
672.374777	0.997586
672.714585	0.997974
673.054342	0.999195
673.394049	0.997201
673.733705	0.998339
674.073310	0.998216
674.412864	0.997821
674.752368	0.997528
675.091820	0.998894
675.431223	0.998596
675.770574	0.997190
676.109875	0.997859
676.449125	0.997272
676.788324	0.997452
677.127473	0.998474
677.466571	0.997745
677.805619	0.997786
678.144616	0.998814
678.483562	0.997931
678.822458	0.998649
679.161303	0.997271
679.500098	0.998225
679.838842	0.998061
680.177535	0.997694
680.516179	0.997222
680.854771	0.997708
681.193314	0.998267
681.531805	0.998501
681.870247	0.998388
682.208638	0.998025
682.546978	0.998095
682.885268	0.996975
683.223508	0.997243
683.561697	0.997512
683.899836	0.997906
684.237925	0.997131
684.575963	0.998162
684.913951	0.997224
685.251889	0.997860
685.589776	0.997749
685.927614	0.997174
686.265401	0.996934
686.603137	0.997884
686.940824	0.997696
687.278460	0.997148
687.616046	0.997275
687.953582	0.997691
688.291068	0.998845
688.628504	0.997745
688.965889	0.997346
689.303224	0.996104
689.640510	0.997043
689.977745	0.996723
690.314930	0.997427
690.652065	0.997308
690.989150	0.996618
691.326185	0.998003
691.663170	0.996842
692.000105	0.998334
692.336990	0.998312
692.673825	0.997762
693.010610	0.998086
693.347345	0.998304
693.684030	0.997020
694.020665	0.996855
694.357251	0.997156
694.693786	0.998789
695.030272	0.996217
695.366707	0.997252
695.703093	0.996375
696.039429	0.996686
696.375716	0.998958
696.711952	0.997151
697.048139	0.998571
697.384276	0.998147
697.720363	0.998084
698.056400	0.996539
698.392388	0.996752
698.728326	0.997372
699.064214	0.999202
699.400053	0.997704
699.735842	0.997996
700.071581	0.997065
700.407270	0.998336
700.742910	0.998167
701.078501	0.998255
701.414042	0.998006
701.749533	0.996955
702.084974	0.997039
702.420366	0.998023
702.755709	0.997027
703.091002	0.997506
703.426246	0.998047
703.761440	0.997236
704.096584	0.997246
704.431679	0.997511
704.766725	0.997579
705.101721	0.997955
705.436668	0.997409
705.771565	0.997708
706.106413	0.996588
706.441212	0.998171
706.775961	0.997515
707.110661	0.996782
707.445311	0.998110
707.779913	0.998280
708.114465	0.998026
708.448967	0.997758
708.783421	0.998411
709.117825	0.997824
709.452180	0.998439
709.786485	0.997858
710.120742	0.997122
710.454949	0.997187
710.789107	0.997598
711.123216	0.996645
711.457275	0.996333
711.791286	0.997715
712.125247	0.999081
712.459159	0.997031
712.793023	0.997352
713.126837	0.997273
713.460602	0.996314
713.794318	0.996576
714.127985	0.995956
714.461602	0.997516
714.795171	0.997255
715.128691	0.997137
715.462162	0.997479
715.795584	0.996823
716.128957	0.998680
716.462281	0.997805
716.795556	0.996602
717.128782	0.998328
717.461960	0.997701
717.795088	0.997538
718.128167	0.998065
718.461198	0.997401
718.794180	0.998244
719.127113	0.997075
719.459997	0.997345
719.792833	0.997374
720.125619	0.997109
720.458357	0.997038
720.791046	0.997746
721.123686	0.997562
721.456278	0.997710
721.788821	0.997427
722.121315	0.998349
722.453761	0.997665
722.786158	0.997127
723.118506	0.997180
723.450805	0.996244
723.783056	0.999151
724.115259	0.997327
724.447412	0.998168
724.779518	0.997948
725.111574	0.996667
725.443582	0.997707
725.775542	0.998561
726.107453	0.998022
726.439315	0.997889
726.771129	0.997870
727.102895	0.997228
727.434612	0.997775
727.766281	0.997337
728.097901	0.996854
728.429473	0.998171
728.760996	0.996593
729.092471	0.997606
729.423897	0.997347
729.755276	0.996994
730.086606	0.996720
730.417887	0.998266
730.749120	0.998077
731.080305	0.997779
731.411442	0.997303
731.742530	0.996772
732.073570	0.996623
732.404562	0.997053
732.735506	0.997446
733.066401	0.997116
733.397249	0.997455
733.728048	0.997657
734.058798	0.997692
734.389501	0.998029
734.720156	0.997733
735.050762	0.997801
735.381320	0.998282
735.711831	0.996800
736.042293	0.997587
736.372707	0.999148
736.703073	0.995795
737.033391	0.997142
737.363661	0.998173
737.693883	0.997267
738.024056	0.996723
738.354182	0.998552
738.684260	0.997505
739.014290	0.997291
739.344272	0.998110
739.674207	0.997642
740.004093	0.996778
740.333931	0.997708
740.663722	0.997307
740.993464	0.998346
741.323159	0.997976
741.652806	0.997814
741.982405	0.997156
742.311956	0.997670
742.641460	0.997639
742.970915	0.996531
743.300323	0.996604
743.629683	0.997138
743.958996	0.998146
744.288260	0.996851
744.617477	0.997352
744.946647	0.996837
745.275768	0.998183
745.604842	0.997224
745.933869	0.997951
746.262847	0.997590
746.591778	0.997343
746.920662	0.998643
747.249498	0.998555
747.578286	0.998991
747.907027	0.999359
748.235720	0.998088
748.564365	0.998196
748.892963	0.996626
749.221514	0.997826
749.550017	0.996999
749.878473	0.997849
750.206881	0.998818
750.535242	0.997982
750.863555	0.997442
751.191821	0.997021
751.520039	0.997615
751.848210	0.996392
752.176334	0.997361
752.504411	0.997329
752.832440	0.996961
753.160421	0.996936
753.488356	0.997924
753.816243	0.996716
754.144082	0.997499
754.471875	0.997511
754.799620	0.997997
755.127318	0.997554
755.454969	0.997701
755.782572	0.999503
756.110129	0.997758
756.437638	0.999165
756.765100	0.997832
757.092515	0.997919
757.419882	0.997779
757.747203	0.996904
758.074477	0.999165
758.401703	0.997604
758.728882	0.997660
759.056014	0.998132
759.383099	0.998761
759.710138	0.997092
760.037129	0.997382
760.364073	0.998128
760.690970	0.997082
761.017820	0.997337
761.344623	0.997828
761.671379	0.998296
761.998088	0.998283
762.324751	0.997389
762.651366	0.997239
762.977935	0.996036
763.304456	0.996582
763.630931	0.994686
763.957359	0.994652
764.283740	0.995975
764.610074	0.996899
764.936362	0.996429
765.262602	0.997833
765.588796	0.997411
765.914943	0.997166
766.241044	0.997592
766.567097	0.996926
766.893104	0.997417
767.219064	0.997774
767.544978	0.997478
767.870845	0.998671
768.196665	0.997288
768.522438	0.998055
768.848165	0.997860
769.173846	0.998249
769.499479	0.998817
769.825066	0.998576
770.150607	0.998975
770.476101	0.997436
770.801548	0.998754
771.126949	0.998722
771.452303	0.998208
771.777611	0.998789
772.102872	0.998045
772.428087	0.998127
772.753256	0.997935
773.078378	0.997667
773.403453	0.997614
773.728482	1.000314
774.053465	0.997898
774.378401	0.997496
774.703291	0.998680
775.028135	0.999220
775.352932	0.997754
775.677683	0.999699
776.002388	0.998475
776.327046	0.998506
776.651658	0.999101
776.976224	0.999409
777.300743	0.998082
777.625216	0.997240
777.949643	0.999492
778.274024	0.997884
778.598359	0.999313
778.922647	0.999138
779.246889	0.998999
779.571086	0.998848
779.895236	0.998694
780.219339	0.999738
780.543397	0.998014
780.867409	0.999158
781.191374	0.998712
781.515294	0.999213
781.839167	0.998399
782.162995	0.997926
782.486776	0.998326
782.810511	0.998545
783.134201	0.999440
783.457844	0.999041
783.781441	0.999406
784.104993	0.997839
784.428498	0.999786
784.751958	0.999399
785.075372	1.000103
785.398739	0.998078
785.722061	0.997547
786.045337	0.998572
786.368568	0.998086
786.691752	0.997833
787.014891	0.997954
787.337983	0.997776
787.661030	0.997411
787.984031	0.998207
788.306987	0.998065
788.629897	0.996298
788.952760	0.999211
789.275579	0.998612
789.598351	0.996867
789.921078	0.998941
790.243759	0.999012
790.566395	0.997780
790.888984	0.999090
791.211529	0.998961
791.534027	0.998332
791.856480	0.998550
792.178888	0.998735
792.501249	0.998722
792.823566	1.000493
793.145836	0.997866
793.468062	0.997808
793.790241	0.999480
794.112375	0.997174
794.434464	0.999293
794.756507	0.999350
795.078505	0.999080
795.400457	0.998049
795.722364	0.998451
796.044226	0.998695
796.366042	0.998776
796.687812	0.996520
797.009538	0.998098
797.331218	0.999487
797.652852	0.998678
797.974442	0.997790
798.295986	0.998816
798.617484	0.997830
798.938938	0.998320
799.260346	0.998304
799.581709	0.997735
799.903026	0.998990
800.224299	0.996828
800.545526	0.998996
800.866708	0.998364
801.187845	0.997825
801.508936	0.999304
801.829983	0.998601
802.150984	0.998990
802.471940	0.998803
802.792851	0.998100
803.113717	0.999536
803.434538	0.998791
803.755314	1.000377
804.076045	0.998462
804.396731	0.998191
804.717372	0.997219
805.037967	0.999328
805.358518	0.999225
805.679024	0.997911
805.999485	0.999055
806.319901	0.998654
806.640272	0.999665
806.960598	0.999437
807.280879	0.998497
807.601115	0.999589
807.921306	0.999730
808.241453	0.997989
808.561554	0.998211
808.881611	0.997788
809.201623	0.997871
809.521590	0.998250
809.841513	0.999408
810.161390	0.997932
810.481223	0.998457
810.801011	0.999413
811.120755	0.999855
811.440453	0.997875
811.760107	0.998144
812.079716	0.998672
812.399281	0.998948
812.718801	0.998318
813.038276	0.998983
813.357707	0.998610
813.677093	0.999098
813.996434	0.999176
814.315731	1.000463
814.634983	0.998814
814.954191	0.999060
815.273354	0.999150
815.592473	0.999003
815.911547	0.999575
816.230577	0.998392
816.549562	0.999132
816.868502	0.997478
817.187399	0.999195
817.506250	0.999952
817.825058	0.997600
818.143821	0.997744
818.462539	0.998879
818.781213	0.998270
819.099843	0.999298
819.418429	0.997591
819.736970	0.997689
820.055466	0.996243
820.373919	0.997019
820.692327	0.995409
821.010691	0.996547
821.329011	0.994005
821.647286	0.992679
821.965517	0.992097
822.283704	0.990961
822.601847	0.990580
822.919945	0.990337
823.237999	0.990998
823.556010	0.991783
823.873976	0.993413
824.191897	0.992874
824.509775	0.994661
824.827609	0.994173
825.145398	0.995346
825.463144	0.994424
825.780845	0.994629
826.098502	0.994252
826.416116	0.995050
826.733685	0.993708
827.051210	0.992829
827.368692	0.994355
827.686129	0.993807
828.003522	0.996034
828.320872	0.995543
828.638177	0.996381
828.955439	0.998414
829.272656	0.997768
829.589830	0.996906
829.906960	0.997834
830.224046	0.997935
830.541088	0.998237
830.858086	0.997902
831.175041	0.998469
831.491952	0.997333
831.808819	0.997427
832.125642	0.996740
832.442421	0.998429
832.759157	0.998452
833.075849	0.996441
833.392497	0.995711
833.709101	0.994661
834.025662	0.996136
834.342179	0.995640
834.658653	0.997239
834.975083	0.996881
835.291469	0.997790
835.607811	0.997137
835.924110	0.997433
836.240366	0.999701
836.556578	0.999253
836.872746	0.998265
837.188871	0.998952
837.504952	0.997681
837.820990	0.998165
838.136984	0.997543
838.452935	0.998739
838.768842	0.999182
839.084706	0.998252
839.400526	0.998825
839.716303	0.997532
840.032037	0.998204
840.347727	0.997977
840.663373	0.998500
840.978977	0.997277
841.294537	0.999168
841.610054	0.998180
841.925527	0.999161
842.240957	0.999058
842.556344	0.998247
842.871687	0.999127
843.186987	0.998104
843.502244	0.999379
843.817458	0.999231
844.132629	0.999880
844.447756	0.999615
844.762840	0.999595
845.077881	1.000275
845.392879	0.998503
845.707833	0.998538
846.022745	0.998060
846.337613	0.999452
846.652438	0.998659
846.967221	1.000306
847.281960	0.999922
847.596656	1.001102
847.911309	1.000088
848.225919	0.998224
848.540485	0.999164
848.855009	1.001435
849.169490	0.999061
849.483928	0.999336
849.798323	0.998728
850.112675	1.001258
850.426984	0.998845
850.741251	0.999882
851.055474	0.999418
851.369654	0.999596
851.683792	0.998739
851.997887	0.999884
852.311938	0.999209
852.625947	0.998875
852.939914	0.997794
853.253837	0.999702
853.567718	1.000211
853.881555	0.999320
854.195350	0.999879
854.509103	0.999618
854.822812	1.000047
855.136479	0.999502
855.450103	0.999655
855.763685	0.999152
856.077224	1.000108
856.390720	0.997663
856.704173	1.000107
857.017584	1.000637
857.330953	1.000149
857.644278	0.998797
857.957561	1.000034
858.270802	0.999506
858.584000	0.999395
858.897155	0.998736
859.210268	0.999545
859.523339	0.999817
859.836367	0.999784
860.149352	0.997390
860.462295	0.999174
860.775195	0.999020
861.088054	0.998712
861.400869	0.999072
861.713642	0.998829
862.026373	1.000864
862.339062	1.000564
862.651708	0.999257
862.964312	0.999272
863.276873	0.999818
863.589392	0.999541
863.901869	0.998435
864.214303	0.999749
864.526696	0.999438
864.839045	0.999534
865.151353	0.999292
865.463619	0.999418
865.775842	1.000057
866.088023	1.000301
866.400162	0.999667
866.712258	1.001035
867.024313	0.999416
867.336325	0.999592
867.648296	1.000120
867.960224	1.000205
868.272110	0.999342
868.583954	0.999846
868.895755	0.999462
869.207515	0.998723
869.519233	0.999686
869.830909	0.999068
870.142542	0.998796
870.454134	0.998260
870.765684	0.998854
871.077191	1.000165
871.388657	0.999862
871.700081	0.998834
872.011463	1.000404
872.322803	0.999927
872.634101	0.998774
872.945357	0.998509
873.256571	0.998652
873.567744	0.999009
873.878874	0.998716
874.189963	0.999010
874.501010	0.999769
874.812015	0.999603
875.122979	0.998349
875.433900	0.998625
875.744780	0.999470
876.055618	0.998882
876.366415	0.998726
876.677169	0.998585
876.987882	0.998740
877.298554	1.000355
877.609183	0.998877
877.919771	0.998727
878.230317	0.998738
878.540822	0.997543
878.851285	0.998641
879.161707	0.998141
879.472087	0.999436
879.782425	0.996915
880.092722	0.997082
880.402977	0.995428
880.713191	0.994994
881.023363	0.992675
881.333494	0.991615
881.643583	0.992642
881.953631	0.992468
882.263637	0.992017
882.573602	0.992005
882.883526	0.992662
883.193408	0.994616
883.503248	0.994422
883.813048	0.994478
884.122806	0.995881
884.432522	0.996445
884.742197	0.997598
885.051831	0.996458
885.361424	0.996833
885.670975	0.998474
885.980485	0.998009
886.289954	0.998465
886.599382	0.997440
886.908768	0.999132
887.218113	0.998203
887.527417	0.999252
887.836680	0.999721
888.145901	0.999381
888.455082	0.999889
888.764221	0.999688
889.073319	0.998594
889.382376	1.000610
889.691392	0.998802
890.000366	0.999562
890.309300	0.998666
890.618193	0.999510
890.927044	1.000039
891.235855	0.998137
891.544625	0.999511
891.853353	0.999447
892.162041	0.998263
892.470687	0.999403
892.779293	0.997986
893.087858	0.998017
893.396381	0.998339
893.704864	0.997459
894.013306	0.996629
894.321707	0.995676
894.630068	0.996242
894.938387	0.995900
895.246665	0.995955
895.554903	0.995498
895.863100	0.997169
896.171256	0.997894
896.479371	0.997974
896.787446	0.997247
897.095480	0.997624
897.403473	0.997981
897.711425	0.998144
898.019336	0.998922
898.327207	0.999940
898.635038	0.999227
898.942827	0.998443
899.250576	0.998377
899.558284	0.998797
899.865952	0.999557
900.173579	0.998565
900.481165	0.998896
900.788711	0.998509
901.096216	0.999577
901.403681	0.998703
901.711105	0.999280
902.018489	0.998226
902.325832	0.999690
902.633135	0.999063
902.940397	0.999402
903.247619	0.998745
903.554800	0.998297
903.861941	0.997053
904.169041	0.996316
904.476101	0.995591
904.783121	0.995030
905.090100	0.995863
905.397039	0.996469
905.703938	0.997168
906.010796	0.996449
906.317614	0.998398
906.624391	0.998775
906.931129	0.999459
907.237826	0.998887
907.544483	0.998813
907.851099	0.998469
908.157675	0.997213
908.464211	1.000542
908.770707	0.998662
909.077163	0.999545
909.383578	0.998826
909.689954	0.999194
909.996289	0.998957
910.302584	1.000507
910.608839	1.001496
910.915054	0.999263
911.221229	1.000487
911.527363	0.998937
911.833458	0.998622
912.139513	0.999276
912.445527	0.999906
912.751502	0.998812
913.057436	0.998232
913.363331	0.999691
913.669186	1.000330
913.975000	0.998969
914.280775	1.000103
914.586510	0.998577
914.892205	0.996829
915.197859	0.996774
915.503475	0.996816
915.809050	0.995874
916.114585	0.995085
916.420081	0.996357
916.725536	0.995342
917.030952	0.996106
917.336328	0.995519
917.641665	0.994802
917.946961	0.996594
918.252218	0.996793
918.557435	0.997420
918.862612	0.998152
919.167750	0.997626
919.472848	0.999647
919.777906	1.000254
920.082925	0.998193
920.387904	0.998839
920.692843	1.000083
920.997743	0.998666
921.302603	0.999134
921.607423	0.999184
921.912204	0.999306
922.216946	1.000702
922.521647	1.000288
922.826310	1.000120
923.130932	0.999920
923.435516	0.998830
923.740059	0.998526
924.044564	0.999142
924.349028	0.998219
924.653454	1.000147
924.957840	0.999761
925.262186	0.999365
925.566493	0.997942
925.870761	0.999638
926.174989	0.999770
926.479178	0.998927
926.783328	0.999408
927.087438	1.000280
927.391509	0.999553
927.695541	1.000233
927.999533	0.999990
928.303486	0.999182
928.607400	1.000120
928.911275	1.000790
929.215110	1.001269
929.518906	0.999834
929.822663	1.001894
930.126381	1.001035
930.430060	0.999697
930.733699	1.000347
931.037299	0.999555
931.340861	0.999330
931.644383	1.000291
931.947866	1.000899
932.251309	1.000282
932.554714	0.998688
932.858080	1.000424
933.161407	0.998314
933.464694	1.000056
933.767943	1.000265
934.071153	1.000403
934.374323	0.999689
934.677455	0.999565
934.980548	0.999296
935.283602	1.000866
935.586617	0.998343
935.889593	1.000771
936.192530	0.999816
936.495428	1.000280
936.798287	0.999860
937.101108	0.999997
937.403890	0.998914
937.706632	1.002262
938.009336	0.999442
938.312002	0.999559
938.614628	1.000152
938.917216	0.999897
939.219765	0.998448
939.522275	0.999039
939.824747	0.999839
940.127179	0.998965
940.429573	1.001203
940.731929	0.998811
941.034246	0.999032
941.336524	0.999163
941.638763	1.000421
941.940964	0.999348
942.243126	0.999305
942.545250	1.000019
942.847335	1.000567
943.149381	1.001046
943.451389	0.999547
943.753359	0.999796
944.055290	1.001210
944.357182	0.999191
944.659036	0.999445
944.960851	1.000565
945.262628	0.999542
945.564367	0.999658
945.866067	0.999723
946.167729	1.001545
946.469352	0.999886
946.770937	0.997927
947.072484	0.999965
947.373992	0.999395
947.675462	0.998699
947.976893	1.000098
948.278286	1.001654
948.579641	1.001205
948.880958	1.000418
949.182236	0.999886
949.483476	1.001097
949.784678	1.000153
950.085841	0.999142
950.386967	0.999590
950.688054	0.999866
950.989103	0.998121
951.290114	0.998910
951.591087	0.999990
951.892021	1.000866
952.192917	1.000266
952.493776	0.999963
952.794596	1.000359
953.095378	1.000532
953.396122	0.999986
953.696828	1.000215
953.997496	1.000193
954.298126	1.000723
954.598718	0.999377
954.899272	1.000016
955.199788	1.000026
955.500266	0.999499
955.800706	0.999021
956.101108	0.999217
956.401472	1.001030
956.701798	0.999107
957.002087	0.999169
957.302337	0.999750
957.602550	0.999677
957.902724	0.999558
958.202861	0.998805
958.502960	0.999275
958.803022	1.001752
959.103045	0.999593
959.403031	1.001429
959.702979	0.999864
960.002889	0.999409
960.302762	1.000231
960.602596	1.000652
960.902393	1.000942
961.202153	0.999432
961.501875	0.999617
961.801559	1.000372
962.101205	0.999574
962.400814	1.000366
962.700385	0.999774
962.999918	1.000767
963.299414	0.999497
963.598873	1.000642
963.898293	1.000628
964.197677	0.999695
964.497022	1.000249
964.796331	0.999453
965.095601	1.001460
965.394835	0.999323
965.694030	1.000794
965.993189	0.999349
966.292309	1.000200
966.591393	0.998027
966.890439	1.000967
967.189447	1.000046
967.488419	1.000387
967.787353	0.999822
968.086249	0.999814
968.385108	0.999994
968.683930	1.000695
968.982714	0.998993
969.281462	1.000274
969.580172	0.999480
969.878844	1.001134
970.177480	1.000279
970.476078	1.000332
970.774639	1.001085
971.073162	0.999298
971.371649	0.999267
971.670098	1.000168
971.968510	1.000347
972.266885	0.999870
972.565223	0.999766
972.863524	0.999094
973.161788	1.000153
973.460014	1.001327
973.758204	1.000259
974.056356	0.999445
974.354471	0.998767
974.652550	1.000271
974.950591	0.999294
975.248595	0.999105
975.546563	1.000037
975.844493	1.002032
976.142386	0.999232
976.440243	1.000786
976.738062	0.999751
977.035845	0.999546
977.333590	1.000675
977.631299	0.999189
977.928971	0.999780
978.226606	1.001084
978.524204	0.999823
978.821765	1.001124
979.119290	1.001093
979.416777	1.000769
979.714228	1.000098
980.011642	1.000061
980.309020	1.000609
980.606360	0.999321
980.903664	1.000643
981.200931	0.999269
981.498162	1.000195
981.795356	1.000062
982.092513	1.000081
982.389633	1.000348
982.686717	0.998870
982.983764	1.000682
983.280775	0.999499
983.577749	1.000137
983.874686	0.998788
984.171587	0.998178
984.468451	0.999832
984.765279	1.001291
985.062070	0.999796
985.358824	0.999775
985.655543	1.000894
985.952224	1.000125
986.248869	1.000015
986.545478	1.001106
986.842050	1.000149
987.138586	0.999258
987.435086	0.999558
987.731549	1.001737
988.027975	1.000799
988.324366	1.000393
988.620719	1.000110
988.917037	1.000134
989.213318	1.000531
989.509563	0.999492
989.805772	0.999359
990.101944	1.001272
990.398080	1.000543
990.694180	1.001163
990.990244	0.999094
991.286271	0.999439
991.582262	1.001116
991.878217	0.999340
992.174136	1.000896
992.470019	0.999646
992.765865	1.001550
993.061676	1.000540
993.357450	1.001218
993.653188	1.000911
993.948890	1.000559
994.244556	0.999415
994.540186	1.000194
994.835780	1.000411
995.131337	1.000780
995.426859	0.999278
995.722345	0.999971
996.017795	0.999384
996.313208	1.000206
996.608586	0.999798
996.903928	0.999698
997.199234	0.999553
997.494504	1.000853
997.789738	0.999265
998.084936	1.000516
998.380099	0.998925
998.675225	1.001282
998.970316	1.000811
999.265371	1.000675
999.560390	1.000826
999.855373	1.000115
1000.150320	1.000331
1000.445232	0.999960
1000.740108	1.000127
1001.034948	1.000056
1001.329752	1.000665
1001.624521	1.000521
1001.919254	0.998404
1002.213951	1.000716
1002.508613	1.000173
1002.803239	1.000146
1003.097829	0.999745
1003.392384	1.000426
1003.686903	0.999399
1003.981386	0.999081
1004.275834	1.001111
1004.570246	0.999305
1004.864623	1.000510
1005.158964	0.999689
1005.453270	1.000575
1005.747540	0.999949
1006.041775	0.999982
1006.335974	1.000567
1006.630138	1.000580
1006.924266	0.998971
1007.218359	0.999244
1007.512416	1.001625
1007.806438	0.999756
1008.100425	1.000896
1008.394376	1.000266
1008.688292	1.001044
1008.982172	0.999875
1009.276017	0.999898
1009.569827	1.002072
1009.863602	0.998946
1010.157341	1.001156
1010.451045	0.998864
1010.744714	1.000321
1011.038347	1.000315
1011.331945	0.999521
1011.625508	1.000358
1011.919036	0.999730
1012.212528	0.999861
1012.505986	0.999859
1012.799408	1.000818
1013.092795	1.001197
1013.386147	1.000779
1013.679464	1.000593
1013.972745	1.000493
1014.265992	0.999987
1014.559204	0.998847
1014.852380	1.001122
1015.145521	1.000870
1015.438628	1.001451
1015.731699	1.000065
1016.024736	0.999871
1016.317737	0.999442
1016.610703	1.000249
1016.903635	1.000218
1017.196531	1.000547
1017.489393	1.000460
1017.782219	0.999787
1018.075011	0.999468
1018.367768	0.999445
1018.660490	0.999601
1018.953177	0.999601
1019.245829	0.999601
