Dividing Wavelength (nm)	Counts (n)	Blue Motor Position (mm): 1.000000	Red Motor Position (mm): 0.000000	
326.493990	1.005907
326.888308	1.005907
327.282561	1.005907
327.676750	1.006562
328.070874	1.008280
328.464933	1.008216
328.858929	1.007906
329.252859	1.007226
329.646726	1.006232
330.040528	1.006863
330.434265	1.006497
330.827938	1.006399
331.221547	1.007772
331.615091	1.006840
332.008571	1.007946
332.401986	1.005271
332.795338	1.005628
333.188625	1.008055
333.581847	1.006559
333.975006	1.007107
334.368100	1.006765
334.761129	1.006397
335.154095	1.006820
335.546996	1.005016
335.939833	0.999245
336.332606	0.999505
336.725315	0.998662
337.117960	1.000838
337.510540	0.999292
337.903056	0.999881
338.295508	1.000713
338.687896	0.999713
339.080220	1.000723
339.472480	0.998936
339.864676	1.000331
340.256807	0.999913
340.648875	0.999857
341.040879	0.999007
341.432818	1.001173
341.824694	0.999558
342.216506	1.001084
342.608253	0.999399
342.999937	1.000158
343.391557	0.999125
343.783113	1.001824
344.174605	0.999791
344.566033	0.998764
344.957397	1.000279
345.348697	1.000911
345.739934	1.000091
346.131106	1.000181
346.522215	0.998410
346.913260	1.000504
347.304241	0.998694
347.695159	1.000275
348.086012	0.999705
348.476802	0.999504
348.867528	0.999879
349.258191	1.000121
349.648789	0.999315
350.039324	0.999310
350.429796	0.998502
350.820203	0.998112
351.210548	0.999672
351.600828	0.999565
351.991045	1.000136
352.381198	1.000275
352.771288	0.998268
353.161314	0.999692
353.551276	0.999166
353.941175	0.997890
354.331010	0.999764
354.720782	1.000412
355.110490	0.998412
355.500135	0.999895
355.889717	0.998632
356.279235	0.997478
356.668689	0.999700
357.058080	0.998425
357.447408	0.998292
357.836672	0.999017
358.225873	0.998460
358.615010	0.998564
359.004084	0.998011
359.393095	0.999497
359.782043	0.998611
360.170927	0.999049
360.559748	0.997286
360.948505	0.998837
361.337199	0.997706
361.725830	0.998741
362.114398	0.997003
362.502903	0.996914
362.891344	0.996649
363.279722	0.997635
363.668037	0.998220
364.056289	0.998147
364.444478	0.999137
364.832603	0.998461
365.220665	0.997693
365.608665	0.996587
365.996601	0.997674
366.384474	0.996083
366.772284	0.996730
367.160031	0.996306
367.547715	0.996742
367.935336	0.994521
368.322893	0.994316
368.710388	0.993390
369.097820	0.990937
369.485189	0.988353
369.872495	0.987624
370.259738	0.984805
370.646918	0.981083
371.034035	0.980603
371.421090	0.978063
371.808081	0.971998
372.195010	0.969742
372.581875	0.963907
372.968678	0.960736
373.355418	0.956692
373.742096	0.949601
374.128710	0.944337
374.515262	0.939709
374.901751	0.935091
375.288177	0.930252
375.674540	0.923522
376.060841	0.916381
376.447079	0.909280
376.833254	0.903390
377.219367	0.898485
377.605417	0.886933
377.991404	0.883804
378.377329	0.878401
378.763191	0.871386
379.148991	0.862921
379.534727	0.853789
379.920402	0.846107
380.306013	0.842180
380.691563	0.830305
381.077049	0.823330
381.462474	0.819301
381.847835	0.808353
382.233134	0.802765
382.618371	0.803635
383.003545	0.785880
383.388657	0.783775
383.773706	0.776449
384.158693	0.772928
384.543618	0.766572
384.928480	0.758075
385.313280	0.747391
385.698017	0.747181
386.082692	0.736069
386.467305	0.733878
386.851856	0.729191
387.236344	0.723698
387.620770	0.717675
388.005133	0.712052
388.389435	0.706941
388.773674	0.704472
389.157851	0.696356
389.541965	0.693840
389.926018	0.700670
390.310008	0.686909
390.693936	0.685181
391.077802	0.675795
391.461606	0.678539
391.845348	0.666699
392.229027	0.665935
392.612645	0.664564
392.996200	0.651839
393.379694	0.643826
393.763125	0.635156
394.146494	0.639552
394.529801	0.629462
394.913047	0.621678
395.296230	0.628310
395.679351	0.618960
396.062410	0.616211
396.445408	0.618709
396.828343	0.614664
397.211217	0.608757
397.594028	0.621273
397.976778	0.611365
398.359466	0.607686
398.742092	0.603492
399.124656	0.615568
399.507158	0.603793
399.889598	0.601422
400.271977	0.591540
400.654294	0.595283
401.036549	0.595038
401.418742	0.599199
401.800874	0.584898
402.182944	0.581664
402.564952	0.573374
402.946898	0.575765
403.328783	0.576004
403.710606	0.587725
404.092367	0.562609
404.474067	0.567955
404.855705	0.566188
405.237282	0.575278
405.618797	0.560866
406.000250	0.556717
406.381642	0.546830
406.762972	0.552183
407.144240	0.550833
407.525447	0.550197
407.906593	0.543004
408.287677	0.538681
408.668700	0.547346
409.049661	0.541228
409.430560	0.536321
409.811399	0.545169
410.192176	0.526749
410.572891	0.534012
410.953545	0.522240
411.334138	0.535529
411.714669	0.527379
412.095139	0.539662
412.475547	0.523854
412.855894	0.526167
413.236180	0.525406
413.616405	0.530374
413.996568	0.520965
414.376670	0.527584
414.756711	0.531708
415.136691	0.528250
415.516609	0.519953
415.896466	0.516475
416.276262	0.512918
416.655997	0.514652
417.035670	0.495315
417.415283	0.487317
417.794834	0.492084
418.174324	0.497414
418.553753	0.506260
418.933121	0.488498
419.312428	0.483002
419.691674	0.488991
420.070859	0.476738
420.449983	0.484414
420.829045	0.474033
421.208047	0.483265
421.586988	0.476107
421.965867	0.474774
422.344686	0.464029
422.723444	0.476345
423.102141	0.493603
423.480777	0.465854
423.859352	0.486881
424.237866	0.463809
424.616319	0.464854
424.994712	0.455910
425.373044	0.466214
425.751314	0.454301
426.129524	0.470981
426.507673	0.454066
426.885762	0.447732
427.263789	0.453179
427.641756	0.462630
428.019662	0.452901
428.397508	0.452387
428.775292	0.456888
429.153016	0.448323
429.530679	0.454633
429.908282	0.447998
430.285824	0.458057
430.663305	0.436850
431.040726	0.457637
431.418086	0.457333
431.795385	0.449759
432.172624	0.448218
432.549802	0.449005
432.926920	0.447249
433.303977	0.447546
433.680974	0.444836
434.057910	0.442619
434.434786	0.441885
434.811601	0.445291
435.188355	0.427400
435.565050	0.436769
435.941683	0.437605
436.318257	0.421722
436.694770	0.422609
437.071222	0.420756
437.447614	0.425306
437.823946	0.432012
438.200218	0.420984
438.576429	0.430617
438.952580	0.423846
439.328670	0.420549
439.704700	0.427169
440.080670	0.428215
440.456580	0.409718
440.832429	0.417461
441.208218	0.428301
441.583947	0.417679
441.959616	0.417036
442.335224	0.422623
442.710773	0.412831
443.086261	0.411566
443.461689	0.424883
443.837057	0.414660
444.212365	0.405043
444.587612	0.412285
444.962800	0.401814
445.337927	0.403499
445.712995	0.429207
446.088002	0.391076
446.462949	0.401868
446.837837	0.406775
447.212664	0.395240
447.587431	0.387404
447.962139	0.356965
448.336786	0.316402
448.711374	0.326438
449.085901	0.371207
449.460369	0.375200
449.834776	0.378477
450.209124	0.358039
450.583412	0.351061
450.957640	0.343955
451.331808	0.355456
451.705917	0.378295
452.079965	0.383747
452.453954	0.371270
452.827883	0.377848
453.201752	0.372981
453.575562	0.384115
453.949311	0.372684
454.323001	0.378955
454.696632	0.375235
455.070202	0.367403
455.443713	0.359339
455.817164	0.354020
456.190556	0.349878
456.563888	0.346636
456.937160	0.344049
457.310373	0.361548
457.683526	0.360160
458.056619	0.366736
458.429653	0.366698
458.802628	0.370356
459.175542	0.364339
459.548398	0.347139
459.921194	0.339678
460.293930	0.339419
460.666607	0.316841
461.039224	0.305386
461.411782	0.300820
461.784280	0.300013
462.156719	0.304082
462.529099	0.308703
462.901419	0.324801
463.273680	0.328925
463.645882	0.328680
464.018024	0.334469
464.390106	0.326941
464.762130	0.311515
465.134094	0.294561
465.505999	0.263720
465.877845	0.233850
466.249631	0.220733
466.621358	0.228282
466.993026	0.242255
467.364634	0.248387
467.736184	0.257166
468.107674	0.266292
468.479105	0.265096
468.850477	0.272091
469.221790	0.278847
469.593043	0.289218
469.964238	0.293907
470.335373	0.293290
470.706449	0.291407
471.077467	0.291673
471.448425	0.254173
471.819324	0.229303
472.190164	0.228950
472.560945	0.257696
472.931667	0.280510
473.302330	0.284566
473.672934	0.296480
474.043479	0.284637
474.413965	0.286621
474.784393	0.289586
475.154761	0.285025
475.525070	0.281863
475.895321	0.287674
476.265513	0.281665
476.635645	0.277138
477.005719	0.276856
477.375734	0.273305
477.745691	0.266671
478.115588	0.263102
478.485427	0.256528
478.855207	0.243461
479.224928	0.225944
479.594591	0.214162
479.964194	0.217290
480.333739	0.218833
480.703226	0.220130
481.072653	0.218237
481.442022	0.214238
481.811333	0.210989
482.180584	0.214228
482.549777	0.219754
482.918912	0.223084
483.287988	0.222597
483.657005	0.222271
484.025964	0.228742
484.394864	0.226083
484.763706	0.226743
485.132489	0.231700
485.501213	0.232587
485.869879	0.230751
486.238487	0.233965
486.607036	0.231863
486.975527	0.236834
487.343959	0.232334
487.712333	0.231178
488.080648	0.232667
488.448905	0.232150
488.817104	0.233074
489.185244	0.227993
489.553326	0.224739
489.921350	0.214450
490.289315	0.197045
490.657222	0.191832
491.025070	0.193154
491.392861	0.195178
491.760593	0.200884
492.128267	0.206748
492.495883	0.212008
492.863440	0.218363
493.230939	0.224755
493.598380	0.226398
493.965763	0.228561
494.333088	0.230779
494.700354	0.232060
495.067563	0.231188
495.434713	0.234585
495.801805	0.232268
496.168839	0.233943
496.535815	0.235371
496.902733	0.235196
497.269593	0.236719
497.636395	0.234303
498.003139	0.234691
498.369825	0.237834
498.736453	0.234267
499.103023	0.235919
499.469535	0.235400
499.835989	0.235521
500.202385	0.236217
500.568723	0.239472
500.935003	0.234569
501.301226	0.238937
501.667390	0.233228
502.033497	0.231449
502.399546	0.234172
502.765537	0.236252
503.131470	0.234740
503.497345	0.231188
503.863163	0.239410
504.228923	0.232648
504.594625	0.231182
504.960269	0.236744
505.325856	0.232234
505.691385	0.236533
506.056856	0.232968
506.422270	0.232824
506.787625	0.235089
507.152924	0.232550
507.518164	0.232762
507.883347	0.234485
508.248472	0.236444
508.613540	0.231055
508.978550	0.233833
509.343503	0.234175
509.708398	0.231969
510.073236	0.229472
510.438016	0.229145
510.802738	0.230248
511.167403	0.229213
511.532010	0.231398
511.896561	0.226831
512.261053	0.225245
512.625488	0.227557
512.989866	0.228026
513.354186	0.228080
513.718449	0.229976
514.082655	0.226428
514.446803	0.228513
514.810894	0.226262
515.174927	0.229078
515.538904	0.228589
515.902822	0.225537
516.266684	0.227641
516.630488	0.229017
516.994235	0.227749
517.357925	0.226313
517.721558	0.224719
518.085133	0.224245
518.448651	0.224428
518.812112	0.226609
519.175516	0.226358
519.538863	0.223812
519.902152	0.226019
520.265385	0.222364
520.628560	0.223977
520.991678	0.224359
521.354739	0.223509
521.717743	0.224815
522.080690	0.224832
522.443580	0.222380
522.806413	0.223164
523.169189	0.222772
523.531908	0.221318
523.894569	0.224955
524.257174	0.225073
524.619722	0.222621
524.982213	0.223812
525.344647	0.222699
525.707025	0.223378
526.069345	0.221903
526.431608	0.223386
526.793815	0.221182
527.155964	0.225591
527.518057	0.224658
527.880093	0.225370
528.242072	0.223863
528.603995	0.226270
528.965860	0.227608
529.327669	0.226569
529.689421	0.227089
530.051117	0.228028
530.412755	0.225982
530.774337	0.228269
531.135862	0.229135
531.497331	0.227890
531.858743	0.230929
532.220098	0.227458
532.581396	0.230366
532.942638	0.230626
533.303824	0.231688
533.664953	0.231147
534.026025	0.233271
534.387040	0.230966
534.747999	0.231106
535.108902	0.229735
535.469748	0.235092
535.830537	0.232871
536.191270	0.233300
536.551947	0.232623
536.912567	0.232847
537.273131	0.234259
537.633638	0.234528
537.994089	0.235276
538.354483	0.235859
538.714821	0.233010
539.075103	0.232621
539.435328	0.233516
539.795497	0.237247
540.155609	0.233781
540.515665	0.232011
540.875665	0.237654
541.235609	0.236258
541.595496	0.236186
541.955328	0.232894
542.315102	0.235329
542.674821	0.236579
543.034483	0.236481
543.394090	0.236397
543.753640	0.238375
544.113134	0.233081
544.472571	0.236399
544.831953	0.233386
545.191278	0.237838
545.550548	0.236811
545.909761	0.233886
546.268918	0.234515
546.628019	0.232578
546.987064	0.235485
547.346053	0.237224
547.704986	0.235089
548.063863	0.235504
548.422684	0.235499
548.781449	0.237551
549.140158	0.234959
549.498811	0.237798
549.857408	0.240758
550.215949	0.235440
550.574434	0.238938
550.932864	0.236921
551.291237	0.235017
551.649555	0.237094
552.007817	0.236365
552.366022	0.237399
552.724173	0.237611
553.082267	0.237712
553.440305	0.234867
553.798288	0.239392
554.156215	0.235657
554.514086	0.236375
554.871902	0.239887
555.229661	0.238829
555.587365	0.239498
555.945014	0.242131
556.302606	0.238801
556.660143	0.241543
557.017625	0.237958
557.375050	0.240185
557.732421	0.237358
558.089735	0.239351
558.446994	0.239320
558.804197	0.238713
559.161345	0.238275
559.518437	0.241998
559.875474	0.239781
560.232455	0.239072
560.589381	0.240454
560.946251	0.240648
561.303065	0.237921
561.659825	0.239331
562.016528	0.240738
562.373177	0.243548
562.729770	0.240875
563.086307	0.242953
563.442789	0.240880
563.799216	0.243590
564.155587	0.242457
564.511904	0.243891
564.868164	0.243738
565.224370	0.243450
565.580520	0.245199
565.936615	0.244985
566.292654	0.247945
566.648638	0.244932
567.004567	0.246186
567.360441	0.246473
567.716260	0.248586
568.072023	0.246147
568.427732	0.247195
568.783385	0.249372
569.138982	0.247570
569.494525	0.247268
569.850013	0.250390
570.205445	0.248799
570.560823	0.250924
570.916145	0.253109
571.271412	0.251683
571.626625	0.252804
571.981782	0.253717
572.336884	0.254109
572.691931	0.254044
573.046923	0.255276
573.401860	0.256540
573.756743	0.258210
574.111570	0.257291
574.466342	0.257701
574.821059	0.256618
575.175722	0.259563
575.530330	0.259178
575.884882	0.259618
576.239380	0.261859
576.593823	0.261894
576.948211	0.261708
577.302544	0.264695
577.656823	0.264731
578.011047	0.264234
578.365216	0.265169
578.719330	0.267485
579.073389	0.267064
579.427394	0.267997
579.781344	0.269386
580.135239	0.270354
580.489080	0.270225
580.842866	0.272945
581.196597	0.273094
581.550273	0.271762
581.903895	0.272530
582.257463	0.270418
582.610975	0.274645
582.964434	0.273680
583.317837	0.276115
583.671186	0.276777
584.024481	0.276475
584.377721	0.278944
584.730906	0.280163
585.084037	0.278779
585.437113	0.281296
585.790135	0.280169
586.143103	0.283235
586.496016	0.284261
586.848874	0.281882
587.201679	0.282296
587.554428	0.286010
587.907124	0.284894
588.259765	0.285219
588.612352	0.285954
588.964884	0.289989
589.317362	0.289187
589.669786	0.289331
590.022155	0.287656
590.374470	0.287330
590.726731	0.288758
591.078937	0.294305
591.431090	0.290235
591.783188	0.294597
592.135232	0.294902
592.487222	0.295099
592.839157	0.293010
593.191038	0.295310
593.542866	0.297209
593.894639	0.300275
594.246358	0.299187
594.598022	0.298295
594.949633	0.302149
595.301190	0.302497
595.652692	0.301699
596.004141	0.297582
596.355535	0.305736
596.706876	0.306468
597.058162	0.309155
597.409395	0.306143
597.760573	0.303974
598.111698	0.307111
598.462768	0.307761
598.813785	0.308756
599.164748	0.309944
599.515657	0.310580
599.866511	0.314139
600.217312	0.309216
600.568060	0.314720
600.918753	0.310817
601.269392	0.311624
601.619978	0.315303
601.970510	0.312711
602.320988	0.312910
602.671412	0.310941
603.021783	0.313097
603.372100	0.314083
603.722363	0.314448
604.072572	0.315113
604.422728	0.314770
604.772830	0.317066
605.122878	0.316616
605.472872	0.316949
605.822813	0.315439
606.172701	0.318359
606.522534	0.315196
606.872314	0.315471
607.222041	0.316546
607.571714	0.314582
607.921333	0.315821
608.270899	0.316020
608.620411	0.312551
608.969870	0.316337
609.319276	0.316467
609.668627	0.316062
610.017926	0.315076
610.367171	0.313575
610.716362	0.314310
611.065500	0.314015
611.414585	0.313148
611.763616	0.313473
612.112594	0.314305
612.461518	0.313782
612.810389	0.311045
613.159207	0.313654
613.507971	0.315152
613.856682	0.311141
614.205340	0.312201
614.553945	0.309325
614.902496	0.313276
615.250994	0.311276
615.599439	0.311730
615.947830	0.311133
616.296169	0.312528
616.644454	0.312229
616.992686	0.312033
617.340864	0.309636
617.688990	0.313302
618.037063	0.310040
618.385082	0.311369
618.733048	0.308631
619.080961	0.310935
619.428821	0.310456
619.776628	0.310173
620.124382	0.312401
620.472083	0.312924
620.819731	0.312047
621.167326	0.315965
621.514868	0.315439
621.862357	0.319895
622.209793	0.319341
622.557176	0.321985
622.904506	0.322637
623.251783	0.325367
623.599007	0.327490
623.946179	0.327034
624.293297	0.329256
624.640363	0.333137
624.987376	0.333495
625.334336	0.335646
625.681243	0.338194
626.028097	0.338269
626.374899	0.339590
626.721647	0.340528
627.068343	0.343266
627.414987	0.344567
627.761577	0.346545
628.108115	0.344388
628.454600	0.350225
628.801032	0.347337
629.147412	0.349377
629.493739	0.350370
629.840014	0.352691
630.186236	0.350052
630.532405	0.356251
630.878521	0.353004
631.224585	0.355257
631.570597	0.359137
631.916556	0.357772
632.262462	0.357581
632.608316	0.359800
632.954117	0.360701
633.299866	0.361377
633.645562	0.361584
633.991206	0.366279
634.336797	0.369178
634.682336	0.371761
635.027823	0.373414
635.373257	0.373729
635.718639	0.377504
636.063968	0.376368
636.409245	0.382478
636.754470	0.382721
637.099642	0.385315
637.444762	0.388950
637.789829	0.387852
638.134845	0.390872
638.479808	0.392013
638.824719	0.392080
639.169577	0.396346
639.514383	0.395502
639.859137	0.399326
640.203839	0.399344
640.548489	0.399590
640.893086	0.400725
641.237632	0.402431
641.582125	0.401143
641.926566	0.403454
642.270955	0.403312
642.615292	0.403079
642.959576	0.402498
643.303809	0.403211
643.647990	0.402673
643.992118	0.402902
644.336195	0.405953
644.680219	0.405235
645.024192	0.405593
645.368112	0.399365
645.711981	0.397731
646.055797	0.393121
646.399562	0.395351
646.743274	0.388398
647.086935	0.384983
647.430544	0.385335
647.774101	0.384307
648.117606	0.383842
648.461059	0.384349
648.804460	0.386530
649.147810	0.391789
649.491108	0.394422
649.834354	0.395446
650.177548	0.400700
650.520690	0.405992
650.863781	0.406974
651.206820	0.406627
651.549807	0.411011
651.892742	0.415662
652.235626	0.414361
652.578458	0.415311
652.921238	0.422334
653.263967	0.419558
653.606644	0.423485
653.949269	0.423692
654.291843	0.427130
654.634365	0.424054
654.976836	0.426685
655.319255	0.427688
655.661622	0.428731
656.003938	0.429380
656.346203	0.431489
656.688416	0.429636
657.030577	0.433005
657.372687	0.435345
657.714746	0.436445
658.056753	0.433172
658.398708	0.436745
658.740612	0.438554
659.082465	0.433852
659.424266	0.435019
659.766016	0.434186
660.107715	0.437406
660.449362	0.435675
660.790958	0.436658
661.132503	0.437290
661.473996	0.434545
661.815438	0.436095
662.156829	0.436259
662.498168	0.436390
662.839456	0.438550
663.180693	0.435175
663.521879	0.435747
663.863013	0.436875
664.204097	0.434657
664.545129	0.431972
664.886110	0.432454
665.227040	0.429799
665.567918	0.432163
665.908746	0.429549
666.249522	0.429746
666.590248	0.430899
666.930922	0.428617
667.271545	0.427957
667.612118	0.427731
667.952639	0.429312
668.293109	0.428032
668.633528	0.430955
668.973896	0.430539
669.314213	0.430926
669.654480	0.432865
669.994695	0.433184
670.334859	0.434024
670.674973	0.434371
671.015035	0.434586
671.355047	0.434645
671.695008	0.435257
672.034918	0.437340
672.374777	0.436658
672.714585	0.437999
673.054342	0.437792
673.394049	0.438117
673.733705	0.435774
674.073310	0.436777
674.412864	0.439998
674.752368	0.439814
675.091820	0.440448
675.431223	0.444567
675.770574	0.444304
676.109875	0.447958
676.449125	0.448077
676.788324	0.450106
677.127473	0.455076
677.466571	0.455182
677.805619	0.456897
678.144616	0.457970
678.483562	0.460209
678.822458	0.462482
679.161303	0.462925
679.500098	0.463732
679.838842	0.465208
680.177535	0.464469
680.516179	0.463205
680.854771	0.462169
681.193314	0.456387
681.531805	0.446819
681.870247	0.435565
682.208638	0.427903
682.546978	0.427233
682.885268	0.428362
683.223508	0.434839
683.561697	0.438687
683.899836	0.441134
684.237925	0.444395
684.575963	0.447945
684.913951	0.450711
685.251889	0.446200
685.589776	0.448413
685.927614	0.450448
686.265401	0.444735
686.603137	0.445974
686.940824	0.440410
687.278460	0.439263
687.616046	0.437406
687.953582	0.432953
688.291068	0.433974
688.628504	0.429707
688.965889	0.431763
689.303224	0.436010
689.640510	0.439910
689.977745	0.445621
690.314930	0.453213
690.652065	0.457900
690.989150	0.465323
691.326185	0.472466
691.663170	0.477332
692.000105	0.484327
692.336990	0.491387
692.673825	0.493975
693.010610	0.500270
693.347345	0.507262
693.684030	0.507430
694.020665	0.512377
694.357251	0.520720
694.693786	0.520936
695.030272	0.523937
695.366707	0.528615
695.703093	0.532117
696.039429	0.529905
696.375716	0.531857
696.711952	0.534187
697.048139	0.536284
697.384276	0.538472
697.720363	0.536713
698.056400	0.535426
698.392388	0.541881
698.728326	0.544084
699.064214	0.547437
699.400053	0.546850
699.735842	0.551575
700.071581	0.554596
700.407270	0.557626
700.742910	0.559516
701.078501	0.565800
701.414042	0.567182
701.749533	0.569464
702.084974	0.579126
702.420366	0.571769
702.755709	0.578208
703.091002	0.585899
703.426246	0.579961
703.761440	0.586108
704.096584	0.590727
704.431679	0.587035
704.766725	0.590358
705.101721	0.591543
705.436668	0.587721
705.771565	0.594307
706.106413	0.590144
706.441212	0.586572
706.775961	0.586357
707.110661	0.587912
707.445311	0.584869
707.779913	0.581680
708.114465	0.579817
708.448967	0.576779
708.783421	0.568903
709.117825	0.563795
709.452180	0.563160
709.786485	0.557645
710.120742	0.546813
710.454949	0.548545
710.789107	0.540723
711.123216	0.531169
711.457275	0.532908
711.791286	0.524497
712.125247	0.523556
712.459159	0.534137
712.793023	0.525970
713.126837	0.530289
713.460602	0.531200
713.794318	0.539483
714.127985	0.538943
714.461602	0.549558
714.795171	0.553038
715.128691	0.561121
715.462162	0.568285
715.795584	0.574494
716.128957	0.576805
716.462281	0.582824
716.795556	0.586536
717.128782	0.591988
717.461960	0.601126
717.795088	0.600454
718.128167	0.606303
718.461198	0.614836
718.794180	0.615756
719.127113	0.618303
719.459997	0.621235
719.792833	0.628250
720.125619	0.629824
720.458357	0.635457
720.791046	0.635454
721.123686	0.638887
721.456278	0.645749
721.788821	0.641269
722.121315	0.647344
722.453761	0.651257
722.786158	0.649125
723.118506	0.645518
723.450805	0.652960
723.783056	0.649973
724.115259	0.646940
724.447412	0.646292
724.779518	0.647478
725.111574	0.645467
725.443582	0.641929
725.775542	0.644353
726.107453	0.635729
726.439315	0.636410
726.771129	0.634623
727.102895	0.627702
727.434612	0.621316
727.766281	0.619312
728.097901	0.617845
728.429473	0.617217
728.760996	0.615848
729.092471	0.616456
729.423897	0.620626
729.755276	0.619542
730.086606	0.619084
730.417887	0.613486
730.749120	0.604396
731.080305	0.594876
731.411442	0.590980
731.742530	0.594779
732.073570	0.595410
732.404562	0.586998
732.735506	0.588234
733.066401	0.593893
733.397249	0.602909
733.728048	0.613697
734.058798	0.626780
734.389501	0.637739
734.720156	0.647967
735.050762	0.655930
735.381320	0.656094
735.711831	0.665183
736.042293	0.669948
736.372707	0.666401
736.703073	0.669792
737.033391	0.673397
737.363661	0.670819
737.693883	0.665653
738.024056	0.663413
738.354182	0.664890
738.684260	0.653452
739.014290	0.650788
739.344272	0.651104
739.674207	0.643828
740.004093	0.644010
740.333931	0.644130
740.663722	0.644182
740.993464	0.644746
741.323159	0.648209
741.652806	0.652888
741.982405	0.657887
742.311956	0.662970
742.641460	0.665185
742.970915	0.668981
743.300323	0.676258
743.629683	0.682799
743.958996	0.685500
744.288260	0.688699
744.617477	0.695511
744.946647	0.697011
745.275768	0.702631
745.604842	0.701822
745.933869	0.712244
746.262847	0.713757
746.591778	0.706089
746.920662	0.713250
747.249498	0.719816
747.578286	0.710957
747.907027	0.706866
748.235720	0.706634
748.564365	0.701738
748.892963	0.701190
749.221514	0.705663
749.550017	0.708624
749.878473	0.710248
750.206881	0.717156
750.535242	0.716941
750.863555	0.716082
751.191821	0.717577
751.520039	0.720926
751.848210	0.724346
752.176334	0.718994
752.504411	0.717295
752.832440	0.725387
753.160421	0.730760
753.488356	0.727758
753.816243	0.725450
754.144082	0.733188
754.471875	0.737473
754.799620	0.733626
755.127318	0.734454
755.454969	0.734485
755.782572	0.734447
756.110129	0.738213
756.437638	0.741776
756.765100	0.737957
757.092515	0.735267
757.419882	0.734202
757.747203	0.740231
758.074477	0.740363
758.401703	0.736212
758.728882	0.732259
759.056014	0.730226
759.383099	0.729858
759.710138	0.730802
760.037129	0.726320
760.364073	0.721351
760.690970	0.722962
761.017820	0.727478
761.344623	0.724012
761.671379	0.715490
761.998088	0.703457
762.324751	0.680112
762.651366	0.637234
762.977935	0.569925
763.304456	0.518569
763.630931	0.508306
763.957359	0.547647
764.283740	0.592330
764.610074	0.620271
764.936362	0.651971
765.262602	0.679076
765.588796	0.700466
765.914943	0.717348
766.241044	0.735677
766.567097	0.742195
766.893104	0.752906
767.219064	0.759138
767.544978	0.766011
767.870845	0.779688
768.196665	0.783014
768.522438	0.781135
768.848165	0.782913
769.173846	0.791489
769.499479	0.796551
769.825066	0.800978
770.150607	0.805257
770.476101	0.800275
770.801548	0.802558
771.126949	0.813924
771.452303	0.817302
771.777611	0.816428
772.102872	0.814666
772.428087	0.820043
772.753256	0.823566
773.078378	0.826508
773.403453	0.833924
773.728482	0.839248
774.053465	0.832132
774.378401	0.835590
774.703291	0.845530
775.028135	0.845566
775.352932	0.843986
775.677683	0.850393
776.002388	0.850298
776.327046	0.849609
776.651658	0.853109
776.976224	0.855755
777.300743	0.856257
777.625216	0.858238
777.949643	0.860612
778.274024	0.859223
778.598359	0.861494
778.922647	0.860482
779.246889	0.861296
779.571086	0.864024
779.895236	0.866776
780.219339	0.865759
780.543397	0.860096
780.867409	0.860340
781.191374	0.862066
781.515294	0.862978
781.839167	0.862683
782.162995	0.864787
782.486776	0.862707
782.810511	0.863961
783.134201	0.868601
783.457844	0.866574
783.781441	0.868130
784.104993	0.873734
784.428498	0.873300
784.751958	0.870548
785.075372	0.873148
785.398739	0.876291
785.722061	0.870769
786.045337	0.868211
786.368568	0.871868
786.691752	0.874778
787.014891	0.860437
787.337983	0.851892
787.661030	0.843704
787.984031	0.826446
788.306987	0.814513
788.629897	0.814698
788.952760	0.819151
789.275579	0.823710
789.598351	0.838901
789.921078	0.852903
790.243759	0.855235
790.566395	0.858866
790.888984	0.867695
791.211529	0.872160
791.534027	0.874511
791.856480	0.877904
792.178888	0.882172
792.501249	0.884518
792.823566	0.887190
793.145836	0.887048
793.468062	0.889142
793.790241	0.889539
794.112375	0.885954
794.434464	0.882840
794.756507	0.881488
795.078505	0.879424
795.400457	0.874691
795.722364	0.861501
796.044226	0.857562
796.366042	0.854473
796.687812	0.857520
797.009538	0.854415
797.331218	0.857811
797.652852	0.862536
797.974442	0.866361
798.295986	0.868077
798.617484	0.869094
798.938938	0.873793
799.260346	0.878466
799.581709	0.880428
799.903026	0.883043
800.224299	0.883840
800.545526	0.886965
800.866708	0.891399
801.187845	0.896017
801.508936	0.895636
801.829983	0.892300
802.150984	0.896248
802.471940	0.901360
802.792851	0.900834
803.113717	0.901463
803.434538	0.900213
803.755314	0.903278
804.076045	0.903187
804.396731	0.903096
804.717372	0.902864
805.037967	0.905891
805.358518	0.902882
805.679024	0.899631
805.999485	0.900497
806.319901	0.900048
806.640272	0.903486
806.960598	0.900003
807.280879	0.896562
807.601115	0.895334
807.921306	0.899261
808.241453	0.899734
808.561554	0.898206
808.881611	0.897609
809.201623	0.898660
809.521590	0.899922
809.841513	0.900567
810.161390	0.899768
810.481223	0.900799
810.801011	0.904846
811.120755	0.906987
811.440453	0.904475
811.760107	0.904942
812.079716	0.905458
812.399281	0.908823
812.718801	0.910451
813.038276	0.910244
813.357707	0.910583
813.677093	0.908467
813.996434	0.910810
814.315731	0.913165
814.634983	0.913679
814.954191	0.912858
815.273354	0.907514
815.592473	0.905609
815.911547	0.905095
816.230577	0.902345
816.549562	0.899716
816.868502	0.898496
817.187399	0.897038
817.506250	0.890862
817.825058	0.892495
818.143821	0.888875
818.462539	0.884252
818.781213	0.876841
819.099843	0.865481
819.418429	0.848571
819.736970	0.830788
820.055466	0.810870
820.373919	0.783877
820.692327	0.751226
821.010691	0.716169
821.329011	0.634847
821.647286	0.517461
821.965517	0.402990
822.283704	0.359334
822.601847	0.359968
822.919945	0.396166
823.237999	0.430668
823.556010	0.479630
823.873976	0.535603
824.191897	0.586841
824.509775	0.630882
824.827609	0.676568
825.145398	0.700451
825.463144	0.701857
825.780845	0.684688
826.098502	0.666198
826.416116	0.620311
826.733685	0.574678
827.051210	0.565717
827.368692	0.580848
827.686129	0.618333
828.003522	0.674712
828.320872	0.722881
828.638177	0.766805
828.955439	0.800742
829.272656	0.823347
829.589830	0.840017
829.906960	0.857051
830.224046	0.868918
830.541088	0.879134
830.858086	0.884324
831.175041	0.891468
831.491952	0.888602
831.808819	0.885388
832.125642	0.878187
832.442421	0.865126
832.759157	0.842801
833.075849	0.794500
833.392497	0.729272
833.709101	0.687773
834.025662	0.697631
834.342179	0.729598
834.658653	0.769787
834.975083	0.806676
835.291469	0.834165
835.607811	0.856383
835.924110	0.873960
836.240366	0.890696
836.556578	0.903616
836.872746	0.911734
837.188871	0.918830
837.504952	0.923773
837.820990	0.926980
838.136984	0.930857
838.452935	0.934455
838.768842	0.935352
839.084706	0.928703
839.400526	0.902700
839.716303	0.860032
840.032037	0.837864
840.347727	0.842539
840.663373	0.859771
840.978977	0.882095
841.294537	0.905451
841.610054	0.921414
841.925527	0.930605
842.240957	0.936305
842.556344	0.945786
842.871687	0.950081
843.186987	0.953127
843.502244	0.954406
843.817458	0.956815
844.132629	0.960689
844.447756	0.964452
844.762840	0.965480
845.077881	0.965862
845.392879	0.963643
845.707833	0.966885
846.022745	0.969007
846.337613	0.968715
846.652438	0.969990
846.967221	0.971758
847.281960	0.970774
847.596656	0.972722
847.911309	0.972369
848.225919	0.972099
848.540485	0.973398
848.855009	0.975077
849.169490	0.974232
849.483928	0.974700
849.798323	0.972490
850.112675	0.974770
850.426984	0.975277
850.741251	0.975223
851.055474	0.974796
851.369654	0.974927
851.683792	0.972803
851.997887	0.975451
852.311938	0.975186
852.625947	0.973903
852.939914	0.973334
853.253837	0.974946
853.567718	0.975652
853.881555	0.975629
854.195350	0.974249
854.509103	0.973660
854.822812	0.975747
855.136479	0.976349
855.450103	0.974715
855.763685	0.974769
856.077224	0.974283
856.390720	0.975736
856.704173	0.975523
857.017584	0.974607
857.330953	0.972787
857.644278	0.972614
857.957561	0.973188
858.270802	0.973544
858.584000	0.974295
858.897155	0.972041
859.210268	0.971593
859.523339	0.975325
859.836367	0.975794
860.149352	0.974969
860.462295	0.975236
860.775195	0.974736
861.088054	0.974158
861.400869	0.974980
861.713642	0.975051
862.026373	0.976653
862.339062	0.976392
862.651708	0.973672
862.964312	0.973726
863.276873	0.974648
863.589392	0.974099
863.901869	0.971026
864.214303	0.970652
864.526696	0.968231
864.839045	0.967994
865.151353	0.967658
865.463619	0.966167
865.775842	0.967418
866.088023	0.968824
866.400162	0.967687
866.712258	0.968027
867.024313	0.967185
867.336325	0.969911
867.648296	0.969096
867.960224	0.966808
868.272110	0.968127
868.583954	0.968857
868.895755	0.968836
869.207515	0.966577
869.519233	0.964159
869.830909	0.965138
870.142542	0.966243
870.454134	0.966917
870.765684	0.965172
871.077191	0.964967
871.388657	0.962229
871.700081	0.964891
872.011463	0.963833
872.322803	0.963479
872.634101	0.961035
872.945357	0.958119
873.256571	0.956620
873.567744	0.958682
873.878874	0.958974
874.189963	0.958752
874.501010	0.956845
874.812015	0.954026
875.122979	0.954220
875.433900	0.957519
875.744780	0.958362
876.055618	0.954861
876.366415	0.952819
876.677169	0.953976
876.987882	0.955701
877.298554	0.955535
877.609183	0.951137
877.919771	0.949008
878.230317	0.947299
878.540822	0.943937
878.851285	0.939059
879.161707	0.929879
879.472087	0.918357
879.782425	0.900724
880.092722	0.865401
880.402977	0.811104
880.713191	0.748256
881.023363	0.685251
881.333494	0.651046
881.643583	0.623704
881.953631	0.623958
882.263637	0.652524
882.573602	0.692526
882.883526	0.719398
883.193408	0.744243
883.503248	0.767887
883.813048	0.795505
884.122806	0.826913
884.432522	0.850482
884.742197	0.871870
885.051831	0.883154
885.361424	0.893805
885.670975	0.907221
885.980485	0.916785
886.289954	0.921937
886.599382	0.925895
886.908768	0.931661
887.218113	0.936794
887.527417	0.942827
887.836680	0.945889
888.145901	0.947680
888.455082	0.952627
888.764221	0.955962
889.073319	0.956999
889.382376	0.956877
889.691392	0.956225
890.000366	0.957738
890.309300	0.957739
890.618193	0.956815
890.927044	0.955852
891.235855	0.956559
891.544625	0.956663
891.853353	0.956268
892.162041	0.953756
892.470687	0.947217
892.779293	0.941721
893.087858	0.937283
893.396381	0.927450
893.704864	0.914465
894.013306	0.891184
894.321707	0.862416
894.630068	0.848102
894.938387	0.840651
895.246665	0.844703
895.554903	0.856256
895.863100	0.871050
896.171256	0.889050
896.479371	0.908314
896.787446	0.920543
897.095480	0.928670
897.403473	0.931239
897.711425	0.936210
898.019336	0.944317
898.327207	0.948226
898.635038	0.947832
898.942827	0.949965
899.250576	0.952609
899.558284	0.957253
899.865952	0.958331
900.173579	0.959546
900.481165	0.959929
900.788711	0.962838
901.096216	0.965729
901.403681	0.966499
901.711105	0.965862
902.018489	0.967390
902.325832	0.966734
902.633135	0.965278
902.940397	0.960465
903.247619	0.946281
903.554800	0.920782
903.861941	0.879691
904.169041	0.840825
904.476101	0.823793
904.783121	0.823944
905.090100	0.841797
905.397039	0.863631
905.703938	0.886353
906.010796	0.906063
906.317614	0.924641
906.624391	0.938062
906.931129	0.947644
907.237826	0.956864
907.544483	0.962569
907.851099	0.967913
908.157675	0.970783
908.464211	0.974460
908.770707	0.976500
909.077163	0.980114
909.383578	0.980303
909.689954	0.979803
909.996289	0.982012
910.302584	0.981745
910.608839	0.985198
910.915054	0.984676
911.221229	0.983050
911.527363	0.981718
911.833458	0.982388
912.139513	0.982338
912.445527	0.981689
912.751502	0.978807
913.057436	0.978022
913.363331	0.974541
913.669186	0.972022
913.975000	0.964874
914.280775	0.959631
914.586510	0.951196
914.892205	0.937836
915.197859	0.913598
915.503475	0.887821
915.809050	0.866550
916.114585	0.860133
916.420081	0.857231
916.725536	0.854667
917.030952	0.862616
917.336328	0.876223
917.641665	0.892304
917.946961	0.908392
918.252218	0.919482
918.557435	0.929386
918.862612	0.937657
919.167750	0.945452
919.472848	0.951380
919.777906	0.957332
920.082925	0.961937
920.387904	0.965831
920.692843	0.966912
920.997743	0.967453
921.302603	0.971912
921.607423	0.973262
921.912204	0.976810
922.216946	0.978324
922.521647	0.978270
922.826310	0.978893
923.130932	0.983084
923.435516	0.984533
923.740059	0.984255
924.044564	0.983829
924.349028	0.984517
924.653454	0.988656
924.957840	0.987727
925.262186	0.989365
925.566493	0.989910
925.870761	0.990450
926.174989	0.991707
926.479178	0.993419
926.783328	0.992432
927.087438	0.993751
927.391509	0.993047
927.695541	0.993565
927.999533	0.995924
928.303486	0.994074
928.607400	0.996079
928.911275	0.996495
929.215110	0.996753
929.518906	0.996811
929.822663	0.996836
930.126381	0.996219
930.430060	0.995584
930.733699	0.994821
931.037299	0.995868
931.340861	0.995897
931.644383	0.994041
931.947866	0.996075
932.251309	0.995140
932.554714	0.996205
932.858080	0.996474
933.161407	0.995629
933.464694	0.996583
933.767943	0.995383
934.071153	0.997034
934.374323	0.997111
934.677455	0.996920
934.980548	0.996556
935.283602	0.997603
935.586617	0.996639
935.889593	0.997639
936.192530	0.997031
936.495428	0.996084
936.798287	0.994618
937.101108	0.995360
937.403890	0.994367
937.706632	0.994514
938.009336	0.993190
938.312002	0.990534
938.614628	0.989641
938.917216	0.987434
939.219765	0.987249
939.522275	0.989317
939.824747	0.988249
940.127179	0.989253
940.429573	0.990748
940.731929	0.989420
941.034246	0.989826
941.336524	0.989633
941.638763	0.990640
941.940964	0.991680
942.243126	0.991087
942.545250	0.992792
942.847335	0.992521
943.149381	0.993641
943.451389	0.994052
943.753359	0.994141
944.055290	0.996750
944.357182	0.994651
944.659036	0.996307
944.960851	0.995637
945.262628	0.995809
945.564367	0.995233
945.866067	0.995835
946.167729	0.994918
946.469352	0.995786
946.770937	0.993796
947.072484	0.996456
947.373992	0.997104
947.675462	0.996305
947.976893	0.995196
948.278286	0.998814
948.579641	0.997572
948.880958	0.997171
949.182236	0.997072
949.483476	0.997718
949.784678	0.998250
950.085841	0.996056
950.386967	0.996780
950.688054	0.996189
950.989103	0.994820
951.290114	0.994878
951.591087	0.995172
951.892021	0.995085
952.192917	0.995010
952.493776	0.994369
952.794596	0.993811
953.095378	0.993105
953.396122	0.992950
953.696828	0.994372
953.997496	0.994911
954.298126	0.996954
954.598718	0.994233
954.899272	0.995315
955.199788	0.996395
955.500266	0.997699
955.800706	0.997638
956.101108	0.998447
956.401472	1.000507
956.701798	0.997699
957.002087	0.999578
957.302337	0.998381
957.602550	1.001110
957.902724	1.000530
958.202861	1.000515
958.502960	1.000651
958.803022	1.001684
959.103045	1.001064
959.403031	1.003146
959.702979	1.002180
960.002889	1.002335
960.302762	1.002094
960.602596	1.002401
960.902393	1.002728
961.202153	1.002739
961.501875	1.002070
961.801559	1.003259
962.101205	1.001566
962.400814	1.003562
962.700385	1.002158
962.999918	1.003723
963.299414	1.002610
963.598873	1.003170
963.898293	1.003188
964.197677	1.002096
964.497022	1.003430
964.796331	1.002967
965.095601	1.003591
965.394835	1.003402
965.694030	1.002835
965.993189	1.002197
966.292309	1.003589
966.591393	1.001541
966.890439	1.003212
967.189447	1.002812
967.488419	1.004088
967.787353	1.002617
968.086249	1.002713
968.385108	1.002834
968.683930	1.004539
968.982714	1.002385
969.281462	1.002184
969.580172	1.001294
969.878844	1.002956
970.177480	1.003265
970.476078	1.003943
970.774639	1.003042
971.073162	1.002063
971.371649	1.002726
971.670098	1.002015
971.968510	1.002375
972.266885	1.001464
972.565223	1.003158
972.863524	1.001895
973.161788	1.001888
973.460014	1.003741
973.758204	1.001825
974.056356	1.001915
974.354471	1.002194
974.652550	1.003256
974.950591	1.001781
975.248595	1.001992
975.546563	1.003924
975.844493	1.002702
976.142386	1.001654
976.440243	1.003203
976.738062	1.002787
977.035845	1.002314
977.333590	1.005184
977.631299	1.003074
977.928971	1.002923
978.226606	1.003700
978.524204	1.003715
978.821765	1.003129
979.119290	1.005018
979.416777	1.002806
979.714228	1.002476
980.011642	1.004142
980.309020	1.002615
980.606360	1.003029
980.903664	1.002190
981.200931	1.001863
981.498162	1.001554
981.795356	1.002145
982.092513	1.001678
982.389633	1.000914
982.686717	0.997721
982.983764	0.997184
983.280775	0.996342
983.577749	0.997055
983.874686	0.996522
984.171587	0.998023
984.468451	0.998656
984.765279	1.000365
985.062070	1.001142
985.358824	1.000485
985.655543	1.002824
985.952224	1.002913
986.248869	1.003223
986.545478	1.004360
986.842050	1.001549
987.138586	1.002498
987.435086	1.002855
987.731549	1.005101
988.027975	1.004470
988.324366	1.004914
988.620719	1.005619
988.917037	1.004870
989.213318	1.004362
989.509563	1.005474
989.805772	1.004705
990.101944	1.005918
990.398080	1.004111
990.694180	1.004309
990.990244	1.003331
991.286271	1.004300
991.582262	1.004338
991.878217	1.004068
992.174136	1.004897
992.470019	1.005044
992.765865	1.006043
993.061676	1.004521
993.357450	1.004128
993.653188	1.004575
993.948890	1.004491
994.244556	1.003619
994.540186	1.004607
994.835780	1.003213
995.131337	1.005380
995.426859	1.002238
995.722345	1.003605
996.017795	1.002317
996.313208	1.002916
996.608586	1.002704
996.903928	1.003676
997.199234	1.001919
997.494504	1.003553
997.789738	1.001562
998.084936	1.003658
998.380099	1.002161
998.675225	1.003761
998.970316	1.003912
999.265371	1.003380
999.560390	1.003686
999.855373	1.004223
1000.150320	1.005350
1000.445232	1.004888
1000.740108	1.004525
1001.034948	1.004612
1001.329752	1.004790
1001.624521	1.005374
1001.919254	1.004662
1002.213951	1.004448
1002.508613	1.004145
1002.803239	1.005202
1003.097829	1.004897
1003.392384	1.004401
1003.686903	1.005450
1003.981386	1.004965
1004.275834	1.005581
1004.570246	1.003682
1004.864623	1.004980
1005.158964	1.005092
1005.453270	1.004857
1005.747540	1.003456
1006.041775	1.006026
1006.335974	1.006117
1006.630138	1.005634
1006.924266	1.003636
1007.218359	1.003297
1007.512416	1.006238
1007.806438	1.005337
1008.100425	1.004641
1008.394376	1.005524
1008.688292	1.004512
1008.982172	1.003741
1009.276017	1.005622
1009.569827	1.005962
1009.863602	1.004389
1010.157341	1.006766
1010.451045	1.004750
1010.744714	1.005977
1011.038347	1.006392
1011.331945	1.003784
1011.625508	1.004347
1011.919036	1.005408
1012.212528	1.004870
1012.505986	1.005139
1012.799408	1.004885
1013.092795	1.005661
1013.386147	1.004161
1013.679464	1.006158
1013.972745	1.005054
1014.265992	1.004395
1014.559204	1.004672
1014.852380	1.006030
1015.145521	1.004831
1015.438628	1.004907
1015.731699	1.004976
1016.024736	1.006970
1016.317737	1.004573
1016.610703	1.005376
1016.903635	1.005764
1017.196531	1.005327
1017.489393	1.005055
1017.782219	1.005311
1018.075011	1.004581
1018.367768	1.004572
1018.660490	1.005024
1018.953177	1.005024
1019.245829	1.005024
