Dividing Wavelength (nm)	Counts (n)	Blue Motor Position (mm): 8.200000	Red Motor Position (mm): 0.000000	
326.493990	1.004457
326.888308	1.004457
327.282561	1.004457
327.676750	1.006346
328.070874	1.006282
328.464933	1.006121
328.858929	1.007024
329.252859	1.005121
329.646726	1.003250
330.040528	1.004167
330.434265	1.004395
330.827938	1.004089
331.221547	1.005916
331.615091	1.005544
332.008571	1.006640
332.401986	1.003994
332.795338	1.004756
333.188625	1.006367
333.581847	1.005318
333.975006	1.005174
334.368100	1.005033
334.761129	1.004509
335.154095	1.005200
335.546996	1.002717
335.939833	0.998165
336.332606	0.998873
336.725315	0.997947
337.117960	0.998084
337.510540	0.997826
337.903056	0.999109
338.295508	0.999973
338.687896	0.999225
339.080220	0.999645
339.472480	0.998695
339.864676	0.999717
340.256807	0.997616
340.648875	0.999173
341.040879	0.998410
341.432818	0.999161
341.824694	0.997427
342.216506	0.999207
342.608253	0.997688
342.999937	0.997504
343.391557	0.998591
343.783113	1.000945
344.174605	0.999720
344.566033	0.998148
344.957397	1.000115
345.348697	0.998946
345.739934	0.999221
346.131106	0.997777
346.522215	0.997533
346.913260	0.998400
347.304241	0.998000
347.695159	0.998535
348.086012	0.997927
348.476802	0.998916
348.867528	0.996281
349.258191	1.000098
349.648789	0.997069
350.039324	0.997910
350.429796	0.998723
350.820203	0.998248
351.210548	0.997676
351.600828	0.998702
351.991045	0.997785
352.381198	0.998228
352.771288	0.997968
353.161314	0.998836
353.551276	0.996963
353.941175	0.996986
354.331010	0.998028
354.720782	0.998503
355.110490	0.997217
355.500135	0.997588
355.889717	0.996910
356.279235	0.997226
356.668689	0.997542
357.058080	0.997586
357.447408	0.997004
357.836672	0.997483
358.225873	0.997272
358.615010	0.996427
359.004084	0.997545
359.393095	0.997690
359.782043	0.996606
360.170927	0.997349
360.559748	0.997498
360.948505	0.996345
361.337199	0.995231
361.725830	0.997900
362.114398	0.997524
362.502903	0.996677
362.891344	0.995509
363.279722	0.997500
363.668037	0.997335
364.056289	0.996119
364.444478	0.997247
364.832603	0.995427
365.220665	0.997235
365.608665	0.996634
365.996601	0.995929
366.384474	0.995156
366.772284	0.995967
367.160031	0.994795
367.547715	0.995130
367.935336	0.993311
368.322893	0.993620
368.710388	0.992104
369.097820	0.990399
369.485189	0.988997
369.872495	0.986436
370.259738	0.984818
370.646918	0.981545
371.034035	0.979634
371.421090	0.975516
371.808081	0.971635
372.195010	0.969389
372.581875	0.963315
372.968678	0.958382
373.355418	0.955202
373.742096	0.947724
374.128710	0.942614
374.515262	0.939346
374.901751	0.933527
375.288177	0.928081
375.674540	0.921985
376.060841	0.915069
376.447079	0.908797
376.833254	0.901812
377.219367	0.897100
377.605417	0.885659
377.991404	0.881880
378.377329	0.875938
378.763191	0.869854
379.148991	0.860361
379.534727	0.854084
379.920402	0.845633
380.306013	0.842155
380.691563	0.828632
381.077049	0.822017
381.462474	0.818535
381.847835	0.806097
382.233134	0.801577
382.618371	0.802157
383.003545	0.784904
383.388657	0.782992
383.773706	0.775186
384.158693	0.771493
384.543618	0.765715
384.928480	0.756878
385.313280	0.746607
385.698017	0.747364
386.082692	0.735198
386.467305	0.733230
386.851856	0.728326
387.236344	0.722534
387.620770	0.717400
388.005133	0.711437
388.389435	0.705820
388.773674	0.703373
389.157851	0.695471
389.541965	0.692001
389.926018	0.699422
390.310008	0.684786
390.693936	0.683369
391.077802	0.674783
391.461606	0.676832
391.845348	0.665657
392.229027	0.665073
392.612645	0.664000
392.996200	0.650705
393.379694	0.643880
393.763125	0.633877
394.146494	0.639196
394.529801	0.629812
394.913047	0.621350
395.296230	0.627558
395.679351	0.618637
396.062410	0.615297
396.445408	0.617716
396.828343	0.613373
397.211217	0.608259
397.594028	0.620578
397.976778	0.610983
398.359466	0.607478
398.742092	0.603365
399.124656	0.614548
399.507158	0.603181
399.889598	0.600604
400.271977	0.591385
400.654294	0.595732
401.036549	0.594928
401.418742	0.598190
401.800874	0.583888
402.182944	0.581883
402.564952	0.572685
402.946898	0.574622
403.328783	0.575680
403.710606	0.586609
404.092367	0.561651
404.474067	0.566790
404.855705	0.565760
405.237282	0.574588
405.618797	0.560706
406.000250	0.556066
406.381642	0.546395
406.762972	0.551371
407.144240	0.550236
407.525447	0.549882
407.906593	0.543796
408.287677	0.538353
408.668700	0.546312
409.049661	0.541030
409.430560	0.535463
409.811399	0.544160
410.192176	0.525303
410.572891	0.533891
410.953545	0.521754
411.334138	0.535338
411.714669	0.527366
412.095139	0.539456
412.475547	0.523701
412.855894	0.524995
413.236180	0.524664
413.616405	0.530604
413.996568	0.520564
414.376670	0.526534
414.756711	0.531097
415.136691	0.528102
415.516609	0.519516
415.896466	0.516129
416.276262	0.512196
416.655997	0.514082
417.035670	0.494906
417.415283	0.486719
417.794834	0.491893
418.174324	0.497407
418.553753	0.506087
418.933121	0.488812
419.312428	0.482707
419.691674	0.488730
420.070859	0.476200
420.449983	0.484563
420.829045	0.473226
421.208047	0.482542
421.586988	0.475614
421.965867	0.474614
422.344686	0.463232
422.723444	0.475858
423.102141	0.493248
423.480777	0.465557
423.859352	0.486419
424.237866	0.463776
424.616319	0.464328
424.994712	0.454985
425.373044	0.466039
425.751314	0.453787
426.129524	0.470474
426.507673	0.453503
426.885762	0.447411
427.263789	0.452708
427.641756	0.462044
428.019662	0.452698
428.397508	0.451850
428.775292	0.456411
429.153016	0.447887
429.530679	0.454587
429.908282	0.447732
430.285824	0.457785
430.663305	0.435990
431.040726	0.457202
431.418086	0.456765
431.795385	0.448686
432.172624	0.448202
432.549802	0.448412
432.926920	0.447212
433.303977	0.446795
433.680974	0.443534
434.057910	0.442100
434.434786	0.441388
434.811601	0.444492
435.188355	0.426308
435.565050	0.436239
435.941683	0.437421
436.318257	0.420864
436.694770	0.422169
437.071222	0.420040
437.447614	0.424775
437.823946	0.431488
438.200218	0.420226
438.576429	0.430020
438.952580	0.423372
439.328670	0.419783
439.704700	0.426280
440.080670	0.428360
440.456580	0.408815
440.832429	0.417052
441.208218	0.427879
441.583947	0.416615
441.959616	0.416609
442.335224	0.421890
442.710773	0.412918
443.086261	0.410827
443.461689	0.424052
443.837057	0.413996
444.212365	0.404410
444.587612	0.411480
444.962800	0.401501
445.337927	0.402954
445.712995	0.429121
446.088002	0.390780
446.462949	0.401690
446.837837	0.406246
447.212664	0.394603
447.587431	0.385966
447.962139	0.356657
448.336786	0.315909
448.711374	0.326261
449.085901	0.370731
449.460369	0.374614
449.834776	0.378656
450.209124	0.357661
450.583412	0.350411
450.957640	0.343313
451.331808	0.354697
451.705917	0.378263
452.079965	0.382680
452.453954	0.371030
452.827883	0.377815
453.201752	0.372098
453.575562	0.383762
453.949311	0.372083
454.323001	0.378571
454.696632	0.374611
455.070202	0.367197
455.443713	0.359055
455.817164	0.353835
456.190556	0.349155
456.563888	0.346117
456.937160	0.343815
457.310373	0.360811
457.683526	0.359712
458.056619	0.365794
458.429653	0.366235
458.802628	0.369678
459.175542	0.364051
459.548398	0.346549
459.921194	0.339411
460.293930	0.339209
460.666607	0.316578
461.039224	0.304866
461.411782	0.300228
461.784280	0.299774
462.156719	0.304154
462.529099	0.308167
462.901419	0.323985
463.273680	0.328568
463.645882	0.328191
464.018024	0.334036
464.390106	0.327097
464.762130	0.311581
465.134094	0.294289
465.505999	0.263242
465.877845	0.233789
466.249631	0.220310
466.621358	0.228319
466.993026	0.241906
467.364634	0.248201
467.736184	0.256885
468.107674	0.265808
468.479105	0.264901
468.850477	0.271729
469.221790	0.278436
469.593043	0.288975
469.964238	0.293267
470.335373	0.292696
470.706449	0.291196
471.077467	0.291691
471.448425	0.253827
471.819324	0.229114
472.190164	0.228715
472.560945	0.257752
472.931667	0.279740
473.302330	0.284452
473.672934	0.295984
474.043479	0.284199
474.413965	0.285783
474.784393	0.289265
475.154761	0.284506
475.525070	0.281400
475.895321	0.287268
476.265513	0.281653
476.635645	0.277019
477.005719	0.276570
477.375734	0.273308
477.745691	0.266449
478.115588	0.262669
478.485427	0.256358
478.855207	0.243195
479.224928	0.225482
479.594591	0.213806
479.964194	0.217113
480.333739	0.218369
480.703226	0.219636
481.072653	0.218080
481.442022	0.213972
481.811333	0.210556
482.180584	0.214192
482.549777	0.219352
482.918912	0.222780
483.287988	0.222342
483.657005	0.222007
484.025964	0.228413
484.394864	0.225590
484.763706	0.226435
485.132489	0.231378
485.501213	0.232373
485.869879	0.230626
486.238487	0.233442
486.607036	0.231827
486.975527	0.236419
487.343959	0.232093
487.712333	0.231320
488.080648	0.232593
488.448905	0.232069
488.817104	0.232951
489.185244	0.227629
489.553326	0.224544
489.921350	0.214234
490.289315	0.196738
490.657222	0.191282
491.025070	0.192898
491.392861	0.194979
491.760593	0.200695
492.128267	0.206459
492.495883	0.212038
492.863440	0.218270
493.230939	0.224745
493.598380	0.225871
493.965763	0.228119
494.333088	0.230400
494.700354	0.231988
495.067563	0.230908
495.434713	0.234292
495.801805	0.231963
496.168839	0.233653
496.535815	0.234927
496.902733	0.234803
497.269593	0.236469
497.636395	0.234136
498.003139	0.234467
498.369825	0.237570
498.736453	0.234244
499.103023	0.235691
499.469535	0.235105
499.835989	0.235103
500.202385	0.236197
500.568723	0.239155
500.935003	0.234748
501.301226	0.238751
501.667390	0.232865
502.033497	0.231219
502.399546	0.233821
502.765537	0.235745
503.131470	0.234291
503.497345	0.230777
503.863163	0.239275
504.228923	0.232276
504.594625	0.231006
504.960269	0.236505
505.325856	0.231851
505.691385	0.236163
506.056856	0.232816
506.422270	0.232263
506.787625	0.234768
507.152924	0.232295
507.518164	0.232479
507.883347	0.234253
508.248472	0.235836
508.613540	0.230921
508.978550	0.233465
509.343503	0.233832
509.708398	0.231926
510.073236	0.229105
510.438016	0.228992
510.802738	0.230053
511.167403	0.229020
511.532010	0.231177
511.896561	0.226582
512.261053	0.224984
512.625488	0.227352
512.989866	0.227580
513.354186	0.227932
513.718449	0.229801
514.082655	0.226175
514.446803	0.228289
514.810894	0.226168
515.174927	0.228833
515.538904	0.228468
515.902822	0.224983
516.266684	0.227478
516.630488	0.228690
516.994235	0.227475
517.357925	0.226349
517.721558	0.224485
518.085133	0.223694
518.448651	0.224070
518.812112	0.226512
519.175516	0.225843
519.538863	0.223542
519.902152	0.225391
520.265385	0.222124
520.628560	0.223819
520.991678	0.224165
521.354739	0.223169
521.717743	0.224306
522.080690	0.224908
522.443580	0.222146
522.806413	0.222825
523.169189	0.222648
523.531908	0.221176
523.894569	0.224638
524.257174	0.224892
524.619722	0.222304
524.982213	0.223580
525.344647	0.222472
525.707025	0.223294
526.069345	0.221636
526.431608	0.223433
526.793815	0.220890
527.155964	0.225293
527.518057	0.224277
527.880093	0.225129
528.242072	0.223815
528.603995	0.225633
528.965860	0.227501
529.327669	0.226361
529.689421	0.227189
530.051117	0.228171
530.412755	0.225731
530.774337	0.228048
531.135862	0.228565
531.497331	0.227922
531.858743	0.230743
532.220098	0.227370
532.581396	0.229709
532.942638	0.230420
533.303824	0.231520
533.664953	0.231186
534.026025	0.232698
534.387040	0.230996
534.747999	0.230461
535.108902	0.229695
535.469748	0.234759
535.830537	0.232600
536.191270	0.232953
536.551947	0.232368
536.912567	0.232491
537.273131	0.234000
537.633638	0.234486
537.994089	0.234956
538.354483	0.235902
538.714821	0.232945
539.075103	0.232617
539.435328	0.233462
539.795497	0.237278
540.155609	0.233780
540.515665	0.232210
540.875665	0.237728
541.235609	0.236118
541.595496	0.236297
541.955328	0.233075
542.315102	0.235609
542.674821	0.236683
543.034483	0.236701
543.394090	0.236643
543.753640	0.238236
544.113134	0.233295
544.472571	0.236558
544.831953	0.233524
545.191278	0.237587
545.550548	0.236977
545.909761	0.233854
546.268918	0.234776
546.628019	0.233200
546.987064	0.235517
547.346053	0.237568
547.704986	0.235021
548.063863	0.235479
548.422684	0.235797
548.781449	0.238013
549.140158	0.235408
549.498811	0.237914
549.857408	0.241154
550.215949	0.235888
550.574434	0.238739
550.932864	0.237015
551.291237	0.235594
551.649555	0.237085
552.007817	0.236751
552.366022	0.237761
552.724173	0.237843
553.082267	0.237970
553.440305	0.235186
553.798288	0.239491
554.156215	0.236291
554.514086	0.236836
554.871902	0.240090
555.229661	0.239144
555.587365	0.239724
555.945014	0.242113
556.302606	0.239357
556.660143	0.242004
557.017625	0.238572
557.375050	0.240455
557.732421	0.237635
558.089735	0.239287
558.446994	0.239599
558.804197	0.239035
559.161345	0.238536
559.518437	0.242327
559.875474	0.240110
560.232455	0.239461
560.589381	0.240425
560.946251	0.240753
561.303065	0.238239
561.659825	0.239552
562.016528	0.241353
562.373177	0.244039
562.729770	0.241150
563.086307	0.243424
563.442789	0.241277
563.799216	0.243992
564.155587	0.242581
564.511904	0.244017
564.868164	0.243830
565.224370	0.243730
565.580520	0.245537
565.936615	0.245489
566.292654	0.248635
566.648638	0.245409
567.004567	0.246457
567.360441	0.246734
567.716260	0.248765
568.072023	0.246219
568.427732	0.247518
568.783385	0.249454
569.138982	0.247930
569.494525	0.247811
569.850013	0.250415
570.205445	0.249123
570.560823	0.251259
570.916145	0.253346
571.271412	0.251680
571.626625	0.253270
571.981782	0.253633
572.336884	0.254210
572.691931	0.253985
573.046923	0.255642
573.401860	0.256666
573.756743	0.258456
574.111570	0.257245
574.466342	0.258043
574.821059	0.256823
575.175722	0.259841
575.530330	0.259567
575.884882	0.259658
576.239380	0.261762
576.593823	0.262454
576.948211	0.261719
577.302544	0.265002
577.656823	0.264715
578.011047	0.264699
578.365216	0.265386
578.719330	0.267437
579.073389	0.266928
579.427394	0.268190
579.781344	0.269080
580.135239	0.270468
580.489080	0.270451
580.842866	0.273212
581.196597	0.273548
581.550273	0.271884
581.903895	0.272907
582.257463	0.271256
582.610975	0.274433
582.964434	0.273858
583.317837	0.276048
583.671186	0.276440
584.024481	0.276613
584.377721	0.279383
584.730906	0.279701
585.084037	0.278993
585.437113	0.280893
585.790135	0.280241
586.143103	0.283530
586.496016	0.284063
586.848874	0.282199
587.201679	0.282337
587.554428	0.285897
587.907124	0.284530
588.259765	0.285226
588.612352	0.285779
588.964884	0.289763
589.317362	0.289167
589.669786	0.288944
590.022155	0.287687
590.374470	0.286871
590.726731	0.288793
591.078937	0.293946
591.431090	0.290166
591.783188	0.294464
592.135232	0.294955
592.487222	0.294788
592.839157	0.292849
593.191038	0.294785
593.542866	0.297050
593.894639	0.300119
594.246358	0.298412
594.598022	0.298277
594.949633	0.301933
595.301190	0.302586
595.652692	0.301629
596.004141	0.297653
596.355535	0.305490
596.706876	0.306685
597.058162	0.308816
597.409395	0.305625
597.760573	0.303735
598.111698	0.306885
598.462768	0.307421
598.813785	0.308944
599.164748	0.310200
599.515657	0.310243
599.866511	0.314038
600.217312	0.309125
600.568060	0.314499
600.918753	0.311070
601.269392	0.311506
601.619978	0.315178
601.970510	0.312460
602.320988	0.312637
602.671412	0.310603
603.021783	0.312876
603.372100	0.314073
603.722363	0.313877
604.072572	0.314994
604.422728	0.314594
604.772830	0.316662
605.122878	0.316559
605.472872	0.316903
605.822813	0.315334
606.172701	0.318564
606.522534	0.315407
606.872314	0.315373
607.222041	0.316276
607.571714	0.314231
607.921333	0.315980
608.270899	0.315482
608.620411	0.312348
608.969870	0.316203
609.319276	0.316532
609.668627	0.316199
610.017926	0.315048
610.367171	0.313350
610.716362	0.314104
611.065500	0.314227
611.414585	0.312996
611.763616	0.313526
612.112594	0.314351
612.461518	0.313359
612.810389	0.311367
613.159207	0.313279
613.507971	0.315495
613.856682	0.311071
614.205340	0.312078
614.553945	0.309625
614.902496	0.313073
615.250994	0.311528
615.599439	0.312060
615.947830	0.311282
616.296169	0.312009
616.644454	0.311993
616.992686	0.311989
617.340864	0.309846
617.688990	0.313338
618.037063	0.309830
618.385082	0.312033
618.733048	0.308555
619.080961	0.311065
619.428821	0.310357
619.776628	0.310413
620.124382	0.312248
620.472083	0.312959
620.819731	0.312103
621.167326	0.316075
621.514868	0.315754
621.862357	0.319627
622.209793	0.319082
622.557176	0.322021
622.904506	0.322938
623.251783	0.325033
623.599007	0.327653
623.946179	0.327200
624.293297	0.329464
624.640363	0.333119
624.987376	0.333266
625.334336	0.335927
625.681243	0.338239
626.028097	0.338738
626.374899	0.339885
626.721647	0.340479
627.068343	0.343423
627.414987	0.344794
627.761577	0.346404
628.108115	0.344796
628.454600	0.350384
628.801032	0.347757
629.147412	0.349724
629.493739	0.350227
629.840014	0.353064
630.186236	0.350458
630.532405	0.355702
630.878521	0.353738
631.224585	0.355836
631.570597	0.359086
631.916556	0.357739
632.262462	0.357406
632.608316	0.360064
632.954117	0.360777
633.299866	0.361877
633.645562	0.361882
633.991206	0.366555
634.336797	0.369120
634.682336	0.372088
635.027823	0.373650
635.373257	0.373668
635.718639	0.377640
636.063968	0.376571
636.409245	0.382535
636.754470	0.383240
637.099642	0.385667
637.444762	0.389216
637.789829	0.388126
638.134845	0.391404
638.479808	0.392757
638.824719	0.392484
639.169577	0.397021
639.514383	0.395364
639.859137	0.399695
640.203839	0.398957
640.548489	0.399546
640.893086	0.400991
641.237632	0.403096
641.582125	0.401742
641.926566	0.403508
642.270955	0.403370
642.615292	0.403516
642.959576	0.402735
643.303809	0.403895
643.647990	0.403138
643.992118	0.403365
644.336195	0.406945
644.680219	0.405447
645.024192	0.406023
645.368112	0.399759
645.711981	0.398763
646.055797	0.393427
646.399562	0.396129
646.743274	0.389266
647.086935	0.386244
647.430544	0.386286
647.774101	0.384963
648.117606	0.385008
648.461059	0.386036
648.804460	0.387540
649.147810	0.392928
649.491108	0.394812
649.834354	0.396195
650.177548	0.401695
650.520690	0.406985
650.863781	0.408061
651.206820	0.407514
651.549807	0.412461
651.892742	0.416503
652.235626	0.416387
652.578458	0.417189
652.921238	0.423879
653.263967	0.420858
653.606644	0.424701
653.949269	0.425171
654.291843	0.428525
654.634365	0.425697
654.976836	0.427952
655.319255	0.429420
655.661622	0.430728
656.003938	0.430866
656.346203	0.433954
656.688416	0.431863
657.030577	0.434563
657.372687	0.437168
657.714746	0.437801
658.056753	0.434769
658.398708	0.438398
658.740612	0.440233
659.082465	0.436452
659.424266	0.436607
659.766016	0.436542
660.107715	0.439777
660.449362	0.438307
660.790958	0.439198
661.132503	0.440225
661.473996	0.437691
661.815438	0.438457
662.156829	0.439397
662.498168	0.439745
662.839456	0.441056
663.180693	0.439101
663.521879	0.438726
663.863013	0.439651
664.204097	0.438244
664.545129	0.435236
664.886110	0.436257
665.227040	0.433536
665.567918	0.436308
665.908746	0.434069
666.249522	0.434270
666.590248	0.435632
666.930922	0.433529
667.271545	0.432570
667.612118	0.432922
667.952639	0.434539
668.293109	0.433329
668.633528	0.436185
668.973896	0.436016
669.314213	0.436659
669.654480	0.438694
669.994695	0.438803
670.334859	0.439486
670.674973	0.440321
671.015035	0.440220
671.355047	0.440941
671.695008	0.441717
672.034918	0.443524
672.374777	0.443489
672.714585	0.444678
673.054342	0.444731
673.394049	0.444873
673.733705	0.443250
674.073310	0.444672
674.412864	0.447409
674.752368	0.448606
675.091820	0.448698
675.431223	0.453118
675.770574	0.453514
676.109875	0.456762
676.449125	0.456394
676.788324	0.458897
677.127473	0.464043
677.466571	0.464197
677.805619	0.466725
678.144616	0.467737
678.483562	0.469830
678.822458	0.471851
679.161303	0.473121
679.500098	0.474198
679.838842	0.475806
680.177535	0.475383
680.516179	0.474143
680.854771	0.473749
681.193314	0.467224
681.531805	0.458837
681.870247	0.449028
682.208638	0.441937
682.546978	0.440762
682.885268	0.442656
683.223508	0.449418
683.561697	0.453216
683.899836	0.455376
684.237925	0.459302
684.575963	0.462534
684.913951	0.465662
685.251889	0.462049
685.589776	0.464240
685.927614	0.466117
686.265401	0.462457
686.603137	0.463534
686.940824	0.459019
687.278460	0.457773
687.616046	0.456975
687.953582	0.452963
688.291068	0.454267
688.628504	0.451280
688.965889	0.453359
689.303224	0.457489
689.640510	0.461508
689.977745	0.467197
690.314930	0.474909
690.652065	0.479730
690.989150	0.486545
691.326185	0.493798
691.663170	0.497962
692.000105	0.505012
692.336990	0.511875
692.673825	0.515019
693.010610	0.521368
693.347345	0.526313
693.684030	0.529436
694.020665	0.534265
694.357251	0.541839
694.693786	0.542285
695.030272	0.545410
695.366707	0.549957
695.703093	0.553385
696.039429	0.551499
696.375716	0.554492
696.711952	0.556891
697.048139	0.558425
697.384276	0.561036
697.720363	0.560559
698.056400	0.559618
698.392388	0.565289
698.728326	0.568339
699.064214	0.570100
699.400053	0.570973
699.735842	0.576776
700.071581	0.577875
700.407270	0.581442
700.742910	0.584824
701.078501	0.590354
701.414042	0.591672
701.749533	0.594571
702.084974	0.602803
702.420366	0.597130
702.755709	0.604206
703.091002	0.611438
703.426246	0.606260
703.761440	0.609962
704.096584	0.614616
704.431679	0.613565
704.766725	0.616527
705.101721	0.618457
705.436668	0.614877
705.771565	0.620436
706.106413	0.616618
706.441212	0.614472
706.775961	0.614814
707.110661	0.616161
707.445311	0.613206
707.779913	0.612746
708.114465	0.610977
708.448967	0.607671
708.783421	0.601747
709.117825	0.597172
709.452180	0.596676
709.786485	0.591384
710.120742	0.582473
710.454949	0.584121
710.789107	0.577033
711.123216	0.569804
711.457275	0.570747
711.791286	0.565003
712.125247	0.565401
712.459159	0.572604
712.793023	0.564914
713.126837	0.573264
713.460602	0.573374
713.794318	0.579726
714.127985	0.580152
714.461602	0.590324
714.795171	0.591374
715.128691	0.600133
715.462162	0.607574
715.795584	0.613751
716.128957	0.616823
716.462281	0.620835
716.795556	0.624615
717.128782	0.631733
717.461960	0.639932
717.795088	0.639425
718.128167	0.645364
718.461198	0.651396
718.794180	0.652392
719.127113	0.656588
719.459997	0.660597
719.792833	0.665459
720.125619	0.665933
720.458357	0.672491
720.791046	0.673438
721.123686	0.676142
721.456278	0.682502
721.788821	0.680948
722.121315	0.685067
722.453761	0.688023
722.786158	0.687380
723.118506	0.685105
723.450805	0.690073
723.783056	0.687919
724.115259	0.687611
724.447412	0.687647
724.779518	0.687515
725.111574	0.687387
725.443582	0.683901
725.775542	0.686538
726.107453	0.680181
726.439315	0.681512
726.771129	0.678365
727.102895	0.672924
727.434612	0.668862
727.766281	0.667338
728.097901	0.665240
728.429473	0.666022
728.760996	0.665197
729.092471	0.665024
729.423897	0.669130
729.755276	0.670153
730.086606	0.668775
730.417887	0.663612
730.749120	0.656633
731.080305	0.651010
731.411442	0.646383
731.742530	0.648939
732.073570	0.649136
732.404562	0.644490
732.735506	0.645593
733.066401	0.650853
733.397249	0.658106
733.728048	0.667004
734.058798	0.681260
734.389501	0.690849
734.720156	0.697481
735.050762	0.704779
735.381320	0.707508
735.711831	0.713207
736.042293	0.718642
736.372707	0.717456
736.703073	0.719940
737.033391	0.720058
737.363661	0.719378
737.693883	0.717040
738.024056	0.714967
738.354182	0.714612
738.684260	0.706852
739.014290	0.704306
739.344272	0.702887
739.674207	0.699113
740.004093	0.698582
740.333931	0.699290
740.663722	0.700164
740.993464	0.701425
741.323159	0.704184
741.652806	0.709058
741.982405	0.714100
742.311956	0.719498
742.641460	0.720771
742.970915	0.723620
743.300323	0.729014
743.629683	0.734971
743.958996	0.737878
744.288260	0.741644
744.617477	0.747245
744.946647	0.748157
745.275768	0.753971
745.604842	0.754464
745.933869	0.760342
746.262847	0.763408
746.591778	0.759494
746.920662	0.765208
747.249498	0.768722
747.578286	0.764199
747.907027	0.760067
748.235720	0.757463
748.564365	0.756846
748.892963	0.758048
749.221514	0.759716
749.550017	0.762972
749.878473	0.764143
750.206881	0.769637
750.535242	0.771183
750.863555	0.770035
751.191821	0.771666
751.520039	0.773658
751.848210	0.774880
752.176334	0.773744
752.504411	0.773848
752.832440	0.777863
753.160421	0.781821
753.488356	0.781277
753.816243	0.780509
754.144082	0.785718
754.471875	0.788480
754.799620	0.787274
755.127318	0.787222
755.454969	0.788050
755.782572	0.789879
756.110129	0.790448
756.437638	0.792722
756.765100	0.791873
757.092515	0.791636
757.419882	0.792063
757.747203	0.793901
758.074477	0.793979
758.401703	0.791423
758.728882	0.789081
759.056014	0.788626
759.383099	0.786775
759.710138	0.785636
760.037129	0.782412
760.364073	0.781763
760.690970	0.783560
761.017820	0.785726
761.344623	0.782786
761.671379	0.777989
761.998088	0.769851
762.324751	0.750656
762.651366	0.714691
762.977935	0.657980
763.304456	0.619992
763.630931	0.616782
763.957359	0.647316
764.283740	0.682139
764.610074	0.707672
764.936362	0.733458
765.262602	0.753412
765.588796	0.771774
765.914943	0.783764
766.241044	0.797766
766.567097	0.803594
766.893104	0.811090
767.219064	0.815946
767.544978	0.823146
767.870845	0.830472
768.196665	0.834695
768.522438	0.835232
768.848165	0.837049
769.173846	0.843528
769.499479	0.845801
769.825066	0.849701
770.150607	0.852450
770.476101	0.851628
770.801548	0.852848
771.126949	0.859905
771.452303	0.862321
771.777611	0.863440
772.102872	0.863557
772.428087	0.867024
772.753256	0.870115
773.078378	0.871382
773.403453	0.877939
773.728482	0.882252
774.053465	0.877962
774.378401	0.879279
774.703291	0.885303
775.028135	0.886957
775.352932	0.885883
775.677683	0.889277
776.002388	0.890108
776.327046	0.889461
776.651658	0.893786
776.976224	0.895176
777.300743	0.896074
777.625216	0.897102
777.949643	0.898052
778.274024	0.897521
778.598359	0.901156
778.922647	0.899549
779.246889	0.900951
779.571086	0.902352
779.895236	0.903911
780.219339	0.903270
780.543397	0.900266
780.867409	0.900557
781.191374	0.901355
781.515294	0.902685
781.839167	0.902315
782.162995	0.903733
782.486776	0.902661
782.810511	0.902810
783.134201	0.906947
783.457844	0.905427
783.781441	0.906037
784.104993	0.909720
784.428498	0.910409
784.751958	0.909636
785.075372	0.910801
785.398739	0.912487
785.722061	0.910068
786.045337	0.908861
786.368568	0.910854
786.691752	0.911902
787.014891	0.903332
787.337983	0.895493
787.661030	0.888760
787.984031	0.875968
788.306987	0.868620
788.629897	0.867633
788.952760	0.873214
789.275579	0.878108
789.598351	0.888467
789.921078	0.897887
790.243759	0.900753
790.566395	0.903984
790.888984	0.909873
791.211529	0.913816
791.534027	0.914982
791.856480	0.917858
792.178888	0.920255
792.501249	0.920772
792.823566	0.923409
793.145836	0.923778
793.468062	0.925809
793.790241	0.925426
794.112375	0.923719
794.434464	0.922159
794.756507	0.919412
795.078505	0.919203
795.400457	0.915257
795.722364	0.906929
796.044226	0.902776
796.366042	0.900822
796.687812	0.903225
797.009538	0.901543
797.331218	0.905710
797.652852	0.909562
797.974442	0.910225
798.295986	0.911954
798.617484	0.913660
798.938938	0.917486
799.260346	0.918904
799.581709	0.920969
799.903026	0.922748
800.224299	0.923599
800.545526	0.925918
800.866708	0.928823
801.187845	0.930447
801.508936	0.931788
801.829983	0.930041
802.150984	0.932787
802.471940	0.935562
802.792851	0.933859
803.113717	0.937136
803.434538	0.935481
803.755314	0.936625
804.076045	0.937172
804.396731	0.937388
804.717372	0.935934
805.037967	0.938567
805.358518	0.936731
805.679024	0.934520
805.999485	0.936215
806.319901	0.934856
806.640272	0.936988
806.960598	0.934913
807.280879	0.933771
807.601115	0.932519
807.921306	0.935404
808.241453	0.934854
808.561554	0.934624
808.881611	0.934715
809.201623	0.934957
809.521590	0.936567
809.841513	0.937176
810.161390	0.935586
810.481223	0.936639
810.801011	0.940173
811.120755	0.941374
811.440453	0.939584
811.760107	0.941099
812.079716	0.941867
812.399281	0.942809
812.718801	0.943598
813.038276	0.943900
813.357707	0.945007
813.677093	0.945025
813.996434	0.945555
814.315731	0.946819
814.634983	0.946774
814.954191	0.947099
815.273354	0.944283
815.592473	0.943128
815.911547	0.943409
816.230577	0.941518
816.549562	0.939182
816.868502	0.937500
817.187399	0.939107
817.506250	0.935862
817.825058	0.935927
818.143821	0.934197
818.462539	0.930764
818.781213	0.926041
819.099843	0.920884
819.418429	0.906919
819.736970	0.897076
820.055466	0.883373
820.373919	0.870534
820.692327	0.852076
821.010691	0.826763
821.329011	0.767524
821.647286	0.673347
821.965517	0.585131
822.283704	0.551812
822.601847	0.555647
822.919945	0.592006
823.237999	0.632889
823.556010	0.672769
823.873976	0.715277
824.191897	0.750957
824.509775	0.781144
824.827609	0.808409
825.145398	0.823756
825.463144	0.824214
825.780845	0.814092
826.098502	0.799517
826.416116	0.767452
826.733685	0.733094
827.051210	0.725911
827.368692	0.741843
827.686129	0.773752
828.003522	0.809464
828.320872	0.839525
828.638177	0.865207
828.955439	0.886064
829.272656	0.899389
829.589830	0.909162
829.906960	0.920362
830.224046	0.926432
830.541088	0.932948
830.858086	0.936370
831.175041	0.940178
831.491952	0.939118
831.808819	0.938359
832.125642	0.934301
832.442421	0.926284
832.759157	0.911187
833.075849	0.879094
833.392497	0.840149
833.709101	0.817442
834.025662	0.823292
834.342179	0.845279
834.658653	0.870324
834.975083	0.893336
835.291469	0.910068
835.607811	0.923016
835.924110	0.932812
836.240366	0.942155
836.556578	0.948929
836.872746	0.953472
837.188871	0.957402
837.504952	0.959635
837.820990	0.963056
838.136984	0.964165
838.452935	0.965197
838.768842	0.966787
839.084706	0.963193
839.400526	0.947781
839.716303	0.920627
840.032037	0.906618
840.347727	0.910216
840.663373	0.924569
840.978977	0.938650
841.294537	0.951025
841.610054	0.960375
841.925527	0.964875
842.240957	0.967899
842.556344	0.972055
842.871687	0.973682
843.186987	0.976889
843.502244	0.978373
843.817458	0.977818
844.132629	0.980347
844.447756	0.982645
844.762840	0.982183
845.077881	0.983793
845.392879	0.981673
845.707833	0.982866
846.022745	0.985843
846.337613	0.984626
846.652438	0.984496
846.967221	0.984294
847.281960	0.986041
847.596656	0.986340
847.911309	0.986042
848.225919	0.986992
848.540485	0.987342
848.855009	0.988424
849.169490	0.985942
849.483928	0.987805
849.798323	0.987244
850.112675	0.987938
850.426984	0.987949
850.741251	0.987994
851.055474	0.988112
851.369654	0.987943
851.683792	0.986744
851.997887	0.987946
852.311938	0.988025
852.625947	0.988072
852.939914	0.985808
853.253837	0.987764
853.567718	0.989099
853.881555	0.987979
854.195350	0.987562
854.509103	0.988769
854.822812	0.988709
855.136479	0.988605
855.450103	0.988058
855.763685	0.988815
856.077224	0.988787
856.390720	0.988311
856.704173	0.988207
857.017584	0.988675
857.330953	0.986776
857.644278	0.987145
857.957561	0.987311
858.270802	0.988048
858.584000	0.988155
858.897155	0.987025
859.210268	0.987743
859.523339	0.989769
859.836367	0.989149
860.149352	0.988573
860.462295	0.987803
860.775195	0.988094
861.088054	0.987157
861.400869	0.988361
861.713642	0.989718
862.026373	0.989083
862.339062	0.989379
862.651708	0.988668
862.964312	0.988513
863.276873	0.988904
863.589392	0.986456
863.901869	0.986038
864.214303	0.987068
864.526696	0.985289
864.839045	0.986493
865.151353	0.984425
865.463619	0.984168
865.775842	0.986106
866.088023	0.986431
866.400162	0.986369
866.712258	0.987029
867.024313	0.985565
867.336325	0.986812
867.648296	0.986469
867.960224	0.985277
868.272110	0.986559
868.583954	0.986304
868.895755	0.987657
869.207515	0.984514
869.519233	0.985732
869.830909	0.984903
870.142542	0.984632
870.454134	0.984335
870.765684	0.984846
871.077191	0.984786
871.388657	0.983470
871.700081	0.984041
872.011463	0.984336
872.322803	0.982921
872.634101	0.982388
872.945357	0.981945
873.256571	0.979440
873.567744	0.981244
873.878874	0.980797
874.189963	0.981096
874.501010	0.982744
874.812015	0.979994
875.122979	0.980505
875.433900	0.981051
875.744780	0.982064
876.055618	0.979586
876.366415	0.980794
876.677169	0.980183
876.987882	0.981781
877.298554	0.982550
877.609183	0.980043
877.919771	0.978915
878.230317	0.979184
878.540822	0.976026
878.851285	0.975530
879.161707	0.971979
879.472087	0.967863
879.782425	0.957854
880.092722	0.941100
880.402977	0.911441
880.713191	0.868515
881.023363	0.822308
881.333494	0.794093
881.643583	0.783267
881.953631	0.791717
882.263637	0.812221
882.573602	0.838220
882.883526	0.857456
883.193408	0.874770
883.503248	0.889814
883.813048	0.903979
884.122806	0.920456
884.432522	0.932381
884.742197	0.942992
885.051831	0.949000
885.361424	0.954710
885.670975	0.959761
885.980485	0.965004
886.289954	0.967971
886.599382	0.969031
886.908768	0.972523
887.218113	0.973521
887.527417	0.976933
887.836680	0.977930
888.145901	0.978993
888.455082	0.981198
888.764221	0.981657
889.073319	0.982902
889.382376	0.983456
889.691392	0.981674
890.000366	0.983296
890.309300	0.982402
890.618193	0.983745
890.927044	0.982148
891.235855	0.981609
891.544625	0.982564
891.853353	0.983220
892.162041	0.980167
892.470687	0.978606
892.779293	0.975865
893.087858	0.973371
893.396381	0.968588
893.704864	0.962487
894.013306	0.951008
894.321707	0.938252
894.630068	0.929675
894.938387	0.927906
895.246665	0.930444
895.554903	0.936913
895.863100	0.945939
896.171256	0.953372
896.479371	0.960704
896.787446	0.967054
897.095480	0.970187
897.403473	0.972776
897.711425	0.975512
898.019336	0.977253
898.327207	0.979756
898.635038	0.978202
898.942827	0.981216
899.250576	0.980548
899.558284	0.983718
899.865952	0.982715
900.173579	0.984490
900.481165	0.984682
900.788711	0.985131
901.096216	0.986478
901.403681	0.986862
901.711105	0.987107
902.018489	0.987763
902.325832	0.987133
902.633135	0.987075
902.940397	0.983858
903.247619	0.979729
903.554800	0.967655
903.861941	0.945732
904.169041	0.926242
904.476101	0.916757
904.783121	0.918868
905.090100	0.928730
905.397039	0.941043
905.703938	0.951957
906.010796	0.961412
906.317614	0.969182
906.624391	0.974280
906.931129	0.978942
907.237826	0.983487
907.544483	0.984844
907.851099	0.985696
908.157675	0.988275
908.464211	0.990567
908.770707	0.989596
909.077163	0.991590
909.383578	0.993545
909.689954	0.991188
909.996289	0.993077
910.302584	0.993053
910.608839	0.994540
910.915054	0.993978
911.221229	0.994407
911.527363	0.992455
911.833458	0.992869
912.139513	0.993219
912.445527	0.993468
912.751502	0.992282
913.057436	0.989944
913.363331	0.990423
913.669186	0.988667
913.975000	0.986502
914.280775	0.984064
914.586510	0.979758
914.892205	0.972694
915.197859	0.963112
915.503475	0.951604
915.809050	0.940783
916.114585	0.935278
916.420081	0.934158
916.725536	0.934986
917.030952	0.940354
917.336328	0.946500
917.641665	0.953909
917.946961	0.960687
918.252218	0.966434
918.557435	0.970453
918.862612	0.974952
919.167750	0.976645
919.472848	0.979655
919.777906	0.983633
920.082925	0.985516
920.387904	0.985240
920.692843	0.986337
920.997743	0.986974
921.302603	0.988531
921.607423	0.989742
921.912204	0.990404
922.216946	0.991410
922.521647	0.991287
922.826310	0.992498
923.130932	0.993101
923.435516	0.993632
923.740059	0.993335
924.044564	0.993755
924.349028	0.993726
924.653454	0.996063
924.957840	0.995630
925.262186	0.995952
925.566493	0.995677
925.870761	0.996658
926.174989	0.996143
926.479178	0.996989
926.783328	0.996827
927.087438	0.997536
927.391509	0.997030
927.695541	0.998206
927.999533	0.998254
928.303486	0.997239
928.607400	0.998259
928.911275	0.998261
929.215110	0.999807
929.518906	0.998797
929.822663	0.999491
930.126381	0.999931
930.430060	0.999217
930.733699	0.999333
931.037299	0.998506
931.340861	0.999219
931.644383	0.998639
931.947866	0.998842
932.251309	0.997974
932.554714	0.998221
932.858080	0.999479
933.161407	0.997770
933.464694	0.998840
933.767943	0.999116
934.071153	0.998651
934.374323	0.999235
934.677455	0.999178
934.980548	0.998063
935.283602	0.999998
935.586617	0.998548
935.889593	1.000342
936.192530	0.999740
936.495428	0.998554
936.798287	0.998974
937.101108	0.998679
937.403890	0.997168
937.706632	0.997960
938.009336	0.998377
938.312002	0.995413
938.614628	0.996645
938.917216	0.995423
939.219765	0.994140
939.522275	0.995541
939.824747	0.996449
940.127179	0.995541
940.429573	0.997742
940.731929	0.995757
941.034246	0.996119
941.336524	0.996136
941.638763	0.996534
941.940964	0.996537
942.243126	0.996491
942.545250	0.998612
942.847335	0.996897
943.149381	0.998334
943.451389	0.997611
943.753359	0.999053
944.055290	0.999727
944.357182	0.998562
944.659036	0.999656
944.960851	0.998320
945.262628	0.999694
945.564367	0.998604
945.866067	0.998699
946.167729	0.998898
946.469352	0.999139
946.770937	0.996665
947.072484	0.999217
947.373992	0.998453
947.675462	0.998485
947.976893	0.998374
948.278286	1.001415
948.579641	1.000093
948.880958	0.997619
949.182236	0.999075
949.483476	0.999719
949.784678	0.998738
950.085841	0.999569
950.386967	0.998006
950.688054	0.998514
950.989103	0.997210
951.290114	0.998166
951.591087	0.998990
951.892021	0.997984
952.192917	0.999581
952.493776	0.998293
952.794596	0.997152
953.095378	0.998081
953.396122	0.997260
953.696828	0.998210
953.997496	0.998057
954.298126	0.999407
954.598718	0.998384
954.899272	0.999101
955.199788	0.998229
955.500266	0.999191
955.800706	1.000598
956.101108	0.999790
956.401472	1.000905
956.701798	0.999322
957.002087	1.000667
957.302337	0.999835
957.602550	1.001308
957.902724	1.000714
958.202861	1.000333
958.502960	0.999703
958.803022	1.002220
959.103045	1.001671
959.403031	1.001847
959.702979	1.001914
960.002889	1.001500
960.302762	1.000353
960.602596	1.002956
960.902393	1.002221
961.202153	1.001235
961.501875	1.002462
961.801559	1.001515
962.101205	1.000245
962.400814	1.001975
962.700385	1.003083
962.999918	1.001579
963.299414	1.001579
963.598873	1.002797
963.898293	1.001573
964.197677	1.002377
964.497022	1.002802
964.796331	1.001769
965.095601	1.002187
965.394835	1.001863
965.694030	1.003304
965.993189	1.001854
966.292309	1.001428
966.591393	1.001216
966.890439	1.002572
967.189447	1.002446
967.488419	1.001879
967.787353	1.002245
968.086249	1.001831
968.385108	1.002104
968.683930	1.003296
968.982714	1.002465
969.281462	1.002143
969.580172	1.001412
969.878844	1.002902
970.177480	1.002325
970.476078	1.002800
970.774639	1.002150
971.073162	1.001154
971.371649	1.003134
971.670098	1.001082
971.968510	1.002465
972.266885	1.001676
972.565223	1.002060
972.863524	1.001723
973.161788	1.002192
973.460014	1.002539
973.758204	1.000152
974.056356	1.001952
974.354471	1.001347
974.652550	1.001800
974.950591	1.001604
975.248595	1.001595
975.546563	1.003237
975.844493	1.003218
976.142386	1.001318
976.440243	1.002288
976.738062	1.001650
977.035845	1.001006
977.333590	1.002846
977.631299	1.002155
977.928971	1.002254
978.226606	1.002743
978.524204	1.001936
978.821765	1.002821
979.119290	1.003660
979.416777	1.002021
979.714228	1.000751
980.011642	1.002893
980.309020	1.000733
980.606360	1.001047
980.903664	1.002171
981.200931	1.000862
981.498162	1.001289
981.795356	1.001546
982.092513	1.000908
982.389633	1.002087
982.686717	0.999236
982.983764	0.999545
983.280775	0.998696
983.577749	1.000367
983.874686	0.999810
984.171587	0.999987
984.468451	1.001358
984.765279	1.002041
985.062070	1.000775
985.358824	1.001343
985.655543	1.002923
985.952224	1.002664
986.248869	1.001801
986.545478	1.003289
986.842050	1.001637
987.138586	1.002022
987.435086	1.002358
987.731549	1.003707
988.027975	1.003437
988.324366	1.001978
988.620719	1.003345
988.917037	1.002620
989.213318	1.003787
989.509563	1.002561
989.805772	1.002981
990.101944	1.003840
990.398080	1.003480
990.694180	1.003420
990.990244	1.002328
991.286271	1.002359
991.582262	1.003797
991.878217	1.001037
992.174136	1.004517
992.470019	1.004030
992.765865	1.004757
993.061676	1.003160
993.357450	1.003248
993.653188	1.004003
993.948890	1.002190
994.244556	1.002302
994.540186	1.003150
994.835780	1.002135
995.131337	1.004100
995.426859	1.002712
995.722345	1.001987
996.017795	1.001719
996.313208	1.002518
996.608586	1.001354
996.903928	1.003001
997.199234	1.002355
997.494504	1.003590
997.789738	1.001726
998.084936	1.003864
998.380099	1.001531
998.675225	1.003484
998.970316	1.001744
999.265371	1.003178
999.560390	1.001829
999.855373	1.002119
1000.150320	1.002623
1000.445232	1.002876
1000.740108	1.002716
1001.034948	1.001907
1001.329752	1.003391
1001.624521	1.003103
1001.919254	1.002364
1002.213951	1.003760
1002.508613	1.002903
1002.803239	1.003084
1003.097829	1.003015
1003.392384	1.003700
1003.686903	1.002540
1003.981386	1.003583
1004.275834	1.004448
1004.570246	1.002445
1004.864623	1.003565
1005.158964	1.003635
1005.453270	1.002673
1005.747540	1.003175
1006.041775	1.004522
1006.335974	1.003719
1006.630138	1.003644
1006.924266	1.002263
1007.218359	1.002570
1007.512416	1.004129
1007.806438	1.003217
1008.100425	1.004425
1008.394376	1.004043
1008.688292	1.002518
1008.982172	1.003186
1009.276017	1.002928
1009.569827	1.005002
1009.863602	1.001857
1010.157341	1.004004
1010.451045	1.003737
1010.744714	1.005088
1011.038347	1.003893
1011.331945	1.003516
1011.625508	1.003339
1011.919036	1.003063
1012.212528	1.004336
1012.505986	1.003202
1012.799408	1.002809
1013.092795	1.003028
1013.386147	1.003458
1013.679464	1.003914
1013.972745	1.003484
1014.265992	1.002034
1014.559204	1.003218
1014.852380	1.003331
1015.145521	1.004256
1015.438628	1.003283
1015.731699	1.003314
1016.024736	1.004474
1016.317737	1.003091
1016.610703	1.003439
1016.903635	1.003607
1017.196531	1.003481
1017.489393	1.003662
1017.782219	1.002467
1018.075011	1.002934
1018.367768	1.002694
1018.660490	1.004236
1018.953177	1.004236
1019.245829	1.004236
