Dividing Wavelength (nm)	Counts (n)	Blue Motor Position (mm): 1.200000	Red Motor Position (mm): 0.000000	
326.493990	1.005846
326.888308	1.005846
327.282561	1.005846
327.676750	1.006984
328.070874	1.008142
328.464933	1.007334
328.858929	1.007659
329.252859	1.006765
329.646726	1.005633
330.040528	1.008310
330.434265	1.007173
330.827938	1.006564
331.221547	1.006839
331.615091	1.007511
332.008571	1.006782
332.401986	1.006509
332.795338	1.005604
333.188625	1.007696
333.581847	1.005820
333.975006	1.005632
334.368100	1.007460
334.761129	1.004984
335.154095	1.007930
335.546996	1.004987
335.939833	0.998385
336.332606	1.000076
336.725315	0.999303
337.117960	1.001477
337.510540	0.999561
337.903056	0.999721
338.295508	1.001146
338.687896	1.000042
339.080220	0.999195
339.472480	0.999940
339.864676	0.999777
340.256807	0.999266
340.648875	1.001998
341.040879	0.999529
341.432818	1.000457
341.824694	0.999543
342.216506	0.999877
342.608253	0.999642
342.999937	1.000438
343.391557	0.999981
343.783113	0.999843
344.174605	1.000283
344.566033	0.998859
344.957397	1.000518
345.348697	0.999804
345.739934	1.000137
346.131106	0.999935
346.522215	0.999220
346.913260	0.999247
347.304241	0.998373
347.695159	0.999453
348.086012	0.999015
348.476802	0.999535
348.867528	0.999949
349.258191	0.999490
349.648789	1.000120
350.039324	1.000015
350.429796	0.999598
350.820203	0.998695
351.210548	0.999406
351.600828	0.999136
351.991045	0.999068
352.381198	0.999140
352.771288	0.999082
353.161314	0.999737
353.551276	0.998641
353.941175	0.996841
354.331010	0.999892
354.720782	0.999629
355.110490	0.997952
355.500135	0.998717
355.889717	0.998147
356.279235	0.997850
356.668689	0.998788
357.058080	0.998609
357.447408	0.998447
357.836672	0.998715
358.225873	0.999494
358.615010	0.998811
359.004084	0.997840
359.393095	0.999216
359.782043	0.997740
360.170927	0.998603
360.559748	0.997976
360.948505	0.997390
361.337199	0.998477
361.725830	0.998007
362.114398	0.998987
362.502903	0.997067
362.891344	0.996939
363.279722	0.997421
363.668037	0.999132
364.056289	0.997288
364.444478	0.998684
364.832603	0.997805
365.220665	0.997548
365.608665	0.996937
365.996601	0.997530
366.384474	0.995913
366.772284	0.997555
367.160031	0.995600
367.547715	0.996302
367.935336	0.995644
368.322893	0.994487
368.710388	0.993276
369.097820	0.991346
369.485189	0.988773
369.872495	0.987369
370.259738	0.984727
370.646918	0.981933
371.034035	0.980697
371.421090	0.978503
371.808081	0.972652
372.195010	0.970413
372.581875	0.964870
372.968678	0.959588
373.355418	0.957359
373.742096	0.949112
374.128710	0.944948
374.515262	0.939884
374.901751	0.934347
375.288177	0.929098
375.674540	0.922218
376.060841	0.915492
376.447079	0.909724
376.833254	0.902776
377.219367	0.898214
377.605417	0.885913
377.991404	0.883117
378.377329	0.876654
378.763191	0.871817
379.148991	0.861512
379.534727	0.854399
379.920402	0.846144
380.306013	0.842050
380.691563	0.830557
381.077049	0.823179
381.462474	0.819744
381.847835	0.807745
382.233134	0.803036
382.618371	0.803635
383.003545	0.786252
383.388657	0.783875
383.773706	0.776282
384.158693	0.772005
384.543618	0.766450
384.928480	0.757944
385.313280	0.747741
385.698017	0.747104
386.082692	0.734751
386.467305	0.734497
386.851856	0.728919
387.236344	0.724231
387.620770	0.718292
388.005133	0.712805
388.389435	0.706933
388.773674	0.704787
389.157851	0.695336
389.541965	0.693825
389.926018	0.699889
390.310008	0.687141
390.693936	0.684094
391.077802	0.676018
391.461606	0.677054
391.845348	0.667591
392.229027	0.665721
392.612645	0.664927
392.996200	0.652057
393.379694	0.644536
393.763125	0.634840
394.146494	0.639100
394.529801	0.629505
394.913047	0.622062
395.296230	0.627591
395.679351	0.619268
396.062410	0.615935
396.445408	0.618589
396.828343	0.614314
397.211217	0.608689
397.594028	0.621145
397.976778	0.611102
398.359466	0.607460
398.742092	0.603653
399.124656	0.614594
399.507158	0.603788
399.889598	0.600604
400.271977	0.592166
400.654294	0.596192
401.036549	0.595136
401.418742	0.599219
401.800874	0.584683
402.182944	0.581997
402.564952	0.573619
402.946898	0.576062
403.328783	0.575921
403.710606	0.587182
404.092367	0.562075
404.474067	0.567238
404.855705	0.566756
405.237282	0.574848
405.618797	0.561558
406.000250	0.556548
406.381642	0.546710
406.762972	0.551956
407.144240	0.550862
407.525447	0.550253
407.906593	0.542642
408.287677	0.539357
408.668700	0.547265
409.049661	0.541567
409.430560	0.536157
409.811399	0.545089
410.192176	0.526915
410.572891	0.534490
410.953545	0.521880
411.334138	0.536226
411.714669	0.527615
412.095139	0.539705
412.475547	0.524217
412.855894	0.526433
413.236180	0.525509
413.616405	0.530206
413.996568	0.520808
414.376670	0.526969
414.756711	0.531757
415.136691	0.528670
415.516609	0.520403
415.896466	0.516861
416.276262	0.512434
416.655997	0.514323
417.035670	0.496068
417.415283	0.487978
417.794834	0.492263
418.174324	0.497317
418.553753	0.506715
418.933121	0.488579
419.312428	0.483401
419.691674	0.488909
420.070859	0.476632
420.449983	0.485154
420.829045	0.474053
421.208047	0.483000
421.586988	0.476546
421.965867	0.474565
422.344686	0.464062
422.723444	0.476351
423.102141	0.493947
423.480777	0.465937
423.859352	0.486586
424.237866	0.464424
424.616319	0.465149
424.994712	0.455502
425.373044	0.465888
425.751314	0.454262
426.129524	0.470639
426.507673	0.453890
426.885762	0.447551
427.263789	0.453298
427.641756	0.462978
428.019662	0.452482
428.397508	0.452020
428.775292	0.456453
429.153016	0.448815
429.530679	0.454790
429.908282	0.448315
430.285824	0.458002
430.663305	0.436195
431.040726	0.457552
431.418086	0.457560
431.795385	0.449223
432.172624	0.448834
432.549802	0.448912
432.926920	0.447637
433.303977	0.447048
433.680974	0.444462
434.057910	0.443192
434.434786	0.441905
434.811601	0.444940
435.188355	0.427166
435.565050	0.436946
435.941683	0.437994
436.318257	0.421505
436.694770	0.422431
437.071222	0.420698
437.447614	0.425131
437.823946	0.431293
438.200218	0.421735
438.576429	0.430943
438.952580	0.423553
439.328670	0.420654
439.704700	0.427111
440.080670	0.427747
440.456580	0.408776
440.832429	0.417743
441.208218	0.428559
441.583947	0.417660
441.959616	0.416822
442.335224	0.422255
442.710773	0.412848
443.086261	0.411122
443.461689	0.424640
443.837057	0.414549
444.212365	0.404321
444.587612	0.412234
444.962800	0.401806
445.337927	0.403375
445.712995	0.429835
446.088002	0.391109
446.462949	0.401887
446.837837	0.407025
447.212664	0.395602
447.587431	0.386865
447.962139	0.357433
448.336786	0.316140
448.711374	0.326771
449.085901	0.371099
449.460369	0.375072
449.834776	0.378854
450.209124	0.357650
450.583412	0.350905
450.957640	0.344004
451.331808	0.355238
451.705917	0.378339
452.079965	0.383291
452.453954	0.371133
452.827883	0.378279
453.201752	0.373355
453.575562	0.384153
453.949311	0.372440
454.323001	0.378952
454.696632	0.374999
455.070202	0.367462
455.443713	0.359469
455.817164	0.354265
456.190556	0.349876
456.563888	0.346385
456.937160	0.344251
457.310373	0.361350
457.683526	0.360117
458.056619	0.366047
458.429653	0.366336
458.802628	0.370331
459.175542	0.364247
459.548398	0.346388
459.921194	0.339289
460.293930	0.339352
460.666607	0.317037
461.039224	0.305138
461.411782	0.300591
461.784280	0.300144
462.156719	0.304018
462.529099	0.308535
462.901419	0.324753
463.273680	0.328768
463.645882	0.328299
464.018024	0.334632
464.390106	0.327148
464.762130	0.311974
465.134094	0.294692
465.505999	0.263701
465.877845	0.233608
466.249631	0.220861
466.621358	0.228235
466.993026	0.242542
467.364634	0.248542
467.736184	0.257055
468.107674	0.266200
468.479105	0.265065
468.850477	0.272070
469.221790	0.278897
469.593043	0.289019
469.964238	0.293578
470.335373	0.293044
470.706449	0.291667
471.077467	0.291724
471.448425	0.254236
471.819324	0.229358
472.190164	0.229087
472.560945	0.257885
472.931667	0.280161
473.302330	0.284389
473.672934	0.296398
474.043479	0.284001
474.413965	0.286531
474.784393	0.289838
475.154761	0.284468
475.525070	0.282027
475.895321	0.287867
476.265513	0.281825
476.635645	0.277232
477.005719	0.276848
477.375734	0.273498
477.745691	0.266721
478.115588	0.263230
478.485427	0.256597
478.855207	0.243576
479.224928	0.225919
479.594591	0.214186
479.964194	0.217476
480.333739	0.218445
480.703226	0.219968
481.072653	0.218583
481.442022	0.214301
481.811333	0.210859
482.180584	0.214388
482.549777	0.219789
482.918912	0.222953
483.287988	0.222486
483.657005	0.222278
484.025964	0.228840
484.394864	0.226105
484.763706	0.226747
485.132489	0.231611
485.501213	0.232453
485.869879	0.230717
486.238487	0.234006
486.607036	0.231819
486.975527	0.236684
487.343959	0.232575
487.712333	0.231386
488.080648	0.232762
488.448905	0.231812
488.817104	0.233375
489.185244	0.227676
489.553326	0.224692
489.921350	0.214366
490.289315	0.196907
490.657222	0.191743
491.025070	0.193449
491.392861	0.195064
491.760593	0.200953
492.128267	0.206647
492.495883	0.212008
492.863440	0.218345
493.230939	0.225041
493.598380	0.226392
493.965763	0.228390
494.333088	0.230417
494.700354	0.232264
495.067563	0.231200
495.434713	0.234435
495.801805	0.232309
496.168839	0.233962
496.535815	0.235328
496.902733	0.235214
497.269593	0.236884
497.636395	0.234444
498.003139	0.234904
498.369825	0.237784
498.736453	0.234051
499.103023	0.235865
499.469535	0.235546
499.835989	0.235637
500.202385	0.236160
500.568723	0.239756
500.935003	0.234657
501.301226	0.238813
501.667390	0.233207
502.033497	0.231360
502.399546	0.234154
502.765537	0.236153
503.131470	0.234650
503.497345	0.231140
503.863163	0.239598
504.228923	0.232615
504.594625	0.231261
504.960269	0.236515
505.325856	0.232162
505.691385	0.236551
506.056856	0.232988
506.422270	0.232512
506.787625	0.235141
507.152924	0.232623
507.518164	0.232899
507.883347	0.234422
508.248472	0.236352
508.613540	0.231299
508.978550	0.233832
509.343503	0.234297
509.708398	0.231876
510.073236	0.229528
510.438016	0.229127
510.802738	0.230161
511.167403	0.229195
511.532010	0.231559
511.896561	0.226747
512.261053	0.225208
512.625488	0.227241
512.989866	0.228081
513.354186	0.228037
513.718449	0.229953
514.082655	0.226489
514.446803	0.228574
514.810894	0.226231
515.174927	0.228992
515.538904	0.228409
515.902822	0.225361
516.266684	0.227864
516.630488	0.228945
516.994235	0.227870
517.357925	0.226563
517.721558	0.224880
518.085133	0.224478
518.448651	0.224249
518.812112	0.226504
519.175516	0.226369
519.538863	0.223903
519.902152	0.225676
520.265385	0.222498
520.628560	0.224079
520.991678	0.224582
521.354739	0.223153
521.717743	0.224613
522.080690	0.224898
522.443580	0.222408
522.806413	0.223259
523.169189	0.222657
523.531908	0.221426
523.894569	0.225159
524.257174	0.224951
524.619722	0.222447
524.982213	0.223585
525.344647	0.222548
525.707025	0.223526
526.069345	0.221670
526.431608	0.223506
526.793815	0.221359
527.155964	0.225657
527.518057	0.224494
527.880093	0.225337
528.242072	0.223833
528.603995	0.225914
528.965860	0.227663
529.327669	0.226606
529.689421	0.227436
530.051117	0.228192
530.412755	0.226130
530.774337	0.228229
531.135862	0.228844
531.497331	0.227771
531.858743	0.230982
532.220098	0.227356
532.581396	0.229956
532.942638	0.230404
533.303824	0.231659
533.664953	0.231321
534.026025	0.232980
534.387040	0.231018
534.747999	0.230918
535.108902	0.229488
535.469748	0.235116
535.830537	0.232846
536.191270	0.233001
536.551947	0.232579
536.912567	0.232726
537.273131	0.234372
537.633638	0.234501
537.994089	0.234996
538.354483	0.236200
538.714821	0.232825
539.075103	0.232796
539.435328	0.233445
539.795497	0.237055
540.155609	0.234120
540.515665	0.231728
540.875665	0.237837
541.235609	0.236226
541.595496	0.236205
541.955328	0.232902
542.315102	0.235491
542.674821	0.236798
543.034483	0.236872
543.394090	0.236504
543.753640	0.238076
544.113134	0.233226
544.472571	0.236450
544.831953	0.233294
545.191278	0.237551
545.550548	0.236693
545.909761	0.233742
546.268918	0.234629
546.628019	0.232745
546.987064	0.235557
547.346053	0.237045
547.704986	0.235120
548.063863	0.235321
548.422684	0.235686
548.781449	0.237218
549.140158	0.235349
549.498811	0.237839
549.857408	0.240743
550.215949	0.235599
550.574434	0.238804
550.932864	0.236768
551.291237	0.235134
551.649555	0.237148
552.007817	0.236671
552.366022	0.237450
552.724173	0.237584
553.082267	0.238027
553.440305	0.234809
553.798288	0.239554
554.156215	0.235722
554.514086	0.236198
554.871902	0.239737
555.229661	0.238876
555.587365	0.239453
555.945014	0.241740
556.302606	0.238811
556.660143	0.241427
557.017625	0.238047
557.375050	0.240301
557.732421	0.237202
558.089735	0.239207
558.446994	0.239157
558.804197	0.238441
559.161345	0.238229
559.518437	0.241559
559.875474	0.239708
560.232455	0.239073
560.589381	0.240317
560.946251	0.240601
561.303065	0.238014
561.659825	0.239461
562.016528	0.240961
562.373177	0.243494
562.729770	0.240912
563.086307	0.242877
563.442789	0.240753
563.799216	0.243660
564.155587	0.242465
564.511904	0.243847
564.868164	0.243531
565.224370	0.243180
565.580520	0.245185
565.936615	0.245300
566.292654	0.248268
566.648638	0.245106
567.004567	0.245981
567.360441	0.246644
567.716260	0.248245
568.072023	0.246060
568.427732	0.247225
568.783385	0.249382
569.138982	0.247644
569.494525	0.247465
569.850013	0.250475
570.205445	0.248701
570.560823	0.250988
570.916145	0.253331
571.271412	0.251439
571.626625	0.252989
571.981782	0.253443
572.336884	0.254270
572.691931	0.254090
573.046923	0.255254
573.401860	0.256668
573.756743	0.258298
574.111570	0.256996
574.466342	0.257761
574.821059	0.256656
575.175722	0.259522
575.530330	0.259216
575.884882	0.259515
576.239380	0.261188
576.593823	0.262010
576.948211	0.261565
577.302544	0.264607
577.656823	0.264286
578.011047	0.264398
578.365216	0.265241
578.719330	0.267216
579.073389	0.266744
579.427394	0.268171
579.781344	0.269246
580.135239	0.270451
580.489080	0.269982
580.842866	0.273020
581.196597	0.273459
581.550273	0.271525
581.903895	0.272748
582.257463	0.270745
582.610975	0.274329
582.964434	0.273513
583.317837	0.276102
583.671186	0.276497
584.024481	0.276550
584.377721	0.279008
584.730906	0.279832
585.084037	0.279220
585.437113	0.280974
585.790135	0.280360
586.143103	0.283417
586.496016	0.284081
586.848874	0.281788
587.201679	0.282631
587.554428	0.285544
587.907124	0.284843
588.259765	0.285157
588.612352	0.285551
588.964884	0.289627
589.317362	0.289192
589.669786	0.289062
590.022155	0.287866
590.374470	0.286977
590.726731	0.288808
591.078937	0.294014
591.431090	0.290290
591.783188	0.294092
592.135232	0.294994
592.487222	0.294829
592.839157	0.292901
593.191038	0.295652
593.542866	0.297453
593.894639	0.300142
594.246358	0.298878
594.598022	0.298340
594.949633	0.301681
595.301190	0.302595
595.652692	0.301793
596.004141	0.297519
596.355535	0.305791
596.706876	0.306528
597.058162	0.308816
597.409395	0.305866
597.760573	0.303674
598.111698	0.307057
598.462768	0.307288
598.813785	0.308553
599.164748	0.309986
599.515657	0.310332
599.866511	0.314038
600.217312	0.309358
600.568060	0.314473
600.918753	0.311076
601.269392	0.311770
601.619978	0.314916
601.970510	0.312724
602.320988	0.312582
602.671412	0.311081
603.021783	0.313052
603.372100	0.314463
603.722363	0.314041
604.072572	0.314808
604.422728	0.314701
604.772830	0.316790
605.122878	0.316577
605.472872	0.317269
605.822813	0.315129
606.172701	0.318060
606.522534	0.315375
606.872314	0.315895
607.222041	0.316340
607.571714	0.314137
607.921333	0.315843
608.270899	0.315497
608.620411	0.312348
608.969870	0.316222
609.319276	0.316253
609.668627	0.315941
610.017926	0.314470
610.367171	0.312703
610.716362	0.313827
611.065500	0.313722
611.414585	0.312825
611.763616	0.312940
612.112594	0.313947
612.461518	0.313097
612.810389	0.311109
613.159207	0.312929
613.507971	0.314850
613.856682	0.311202
614.205340	0.312098
614.553945	0.309624
614.902496	0.313302
615.250994	0.311656
615.599439	0.311835
615.947830	0.311262
616.296169	0.312194
616.644454	0.311950
616.992686	0.311790
617.340864	0.309962
617.688990	0.313323
618.037063	0.310125
618.385082	0.311632
618.733048	0.308642
619.080961	0.311068
619.428821	0.310501
619.776628	0.310152
620.124382	0.312306
620.472083	0.312924
620.819731	0.311720
621.167326	0.316230
621.514868	0.315472
621.862357	0.319787
622.209793	0.319424
622.557176	0.321746
622.904506	0.323041
623.251783	0.325106
623.599007	0.327568
623.946179	0.326891
624.293297	0.329112
624.640363	0.333105
624.987376	0.333331
625.334336	0.335996
625.681243	0.338593
626.028097	0.338939
626.374899	0.339998
626.721647	0.340022
627.068343	0.342960
627.414987	0.344259
627.761577	0.346459
628.108115	0.344541
628.454600	0.350133
628.801032	0.347295
629.147412	0.349340
629.493739	0.350212
629.840014	0.352870
630.186236	0.350172
630.532405	0.355908
630.878521	0.353090
631.224585	0.355396
631.570597	0.359227
631.916556	0.357717
632.262462	0.357294
632.608316	0.359842
632.954117	0.360207
633.299866	0.361305
633.645562	0.361909
633.991206	0.366185
634.336797	0.369268
634.682336	0.371489
635.027823	0.372740
635.373257	0.373648
635.718639	0.377329
636.063968	0.376266
636.409245	0.382174
636.754470	0.382532
637.099642	0.385109
637.444762	0.388596
637.789829	0.387930
638.134845	0.391311
638.479808	0.392344
638.824719	0.391659
639.169577	0.396371
639.514383	0.395075
639.859137	0.399479
640.203839	0.398702
640.548489	0.399747
640.893086	0.400687
641.237632	0.402049
641.582125	0.401107
641.926566	0.403095
642.270955	0.402670
642.615292	0.402853
642.959576	0.402194
643.303809	0.403081
643.647990	0.402451
643.992118	0.403103
644.336195	0.406025
644.680219	0.404812
645.024192	0.405145
645.368112	0.399289
645.711981	0.397816
646.055797	0.393037
646.399562	0.395399
646.743274	0.388462
647.086935	0.385271
647.430544	0.385491
647.774101	0.384061
648.117606	0.384196
648.461059	0.385049
648.804460	0.386847
649.147810	0.391963
649.491108	0.393941
649.834354	0.395243
650.177548	0.400336
650.520690	0.406007
650.863781	0.407181
651.206820	0.406486
651.549807	0.411112
651.892742	0.415259
652.235626	0.414775
652.578458	0.415474
652.921238	0.422211
653.263967	0.419264
653.606644	0.423844
653.949269	0.423556
654.291843	0.426999
654.634365	0.424396
654.976836	0.426881
655.319255	0.427358
655.661622	0.428907
656.003938	0.429125
656.346203	0.431868
656.688416	0.429972
657.030577	0.433193
657.372687	0.435135
657.714746	0.436405
658.056753	0.433137
658.398708	0.436691
658.740612	0.438010
659.082465	0.433792
659.424266	0.434725
659.766016	0.434166
660.107715	0.437091
660.449362	0.435814
660.790958	0.435788
661.132503	0.437349
661.473996	0.434562
661.815438	0.435694
662.156829	0.435787
662.498168	0.436372
662.839456	0.437947
663.180693	0.435538
663.521879	0.435590
663.863013	0.436250
664.204097	0.434976
664.545129	0.432089
664.886110	0.432110
665.227040	0.429736
665.567918	0.432132
665.908746	0.429846
666.249522	0.429661
666.590248	0.430560
666.930922	0.428981
667.271545	0.427922
667.612118	0.427395
667.952639	0.429695
668.293109	0.428055
668.633528	0.431253
668.973896	0.430386
669.314213	0.431240
669.654480	0.432696
669.994695	0.433134
670.334859	0.433970
670.674973	0.434441
671.015035	0.434314
671.355047	0.434608
671.695008	0.435423
672.034918	0.436968
672.374777	0.436584
672.714585	0.437799
673.054342	0.437646
673.394049	0.437898
673.733705	0.435720
674.073310	0.436941
674.412864	0.439437
674.752368	0.439996
675.091820	0.440279
675.431223	0.445182
675.770574	0.444313
676.109875	0.447697
676.449125	0.447399
676.788324	0.449830
677.127473	0.455383
677.466571	0.455205
677.805619	0.456832
678.144616	0.458106
678.483562	0.459941
678.822458	0.462161
679.161303	0.462476
679.500098	0.463733
679.838842	0.465178
680.177535	0.464304
680.516179	0.462949
680.854771	0.462228
681.193314	0.455726
681.531805	0.447038
681.870247	0.435348
682.208638	0.428121
682.546978	0.427442
682.885268	0.428866
683.223508	0.434895
683.561697	0.438657
683.899836	0.441732
684.237925	0.444409
684.575963	0.447585
684.913951	0.450850
685.251889	0.445782
685.589776	0.448330
685.927614	0.450802
686.265401	0.445186
686.603137	0.446367
686.940824	0.440170
687.278460	0.438849
687.616046	0.437806
687.953582	0.432545
688.291068	0.434299
688.628504	0.429284
688.965889	0.431930
689.303224	0.435893
689.640510	0.439876
689.977745	0.445379
690.314930	0.453575
690.652065	0.458118
690.989150	0.465741
691.326185	0.472661
691.663170	0.476999
692.000105	0.484311
692.336990	0.491078
692.673825	0.493621
693.010610	0.500463
693.347345	0.506482
693.684030	0.507547
694.020665	0.511797
694.357251	0.521175
694.693786	0.521441
695.030272	0.523864
695.366707	0.528381
695.703093	0.532046
696.039429	0.528873
696.375716	0.531959
696.711952	0.534332
697.048139	0.536466
697.384276	0.538777
697.720363	0.537063
698.056400	0.534608
698.392388	0.540435
698.728326	0.543872
699.064214	0.547120
699.400053	0.547011
699.735842	0.551179
700.071581	0.553425
700.407270	0.556877
700.742910	0.559567
701.078501	0.565645
701.414042	0.567037
701.749533	0.569565
702.084974	0.579293
702.420366	0.571352
702.755709	0.578517
703.091002	0.586466
703.426246	0.579986
703.761440	0.585481
704.096584	0.590173
704.431679	0.586876
704.766725	0.589902
705.101721	0.591483
705.436668	0.587937
705.771565	0.593958
706.106413	0.590691
706.441212	0.586418
706.775961	0.585678
707.110661	0.587460
707.445311	0.584599
707.779913	0.581434
708.114465	0.580360
708.448967	0.577029
708.783421	0.569150
709.117825	0.563280
709.452180	0.562841
709.786485	0.557542
710.120742	0.546876
710.454949	0.548266
710.789107	0.540683
711.123216	0.531542
711.457275	0.532790
711.791286	0.524540
712.125247	0.523405
712.459159	0.534362
712.793023	0.525766
713.126837	0.530900
713.460602	0.530661
713.794318	0.539861
714.127985	0.539231
714.461602	0.549778
714.795171	0.552627
715.128691	0.560557
715.462162	0.568600
715.795584	0.574374
716.128957	0.576043
716.462281	0.583987
716.795556	0.586557
717.128782	0.592449
717.461960	0.601528
717.795088	0.599766
718.128167	0.606124
718.461198	0.615076
718.794180	0.615330
719.127113	0.617973
719.459997	0.621720
719.792833	0.628283
720.125619	0.629514
720.458357	0.634966
720.791046	0.634493
721.123686	0.638273
721.456278	0.645719
721.788821	0.642912
722.121315	0.647787
722.453761	0.650626
722.786158	0.648493
723.118506	0.645195
723.450805	0.652868
723.783056	0.650381
724.115259	0.646445
724.447412	0.646430
724.779518	0.647728
725.111574	0.646661
725.443582	0.641830
725.775542	0.644201
726.107453	0.636419
726.439315	0.636033
726.771129	0.634538
727.102895	0.627563
727.434612	0.621198
727.766281	0.618665
728.097901	0.618154
728.429473	0.617853
728.760996	0.616220
729.092471	0.616718
729.423897	0.620670
729.755276	0.619095
730.086606	0.618740
730.417887	0.613756
730.749120	0.604507
731.080305	0.595318
731.411442	0.590747
731.742530	0.595028
732.073570	0.594282
732.404562	0.587391
732.735506	0.588827
733.066401	0.593543
733.397249	0.602991
733.728048	0.613816
734.058798	0.627014
734.389501	0.637983
734.720156	0.647942
735.050762	0.655655
735.381320	0.656161
735.711831	0.664713
736.042293	0.670307
736.372707	0.667217
736.703073	0.670124
737.033391	0.673008
737.363661	0.669779
737.693883	0.665311
738.024056	0.663585
738.354182	0.664357
738.684260	0.653813
739.014290	0.650338
739.344272	0.651315
739.674207	0.644262
740.004093	0.644025
740.333931	0.644430
740.663722	0.644287
740.993464	0.644558
741.323159	0.648612
741.652806	0.653012
741.982405	0.658195
742.311956	0.663874
742.641460	0.664821
742.970915	0.668061
743.300323	0.675832
743.629683	0.682624
743.958996	0.685814
744.288260	0.688513
744.617477	0.695297
744.946647	0.696815
745.275768	0.703123
745.604842	0.702936
745.933869	0.711904
746.262847	0.713589
746.591778	0.705912
746.920662	0.712709
747.249498	0.718817
747.578286	0.710368
747.907027	0.706987
748.235720	0.707342
748.564365	0.702442
748.892963	0.701445
749.221514	0.705226
749.550017	0.709526
749.878473	0.709890
750.206881	0.716493
750.535242	0.716116
750.863555	0.715909
751.191821	0.717160
751.520039	0.720990
751.848210	0.724784
752.176334	0.718374
752.504411	0.718500
752.832440	0.725118
753.160421	0.729253
753.488356	0.727102
753.816243	0.724793
754.144082	0.734318
754.471875	0.737008
754.799620	0.732759
755.127318	0.734514
755.454969	0.734415
755.782572	0.734297
756.110129	0.738035
756.437638	0.740695
756.765100	0.738547
757.092515	0.735219
757.419882	0.734344
757.747203	0.739462
758.074477	0.740105
758.401703	0.736393
758.728882	0.732347
759.056014	0.730015
759.383099	0.729599
759.710138	0.729795
760.037129	0.726323
760.364073	0.721556
760.690970	0.723265
761.017820	0.727692
761.344623	0.724416
761.671379	0.715886
761.998088	0.703953
762.324751	0.680147
762.651366	0.637506
762.977935	0.570177
763.304456	0.517939
763.630931	0.508562
763.957359	0.547529
764.283740	0.591807
764.610074	0.619480
764.936362	0.651900
765.262602	0.679166
765.588796	0.700562
765.914943	0.717562
766.241044	0.736321
766.567097	0.742418
766.893104	0.753094
767.219064	0.759303
767.544978	0.765804
767.870845	0.779370
768.196665	0.784333
768.522438	0.781590
768.848165	0.782801
769.173846	0.791507
769.499479	0.795838
769.825066	0.800756
770.150607	0.805126
770.476101	0.800348
770.801548	0.802228
771.126949	0.813332
771.452303	0.817602
771.777611	0.816867
772.102872	0.814355
772.428087	0.820315
772.753256	0.824283
773.078378	0.826676
773.403453	0.834886
773.728482	0.840086
774.053465	0.831849
774.378401	0.835856
774.703291	0.845014
775.028135	0.845260
775.352932	0.845183
775.677683	0.848482
776.002388	0.850268
776.327046	0.849392
776.651658	0.853272
776.976224	0.856930
777.300743	0.855614
777.625216	0.858547
777.949643	0.860107
778.274024	0.859376
778.598359	0.861688
778.922647	0.860181
779.246889	0.861248
779.571086	0.865087
779.895236	0.866691
780.219339	0.865631
780.543397	0.861136
780.867409	0.859932
781.191374	0.861816
781.515294	0.863274
781.839167	0.862967
782.162995	0.865591
782.486776	0.862208
782.810511	0.863693
783.134201	0.867992
783.457844	0.865679
783.781441	0.867715
784.104993	0.873358
784.428498	0.873953
784.751958	0.869493
785.075372	0.871793
785.398739	0.875925
785.722061	0.870707
786.045337	0.867504
786.368568	0.872355
786.691752	0.874612
787.014891	0.860645
787.337983	0.852266
787.661030	0.843584
787.984031	0.825336
788.306987	0.813214
788.629897	0.814345
788.952760	0.819280
789.275579	0.824244
789.598351	0.839423
789.921078	0.852791
790.243759	0.855003
790.566395	0.859629
790.888984	0.867025
791.211529	0.872182
791.534027	0.874461
791.856480	0.877471
792.178888	0.882309
792.501249	0.883963
792.823566	0.886902
793.145836	0.886193
793.468062	0.888805
793.790241	0.888749
794.112375	0.887286
794.434464	0.882987
794.756507	0.882252
795.078505	0.879407
795.400457	0.874839
795.722364	0.864209
796.044226	0.855897
796.366042	0.855371
796.687812	0.857613
797.009538	0.853728
797.331218	0.859024
797.652852	0.862003
797.974442	0.865903
798.295986	0.868244
798.617484	0.868594
798.938938	0.873605
799.260346	0.879347
799.581709	0.881215
799.903026	0.883649
800.224299	0.884116
800.545526	0.887376
800.866708	0.891498
801.187845	0.896389
801.508936	0.894860
801.829983	0.892498
802.150984	0.896602
802.471940	0.900870
802.792851	0.900231
803.113717	0.901775
803.434538	0.899494
803.755314	0.902829
804.076045	0.903750
804.396731	0.903280
804.717372	0.902058
805.037967	0.905485
805.358518	0.902958
805.679024	0.899117
805.999485	0.901060
806.319901	0.899977
806.640272	0.902135
806.960598	0.900249
807.280879	0.896997
807.601115	0.895692
807.921306	0.899798
808.241453	0.900716
808.561554	0.898250
808.881611	0.898221
809.201623	0.898918
809.521590	0.899437
809.841513	0.900901
810.161390	0.898535
810.481223	0.901775
810.801011	0.904584
811.120755	0.907222
811.440453	0.905066
811.760107	0.905754
812.079716	0.904593
812.399281	0.907349
812.718801	0.910924
813.038276	0.910539
813.357707	0.911255
813.677093	0.908576
813.996434	0.909830
814.315731	0.912241
814.634983	0.912502
814.954191	0.912205
815.273354	0.907991
815.592473	0.904360
815.911547	0.905210
816.230577	0.902743
816.549562	0.899815
816.868502	0.898017
817.187399	0.896549
817.506250	0.890816
817.825058	0.892217
818.143821	0.888991
818.462539	0.884686
818.781213	0.876410
819.099843	0.866331
819.418429	0.848225
819.736970	0.830568
820.055466	0.810644
820.373919	0.784651
820.692327	0.751626
821.010691	0.714881
821.329011	0.634907
821.647286	0.518071
821.965517	0.402787
822.283704	0.359306
822.601847	0.360341
822.919945	0.396462
823.237999	0.430815
823.556010	0.479175
823.873976	0.535383
824.191897	0.587556
824.509775	0.631338
824.827609	0.676596
825.145398	0.700487
825.463144	0.701778
825.780845	0.685104
826.098502	0.666226
826.416116	0.619589
826.733685	0.574802
827.051210	0.565805
827.368692	0.581375
827.686129	0.619067
828.003522	0.674733
828.320872	0.722778
828.638177	0.766914
828.955439	0.800674
829.272656	0.822367
829.589830	0.839333
829.906960	0.856300
830.224046	0.869683
830.541088	0.879307
830.858086	0.884089
831.175041	0.891427
831.491952	0.888475
831.808819	0.886372
832.125642	0.878640
832.442421	0.866073
832.759157	0.841163
833.075849	0.793664
833.392497	0.728653
833.709101	0.687556
834.025662	0.697855
834.342179	0.729263
834.658653	0.769989
834.975083	0.806602
835.291469	0.833428
835.607811	0.856837
835.924110	0.873446
836.240366	0.890221
836.556578	0.904227
836.872746	0.912416
837.188871	0.918991
837.504952	0.924154
837.820990	0.928111
838.136984	0.930958
838.452935	0.935459
838.768842	0.935327
839.084706	0.929061
839.400526	0.902845
839.716303	0.860215
840.032037	0.838317
840.347727	0.841702
840.663373	0.860459
840.978977	0.882073
841.294537	0.906212
841.610054	0.921644
841.925527	0.930037
842.240957	0.937619
842.556344	0.943938
842.871687	0.949761
843.186987	0.952654
843.502244	0.955411
843.817458	0.956549
844.132629	0.960470
844.447756	0.964506
844.762840	0.965319
845.077881	0.964717
845.392879	0.964108
845.707833	0.968248
846.022745	0.968894
846.337613	0.970279
846.652438	0.970430
846.967221	0.970071
847.281960	0.971594
847.596656	0.972477
847.911309	0.971389
848.225919	0.971833
848.540485	0.973471
848.855009	0.975101
849.169490	0.974821
849.483928	0.973841
849.798323	0.972924
850.112675	0.974872
850.426984	0.975169
850.741251	0.975246
851.055474	0.974376
851.369654	0.973612
851.683792	0.972585
851.997887	0.974334
852.311938	0.976100
852.625947	0.974571
852.939914	0.972518
853.253837	0.975187
853.567718	0.975511
853.881555	0.975788
854.195350	0.974531
854.509103	0.974403
854.822812	0.975756
855.136479	0.975717
855.450103	0.974873
855.763685	0.973931
856.077224	0.975269
856.390720	0.975127
856.704173	0.975191
857.017584	0.973494
857.330953	0.972891
857.644278	0.971546
857.957561	0.972976
858.270802	0.974053
858.584000	0.973019
858.897155	0.972204
859.210268	0.971753
859.523339	0.975050
859.836367	0.975244
860.149352	0.974881
860.462295	0.974958
860.775195	0.975533
861.088054	0.973587
861.400869	0.975081
861.713642	0.974836
862.026373	0.976595
862.339062	0.975791
862.651708	0.973708
862.964312	0.974186
863.276873	0.974166
863.589392	0.972319
863.901869	0.971674
864.214303	0.970244
864.526696	0.968561
864.839045	0.968700
865.151353	0.967277
865.463619	0.965945
865.775842	0.967390
866.088023	0.968206
866.400162	0.966221
866.712258	0.968824
867.024313	0.967435
867.336325	0.969519
867.648296	0.968917
867.960224	0.965928
868.272110	0.966887
868.583954	0.969715
868.895755	0.969237
869.207515	0.966178
869.519233	0.965248
869.830909	0.964661
870.142542	0.966067
870.454134	0.965200
870.765684	0.964783
871.077191	0.963726
871.388657	0.963239
871.700081	0.963671
872.011463	0.963792
872.322803	0.963410
872.634101	0.960567
872.945357	0.957575
873.256571	0.957030
873.567744	0.958127
873.878874	0.958839
874.189963	0.957442
874.501010	0.958450
874.812015	0.954871
875.122979	0.955358
875.433900	0.956758
875.744780	0.959038
876.055618	0.955193
876.366415	0.953558
876.677169	0.953423
876.987882	0.956305
877.298554	0.956157
877.609183	0.952133
877.919771	0.948579
878.230317	0.946475
878.540822	0.942829
878.851285	0.939121
879.161707	0.928813
879.472087	0.917725
879.782425	0.900400
880.092722	0.865164
880.402977	0.811189
880.713191	0.746885
881.023363	0.686176
881.333494	0.652112
881.643583	0.624073
881.953631	0.624559
882.263637	0.651906
882.573602	0.692053
882.883526	0.719222
883.193408	0.744764
883.503248	0.768643
883.813048	0.795478
884.122806	0.826969
884.432522	0.851139
884.742197	0.871202
885.051831	0.881714
885.361424	0.894039
885.670975	0.907060
885.980485	0.915532
886.289954	0.922263
886.599382	0.925167
886.908768	0.931301
887.218113	0.936978
887.527417	0.943565
887.836680	0.945562
888.145901	0.947101
888.455082	0.950837
888.764221	0.954837
889.073319	0.957130
889.382376	0.958057
889.691392	0.955812
890.000366	0.957117
890.309300	0.958192
890.618193	0.957350
890.927044	0.956509
891.235855	0.956547
891.544625	0.955492
891.853353	0.955781
892.162041	0.953993
892.470687	0.948124
892.779293	0.940569
893.087858	0.936340
893.396381	0.928503
893.704864	0.915470
894.013306	0.891030
894.321707	0.864419
894.630068	0.848347
894.938387	0.841373
895.246665	0.844466
895.554903	0.856881
895.863100	0.870469
896.171256	0.888319
896.479371	0.909033
896.787446	0.921463
897.095480	0.927492
897.403473	0.931430
897.711425	0.937221
898.019336	0.943519
898.327207	0.948465
898.635038	0.947545
898.942827	0.949347
899.250576	0.953089
899.558284	0.956575
899.865952	0.958002
900.173579	0.958689
900.481165	0.960303
900.788711	0.962426
901.096216	0.966631
901.403681	0.966232
901.711105	0.966027
902.018489	0.966452
902.325832	0.967652
902.633135	0.964099
902.940397	0.959316
903.247619	0.945088
903.554800	0.920547
903.861941	0.879655
904.169041	0.840695
904.476101	0.823655
904.783121	0.824767
905.090100	0.840712
905.397039	0.863425
905.703938	0.886035
906.010796	0.905986
906.317614	0.924899
906.624391	0.937357
906.931129	0.947690
907.237826	0.957023
907.544483	0.963287
907.851099	0.968675
908.157675	0.970748
908.464211	0.973600
908.770707	0.975204
909.077163	0.979339
909.383578	0.979894
909.689954	0.979479
909.996289	0.981124
910.302584	0.983521
910.608839	0.984534
910.915054	0.983959
911.221229	0.983900
911.527363	0.981958
911.833458	0.982772
912.139513	0.982770
912.445527	0.981767
912.751502	0.980503
913.057436	0.975865
913.363331	0.976177
913.669186	0.971756
913.975000	0.964725
914.280775	0.959923
914.586510	0.952101
914.892205	0.936904
915.197859	0.915013
915.503475	0.886845
915.809050	0.866621
916.114585	0.860855
916.420081	0.857444
916.725536	0.854053
917.030952	0.863059
917.336328	0.875998
917.641665	0.891648
917.946961	0.908505
918.252218	0.919877
918.557435	0.929943
918.862612	0.938196
919.167750	0.944763
919.472848	0.951218
919.777906	0.957457
920.082925	0.962858
920.387904	0.966768
920.692843	0.967228
920.997743	0.967727
921.302603	0.972051
921.607423	0.973592
921.912204	0.976339
922.216946	0.978671
922.521647	0.978356
922.826310	0.978378
923.130932	0.982523
923.435516	0.983301
923.740059	0.983951
924.044564	0.983849
924.349028	0.984832
924.653454	0.986657
924.957840	0.987798
925.262186	0.987602
925.566493	0.989269
925.870761	0.990437
926.174989	0.990648
926.479178	0.994261
926.783328	0.993391
927.087438	0.993106
927.391509	0.993044
927.695541	0.994589
927.999533	0.996493
928.303486	0.995192
928.607400	0.996612
928.911275	0.995645
929.215110	0.997354
929.518906	0.996069
929.822663	0.996601
930.126381	0.997260
930.430060	0.997457
930.733699	0.996725
931.037299	0.995609
931.340861	0.995719
931.644383	0.994855
931.947866	0.996494
932.251309	0.995529
932.554714	0.996227
932.858080	0.995572
933.161407	0.995505
933.464694	0.996372
933.767943	0.996771
934.071153	0.997406
934.374323	0.997033
934.677455	0.995906
934.980548	0.996150
935.283602	0.998442
935.586617	0.996479
935.889593	0.998185
936.192530	0.997164
936.495428	0.997353
936.798287	0.995595
937.101108	0.995946
937.403890	0.993368
937.706632	0.994516
938.009336	0.992455
938.312002	0.990342
938.614628	0.989973
938.917216	0.988197
939.219765	0.987154
939.522275	0.988055
939.824747	0.988448
940.127179	0.988908
940.429573	0.990120
940.731929	0.988493
941.034246	0.990061
941.336524	0.990091
941.638763	0.991000
941.940964	0.991473
942.243126	0.991000
942.545250	0.993690
942.847335	0.992529
943.149381	0.993720
943.451389	0.993719
943.753359	0.994168
944.055290	0.996642
944.357182	0.994407
944.659036	0.995745
944.960851	0.996678
945.262628	0.995678
945.564367	0.994637
945.866067	0.995279
946.167729	0.994919
946.469352	0.995120
946.770937	0.993770
947.072484	0.995522
947.373992	0.994887
947.675462	0.994873
947.976893	0.995248
948.278286	0.997186
948.579641	0.997483
948.880958	0.996643
949.182236	0.997314
949.483476	0.996976
949.784678	0.997802
950.085841	0.995505
950.386967	0.996555
950.688054	0.996473
950.989103	0.995577
951.290114	0.994084
951.591087	0.995429
951.892021	0.994396
952.192917	0.994796
952.493776	0.993570
952.794596	0.992601
953.095378	0.993099
953.396122	0.992707
953.696828	0.993613
953.997496	0.995663
954.298126	0.994889
954.598718	0.995322
954.899272	0.996218
955.199788	0.995579
955.500266	0.998579
955.800706	0.997054
956.101108	0.998976
956.401472	0.999714
956.701798	0.998896
957.002087	0.999395
957.302337	1.000391
957.602550	1.001254
957.902724	1.001224
958.202861	1.000645
958.502960	1.000084
958.803022	1.001106
959.103045	1.000961
959.403031	1.002086
959.702979	1.002805
960.002889	1.001174
960.302762	1.000736
960.602596	1.001512
960.902393	1.002413
961.202153	1.001456
961.501875	1.003524
961.801559	1.002799
962.101205	1.001212
962.400814	1.002775
962.700385	1.002766
962.999918	1.002769
963.299414	1.002159
963.598873	1.002814
963.898293	1.002282
964.197677	1.002033
964.497022	1.003405
964.796331	1.003717
965.095601	1.005123
965.394835	1.003366
965.694030	1.004151
965.993189	1.002606
966.292309	1.003744
966.591393	1.001410
966.890439	1.003587
967.189447	1.002791
967.488419	1.003000
967.787353	1.002930
968.086249	1.003593
968.385108	1.002761
968.683930	1.003303
968.982714	1.003712
969.281462	1.001966
969.580172	1.003351
969.878844	1.003458
970.177480	1.002095
970.476078	1.002684
970.774639	1.002724
971.073162	1.002623
971.371649	1.002750
971.670098	1.001969
971.968510	1.002173
972.266885	1.002098
972.565223	1.002296
972.863524	1.001580
973.161788	1.001762
973.460014	1.002878
973.758204	1.002272
974.056356	1.001847
974.354471	1.001184
974.652550	1.003288
974.950591	1.002141
975.248595	1.001478
975.546563	1.003101
975.844493	1.003060
976.142386	1.001001
976.440243	1.002388
976.738062	1.003551
977.035845	1.002804
977.333590	1.003672
977.631299	1.002436
977.928971	1.003245
978.226606	1.002935
978.524204	1.001636
978.821765	1.003959
979.119290	1.004062
979.416777	1.003224
979.714228	1.004067
980.011642	1.003567
980.309020	1.002902
980.606360	1.003234
980.903664	1.001965
981.200931	1.001615
981.498162	1.002251
981.795356	1.001407
982.092513	1.000350
982.389633	0.999669
982.686717	0.997364
982.983764	0.996265
983.280775	0.996844
983.577749	0.997526
983.874686	0.996417
984.171587	0.998363
984.468451	0.998933
984.765279	1.001565
985.062070	1.001153
985.358824	1.001534
985.655543	1.002156
985.952224	1.002189
986.248869	1.002922
986.545478	1.004516
986.842050	1.003303
987.138586	1.002957
987.435086	1.002990
987.731549	1.005027
988.027975	1.005105
988.324366	1.004338
988.620719	1.006126
988.917037	1.003964
989.213318	1.004576
989.509563	1.003917
989.805772	1.005292
990.101944	1.004129
990.398080	1.004241
990.694180	1.005222
990.990244	1.003995
991.286271	1.003360
991.582262	1.003907
991.878217	1.004693
992.174136	1.004550
992.470019	1.004443
992.765865	1.005289
993.061676	1.004329
993.357450	1.004594
993.653188	1.005288
993.948890	1.004000
994.244556	1.004071
994.540186	1.003774
994.835780	1.004316
995.131337	1.003597
995.426859	1.002351
995.722345	1.003229
996.017795	1.001931
996.313208	1.002382
996.608586	1.002729
996.903928	1.002684
997.199234	1.002835
997.494504	1.004071
997.789738	1.001354
998.084936	1.003028
998.380099	1.003215
998.675225	1.003410
998.970316	1.003648
999.265371	1.004217
999.560390	1.003990
999.855373	1.004039
1000.150320	1.003339
1000.445232	1.003119
1000.740108	1.003889
1001.034948	1.003999
1001.329752	1.006036
1001.624521	1.004562
1001.919254	1.003250
1002.213951	1.004615
1002.508613	1.004242
1002.803239	1.004811
1003.097829	1.004932
1003.392384	1.004574
1003.686903	1.005239
1003.981386	1.005600
1004.275834	1.005881
1004.570246	1.004240
1004.864623	1.004804
1005.158964	1.005319
1005.453270	1.004889
1005.747540	1.004776
1006.041775	1.005188
1006.335974	1.005255
1006.630138	1.004987
1006.924266	1.003600
1007.218359	1.003603
1007.512416	1.006202
1007.806438	1.004787
1008.100425	1.005693
1008.394376	1.005084
1008.688292	1.004558
1008.982172	1.003941
1009.276017	1.005332
1009.569827	1.005925
1009.863602	1.004113
1010.157341	1.005265
1010.451045	1.004719
1010.744714	1.006024
1011.038347	1.004871
1011.331945	1.005484
1011.625508	1.005446
1011.919036	1.004869
1012.212528	1.005963
1012.505986	1.004256
1012.799408	1.005082
1013.092795	1.005374
1013.386147	1.004774
1013.679464	1.005787
1013.972745	1.004647
1014.265992	1.004738
1014.559204	1.004751
1014.852380	1.005647
1015.145521	1.004441
1015.438628	1.005676
1015.731699	1.005097
1016.024736	1.005208
1016.317737	1.004244
1016.610703	1.006112
1016.903635	1.004669
1017.196531	1.005236
1017.489393	1.004638
1017.782219	1.005124
1018.075011	1.005045
1018.367768	1.004251
1018.660490	1.004468
1018.953177	1.004468
1019.245829	1.004468
