Dividing Wavelength (nm)	Counts (n)	Blue Motor Position (mm): 13.000000	Red Motor Position (mm): 0.000000	
326.493990	1.002491
326.888308	1.002491
327.282561	1.002491
327.676750	1.004789
328.070874	1.004067
328.464933	1.005181
328.858929	1.004595
329.252859	1.004057
329.646726	1.003930
330.040528	1.003750
330.434265	1.003049
330.827938	1.003216
331.221547	1.004471
331.615091	1.004637
332.008571	1.004774
332.401986	1.002847
332.795338	1.002684
333.188625	1.004151
333.581847	1.002976
333.975006	1.004301
334.368100	1.004831
334.761129	1.001619
335.154095	1.003063
335.546996	1.002585
335.939833	0.998230
336.332606	1.000340
336.725315	0.998064
337.117960	1.000065
337.510540	0.999092
337.903056	0.998278
338.295508	1.000159
338.687896	0.999289
339.080220	0.999163
339.472480	0.998778
339.864676	0.999571
340.256807	0.998262
340.648875	1.000306
341.040879	1.000058
341.432818	0.999535
341.824694	0.998762
342.216506	0.999845
342.608253	0.999255
342.999937	0.998538
343.391557	0.998643
343.783113	1.001392
344.174605	0.998782
344.566033	0.998582
344.957397	0.999574
345.348697	0.999347
345.739934	0.998863
346.131106	0.998737
346.522215	0.997610
346.913260	0.999752
347.304241	0.998842
347.695159	0.999136
348.086012	0.998881
348.476802	0.998371
348.867528	0.998779
349.258191	0.999354
349.648789	0.998105
350.039324	0.999406
350.429796	0.999379
350.820203	0.997316
351.210548	0.998789
351.600828	0.997323
351.991045	0.998670
352.381198	0.998487
352.771288	0.998700
353.161314	0.999146
353.551276	0.997228
353.941175	0.997379
354.331010	0.999222
354.720782	0.998364
355.110490	0.998077
355.500135	0.998566
355.889717	0.997812
356.279235	0.997746
356.668689	0.997585
357.058080	0.998786
357.447408	0.997511
357.836672	0.997956
358.225873	0.998223
358.615010	0.998111
359.004084	0.997739
359.393095	0.998232
359.782043	0.997744
360.170927	0.997658
360.559748	0.998178
360.948505	0.997257
361.337199	0.996556
361.725830	0.997740
362.114398	0.997662
362.502903	0.996478
362.891344	0.995635
363.279722	0.996487
363.668037	0.997742
364.056289	0.997563
364.444478	0.997392
364.832603	0.996827
365.220665	0.997116
365.608665	0.996405
365.996601	0.997366
366.384474	0.995753
366.772284	0.995232
367.160031	0.995331
367.547715	0.994459
367.935336	0.994106
368.322893	0.992869
368.710388	0.992618
369.097820	0.990588
369.485189	0.988288
369.872495	0.986930
370.259738	0.986008
370.646918	0.982015
371.034035	0.979939
371.421090	0.976833
371.808081	0.971511
372.195010	0.969392
372.581875	0.963795
372.968678	0.959341
373.355418	0.956412
373.742096	0.947563
374.128710	0.944725
374.515262	0.939806
374.901751	0.934178
375.288177	0.929015
375.674540	0.922300
376.060841	0.915581
376.447079	0.909864
376.833254	0.902508
377.219367	0.898709
377.605417	0.885917
377.991404	0.882099
378.377329	0.877246
378.763191	0.871521
379.148991	0.862151
379.534727	0.854067
379.920402	0.845552
380.306013	0.840942
380.691563	0.829283
381.077049	0.822336
381.462474	0.818129
381.847835	0.806763
382.233134	0.802428
382.618371	0.803113
383.003545	0.785093
383.388657	0.783465
383.773706	0.776264
384.158693	0.771496
384.543618	0.766073
384.928480	0.757007
385.313280	0.747906
385.698017	0.746733
386.082692	0.736083
386.467305	0.733937
386.851856	0.729336
387.236344	0.722395
387.620770	0.717764
388.005133	0.711931
388.389435	0.706459
388.773674	0.703806
389.157851	0.696035
389.541965	0.693497
389.926018	0.699893
390.310008	0.687134
390.693936	0.683425
391.077802	0.675719
391.461606	0.676858
391.845348	0.665847
392.229027	0.666058
392.612645	0.663801
392.996200	0.651315
393.379694	0.644227
393.763125	0.633871
394.146494	0.639269
394.529801	0.629387
394.913047	0.621377
395.296230	0.626746
395.679351	0.618580
396.062410	0.615339
396.445408	0.618578
396.828343	0.613688
397.211217	0.609086
397.594028	0.621267
397.976778	0.611198
398.359466	0.608030
398.742092	0.603282
399.124656	0.615064
399.507158	0.602764
399.889598	0.600307
400.271977	0.591980
400.654294	0.596387
401.036549	0.594489
401.418742	0.599400
401.800874	0.584724
402.182944	0.581812
402.564952	0.572898
402.946898	0.574872
403.328783	0.575769
403.710606	0.587320
404.092367	0.561633
404.474067	0.567221
404.855705	0.565653
405.237282	0.574853
405.618797	0.560532
406.000250	0.556467
406.381642	0.546747
406.762972	0.552119
407.144240	0.550283
407.525447	0.549921
407.906593	0.543195
408.287677	0.538298
408.668700	0.546929
409.049661	0.541024
409.430560	0.535311
409.811399	0.544324
410.192176	0.526175
410.572891	0.533362
410.953545	0.521436
411.334138	0.535158
411.714669	0.527723
412.095139	0.539731
412.475547	0.523653
412.855894	0.525837
413.236180	0.524735
413.616405	0.529851
413.996568	0.520563
414.376670	0.527025
414.756711	0.531660
415.136691	0.528067
415.516609	0.519537
415.896466	0.516517
416.276262	0.512451
416.655997	0.513822
417.035670	0.495068
417.415283	0.487243
417.794834	0.491937
418.174324	0.497262
418.553753	0.506456
418.933121	0.488771
419.312428	0.482464
419.691674	0.488004
420.070859	0.476652
420.449983	0.484445
420.829045	0.474346
421.208047	0.482664
421.586988	0.476419
421.965867	0.474569
422.344686	0.463466
422.723444	0.475952
423.102141	0.493103
423.480777	0.465816
423.859352	0.486292
424.237866	0.463391
424.616319	0.464751
424.994712	0.455170
425.373044	0.466329
425.751314	0.454249
426.129524	0.469832
426.507673	0.453721
426.885762	0.447487
427.263789	0.452628
427.641756	0.462729
428.019662	0.452692
428.397508	0.452089
428.775292	0.456738
429.153016	0.448180
429.530679	0.454346
429.908282	0.448274
430.285824	0.457556
430.663305	0.436373
431.040726	0.457333
431.418086	0.457513
431.795385	0.449203
432.172624	0.448097
432.549802	0.448522
432.926920	0.447243
433.303977	0.446671
433.680974	0.444128
434.057910	0.442542
434.434786	0.441618
434.811601	0.444527
435.188355	0.427697
435.565050	0.436663
435.941683	0.437794
436.318257	0.421323
436.694770	0.422944
437.071222	0.420464
437.447614	0.424810
437.823946	0.431580
438.200218	0.420679
438.576429	0.430230
438.952580	0.423492
439.328670	0.420416
439.704700	0.426445
440.080670	0.427694
440.456580	0.409695
440.832429	0.417401
441.208218	0.428207
441.583947	0.417430
441.959616	0.416211
442.335224	0.422120
442.710773	0.412820
443.086261	0.410725
443.461689	0.424737
443.837057	0.414651
444.212365	0.404142
444.587612	0.411751
444.962800	0.401414
445.337927	0.403470
445.712995	0.428805
446.088002	0.390849
446.462949	0.401693
446.837837	0.406589
447.212664	0.395213
447.587431	0.386795
447.962139	0.356851
448.336786	0.316306
448.711374	0.326359
449.085901	0.371035
449.460369	0.374674
449.834776	0.378099
450.209124	0.358027
450.583412	0.350324
450.957640	0.343658
451.331808	0.354928
451.705917	0.378475
452.079965	0.383466
452.453954	0.371494
452.827883	0.377934
453.201752	0.372706
453.575562	0.384331
453.949311	0.372393
454.323001	0.378586
454.696632	0.374326
455.070202	0.367521
455.443713	0.358794
455.817164	0.353345
456.190556	0.349658
456.563888	0.346367
456.937160	0.343763
457.310373	0.361291
457.683526	0.359996
458.056619	0.365854
458.429653	0.366518
458.802628	0.369926
459.175542	0.364186
459.548398	0.346523
459.921194	0.339056
460.293930	0.339177
460.666607	0.316850
461.039224	0.304711
461.411782	0.300555
461.784280	0.299901
462.156719	0.304069
462.529099	0.308458
462.901419	0.324307
463.273680	0.328646
463.645882	0.328099
464.018024	0.334223
464.390106	0.326885
464.762130	0.311502
465.134094	0.294398
465.505999	0.263531
465.877845	0.234006
466.249631	0.220946
466.621358	0.228016
466.993026	0.242143
467.364634	0.248343
467.736184	0.256874
468.107674	0.265845
468.479105	0.265043
468.850477	0.271552
469.221790	0.278808
469.593043	0.288909
469.964238	0.293382
470.335373	0.293239
470.706449	0.291510
471.077467	0.291800
471.448425	0.254046
471.819324	0.229376
472.190164	0.229060
472.560945	0.257972
472.931667	0.280318
473.302330	0.284326
473.672934	0.296260
474.043479	0.284376
474.413965	0.286026
474.784393	0.289810
475.154761	0.284409
475.525070	0.281981
475.895321	0.287461
476.265513	0.281610
476.635645	0.276726
477.005719	0.276777
477.375734	0.273713
477.745691	0.266606
478.115588	0.263137
478.485427	0.256625
478.855207	0.243580
479.224928	0.225930
479.594591	0.213853
479.964194	0.217469
480.333739	0.218656
480.703226	0.220119
481.072653	0.218410
481.442022	0.214165
481.811333	0.210916
482.180584	0.214190
482.549777	0.219782
482.918912	0.223150
483.287988	0.222447
483.657005	0.222569
484.025964	0.228807
484.394864	0.225795
484.763706	0.226767
485.132489	0.231751
485.501213	0.232284
485.869879	0.230743
486.238487	0.234117
486.607036	0.232066
486.975527	0.236513
487.343959	0.232226
487.712333	0.231508
488.080648	0.232657
488.448905	0.232158
488.817104	0.233245
489.185244	0.227627
489.553326	0.224710
489.921350	0.214555
490.289315	0.197025
490.657222	0.191792
491.025070	0.193275
491.392861	0.195250
491.760593	0.200938
492.128267	0.206687
492.495883	0.212243
492.863440	0.218588
493.230939	0.225157
493.598380	0.226455
493.965763	0.228305
494.333088	0.230474
494.700354	0.232142
495.067563	0.231447
495.434713	0.234375
495.801805	0.232371
496.168839	0.233857
496.535815	0.235565
496.902733	0.235412
497.269593	0.236593
497.636395	0.234412
498.003139	0.234877
498.369825	0.237805
498.736453	0.233972
499.103023	0.236000
499.469535	0.235152
499.835989	0.235769
500.202385	0.236384
500.568723	0.239686
500.935003	0.234762
501.301226	0.239037
501.667390	0.233268
502.033497	0.231313
502.399546	0.234324
502.765537	0.236186
503.131470	0.234849
503.497345	0.231132
503.863163	0.239529
504.228923	0.232622
504.594625	0.231321
504.960269	0.236763
505.325856	0.232539
505.691385	0.236600
506.056856	0.233308
506.422270	0.232766
506.787625	0.235207
507.152924	0.232698
507.518164	0.232795
507.883347	0.234549
508.248472	0.236435
508.613540	0.231367
508.978550	0.234212
509.343503	0.234520
509.708398	0.231856
510.073236	0.229773
510.438016	0.229539
510.802738	0.230676
511.167403	0.229455
511.532010	0.231705
511.896561	0.226872
512.261053	0.225523
512.625488	0.227896
512.989866	0.228014
513.354186	0.228528
513.718449	0.230328
514.082655	0.226644
514.446803	0.228812
514.810894	0.226518
515.174927	0.229395
515.538904	0.228817
515.902822	0.225888
516.266684	0.228142
516.630488	0.229334
516.994235	0.228053
517.357925	0.226973
517.721558	0.225162
518.085133	0.225044
518.448651	0.224709
518.812112	0.227389
519.175516	0.226736
519.538863	0.224381
519.902152	0.226200
520.265385	0.223025
520.628560	0.224715
520.991678	0.225237
521.354739	0.224137
521.717743	0.225523
522.080690	0.225668
522.443580	0.223167
522.806413	0.223995
523.169189	0.223595
523.531908	0.222392
523.894569	0.225879
524.257174	0.225642
524.619722	0.223596
524.982213	0.224761
525.344647	0.223324
525.707025	0.224414
526.069345	0.222909
526.431608	0.224422
526.793815	0.222170
527.155964	0.226729
527.518057	0.225411
527.880093	0.226568
528.242072	0.225070
528.603995	0.227076
528.965860	0.228570
529.327669	0.227651
529.689421	0.228523
530.051117	0.229766
530.412755	0.227436
530.774337	0.229659
531.135862	0.230006
531.497331	0.229460
531.858743	0.232358
532.220098	0.228940
532.581396	0.231827
532.942638	0.232124
533.303824	0.233373
533.664953	0.232609
534.026025	0.234768
534.387040	0.232693
534.747999	0.232475
535.108902	0.231410
535.469748	0.236792
535.830537	0.234279
536.191270	0.234660
536.551947	0.234448
536.912567	0.234012
537.273131	0.236184
537.633638	0.236218
537.994089	0.236873
538.354483	0.237705
538.714821	0.234772
539.075103	0.234562
539.435328	0.235459
539.795497	0.239104
540.155609	0.235742
540.515665	0.233924
540.875665	0.239574
541.235609	0.237941
541.595496	0.238224
541.955328	0.234766
542.315102	0.237444
542.674821	0.238512
543.034483	0.238633
543.394090	0.238215
543.753640	0.240037
544.113134	0.235011
544.472571	0.238673
544.831953	0.235385
545.191278	0.239746
545.550548	0.238787
545.909761	0.235840
546.268918	0.236638
546.628019	0.235001
546.987064	0.237726
547.346053	0.239527
547.704986	0.237155
548.063863	0.237477
548.422684	0.238027
548.781449	0.239883
549.140158	0.237510
549.498811	0.240118
549.857408	0.243441
550.215949	0.237843
550.574434	0.241110
550.932864	0.239073
551.291237	0.237965
551.649555	0.239184
552.007817	0.239206
552.366022	0.240085
552.724173	0.240295
553.082267	0.240497
553.440305	0.237296
553.798288	0.241689
554.156215	0.238641
554.514086	0.238987
554.871902	0.242525
555.229661	0.241385
555.587365	0.242230
555.945014	0.244599
556.302606	0.241700
556.660143	0.244129
557.017625	0.240993
557.375050	0.243078
557.732421	0.240036
558.089735	0.241899
558.446994	0.241980
558.804197	0.241423
559.161345	0.241117
559.518437	0.244696
559.875474	0.242739
560.232455	0.242149
560.589381	0.243334
560.946251	0.243616
561.303065	0.241091
561.659825	0.242544
562.016528	0.244360
562.373177	0.247041
562.729770	0.244161
563.086307	0.246445
563.442789	0.244282
563.799216	0.247057
564.155587	0.245953
564.511904	0.247495
564.868164	0.247298
565.224370	0.247662
565.580520	0.249067
565.936615	0.248636
566.292654	0.252380
566.648638	0.249361
567.004567	0.250555
567.360441	0.250954
567.716260	0.253036
568.072023	0.250939
568.427732	0.251808
568.783385	0.254148
569.138982	0.252717
569.494525	0.252406
569.850013	0.255599
570.205445	0.254251
570.560823	0.256737
570.916145	0.258870
571.271412	0.257335
571.626625	0.258983
571.981782	0.259760
572.336884	0.260415
572.691931	0.260292
573.046923	0.262196
573.401860	0.263433
573.756743	0.265049
574.111570	0.264115
574.466342	0.264808
574.821059	0.264365
575.175722	0.267624
575.530330	0.267179
575.884882	0.267715
576.239380	0.269954
576.593823	0.270795
576.948211	0.270424
577.302544	0.273526
577.656823	0.273692
578.011047	0.273790
578.365216	0.275231
578.719330	0.277253
579.073389	0.277096
579.427394	0.278817
579.781344	0.279889
580.135239	0.281576
580.489080	0.281815
580.842866	0.284913
581.196597	0.285303
581.550273	0.284294
581.903895	0.285764
582.257463	0.284253
582.610975	0.288271
582.964434	0.287925
583.317837	0.290921
583.671186	0.291729
584.024481	0.291994
584.377721	0.294819
584.730906	0.296165
585.084037	0.295995
585.437113	0.298089
585.790135	0.297992
586.143103	0.301832
586.496016	0.302894
586.848874	0.301627
587.201679	0.302379
587.554428	0.306313
587.907124	0.305931
588.259765	0.307250
588.612352	0.308784
588.964884	0.312906
589.317362	0.313256
589.669786	0.313784
590.022155	0.312886
590.374470	0.313091
590.726731	0.315286
591.078937	0.321522
591.431090	0.318489
591.783188	0.322861
592.135232	0.324775
592.487222	0.324885
592.839157	0.323924
593.191038	0.327012
593.542866	0.329826
593.894639	0.334131
594.246358	0.333080
594.598022	0.333899
594.949633	0.337840
595.301190	0.339626
595.652692	0.339172
596.004141	0.336865
596.355535	0.344923
596.706876	0.347169
597.058162	0.350610
597.409395	0.348843
597.760573	0.347618
598.111698	0.351566
598.462768	0.353246
598.813785	0.355280
599.164748	0.357898
599.515657	0.358813
599.866511	0.364249
600.217312	0.360409
600.568060	0.366667
600.918753	0.364404
601.269392	0.366638
601.619978	0.371033
601.970510	0.370208
602.320988	0.371380
602.671412	0.370939
603.021783	0.374356
603.372100	0.376536
603.722363	0.378419
604.072572	0.380072
604.422728	0.380958
604.772830	0.384818
605.122878	0.386063
605.472872	0.387989
605.822813	0.388312
606.172701	0.391924
606.522534	0.390945
606.872314	0.392816
607.222041	0.395614
607.571714	0.394933
607.921333	0.398274
608.270899	0.399860
608.620411	0.398095
608.969870	0.403850
609.319276	0.405708
609.668627	0.407571
610.017926	0.407670
610.367171	0.408801
610.716362	0.410808
611.065500	0.413484
611.414585	0.414309
611.763616	0.415835
612.112594	0.418409
612.461518	0.419993
612.810389	0.420309
613.159207	0.424226
613.507971	0.427836
613.856682	0.426633
614.205340	0.429044
614.553945	0.428933
614.902496	0.434415
615.250994	0.435250
615.599439	0.437877
615.947830	0.439284
616.296169	0.442729
616.644454	0.444714
616.992686	0.446562
617.340864	0.447532
617.688990	0.452537
618.037063	0.451738
618.385082	0.455575
618.733048	0.455610
619.080961	0.459587
619.428821	0.461516
619.776628	0.463393
620.124382	0.467783
620.472083	0.470251
620.819731	0.472042
621.167326	0.477335
621.514868	0.478935
621.862357	0.484136
622.209793	0.485796
622.557176	0.490408
622.904506	0.493182
623.251783	0.496955
623.599007	0.501444
623.946179	0.502281
624.293297	0.506389
624.640363	0.511494
624.987376	0.513675
625.334336	0.517565
625.681243	0.522861
626.028097	0.525120
626.374899	0.527859
626.721647	0.531322
627.068343	0.534915
627.414987	0.539363
627.761577	0.542305
628.108115	0.542600
628.454600	0.549227
628.801032	0.550706
629.147412	0.553173
629.493739	0.556948
629.840014	0.560667
630.186236	0.561184
630.532405	0.567785
630.878521	0.567678
631.224585	0.571945
631.570597	0.575633
631.916556	0.577905
632.262462	0.579449
632.608316	0.583932
632.954117	0.586687
633.299866	0.588465
633.645562	0.591982
633.991206	0.597192
634.336797	0.600752
634.682336	0.605447
635.027823	0.608636
635.373257	0.610515
635.718639	0.615531
636.063968	0.616508
636.409245	0.622534
636.754470	0.625473
637.099642	0.628739
637.444762	0.633592
637.789829	0.634907
638.134845	0.638604
638.479808	0.642532
638.824719	0.644438
639.169577	0.648568
639.514383	0.650352
639.859137	0.654749
640.203839	0.656185
640.548489	0.659874
640.893086	0.662483
641.237632	0.665793
641.582125	0.666511
641.926566	0.670900
642.270955	0.671880
642.615292	0.673764
642.959576	0.677091
643.303809	0.678678
643.647990	0.681308
643.992118	0.683603
644.336195	0.686646
644.680219	0.689010
645.024192	0.690121
645.368112	0.689503
645.711981	0.691243
646.055797	0.690379
646.399562	0.693831
646.743274	0.692592
647.086935	0.692767
647.430544	0.694689
647.774101	0.696819
648.117606	0.698321
648.461059	0.701043
648.804460	0.704371
649.147810	0.707722
649.491108	0.711942
649.834354	0.714521
650.177548	0.719384
650.520690	0.724725
650.863781	0.726357
651.206820	0.729079
651.549807	0.732413
651.892742	0.737322
652.235626	0.738304
652.578458	0.741350
652.921238	0.745699
653.263967	0.746650
653.606644	0.749032
653.949269	0.752071
654.291843	0.754488
654.634365	0.756094
654.976836	0.759347
655.319255	0.760942
655.661622	0.764368
656.003938	0.766127
656.346203	0.766948
656.688416	0.770116
657.030577	0.772230
657.372687	0.775413
657.714746	0.777101
658.056753	0.777470
658.398708	0.780868
658.740612	0.783024
659.082465	0.784002
659.424266	0.785471
659.766016	0.786758
660.107715	0.790554
660.449362	0.791073
660.790958	0.793123
661.132503	0.795725
661.473996	0.796476
661.815438	0.798062
662.156829	0.799426
662.498168	0.802338
662.839456	0.802459
663.180693	0.804640
663.521879	0.805292
663.863013	0.808588
664.204097	0.809147
664.545129	0.809262
664.886110	0.811282
665.227040	0.813757
665.567918	0.814346
665.908746	0.815362
666.249522	0.817456
666.590248	0.818447
666.930922	0.819518
667.271545	0.821602
667.612118	0.822593
667.952639	0.823919
668.293109	0.826134
668.633528	0.827658
668.973896	0.830254
669.314213	0.831506
669.654480	0.834020
669.994695	0.835196
670.334859	0.837684
670.674973	0.839742
671.015035	0.840845
671.355047	0.843312
671.695008	0.843730
672.034918	0.844952
672.374777	0.846331
672.714585	0.848246
673.054342	0.849472
673.394049	0.850462
673.733705	0.851715
674.073310	0.854485
674.412864	0.854934
674.752368	0.856987
675.091820	0.859169
675.431223	0.861307
675.770574	0.862205
676.109875	0.864341
676.449125	0.866477
676.788324	0.868175
677.127473	0.871254
677.466571	0.872853
677.805619	0.874592
678.144616	0.876664
678.483562	0.878759
678.822458	0.880330
679.161303	0.881126
679.500098	0.884115
679.838842	0.884704
680.177535	0.885346
680.516179	0.885117
680.854771	0.886859
681.193314	0.885898
681.531805	0.884579
681.870247	0.882908
682.208638	0.881020
682.546978	0.881780
682.885268	0.883881
683.223508	0.886824
683.561697	0.888344
683.899836	0.890408
684.237925	0.891135
684.575963	0.892694
684.913951	0.894468
685.251889	0.894557
685.589776	0.894947
685.927614	0.895819
686.265401	0.895903
686.603137	0.896334
686.940824	0.895783
687.278460	0.896999
687.616046	0.896004
687.953582	0.894511
688.291068	0.896776
688.628504	0.896086
688.965889	0.896939
689.303224	0.898479
689.640510	0.901119
689.977745	0.903264
690.314930	0.906736
690.652065	0.908753
690.989150	0.911043
691.326185	0.914177
691.663170	0.916440
692.000105	0.918660
692.336990	0.921572
692.673825	0.922575
693.010610	0.924272
693.347345	0.926489
693.684030	0.928053
694.020665	0.929412
694.357251	0.931473
694.693786	0.932721
695.030272	0.932716
695.366707	0.935303
695.703093	0.935559
696.039429	0.936291
696.375716	0.937830
696.711952	0.938280
697.048139	0.939717
697.384276	0.939779
697.720363	0.940117
698.056400	0.939875
698.392388	0.941025
698.728326	0.941995
699.064214	0.943462
699.400053	0.943902
699.735842	0.946243
700.071581	0.945822
700.407270	0.947316
700.742910	0.949388
701.078501	0.949144
701.414042	0.951473
701.749533	0.950546
702.084974	0.952828
702.420366	0.953203
702.755709	0.953667
703.091002	0.955200
703.426246	0.956587
703.761440	0.957212
704.096584	0.957156
704.431679	0.958127
704.766725	0.957936
705.101721	0.959727
705.436668	0.959784
705.771565	0.960758
706.106413	0.960002
706.441212	0.961741
706.775961	0.960869
707.110661	0.961294
707.445311	0.962302
707.779913	0.962791
708.114465	0.962418
708.448967	0.962359
708.783421	0.961378
709.117825	0.961379
709.452180	0.961425
709.786485	0.961189
710.120742	0.960064
710.454949	0.958954
710.789107	0.958424
711.123216	0.957282
711.457275	0.956948
711.791286	0.956251
712.125247	0.958091
712.459159	0.957660
712.793023	0.957231
713.126837	0.959486
713.460602	0.957935
713.794318	0.960224
714.127985	0.960722
714.461602	0.962646
714.795171	0.963466
715.128691	0.964589
715.462162	0.966936
715.795584	0.967737
716.128957	0.968122
716.462281	0.969102
716.795556	0.969827
717.128782	0.971634
717.461960	0.971261
717.795088	0.971850
718.128167	0.972959
718.461198	0.972062
718.794180	0.974311
719.127113	0.974247
719.459997	0.974424
719.792833	0.976018
720.125619	0.974486
720.458357	0.975824
720.791046	0.977072
721.123686	0.977180
721.456278	0.977326
721.788821	0.976862
722.121315	0.978940
722.453761	0.978225
722.786158	0.978818
723.118506	0.979135
723.450805	0.978486
723.783056	0.979179
724.115259	0.978621
724.447412	0.979071
724.779518	0.979183
725.111574	0.979033
725.443582	0.979199
725.775542	0.979745
726.107453	0.979302
726.439315	0.979398
726.771129	0.979124
727.102895	0.978220
727.434612	0.978266
727.766281	0.978559
728.097901	0.977892
728.429473	0.978555
728.760996	0.977241
729.092471	0.978002
729.423897	0.979185
729.755276	0.979584
730.086606	0.978903
730.417887	0.979677
730.749120	0.978759
731.080305	0.979109
731.411442	0.977850
731.742530	0.977763
732.073570	0.978294
732.404562	0.978525
732.735506	0.978108
733.066401	0.978933
733.397249	0.979788
733.728048	0.980706
734.058798	0.982240
734.389501	0.984280
734.720156	0.983505
735.050762	0.984037
735.381320	0.983764
735.711831	0.983532
736.042293	0.984294
736.372707	0.985203
736.703073	0.983694
737.033391	0.985287
737.363661	0.985316
737.693883	0.984634
738.024056	0.983818
738.354182	0.984965
738.684260	0.984047
739.014290	0.984162
739.344272	0.984585
739.674207	0.983792
740.004093	0.983979
740.333931	0.983445
740.663722	0.983353
740.993464	0.984729
741.323159	0.984042
741.652806	0.984056
741.982405	0.985031
742.311956	0.985144
742.641460	0.985847
742.970915	0.985381
743.300323	0.985503
743.629683	0.986075
743.958996	0.987338
744.288260	0.985879
744.617477	0.986674
744.946647	0.987021
745.275768	0.988797
745.604842	0.987769
745.933869	0.987503
746.262847	0.988613
746.591778	0.987756
746.920662	0.988707
747.249498	0.989680
747.578286	0.989678
747.907027	0.988141
748.235720	0.988432
748.564365	0.988923
748.892963	0.988887
749.221514	0.988422
749.550017	0.987916
749.878473	0.988526
750.206881	0.989439
750.535242	0.988982
750.863555	0.988385
751.191821	0.988716
751.520039	0.988082
751.848210	0.988048
752.176334	0.988946
752.504411	0.989167
752.832440	0.989177
753.160421	0.989703
753.488356	0.990210
753.816243	0.988747
754.144082	0.989238
754.471875	0.990295
754.799620	0.990288
755.127318	0.990244
755.454969	0.990252
755.782572	0.991255
756.110129	0.990442
756.437638	0.991821
756.765100	0.989934
757.092515	0.990302
757.419882	0.990410
757.747203	0.989725
758.074477	0.991292
758.401703	0.990452
758.728882	0.990214
759.056014	0.990155
759.383099	0.989381
759.710138	0.989257
760.037129	0.989932
760.364073	0.990059
760.690970	0.989938
761.017820	0.989878
761.344623	0.990613
761.671379	0.990307
761.998088	0.990162
762.324751	0.989042
762.651366	0.988998
762.977935	0.985725
763.304456	0.984617
763.630931	0.980846
763.957359	0.980959
764.283740	0.983042
764.610074	0.984509
764.936362	0.986562
765.262602	0.987786
765.588796	0.989438
765.914943	0.989705
766.241044	0.990116
766.567097	0.990585
766.893104	0.990981
767.219064	0.990639
767.544978	0.990934
767.870845	0.991732
768.196665	0.991634
768.522438	0.992967
768.848165	0.992508
769.173846	0.993354
769.499479	0.994298
769.825066	0.994588
770.150607	0.994368
770.476101	0.993896
770.801548	0.993554
771.126949	0.994532
771.452303	0.993468
771.777611	0.994448
772.102872	0.993104
772.428087	0.993650
772.753256	0.994751
773.078378	0.994289
773.403453	0.993363
773.728482	0.995765
774.053465	0.993581
774.378401	0.995601
774.703291	0.994835
775.028135	0.995753
775.352932	0.994550
775.677683	0.996982
776.002388	0.995029
776.327046	0.994724
776.651658	0.995502
776.976224	0.994708
777.300743	0.993923
777.625216	0.994525
777.949643	0.995101
778.274024	0.994821
778.598359	0.996084
778.922647	0.995802
779.246889	0.995339
779.571086	0.996445
779.895236	0.995990
780.219339	0.995333
780.543397	0.995286
780.867409	0.996250
781.191374	0.995123
781.515294	0.996429
781.839167	0.996113
782.162995	0.995724
782.486776	0.995230
782.810511	0.995253
783.134201	0.995732
783.457844	0.996249
783.781441	0.994917
784.104993	0.994080
784.428498	0.996422
784.751958	0.996804
785.075372	0.996758
785.398739	0.995541
785.722061	0.994982
786.045337	0.995983
786.368568	0.995422
786.691752	0.995509
787.014891	0.995168
787.337983	0.993645
787.661030	0.994512
787.984031	0.994502
788.306987	0.994261
788.629897	0.992610
788.952760	0.993112
789.275579	0.993623
789.598351	0.993971
789.921078	0.994541
790.243759	0.993743
790.566395	0.995301
790.888984	0.994835
791.211529	0.995444
791.534027	0.994754
791.856480	0.995918
792.178888	0.995480
792.501249	0.994944
792.823566	0.997358
793.145836	0.995930
793.468062	0.996180
793.790241	0.996008
794.112375	0.995286
794.434464	0.997033
794.756507	0.996783
795.078505	0.996304
795.400457	0.996509
795.722364	0.995292
796.044226	0.995448
796.366042	0.993140
796.687812	0.993681
797.009538	0.994394
797.331218	0.995763
797.652852	0.995744
797.974442	0.994639
798.295986	0.995712
798.617484	0.993987
798.938938	0.995574
799.260346	0.995937
799.581709	0.995632
799.903026	0.996332
800.224299	0.995592
800.545526	0.995897
800.866708	0.995284
801.187845	0.996259
801.508936	0.995471
801.829983	0.995700
802.150984	0.997251
802.471940	0.997317
802.792851	0.996716
803.113717	0.996642
803.434538	0.996556
803.755314	0.996768
804.076045	0.997382
804.396731	0.997045
804.717372	0.996070
805.037967	0.996539
805.358518	0.996835
805.679024	0.996185
805.999485	0.996124
806.319901	0.996209
806.640272	0.997481
806.960598	0.996991
807.280879	0.996046
807.601115	0.997442
807.921306	0.997183
808.241453	0.995897
808.561554	0.996992
808.881611	0.996075
809.201623	0.995693
809.521590	0.996333
809.841513	0.997063
810.161390	0.996487
810.481223	0.996283
810.801011	0.996767
811.120755	0.997082
811.440453	0.995784
811.760107	0.996885
812.079716	0.995634
812.399281	0.997218
812.718801	0.996289
813.038276	0.996254
813.357707	0.997672
813.677093	0.997538
813.996434	0.997127
814.315731	0.998666
814.634983	0.995990
814.954191	0.996880
815.273354	0.996224
815.592473	0.995647
815.911547	0.997296
816.230577	0.996183
816.549562	0.996413
816.868502	0.996031
817.187399	0.996972
817.506250	0.996694
817.825058	0.994560
818.143821	0.995458
818.462539	0.995627
818.781213	0.994738
819.099843	0.996366
819.418429	0.993668
819.736970	0.993224
820.055466	0.990778
820.373919	0.991000
820.692327	0.988961
821.010691	0.987478
821.329011	0.982113
821.647286	0.978440
821.965517	0.973008
822.283704	0.968052
822.601847	0.964235
822.919945	0.966138
823.237999	0.969160
823.556010	0.971230
823.873976	0.974444
824.191897	0.977810
824.509775	0.980598
824.827609	0.982572
825.145398	0.984119
825.463144	0.984311
825.780845	0.984547
826.098502	0.984171
826.416116	0.982749
826.733685	0.979768
827.051210	0.976697
827.368692	0.978181
827.686129	0.979842
828.003522	0.983706
828.320872	0.984620
828.638177	0.987286
828.955439	0.990594
829.272656	0.990330
829.589830	0.991162
829.906960	0.992797
830.224046	0.992796
830.541088	0.994021
830.858086	0.994821
831.175041	0.996529
831.491952	0.994435
831.808819	0.993616
832.125642	0.994562
832.442421	0.994417
832.759157	0.993086
833.075849	0.990988
833.392497	0.988481
833.709101	0.984778
834.025662	0.984381
834.342179	0.985126
834.658653	0.988615
834.975083	0.989696
835.291469	0.990875
835.607811	0.993142
835.924110	0.993599
836.240366	0.995320
836.556578	0.995820
836.872746	0.995480
837.188871	0.996007
837.504952	0.996145
837.820990	0.997885
838.136984	0.995977
838.452935	0.997093
838.768842	0.997540
839.084706	0.997308
839.400526	0.996329
839.716303	0.992437
840.032037	0.992794
840.347727	0.992907
840.663373	0.993384
840.978977	0.993740
841.294537	0.995288
841.610054	0.996848
841.925527	0.996974
842.240957	0.997090
842.556344	0.997855
842.871687	0.997245
843.186987	0.998272
843.502244	0.998862
843.817458	0.998486
844.132629	0.998487
844.447756	0.998507
844.762840	0.999681
845.077881	0.999528
845.392879	0.997412
845.707833	0.998085
846.022745	0.998783
846.337613	0.999460
846.652438	0.998669
846.967221	0.999702
847.281960	0.999301
847.596656	1.000129
847.911309	0.999914
848.225919	0.998423
848.540485	0.998607
848.855009	1.001399
849.169490	1.000015
849.483928	0.998832
849.798323	0.998293
850.112675	1.000940
850.426984	1.000624
850.741251	0.999789
851.055474	0.999268
851.369654	0.999259
851.683792	0.998815
851.997887	0.998407
852.311938	0.998887
852.625947	0.999764
852.939914	0.998328
853.253837	0.999986
853.567718	1.000612
853.881555	0.999547
854.195350	0.999194
854.509103	0.998881
854.822812	1.000216
855.136479	0.999386
855.450103	0.999163
855.763685	0.999297
856.077224	0.998179
856.390720	0.998653
856.704173	1.001021
857.017584	1.000160
857.330953	0.999865
857.644278	0.998867
857.957561	0.998683
858.270802	0.999073
858.584000	0.998592
858.897155	0.998503
859.210268	0.999412
859.523339	0.999462
859.836367	0.999715
860.149352	0.999068
860.462295	0.998113
860.775195	0.999816
861.088054	0.998312
861.400869	0.999933
861.713642	0.997918
862.026373	0.999224
862.339062	0.998917
862.651708	0.999461
862.964312	0.999067
863.276873	0.998744
863.589392	0.999343
863.901869	0.997718
864.214303	0.999352
864.526696	0.998101
864.839045	0.998370
865.151353	0.998812
865.463619	0.996634
865.775842	0.999581
866.088023	0.999299
866.400162	0.999621
866.712258	0.999228
867.024313	0.999462
867.336325	0.998917
867.648296	0.998747
867.960224	0.999080
868.272110	0.999179
868.583954	0.998081
868.895755	0.998804
869.207515	0.998231
869.519233	0.999429
869.830909	0.998118
870.142542	0.996284
870.454134	0.997558
870.765684	0.997349
871.077191	0.999389
871.388657	0.998196
871.700081	0.999049
872.011463	0.998112
872.322803	0.997788
872.634101	0.997695
872.945357	0.997390
873.256571	0.997207
873.567744	0.997480
873.878874	0.997003
874.189963	0.997102
874.501010	1.000066
874.812015	0.997690
875.122979	0.997752
875.433900	0.997426
875.744780	0.998643
876.055618	0.996902
876.366415	0.997666
876.677169	0.996670
876.987882	0.997330
877.298554	0.999055
877.609183	0.997409
877.919771	0.997096
878.230317	0.997403
878.540822	0.995754
878.851285	0.995866
879.161707	0.995703
879.472087	0.996027
879.782425	0.991905
880.092722	0.990256
880.402977	0.985403
880.713191	0.980851
881.023363	0.975776
881.333494	0.971183
881.643583	0.972000
881.953631	0.971453
882.263637	0.970208
882.573602	0.972425
882.883526	0.976188
883.193408	0.977916
883.503248	0.981389
883.813048	0.982257
884.122806	0.984926
884.432522	0.986971
884.742197	0.989177
885.051831	0.990170
885.361424	0.991798
885.670975	0.992571
885.980485	0.992790
886.289954	0.993006
886.599382	0.992487
886.908768	0.995238
887.218113	0.994102
887.527417	0.995435
887.836680	0.996283
888.145901	0.997501
888.455082	0.997175
888.764221	0.997447
889.073319	0.995369
889.382376	0.997813
889.691392	0.996316
890.000366	0.997399
890.309300	0.996070
890.618193	0.997280
890.927044	0.996026
891.235855	0.997133
891.544625	0.995811
891.853353	0.996050
892.162041	0.996279
892.470687	0.996986
892.779293	0.995619
893.087858	0.993039
893.396381	0.993291
893.704864	0.992248
894.013306	0.990651
894.321707	0.989248
894.630068	0.986051
894.938387	0.985451
895.246665	0.986028
895.554903	0.985890
895.863100	0.989036
896.171256	0.989899
896.479371	0.991755
896.787446	0.992253
897.095480	0.993326
897.403473	0.994426
897.711425	0.994352
898.019336	0.995165
898.327207	0.995905
898.635038	0.995499
898.942827	0.996701
899.250576	0.995867
899.558284	0.996837
899.865952	0.996750
900.173579	0.997153
900.481165	0.997079
900.788711	0.996355
901.096216	0.996257
901.403681	0.998496
901.711105	0.997225
902.018489	0.998198
902.325832	0.997795
902.633135	0.997409
902.940397	0.997621
903.247619	0.995740
903.554800	0.993056
903.861941	0.990412
904.169041	0.985721
904.476101	0.982217
904.783121	0.982343
905.090100	0.983979
905.397039	0.986193
905.703938	0.988652
906.010796	0.990332
906.317614	0.992269
906.624391	0.994193
906.931129	0.995367
907.237826	0.996382
907.544483	0.996334
907.851099	0.997396
908.157675	0.996753
908.464211	0.998324
908.770707	0.997087
909.077163	0.998888
909.383578	0.998758
909.689954	0.997722
909.996289	0.999411
910.302584	0.999239
910.608839	0.999150
910.915054	0.998615
911.221229	1.000033
911.527363	0.998342
911.833458	0.999684
912.139513	0.998787
912.445527	0.999061
912.751502	0.998314
913.057436	0.997793
913.363331	0.999106
913.669186	0.997714
913.975000	0.997359
914.280775	0.996121
914.586510	0.994516
914.892205	0.992868
915.197859	0.991645
915.503475	0.988267
915.809050	0.985497
916.114585	0.982668
916.420081	0.983274
916.725536	0.983931
917.030952	0.984845
917.336328	0.985947
917.641665	0.986982
917.946961	0.988291
918.252218	0.990342
918.557435	0.991821
918.862612	0.994198
919.167750	0.994190
919.472848	0.995866
919.777906	0.995902
920.082925	0.996965
920.387904	0.997398
920.692843	0.995908
920.997743	0.996076
921.302603	0.999265
921.607423	0.996432
921.912204	0.996946
922.216946	0.999368
922.521647	0.997758
922.826310	0.997307
923.130932	0.998672
923.435516	0.998232
923.740059	0.999007
924.044564	0.998287
924.349028	0.998529
924.653454	1.000061
924.957840	0.999284
925.262186	0.998182
925.566493	0.999798
925.870761	0.998870
926.174989	0.998730
926.479178	1.000923
926.783328	1.000241
927.087438	0.999300
927.391509	0.998807
927.695541	0.999846
927.999533	0.999631
928.303486	0.999778
928.607400	0.999907
928.911275	0.999250
929.215110	0.999995
929.518906	1.000824
929.822663	1.001258
930.126381	1.001711
930.430060	0.999592
930.733699	1.000268
931.037299	1.000298
931.340861	1.001139
931.644383	0.999985
931.947866	1.000905
932.251309	1.000700
932.554714	0.999421
932.858080	1.000746
933.161407	1.000261
933.464694	1.001285
933.767943	0.999488
934.071153	1.000569
934.374323	1.000645
934.677455	0.999400
934.980548	0.999567
935.283602	1.000318
935.586617	1.000250
935.889593	1.001061
936.192530	1.000868
936.495428	1.000440
936.798287	0.999734
937.101108	0.999930
937.403890	0.999257
937.706632	0.999737
938.009336	0.999122
938.312002	0.998899
938.614628	0.999351
938.917216	0.999596
939.219765	0.998686
939.522275	0.999766
939.824747	0.999170
940.127179	0.999500
940.429573	0.999937
940.731929	0.999253
941.034246	0.998490
941.336524	0.997799
941.638763	0.998962
941.940964	0.998237
942.243126	0.998899
942.545250	0.999096
942.847335	0.999529
943.149381	0.999885
943.451389	0.998306
943.753359	1.000160
944.055290	1.000865
944.357182	0.999977
944.659036	1.000850
944.960851	1.000899
945.262628	1.000184
945.564367	1.000424
945.866067	1.000385
946.167729	1.000587
946.469352	0.999320
946.770937	0.999012
947.072484	1.001118
947.373992	0.999967
947.675462	0.999793
947.976893	1.000242
948.278286	1.001403
948.579641	1.000993
948.880958	1.000776
949.182236	1.000868
949.483476	1.000725
949.784678	1.000097
950.085841	1.000329
950.386967	0.999214
950.688054	1.000199
950.989103	1.000117
951.290114	1.000290
951.591087	1.000754
951.892021	0.998810
952.192917	1.000061
952.493776	0.999765
952.794596	1.000657
953.095378	1.000108
953.396122	1.000251
953.696828	1.001771
953.997496	1.000823
954.298126	1.001539
954.598718	1.000282
954.899272	1.000719
955.199788	0.999547
955.500266	1.000970
955.800706	1.000021
956.101108	1.001403
956.401472	1.001011
956.701798	1.001373
957.002087	1.000712
957.302337	0.999923
957.602550	1.001726
957.902724	1.000019
958.202861	0.999579
958.502960	0.999494
958.803022	1.001806
959.103045	1.001276
959.403031	1.001344
959.702979	1.002782
960.002889	1.000760
960.302762	1.000639
960.602596	1.002279
960.902393	1.001008
961.202153	1.001930
961.501875	1.002509
961.801559	1.000907
962.101205	1.001444
962.400814	1.002705
962.700385	1.002448
962.999918	1.002794
963.299414	1.000485
963.598873	1.001876
963.898293	1.001792
964.197677	1.002446
964.497022	1.003036
964.796331	1.001739
965.095601	1.002520
965.394835	1.000789
965.694030	1.002728
965.993189	1.002201
966.292309	1.002676
966.591393	1.000875
966.890439	1.001595
967.189447	1.001068
967.488419	1.002368
967.787353	1.002197
968.086249	1.002179
968.385108	1.001760
968.683930	1.002016
968.982714	1.002156
969.281462	1.001837
969.580172	1.002279
969.878844	1.002608
970.177480	1.001454
970.476078	1.001759
970.774639	1.001062
971.073162	1.001785
971.371649	1.000768
971.670098	1.001283
971.968510	1.000941
972.266885	1.001370
972.565223	1.001219
972.863524	1.000809
973.161788	1.001266
973.460014	1.003524
973.758204	1.000473
974.056356	1.001224
974.354471	1.000826
974.652550	1.002951
974.950591	1.001406
975.248595	1.000422
975.546563	1.002046
975.844493	1.002661
976.142386	1.001111
976.440243	1.002957
976.738062	1.002441
977.035845	1.001149
977.333590	1.001861
977.631299	1.001045
977.928971	1.001540
978.226606	1.002069
978.524204	1.001910
978.821765	1.002622
979.119290	1.002627
979.416777	1.002067
979.714228	1.001420
980.011642	1.002626
980.309020	1.001987
980.606360	1.002130
980.903664	1.001928
981.200931	1.001427
981.498162	1.001664
981.795356	1.001434
982.092513	1.001208
982.389633	1.002596
982.686717	1.000573
982.983764	0.999822
983.280775	1.001566
983.577749	1.001148
983.874686	1.000331
984.171587	1.000436
984.468451	1.001654
984.765279	1.002286
985.062070	1.001463
985.358824	1.001522
985.655543	1.001433
985.952224	1.003039
986.248869	1.002126
986.545478	1.002916
986.842050	1.001281
987.138586	1.001523
987.435086	1.001365
987.731549	1.003529
988.027975	1.002593
988.324366	1.001581
988.620719	1.003598
988.917037	1.002835
989.213318	1.002244
989.509563	1.002232
989.805772	1.003063
990.101944	1.002810
990.398080	1.002039
990.694180	1.003327
990.990244	1.000574
991.286271	1.001698
991.582262	1.002953
991.878217	1.001902
992.174136	1.002644
992.470019	1.000943
992.765865	1.002960
993.061676	1.004250
993.357450	1.003026
993.653188	1.003166
993.948890	1.002043
994.244556	1.001236
994.540186	1.001449
994.835780	1.002012
995.131337	1.003790
995.426859	1.002040
995.722345	1.003181
996.017795	1.001781
996.313208	1.001913
996.608586	1.002734
996.903928	1.002399
997.199234	1.002393
997.494504	1.002037
997.789738	1.000945
998.084936	1.002717
998.380099	1.001160
998.675225	1.002764
998.970316	1.002159
999.265371	1.002901
999.560390	1.001056
999.855373	1.001745
1000.150320	1.001648
1000.445232	1.002511
1000.740108	1.002960
1001.034948	1.002139
1001.329752	1.002393
1001.624521	1.002864
1001.919254	1.001275
1002.213951	1.002841
1002.508613	1.001224
1002.803239	1.002715
1003.097829	1.003732
1003.392384	1.002773
1003.686903	1.002921
1003.981386	1.002516
1004.275834	1.003690
1004.570246	1.001084
1004.864623	1.003254
1005.158964	1.001982
1005.453270	1.002838
1005.747540	1.001457
1006.041775	1.003202
1006.335974	1.002612
1006.630138	1.003797
1006.924266	1.001067
1007.218359	1.000602
1007.512416	1.003088
1007.806438	1.002405
1008.100425	1.003711
1008.394376	1.003517
1008.688292	1.001275
1008.982172	1.002240
1009.276017	1.002749
1009.569827	1.003149
1009.863602	1.001803
1010.157341	1.003427
1010.451045	1.003092
1010.744714	1.003388
1011.038347	1.003202
1011.331945	1.002132
1011.625508	1.002465
1011.919036	1.002316
1012.212528	1.002840
1012.505986	1.002060
1012.799408	1.003154
1013.092795	1.002014
1013.386147	1.002121
1013.679464	1.003661
1013.972745	1.002682
1014.265992	1.003066
1014.559204	1.002169
1014.852380	1.003322
1015.145521	1.002285
1015.438628	1.003248
1015.731699	1.002390
1016.024736	1.002512
1016.317737	1.003356
1016.610703	1.003676
1016.903635	1.002763
1017.196531	1.002775
1017.489393	1.001585
1017.782219	1.002003
1018.075011	1.002488
1018.367768	1.001936
1018.660490	1.001672
1018.953177	1.001672
1019.245829	1.001672
