Dividing Wavelength (nm)	Counts (n)	Blue Motor Position (mm): 10.200000	Red Motor Position (mm): 0.000000	
326.493990	1.003240
326.888308	1.003240
327.282561	1.003240
327.676750	1.004737
328.070874	1.006660
328.464933	1.005819
328.858929	1.005346
329.252859	1.004349
329.646726	1.003445
330.040528	1.004407
330.434265	1.004433
330.827938	1.003741
331.221547	1.005004
331.615091	1.005625
332.008571	1.005151
332.401986	1.002890
332.795338	1.003567
333.188625	1.004820
333.581847	1.005049
333.975006	1.004087
334.368100	1.005236
334.761129	1.003463
335.154095	1.004021
335.546996	1.003055
335.939833	0.998511
336.332606	0.999477
336.725315	0.997740
337.117960	1.000887
337.510540	0.999001
337.903056	0.999343
338.295508	1.000417
338.687896	0.999211
339.080220	0.998941
339.472480	0.998923
339.864676	0.999756
340.256807	0.998508
340.648875	0.998743
341.040879	0.998489
341.432818	1.000416
341.824694	0.999399
342.216506	0.999546
342.608253	0.998811
342.999937	0.999238
343.391557	0.999274
343.783113	1.000939
344.174605	0.998622
344.566033	0.998930
344.957397	0.999075
345.348697	1.000579
345.739934	0.998660
346.131106	0.998840
346.522215	0.997667
346.913260	0.998711
347.304241	0.997782
347.695159	0.999689
348.086012	0.999136
348.476802	0.998381
348.867528	0.997103
349.258191	0.999451
349.648789	0.998358
350.039324	0.998201
350.429796	0.998409
350.820203	0.997572
351.210548	0.998657
351.600828	0.999171
351.991045	0.998613
352.381198	0.998653
352.771288	0.997605
353.161314	0.999463
353.551276	0.998450
353.941175	0.997267
354.331010	0.997778
354.720782	0.997754
355.110490	0.998032
355.500135	0.998786
355.889717	0.997933
356.279235	0.996843
356.668689	0.998049
357.058080	0.998692
357.447408	0.997273
357.836672	0.998929
358.225873	0.998804
358.615010	0.997539
359.004084	0.995769
359.393095	0.998668
359.782043	0.997876
360.170927	0.997955
360.559748	0.997381
360.948505	0.996989
361.337199	0.996523
361.725830	0.997998
362.114398	0.998456
362.502903	0.995880
362.891344	0.995928
363.279722	0.997565
363.668037	0.997101
364.056289	0.996579
364.444478	0.998834
364.832603	0.996999
365.220665	0.996410
365.608665	0.997043
365.996601	0.995728
366.384474	0.994637
366.772284	0.996402
367.160031	0.994592
367.547715	0.994835
367.935336	0.994397
368.322893	0.992979
368.710388	0.992859
369.097820	0.990523
369.485189	0.987536
369.872495	0.986438
370.259738	0.984852
370.646918	0.982237
371.034035	0.979560
371.421090	0.975669
371.808081	0.971605
372.195010	0.969001
372.581875	0.963117
372.968678	0.959646
373.355418	0.957112
373.742096	0.948443
374.128710	0.942701
374.515262	0.940180
374.901751	0.933550
375.288177	0.929032
375.674540	0.921338
376.060841	0.916161
376.447079	0.908683
376.833254	0.903584
377.219367	0.896702
377.605417	0.885962
377.991404	0.883056
378.377329	0.876892
378.763191	0.870295
379.148991	0.861921
379.534727	0.853610
379.920402	0.845832
380.306013	0.842164
380.691563	0.828973
381.077049	0.821939
381.462474	0.819562
381.847835	0.806598
382.233134	0.801747
382.618371	0.802537
383.003545	0.785200
383.388657	0.783406
383.773706	0.775224
384.158693	0.771803
384.543618	0.766758
384.928480	0.756947
385.313280	0.747265
385.698017	0.747245
386.082692	0.734648
386.467305	0.733900
386.851856	0.728379
387.236344	0.723289
387.620770	0.717289
388.005133	0.712062
388.389435	0.706485
388.773674	0.704054
389.157851	0.695361
389.541965	0.692757
389.926018	0.700357
390.310008	0.686537
390.693936	0.683398
391.077802	0.675155
391.461606	0.677507
391.845348	0.665370
392.229027	0.665626
392.612645	0.663036
392.996200	0.650217
393.379694	0.644513
393.763125	0.634010
394.146494	0.638252
394.529801	0.629746
394.913047	0.621994
395.296230	0.626716
395.679351	0.618502
396.062410	0.615734
396.445408	0.617986
396.828343	0.613164
397.211217	0.608988
397.594028	0.620811
397.976778	0.610552
398.359466	0.607498
398.742092	0.602360
399.124656	0.615120
399.507158	0.602982
399.889598	0.600255
400.271977	0.591573
400.654294	0.595426
401.036549	0.594197
401.418742	0.598557
401.800874	0.584584
402.182944	0.581465
402.564952	0.572897
402.946898	0.574587
403.328783	0.575784
403.710606	0.587088
404.092367	0.561915
404.474067	0.566993
404.855705	0.565613
405.237282	0.574429
405.618797	0.560892
406.000250	0.556978
406.381642	0.546422
406.762972	0.551338
407.144240	0.550320
407.525447	0.549701
407.906593	0.542562
408.287677	0.538998
408.668700	0.546412
409.049661	0.541201
409.430560	0.536032
409.811399	0.544940
410.192176	0.526236
410.572891	0.533264
410.953545	0.521447
411.334138	0.535167
411.714669	0.527060
412.095139	0.539434
412.475547	0.523284
412.855894	0.525554
413.236180	0.524055
413.616405	0.530448
413.996568	0.520796
414.376670	0.526694
414.756711	0.531445
415.136691	0.528595
415.516609	0.519525
415.896466	0.515712
416.276262	0.512145
416.655997	0.513951
417.035670	0.495710
417.415283	0.487718
417.794834	0.492338
418.174324	0.497821
418.553753	0.506209
418.933121	0.488833
419.312428	0.482373
419.691674	0.488441
420.070859	0.476210
420.449983	0.484549
420.829045	0.474165
421.208047	0.482560
421.586988	0.475733
421.965867	0.474275
422.344686	0.463365
422.723444	0.476174
423.102141	0.493137
423.480777	0.466446
423.859352	0.486004
424.237866	0.463614
424.616319	0.464680
424.994712	0.455841
425.373044	0.465520
425.751314	0.453674
426.129524	0.470447
426.507673	0.453330
426.885762	0.447279
427.263789	0.453216
427.641756	0.462893
428.019662	0.452190
428.397508	0.451936
428.775292	0.456141
429.153016	0.448341
429.530679	0.454231
429.908282	0.447932
430.285824	0.458011
430.663305	0.436548
431.040726	0.457328
431.418086	0.457124
431.795385	0.448850
432.172624	0.448715
432.549802	0.448464
432.926920	0.447001
433.303977	0.447025
433.680974	0.443448
434.057910	0.442490
434.434786	0.441585
434.811601	0.444919
435.188355	0.426956
435.565050	0.436410
435.941683	0.437709
436.318257	0.420906
436.694770	0.422692
437.071222	0.420837
437.447614	0.425292
437.823946	0.431480
438.200218	0.420773
438.576429	0.430455
438.952580	0.423665
439.328670	0.419834
439.704700	0.426448
440.080670	0.427777
440.456580	0.409269
440.832429	0.417246
441.208218	0.427902
441.583947	0.417230
441.959616	0.416180
442.335224	0.422117
442.710773	0.413124
443.086261	0.410810
443.461689	0.424785
443.837057	0.414517
444.212365	0.404770
444.587612	0.411576
444.962800	0.401228
445.337927	0.402544
445.712995	0.429052
446.088002	0.391117
446.462949	0.401697
446.837837	0.406106
447.212664	0.394651
447.587431	0.386565
447.962139	0.356764
448.336786	0.316220
448.711374	0.326182
449.085901	0.371067
449.460369	0.374861
449.834776	0.378738
450.209124	0.357947
450.583412	0.350338
450.957640	0.343304
451.331808	0.355145
451.705917	0.377983
452.079965	0.382927
452.453954	0.371465
452.827883	0.377880
453.201752	0.372682
453.575562	0.384084
453.949311	0.372619
454.323001	0.378631
454.696632	0.374391
455.070202	0.367225
455.443713	0.358683
455.817164	0.353832
456.190556	0.349661
456.563888	0.346452
456.937160	0.343513
457.310373	0.361226
457.683526	0.359644
458.056619	0.366046
458.429653	0.365963
458.802628	0.369751
459.175542	0.363934
459.548398	0.346641
459.921194	0.339110
460.293930	0.339156
460.666607	0.316557
461.039224	0.304998
461.411782	0.299967
461.784280	0.299711
462.156719	0.304153
462.529099	0.308421
462.901419	0.324274
463.273680	0.328921
463.645882	0.328110
464.018024	0.334032
464.390106	0.326971
464.762130	0.311272
465.134094	0.294342
465.505999	0.263417
465.877845	0.233845
466.249631	0.220497
466.621358	0.227956
466.993026	0.241945
467.364634	0.248209
467.736184	0.257046
468.107674	0.265984
468.479105	0.264788
468.850477	0.271744
469.221790	0.278709
469.593043	0.289067
469.964238	0.293623
470.335373	0.293072
470.706449	0.291400
471.077467	0.291721
471.448425	0.253946
471.819324	0.229157
472.190164	0.228649
472.560945	0.257670
472.931667	0.280049
473.302330	0.284626
473.672934	0.296061
474.043479	0.284359
474.413965	0.286173
474.784393	0.289424
475.154761	0.284241
475.525070	0.281624
475.895321	0.287042
476.265513	0.281740
476.635645	0.276609
477.005719	0.276647
477.375734	0.273675
477.745691	0.266455
478.115588	0.263108
478.485427	0.256403
478.855207	0.243412
479.224928	0.225749
479.594591	0.213685
479.964194	0.217235
480.333739	0.218598
480.703226	0.220038
481.072653	0.218326
481.442022	0.214032
481.811333	0.210624
482.180584	0.214229
482.549777	0.219873
482.918912	0.222832
483.287988	0.222439
483.657005	0.221977
484.025964	0.228394
484.394864	0.225873
484.763706	0.226558
485.132489	0.231723
485.501213	0.232330
485.869879	0.230476
486.238487	0.233843
486.607036	0.231744
486.975527	0.236486
487.343959	0.232377
487.712333	0.231222
488.080648	0.232646
488.448905	0.232021
488.817104	0.233184
489.185244	0.227564
489.553326	0.224765
489.921350	0.214349
490.289315	0.196852
490.657222	0.191830
491.025070	0.192981
491.392861	0.194896
491.760593	0.200621
492.128267	0.206319
492.495883	0.212058
492.863440	0.218328
493.230939	0.224753
493.598380	0.226638
493.965763	0.228267
494.333088	0.230507
494.700354	0.232062
495.067563	0.231047
495.434713	0.234231
495.801805	0.232089
496.168839	0.233793
496.535815	0.235173
496.902733	0.235010
497.269593	0.236646
497.636395	0.234119
498.003139	0.234604
498.369825	0.237688
498.736453	0.234119
499.103023	0.235653
499.469535	0.234985
499.835989	0.235423
500.202385	0.235835
500.568723	0.239383
500.935003	0.234482
501.301226	0.238736
501.667390	0.232826
502.033497	0.231312
502.399546	0.233985
502.765537	0.236000
503.131470	0.234285
503.497345	0.231029
503.863163	0.239210
504.228923	0.232531
504.594625	0.231360
504.960269	0.236509
505.325856	0.232119
505.691385	0.236338
506.056856	0.232889
506.422270	0.232484
506.787625	0.234669
507.152924	0.232428
507.518164	0.232734
507.883347	0.234372
508.248472	0.236343
508.613540	0.231009
508.978550	0.233695
509.343503	0.234004
509.708398	0.231792
510.073236	0.229290
510.438016	0.229166
510.802738	0.230078
511.167403	0.229210
511.532010	0.231195
511.896561	0.226628
512.261053	0.225157
512.625488	0.227403
512.989866	0.227482
513.354186	0.228097
513.718449	0.229908
514.082655	0.226224
514.446803	0.228649
514.810894	0.226242
515.174927	0.229233
515.538904	0.228524
515.902822	0.225328
516.266684	0.227496
516.630488	0.228699
516.994235	0.227726
517.357925	0.226731
517.721558	0.224768
518.085133	0.224223
518.448651	0.224265
518.812112	0.226572
519.175516	0.226106
519.538863	0.223665
519.902152	0.225610
520.265385	0.222380
520.628560	0.224140
520.991678	0.224518
521.354739	0.223458
521.717743	0.224341
522.080690	0.225097
522.443580	0.222423
522.806413	0.223244
523.169189	0.222986
523.531908	0.221750
523.894569	0.225215
524.257174	0.225102
524.619722	0.222391
524.982213	0.223989
525.344647	0.222706
525.707025	0.223762
526.069345	0.221672
526.431608	0.223610
526.793815	0.221472
527.155964	0.225663
527.518057	0.224812
527.880093	0.225546
528.242072	0.224281
528.603995	0.226274
528.965860	0.227654
529.327669	0.226665
529.689421	0.227685
530.051117	0.228582
530.412755	0.226397
530.774337	0.228438
531.135862	0.229122
531.497331	0.228166
531.858743	0.231221
532.220098	0.227754
532.581396	0.230842
532.942638	0.230871
533.303824	0.232234
533.664953	0.231458
534.026025	0.233755
534.387040	0.231353
534.747999	0.231408
535.108902	0.230186
535.469748	0.235451
535.830537	0.233229
536.191270	0.233904
536.551947	0.233088
536.912567	0.233342
537.273131	0.234833
537.633638	0.235186
537.994089	0.235498
538.354483	0.236777
538.714821	0.233456
539.075103	0.233532
539.435328	0.234325
539.795497	0.237962
540.155609	0.234713
540.515665	0.232611
540.875665	0.238620
541.235609	0.237087
541.595496	0.236827
541.955328	0.233944
542.315102	0.236471
542.674821	0.237542
543.034483	0.237512
543.394090	0.237277
543.753640	0.239132
544.113134	0.234099
544.472571	0.237594
544.831953	0.234100
545.191278	0.238436
545.550548	0.237871
545.909761	0.234665
546.268918	0.235600
546.628019	0.233763
546.987064	0.236529
547.346053	0.238512
547.704986	0.236306
548.063863	0.236433
548.422684	0.236962
548.781449	0.238596
549.140158	0.236331
549.498811	0.239033
549.857408	0.242356
550.215949	0.236762
550.574434	0.240020
550.932864	0.238046
551.291237	0.236603
551.649555	0.238186
552.007817	0.237683
552.366022	0.238565
552.724173	0.239114
553.082267	0.239128
553.440305	0.235675
553.798288	0.240433
554.156215	0.236852
554.514086	0.237530
554.871902	0.240742
555.229661	0.239990
555.587365	0.240542
555.945014	0.243325
556.302606	0.240194
556.660143	0.242717
557.017625	0.239214
557.375050	0.241554
557.732421	0.238461
558.089735	0.240183
558.446994	0.240243
558.804197	0.239498
559.161345	0.239384
559.518437	0.242714
559.875474	0.240847
560.232455	0.240295
560.589381	0.241428
560.946251	0.241732
561.303065	0.239012
561.659825	0.240397
562.016528	0.242191
562.373177	0.244849
562.729770	0.241975
563.086307	0.243886
563.442789	0.241901
563.799216	0.244477
564.155587	0.243789
564.511904	0.244645
564.868164	0.244759
565.224370	0.244545
565.580520	0.246229
565.936615	0.245906
566.292654	0.249175
566.648638	0.246249
567.004567	0.247124
567.360441	0.247457
567.716260	0.249636
568.072023	0.247384
568.427732	0.248244
568.783385	0.250602
569.138982	0.248779
569.494525	0.248281
569.850013	0.251153
570.205445	0.249723
570.560823	0.252238
570.916145	0.254170
571.271412	0.253003
571.626625	0.253919
571.981782	0.254252
572.336884	0.255425
572.691931	0.254839
573.046923	0.256435
573.401860	0.257204
573.756743	0.259228
574.111570	0.257980
574.466342	0.258805
574.821059	0.257349
575.175722	0.260398
575.530330	0.260235
575.884882	0.260352
576.239380	0.262147
576.593823	0.262654
576.948211	0.262650
577.302544	0.265572
577.656823	0.265628
578.011047	0.265170
578.365216	0.266019
578.719330	0.268076
579.073389	0.267527
579.427394	0.268961
579.781344	0.270054
580.135239	0.271134
580.489080	0.271007
580.842866	0.274092
581.196597	0.274114
581.550273	0.272211
581.903895	0.273729
582.257463	0.271589
582.610975	0.275374
582.964434	0.274662
583.317837	0.276706
583.671186	0.277683
584.024481	0.276849
584.377721	0.279775
584.730906	0.280310
585.084037	0.279960
585.437113	0.281531
585.790135	0.281135
586.143103	0.284287
586.496016	0.284965
586.848874	0.283027
587.201679	0.283065
587.554428	0.286458
587.907124	0.285510
588.259765	0.286066
588.612352	0.286902
588.964884	0.290648
589.317362	0.290081
589.669786	0.289752
590.022155	0.288319
590.374470	0.288068
590.726731	0.289965
591.078937	0.294980
591.431090	0.291403
591.783188	0.295297
592.135232	0.295876
592.487222	0.295694
592.839157	0.293752
593.191038	0.296330
593.542866	0.298239
593.894639	0.301173
594.246358	0.300029
594.598022	0.299379
594.949633	0.303045
595.301190	0.303566
595.652692	0.302281
596.004141	0.298877
596.355535	0.306842
596.706876	0.307579
597.058162	0.310126
597.409395	0.306964
597.760573	0.305007
598.111698	0.308438
598.462768	0.308840
598.813785	0.309921
599.164748	0.311525
599.515657	0.311319
599.866511	0.315325
600.217312	0.310291
600.568060	0.315691
600.918753	0.312123
601.269392	0.313062
601.619978	0.316570
601.970510	0.314044
602.320988	0.314060
602.671412	0.312108
603.021783	0.314528
603.372100	0.315908
603.722363	0.315698
604.072572	0.316544
604.422728	0.316110
604.772830	0.317998
605.122878	0.318226
605.472872	0.318704
605.822813	0.316777
606.172701	0.319818
606.522534	0.316978
606.872314	0.317353
607.222041	0.318610
607.571714	0.316026
607.921333	0.317939
608.270899	0.317661
608.620411	0.314334
608.969870	0.318434
609.319276	0.318673
609.668627	0.318122
610.017926	0.316947
610.367171	0.315758
610.716362	0.316254
611.065500	0.316431
611.414585	0.315603
611.763616	0.315789
612.112594	0.316495
612.461518	0.315493
612.810389	0.313503
613.159207	0.315958
613.507971	0.317922
613.856682	0.314175
614.205340	0.315068
614.553945	0.312272
614.902496	0.316151
615.250994	0.314574
615.599439	0.315068
615.947830	0.314358
616.296169	0.315731
616.644454	0.315404
616.992686	0.315582
617.340864	0.313902
617.688990	0.317044
618.037063	0.313880
618.385082	0.315992
618.733048	0.312992
619.080961	0.315364
619.428821	0.315187
619.776628	0.314775
620.124382	0.317129
620.472083	0.317892
620.819731	0.317008
621.167326	0.321249
621.514868	0.320798
621.862357	0.325075
622.209793	0.324451
622.557176	0.327447
622.904506	0.328377
623.251783	0.330658
623.599007	0.333324
623.946179	0.333044
624.293297	0.335049
624.640363	0.339427
624.987376	0.339612
625.334336	0.342284
625.681243	0.344877
626.028097	0.345403
626.374899	0.346764
626.721647	0.347576
627.068343	0.350779
627.414987	0.351984
627.761577	0.354182
628.108115	0.352807
628.454600	0.358277
628.801032	0.356124
629.147412	0.358175
629.493739	0.359180
629.840014	0.362182
630.186236	0.359549
630.532405	0.365523
630.878521	0.363477
631.224585	0.366139
631.570597	0.369623
631.916556	0.369079
632.262462	0.368781
632.608316	0.371993
632.954117	0.373444
633.299866	0.374054
633.645562	0.375142
633.991206	0.379583
634.336797	0.381981
634.682336	0.385535
635.027823	0.386755
635.373257	0.387395
635.718639	0.391813
636.063968	0.390959
636.409245	0.396946
636.754470	0.397599
637.099642	0.400373
637.444762	0.404185
637.789829	0.404053
638.134845	0.407267
638.479808	0.409044
638.824719	0.408902
639.169577	0.413818
639.514383	0.412871
639.859137	0.417413
640.203839	0.417682
640.548489	0.418975
640.893086	0.419929
641.237632	0.422768
641.582125	0.421427
641.926566	0.424092
642.270955	0.424428
642.615292	0.424913
642.959576	0.425040
643.303809	0.425320
643.647990	0.426065
643.992118	0.427257
644.336195	0.430481
644.680219	0.430051
645.024192	0.431067
645.368112	0.425988
645.711981	0.425351
646.055797	0.421667
646.399562	0.425220
646.743274	0.419127
647.086935	0.416797
647.430544	0.417445
647.774101	0.418206
648.117606	0.417656
648.461059	0.419121
648.804460	0.421817
649.147810	0.426740
649.491108	0.429518
649.834354	0.431182
650.177548	0.437264
650.520690	0.442715
650.863781	0.444206
651.206820	0.444385
651.549807	0.449563
651.892742	0.454467
652.235626	0.454311
652.578458	0.456100
652.921238	0.463024
653.263967	0.460670
653.606644	0.464379
653.949269	0.465822
654.291843	0.470093
654.634365	0.468128
654.976836	0.472580
655.319255	0.473203
655.661622	0.475464
656.003938	0.476982
656.346203	0.478747
656.688416	0.478844
657.030577	0.481548
657.372687	0.484939
657.714746	0.486012
658.056753	0.483994
658.398708	0.489078
658.740612	0.490063
659.082465	0.488088
659.424266	0.489951
659.766016	0.489330
660.107715	0.493897
660.449362	0.493350
660.790958	0.494741
661.132503	0.496765
661.473996	0.495240
661.815438	0.496686
662.156829	0.497723
662.498168	0.499852
662.839456	0.499913
663.180693	0.500251
663.521879	0.500353
663.863013	0.502137
664.204097	0.502907
664.545129	0.500595
664.886110	0.502448
665.227040	0.501917
665.567918	0.504355
665.908746	0.503535
666.249522	0.504080
666.590248	0.506334
666.930922	0.505531
667.271545	0.506110
667.612118	0.506414
667.952639	0.508415
668.293109	0.509554
668.633528	0.512010
668.973896	0.512306
669.314213	0.513761
669.654480	0.517691
669.994695	0.517519
670.334859	0.518243
670.674973	0.522348
671.015035	0.521816
671.355047	0.524190
671.695008	0.525549
672.034918	0.527097
672.374777	0.528791
672.714585	0.530362
673.054342	0.531291
673.394049	0.533332
673.733705	0.532527
674.073310	0.535119
674.412864	0.536802
674.752368	0.539559
675.091820	0.541257
675.431223	0.544469
675.770574	0.546018
676.109875	0.548992
676.449125	0.550799
676.788324	0.552849
677.127473	0.558871
677.466571	0.559665
677.805619	0.562135
678.144616	0.564690
678.483562	0.567428
678.822458	0.570478
679.161303	0.571288
679.500098	0.573795
679.838842	0.575265
680.177535	0.576419
680.516179	0.575491
680.854771	0.576514
681.193314	0.573196
681.531805	0.567059
681.870247	0.560821
682.208638	0.556972
682.546978	0.555778
682.885268	0.559106
683.223508	0.564974
683.561697	0.569400
683.899836	0.572462
684.237925	0.576323
684.575963	0.578613
684.913951	0.582154
685.251889	0.581767
685.589776	0.581521
685.927614	0.584550
686.265401	0.582995
686.603137	0.583809
686.940824	0.582318
687.278460	0.581877
687.616046	0.582409
687.953582	0.579866
688.291068	0.581848
688.628504	0.581448
688.965889	0.582689
689.303224	0.585872
689.640510	0.591108
689.977745	0.595710
690.314930	0.602456
690.652065	0.606757
690.989150	0.611921
691.326185	0.619222
691.663170	0.624618
692.000105	0.629745
692.336990	0.635208
692.673825	0.639877
693.010610	0.644579
693.347345	0.647991
693.684030	0.653324
694.020665	0.656778
694.357251	0.662510
694.693786	0.663842
695.030272	0.666783
695.366707	0.671252
695.703093	0.674057
696.039429	0.672797
696.375716	0.678077
696.711952	0.679708
697.048139	0.681665
697.384276	0.683557
697.720363	0.683928
698.056400	0.684757
698.392388	0.690016
698.728326	0.691250
699.064214	0.694653
699.400053	0.696310
699.735842	0.701832
700.071581	0.703149
700.407270	0.706507
700.742910	0.709553
701.078501	0.714164
701.414042	0.716707
701.749533	0.719081
702.084974	0.723653
702.420366	0.722389
702.755709	0.727489
703.091002	0.731802
703.426246	0.731838
703.761440	0.733413
704.096584	0.735999
704.431679	0.737761
704.766725	0.739892
705.101721	0.742367
705.436668	0.741447
705.771565	0.744682
706.106413	0.742691
706.441212	0.743335
706.775961	0.744576
707.110661	0.743267
707.445311	0.741573
707.779913	0.745246
708.114465	0.742934
708.448967	0.740293
708.783421	0.737548
709.117825	0.735243
709.452180	0.734445
709.786485	0.730580
710.120742	0.725492
710.454949	0.726393
710.789107	0.723033
711.123216	0.718405
711.457275	0.718608
711.791286	0.715500
712.125247	0.717468
712.459159	0.719388
712.793023	0.715836
713.126837	0.724959
713.460602	0.724668
713.794318	0.726779
714.127985	0.729534
714.461602	0.737959
714.795171	0.738517
715.128691	0.745440
715.462162	0.752038
715.795584	0.756460
716.128957	0.759426
716.462281	0.762017
716.795556	0.766256
717.128782	0.772392
717.461960	0.776953
717.795088	0.777737
718.128167	0.782376
718.461198	0.785576
718.794180	0.789060
719.127113	0.791352
719.459997	0.794182
719.792833	0.797584
720.125619	0.798069
720.458357	0.803753
720.791046	0.805460
721.123686	0.807232
721.456278	0.810355
721.788821	0.810353
722.121315	0.813696
722.453761	0.814318
722.786158	0.815855
723.118506	0.815769
723.450805	0.816981
723.783056	0.817441
724.115259	0.818269
724.447412	0.818466
724.779518	0.817836
725.111574	0.817820
725.443582	0.816760
725.775542	0.819249
726.107453	0.815226
726.439315	0.815756
726.771129	0.813384
727.102895	0.810389
727.434612	0.808193
727.766281	0.807686
728.097901	0.805892
728.429473	0.807149
728.760996	0.807026
729.092471	0.807979
729.423897	0.811712
729.755276	0.812891
730.086606	0.813706
730.417887	0.810497
730.749120	0.806759
731.080305	0.804523
731.411442	0.802395
731.742530	0.803916
732.073570	0.804387
732.404562	0.802927
732.735506	0.803476
733.066401	0.805770
733.397249	0.811227
733.728048	0.818961
734.058798	0.828300
734.389501	0.834531
734.720156	0.837715
735.050762	0.842855
735.381320	0.844952
735.711831	0.848139
736.042293	0.850879
736.372707	0.852449
736.703073	0.853145
737.033391	0.853492
737.363661	0.853212
737.693883	0.852749
738.024056	0.851732
738.354182	0.851226
738.684260	0.847821
739.014290	0.845947
739.344272	0.845183
739.674207	0.842359
740.004093	0.841889
740.333931	0.841896
740.663722	0.843868
740.993464	0.845192
741.323159	0.846640
741.652806	0.850165
741.982405	0.853593
742.311956	0.857036
742.641460	0.858186
742.970915	0.860563
743.300323	0.864528
743.629683	0.867649
743.958996	0.871323
744.288260	0.873657
744.617477	0.877351
744.946647	0.877890
745.275768	0.881833
745.604842	0.882657
745.933869	0.885685
746.262847	0.887252
746.591778	0.886269
746.920662	0.888887
747.249498	0.890552
747.578286	0.889751
747.907027	0.886980
748.235720	0.885841
748.564365	0.885110
748.892963	0.886811
749.221514	0.887452
749.550017	0.888922
749.878473	0.890239
750.206881	0.893955
750.535242	0.894309
750.863555	0.895074
751.191821	0.895541
751.520039	0.896015
751.848210	0.897322
752.176334	0.897727
752.504411	0.897499
752.832440	0.900115
753.160421	0.900940
753.488356	0.902121
753.816243	0.902232
754.144082	0.903978
754.471875	0.905779
754.799620	0.905340
755.127318	0.904976
755.454969	0.905589
755.782572	0.907435
756.110129	0.907164
756.437638	0.909459
756.765100	0.909349
757.092515	0.908585
757.419882	0.908255
757.747203	0.908849
758.074477	0.909692
758.401703	0.909087
758.728882	0.907354
759.056014	0.907237
759.383099	0.907593
759.710138	0.906468
760.037129	0.905922
760.364073	0.906359
760.690970	0.906037
761.017820	0.906187
761.344623	0.907782
761.671379	0.904928
761.998088	0.902598
762.324751	0.895319
762.651366	0.878548
762.977935	0.849954
763.304456	0.833889
763.630931	0.833107
763.957359	0.847135
764.283740	0.865331
764.610074	0.878651
764.936362	0.889913
765.262602	0.898702
765.588796	0.906286
765.914943	0.911576
766.241044	0.917189
766.567097	0.920792
766.893104	0.924668
767.219064	0.926065
767.544978	0.929638
767.870845	0.932314
768.196665	0.935250
768.522438	0.935683
768.848165	0.937574
769.173846	0.939522
769.499479	0.942274
769.825066	0.942507
770.150607	0.944037
770.476101	0.943805
770.801548	0.944876
771.126949	0.947287
771.452303	0.948542
771.777611	0.950343
772.102872	0.949649
772.428087	0.951643
772.753256	0.952294
773.078378	0.953976
773.403453	0.954565
773.728482	0.958378
774.053465	0.956001
774.378401	0.957182
774.703291	0.958285
775.028135	0.960117
775.352932	0.958720
775.677683	0.961610
776.002388	0.962230
776.327046	0.961887
776.651658	0.964109
776.976224	0.964634
777.300743	0.964186
777.625216	0.964708
777.949643	0.965493
778.274024	0.965313
778.598359	0.966658
778.922647	0.966310
779.246889	0.966529
779.571086	0.966798
779.895236	0.967735
780.219339	0.967812
780.543397	0.965521
780.867409	0.966334
781.191374	0.966654
781.515294	0.967708
781.839167	0.967658
782.162995	0.967365
782.486776	0.966976
782.810511	0.968397
783.134201	0.970030
783.457844	0.969715
783.781441	0.969296
784.104993	0.970560
784.428498	0.972870
784.751958	0.972714
785.075372	0.971845
785.398739	0.972102
785.722061	0.971949
786.045337	0.971998
786.368568	0.972198
786.691752	0.972144
787.014891	0.970141
787.337983	0.966240
787.661030	0.963487
787.984031	0.959643
788.306987	0.957850
788.629897	0.956480
788.952760	0.960348
789.275579	0.962243
789.598351	0.965830
789.921078	0.969820
790.243759	0.971404
790.566395	0.971124
790.888984	0.973873
791.211529	0.974713
791.534027	0.975672
791.856480	0.976870
792.178888	0.976921
792.501249	0.977616
792.823566	0.979453
793.145836	0.978587
793.468062	0.979069
793.790241	0.980524
794.112375	0.977931
794.434464	0.977238
794.756507	0.978403
795.078505	0.978009
795.400457	0.975584
795.722364	0.973723
796.044226	0.971132
796.366042	0.968742
796.687812	0.970343
797.009538	0.971173
797.331218	0.972889
797.652852	0.974583
797.974442	0.973765
798.295986	0.976121
798.617484	0.975601
798.938938	0.976995
799.260346	0.976831
799.581709	0.978296
799.903026	0.979831
800.224299	0.978710
800.545526	0.980742
800.866708	0.980097
801.187845	0.981338
801.508936	0.982039
801.829983	0.981281
802.150984	0.982956
802.471940	0.982859
802.792851	0.982706
803.113717	0.982718
803.434538	0.983539
803.755314	0.984039
804.076045	0.983950
804.396731	0.983746
804.717372	0.983234
805.037967	0.984278
805.358518	0.983774
805.679024	0.981806
805.999485	0.983277
806.319901	0.982930
806.640272	0.983038
806.960598	0.982596
807.280879	0.982591
807.601115	0.983423
807.921306	0.983617
808.241453	0.982485
808.561554	0.982319
808.881611	0.983124
809.201623	0.982371
809.521590	0.983159
809.841513	0.984259
810.161390	0.983156
810.481223	0.982581
810.801011	0.985622
811.120755	0.985810
811.440453	0.984204
811.760107	0.985544
812.079716	0.985528
812.399281	0.986165
812.718801	0.985909
813.038276	0.986746
813.357707	0.987002
813.677093	0.986677
813.996434	0.986662
814.315731	0.988177
814.634983	0.988329
814.954191	0.987880
815.273354	0.986563
815.592473	0.985702
815.911547	0.986359
816.230577	0.985123
816.549562	0.984770
816.868502	0.984113
817.187399	0.985210
817.506250	0.984869
817.825058	0.983180
818.143821	0.984213
818.462539	0.982697
818.781213	0.982588
819.099843	0.981001
819.418429	0.977947
819.736970	0.974048
820.055466	0.970906
820.373919	0.968927
820.692327	0.964711
821.010691	0.958250
821.329011	0.940313
821.647286	0.906554
821.965517	0.870751
822.283704	0.855888
822.601847	0.859208
822.919945	0.876191
823.237999	0.893400
823.556010	0.907415
823.873976	0.919811
824.191897	0.931781
824.509775	0.941513
824.827609	0.948870
825.145398	0.953536
825.463144	0.953495
825.780845	0.951780
826.098502	0.949005
826.416116	0.940024
826.733685	0.928778
827.051210	0.925958
827.368692	0.931453
827.686129	0.940224
828.003522	0.950269
828.320872	0.957627
828.638177	0.964346
828.955439	0.970908
829.272656	0.975132
829.589830	0.977867
829.906960	0.980392
830.224046	0.982265
830.541088	0.982997
830.858086	0.984259
831.175041	0.986231
831.491952	0.985401
831.808819	0.984811
832.125642	0.984821
832.442421	0.983921
832.759157	0.980239
833.075849	0.971849
833.392497	0.962402
833.709101	0.955260
834.025662	0.955821
834.342179	0.960248
834.658653	0.968370
834.975083	0.973724
835.291469	0.977610
835.607811	0.980828
835.924110	0.983435
836.240366	0.986911
836.556578	0.987941
836.872746	0.989861
837.188871	0.989257
837.504952	0.990536
837.820990	0.991543
838.136984	0.990807
838.452935	0.991641
838.768842	0.992316
839.084706	0.992213
839.400526	0.988298
839.716303	0.980829
840.032037	0.978642
840.347727	0.978149
840.663373	0.981879
840.978977	0.984430
841.294537	0.988450
841.610054	0.990070
841.925527	0.992049
842.240957	0.992838
842.556344	0.992895
842.871687	0.994007
843.186987	0.995246
843.502244	0.995310
843.817458	0.995239
844.132629	0.996608
844.447756	0.995780
844.762840	0.995883
845.077881	0.998104
845.392879	0.995326
845.707833	0.996250
846.022745	0.996306
846.337613	0.997101
846.652438	0.996705
846.967221	0.997368
847.281960	0.996608
847.596656	0.997317
847.911309	0.996891
848.225919	0.997219
848.540485	0.996627
848.855009	0.999105
849.169490	0.997239
849.483928	0.997636
849.798323	0.996458
850.112675	0.997597
850.426984	0.997727
850.741251	0.998588
851.055474	0.996918
851.369654	0.998104
851.683792	0.996525
851.997887	0.997480
852.311938	0.998127
852.625947	0.997271
852.939914	0.996958
853.253837	0.998296
853.567718	0.998994
853.881555	0.997585
854.195350	0.997771
854.509103	0.997886
854.822812	0.998636
855.136479	0.998044
855.450103	0.997883
855.763685	0.998734
856.077224	0.998396
856.390720	0.997383
856.704173	0.998363
857.017584	0.998171
857.330953	0.998039
857.644278	0.997539
857.957561	0.997550
858.270802	0.997708
858.584000	0.997603
858.897155	0.997351
859.210268	0.997370
859.523339	0.997582
859.836367	0.997607
860.149352	0.997314
860.462295	0.997795
860.775195	0.998196
861.088054	0.996823
861.400869	0.997868
861.713642	0.997806
862.026373	0.998229
862.339062	0.998436
862.651708	0.997885
862.964312	0.997549
863.276873	0.998085
863.589392	0.996666
863.901869	0.997133
864.214303	0.997285
864.526696	0.996972
864.839045	0.996932
865.151353	0.997082
865.463619	0.995948
865.775842	0.996710
866.088023	0.997425
866.400162	0.996735
866.712258	0.997163
867.024313	0.996685
867.336325	0.997974
867.648296	0.997034
867.960224	0.998004
868.272110	0.996909
868.583954	0.997130
868.895755	0.997993
869.207515	0.997267
869.519233	0.996774
869.830909	0.996204
870.142542	0.996800
870.454134	0.996445
870.765684	0.995900
871.077191	0.996452
871.388657	0.995940
871.700081	0.997399
872.011463	0.997442
872.322803	0.996077
872.634101	0.995415
872.945357	0.994863
873.256571	0.993871
873.567744	0.996470
873.878874	0.995547
874.189963	0.995505
874.501010	0.997339
874.812015	0.995824
875.122979	0.995309
875.433900	0.994531
875.744780	0.995859
876.055618	0.995111
876.366415	0.994453
876.677169	0.995391
876.987882	0.994947
877.298554	0.995658
877.609183	0.994945
877.919771	0.994843
878.230317	0.994438
878.540822	0.992689
878.851285	0.993089
879.161707	0.991595
879.472087	0.991653
879.782425	0.987579
880.092722	0.983251
880.402977	0.977020
880.713191	0.964491
881.023363	0.950254
881.333494	0.941401
881.643583	0.940393
881.953631	0.941382
882.263637	0.945194
882.573602	0.951214
882.883526	0.956433
883.193408	0.963409
883.503248	0.966363
883.813048	0.970461
884.122806	0.975236
884.432522	0.978106
884.742197	0.982314
885.051831	0.983481
885.361424	0.986431
885.670975	0.988561
885.980485	0.988554
886.289954	0.989951
886.599382	0.989569
886.908768	0.992535
887.218113	0.991601
887.527417	0.992196
887.836680	0.993188
888.145901	0.995282
888.455082	0.994497
888.764221	0.994995
889.073319	0.994443
889.382376	0.996172
889.691392	0.994259
890.000366	0.995765
890.309300	0.995318
890.618193	0.995645
890.927044	0.994892
891.235855	0.994687
891.544625	0.994505
891.853353	0.994721
892.162041	0.995080
892.470687	0.994938
892.779293	0.992842
893.087858	0.990897
893.396381	0.991043
893.704864	0.988530
894.013306	0.985141
894.321707	0.982951
894.630068	0.979712
894.938387	0.977835
895.246665	0.978363
895.554903	0.979463
895.863100	0.983673
896.171256	0.984823
896.479371	0.988738
896.787446	0.988554
897.095480	0.991134
897.403473	0.991545
897.711425	0.992651
898.019336	0.992698
898.327207	0.993089
898.635038	0.992665
898.942827	0.993711
899.250576	0.994955
899.558284	0.995432
899.865952	0.993356
900.173579	0.994776
900.481165	0.995285
900.788711	0.993999
901.096216	0.994961
901.403681	0.995698
901.711105	0.996109
902.018489	0.996005
902.325832	0.996570
902.633135	0.995828
902.940397	0.994973
903.247619	0.993384
903.554800	0.989059
903.861941	0.983273
904.169041	0.977598
904.476101	0.973697
904.783121	0.974305
905.090100	0.975551
905.397039	0.979387
905.703938	0.983405
906.010796	0.985309
906.317614	0.988254
906.624391	0.992057
906.931129	0.992746
907.237826	0.994725
907.544483	0.995174
907.851099	0.995712
908.157675	0.995883
908.464211	0.996575
908.770707	0.995754
909.077163	0.997157
909.383578	0.997848
909.689954	0.997050
909.996289	0.998410
910.302584	0.998249
910.608839	0.998180
910.915054	0.997314
911.221229	0.999019
911.527363	0.997138
911.833458	0.998819
912.139513	0.997718
912.445527	0.998484
912.751502	0.997015
913.057436	0.996432
913.363331	0.997400
913.669186	0.997061
913.975000	0.995990
914.280775	0.994395
914.586510	0.993140
914.892205	0.990552
915.197859	0.987746
915.503475	0.983924
915.809050	0.979966
916.114585	0.977155
916.420081	0.976373
916.725536	0.977087
917.030952	0.979026
917.336328	0.980710
917.641665	0.982023
917.946961	0.984557
918.252218	0.985999
918.557435	0.988547
918.862612	0.989408
919.167750	0.991883
919.472848	0.992747
919.777906	0.994778
920.082925	0.995381
920.387904	0.995672
920.692843	0.995193
920.997743	0.994449
921.302603	0.996461
921.607423	0.995832
921.912204	0.995875
922.216946	0.998275
922.521647	0.997279
922.826310	0.996343
923.130932	0.998203
923.435516	0.998219
923.740059	0.998175
924.044564	0.998502
924.349028	0.996869
924.653454	0.998883
924.957840	0.997998
925.262186	0.998268
925.566493	0.998614
925.870761	0.998079
926.174989	0.998546
926.479178	0.999879
926.783328	0.998388
927.087438	1.000535
927.391509	0.998656
927.695541	0.998852
927.999533	0.999414
928.303486	0.998881
928.607400	1.001008
928.911275	1.000401
929.215110	1.001093
929.518906	1.000092
929.822663	1.000860
930.126381	1.000460
930.430060	1.000223
930.733699	0.999883
931.037299	1.000745
931.340861	0.999997
931.644383	0.998906
931.947866	1.000281
932.251309	1.001280
932.554714	0.999197
932.858080	0.999407
933.161407	0.999453
933.464694	0.999940
933.767943	1.000209
934.071153	1.000480
934.374323	1.000886
934.677455	1.000696
934.980548	0.999320
935.283602	1.000343
935.586617	1.000420
935.889593	1.000788
936.192530	1.001041
936.495428	1.000721
936.798287	0.999572
937.101108	0.999735
937.403890	0.998816
937.706632	1.000328
938.009336	0.998739
938.312002	0.998617
938.614628	0.999437
938.917216	0.998319
939.219765	0.997588
939.522275	0.999897
939.824747	0.998221
940.127179	0.998986
940.429573	0.999849
940.731929	0.997952
941.034246	0.999020
941.336524	0.997965
941.638763	0.998694
941.940964	0.999254
942.243126	0.998750
942.545250	1.000160
942.847335	0.999145
943.149381	1.000543
943.451389	0.998099
943.753359	0.999054
944.055290	1.000450
944.357182	0.999358
944.659036	0.999659
944.960851	0.999227
945.262628	1.000177
945.564367	0.999081
945.866067	0.998858
946.167729	1.000750
946.469352	1.000077
946.770937	0.998680
947.072484	1.000471
947.373992	0.998882
947.675462	0.999762
947.976893	0.999197
948.278286	1.001694
948.579641	1.001191
948.880958	1.000424
949.182236	1.000426
949.483476	1.000092
949.784678	0.999900
950.085841	1.000303
950.386967	0.999317
950.688054	0.998724
950.989103	0.999370
951.290114	0.998953
951.591087	1.001613
951.892021	0.998810
952.192917	1.000047
952.493776	0.999207
952.794596	0.999604
953.095378	0.998432
953.396122	1.000060
953.696828	0.999319
953.997496	1.000032
954.298126	1.001489
954.598718	0.999038
954.899272	1.000661
955.199788	0.999141
955.500266	1.000964
955.800706	1.000771
956.101108	1.000460
956.401472	1.002008
956.701798	0.999621
957.002087	0.999876
957.302337	1.001292
957.602550	1.000765
957.902724	1.001091
958.202861	1.001165
958.502960	1.000477
958.803022	1.002517
959.103045	1.002179
959.403031	1.002164
959.702979	1.002133
960.002889	1.000599
960.302762	0.999728
960.602596	1.002220
960.902393	1.002295
961.202153	1.001388
961.501875	1.002026
961.801559	1.002651
962.101205	1.000966
962.400814	1.002118
962.700385	1.002470
962.999918	1.002483
963.299414	1.000708
963.598873	1.002068
963.898293	1.001832
964.197677	1.000235
964.497022	1.002247
964.796331	1.001616
965.095601	1.002314
965.394835	1.001317
965.694030	1.003243
965.993189	1.001208
966.292309	1.002280
966.591393	1.001011
966.890439	1.002424
967.189447	1.002129
967.488419	1.001836
967.787353	1.001401
968.086249	1.003075
968.385108	1.000910
968.683930	1.003266
968.982714	1.001880
969.281462	1.002090
969.580172	1.000782
969.878844	1.003429
970.177480	1.002462
970.476078	1.002595
970.774639	1.002547
971.073162	1.000504
971.371649	1.001647
971.670098	1.001280
971.968510	1.001919
972.266885	1.001293
972.565223	1.001412
972.863524	1.000374
973.161788	1.000268
973.460014	1.002496
973.758204	1.001331
974.056356	1.001242
974.354471	1.001163
974.652550	1.002464
974.950591	1.001425
975.248595	1.001029
975.546563	1.002570
975.844493	1.002111
976.142386	1.001070
976.440243	1.002138
976.738062	1.003062
977.035845	1.001822
977.333590	1.002863
977.631299	1.002652
977.928971	1.001593
978.226606	1.000717
978.524204	1.001094
978.821765	1.003404
979.119290	1.003144
979.416777	1.002406
979.714228	1.001502
980.011642	1.002863
980.309020	1.001660
980.606360	1.001682
980.903664	1.002045
981.200931	1.000803
981.498162	1.001782
981.795356	1.001795
982.092513	1.000947
982.389633	1.002343
982.686717	1.000746
982.983764	1.000706
983.280775	1.001627
983.577749	1.002203
983.874686	1.000916
984.171587	0.999638
984.468451	1.001647
984.765279	1.001865
985.062070	1.001803
985.358824	1.002706
985.655543	1.002927
985.952224	1.002733
986.248869	1.002885
986.545478	1.003987
986.842050	1.002280
987.138586	1.001913
987.435086	1.001711
987.731549	1.003962
988.027975	1.002993
988.324366	1.002025
988.620719	1.001896
988.917037	1.002653
989.213318	1.004548
989.509563	1.004057
989.805772	1.003503
990.101944	1.002471
990.398080	1.002951
990.694180	1.004111
990.990244	1.002250
991.286271	1.003720
991.582262	1.002690
991.878217	1.002380
992.174136	1.003382
992.470019	1.001892
992.765865	1.003287
993.061676	1.003429
993.357450	1.001594
993.653188	1.004059
993.948890	1.003065
994.244556	1.000963
994.540186	1.002823
994.835780	1.002174
995.131337	1.003200
995.426859	1.001570
995.722345	1.003188
996.017795	1.002972
996.313208	1.002575
996.608586	1.002183
996.903928	1.003060
997.199234	1.003107
997.494504	1.003061
997.789738	1.001477
998.084936	1.002839
998.380099	1.002030
998.675225	1.002696
998.970316	1.003085
999.265371	1.001405
999.560390	1.003333
999.855373	1.002105
1000.150320	1.002244
1000.445232	1.002526
1000.740108	1.002797
1001.034948	1.002573
1001.329752	1.003809
1001.624521	1.002991
1001.919254	1.001967
1002.213951	1.002127
1002.508613	1.002373
1002.803239	1.002771
1003.097829	1.003612
1003.392384	1.002134
1003.686903	1.003648
1003.981386	1.002571
1004.275834	1.003435
1004.570246	1.002303
1004.864623	1.004314
1005.158964	1.003316
1005.453270	1.003197
1005.747540	1.003404
1006.041775	1.002899
1006.335974	1.003103
1006.630138	1.003125
1006.924266	1.001645
1007.218359	1.002213
1007.512416	1.002934
1007.806438	1.002560
1008.100425	1.003116
1008.394376	1.002457
1008.688292	1.001631
1008.982172	1.002652
1009.276017	1.003220
1009.569827	1.003328
1009.863602	1.001597
1010.157341	1.003210
1010.451045	1.001831
1010.744714	1.003872
1011.038347	1.004539
1011.331945	1.002981
1011.625508	1.002121
1011.919036	1.003025
1012.212528	1.003587
1012.505986	1.002777
1012.799408	1.004859
1013.092795	1.003125
1013.386147	1.002187
1013.679464	1.004858
1013.972745	1.003400
1014.265992	1.003377
1014.559204	1.002561
1014.852380	1.004375
1015.145521	1.002342
1015.438628	1.003096
1015.731699	1.003117
1016.024736	1.004696
1016.317737	1.003018
1016.610703	1.003807
1016.903635	1.003677
1017.196531	1.001955
1017.489393	1.002675
1017.782219	1.001911
1018.075011	1.003017
1018.367768	1.002442
1018.660490	1.002631
1018.953177	1.002631
1019.245829	1.002631
