Dividing Wavelength (nm)	Counts (n)	Blue Motor Position (mm): 8.700000	Red Motor Position (mm): 0.000000	
326.493990	1.004708
326.888308	1.004708
327.282561	1.004708
327.676750	1.004773
328.070874	1.005337
328.464933	1.006080
328.858929	1.005532
329.252859	1.005552
329.646726	1.003839
330.040528	1.004587
330.434265	1.005154
330.827938	1.003973
331.221547	1.003857
331.615091	1.005284
332.008571	1.005391
332.401986	1.004852
332.795338	1.004515
333.188625	1.004615
333.581847	1.003779
333.975006	1.004493
334.368100	1.004826
334.761129	1.003624
335.154095	1.005219
335.546996	1.003452
335.939833	0.998107
336.332606	0.999420
336.725315	0.998009
337.117960	0.998801
337.510540	0.998788
337.903056	0.998898
338.295508	1.000055
338.687896	0.998656
339.080220	0.999472
339.472480	0.998263
339.864676	0.999280
340.256807	0.998380
340.648875	0.999480
341.040879	0.999292
341.432818	0.998555
341.824694	0.998915
342.216506	0.999625
342.608253	0.999058
342.999937	0.997528
343.391557	0.998146
343.783113	0.999558
344.174605	1.000141
344.566033	0.997077
344.957397	0.999144
345.348697	0.999026
345.739934	0.998851
346.131106	0.998314
346.522215	0.998782
346.913260	0.998603
347.304241	0.998564
347.695159	0.998391
348.086012	0.997544
348.476802	0.998321
348.867528	0.998774
349.258191	0.999163
349.648789	0.998653
350.039324	0.997749
350.429796	0.998472
350.820203	0.997276
351.210548	0.998879
351.600828	0.998904
351.991045	0.997267
352.381198	0.998976
352.771288	0.998434
353.161314	0.997309
353.551276	0.998603
353.941175	0.995696
354.331010	0.998512
354.720782	0.997662
355.110490	0.998393
355.500135	0.997750
355.889717	0.997779
356.279235	0.996746
356.668689	0.998080
357.058080	0.997409
357.447408	0.997164
357.836672	0.997838
358.225873	0.997885
358.615010	0.997199
359.004084	0.996352
359.393095	0.997901
359.782043	0.997172
360.170927	0.997601
360.559748	0.997260
360.948505	0.996258
361.337199	0.997467
361.725830	0.997034
362.114398	0.996938
362.502903	0.994507
362.891344	0.995140
363.279722	0.996253
363.668037	0.997333
364.056289	0.996170
364.444478	0.997783
364.832603	0.995903
365.220665	0.996045
365.608665	0.995754
365.996601	0.997238
366.384474	0.995455
366.772284	0.995255
367.160031	0.994039
367.547715	0.995281
367.935336	0.993753
368.322893	0.992982
368.710388	0.991160
369.097820	0.990063
369.485189	0.987650
369.872495	0.986472
370.259738	0.984689
370.646918	0.981446
371.034035	0.979099
371.421090	0.976702
371.808081	0.971368
372.195010	0.969268
372.581875	0.962600
372.968678	0.959102
373.355418	0.955625
373.742096	0.947949
374.128710	0.944395
374.515262	0.939347
374.901751	0.933733
375.288177	0.927914
375.674540	0.921864
376.060841	0.915639
376.447079	0.909293
376.833254	0.901523
377.219367	0.897002
377.605417	0.885907
377.991404	0.881530
378.377329	0.876739
378.763191	0.868503
379.148991	0.860865
379.534727	0.853194
379.920402	0.845047
380.306013	0.841649
380.691563	0.828472
381.077049	0.822172
381.462474	0.818671
381.847835	0.806620
382.233134	0.801227
382.618371	0.802270
383.003545	0.784875
383.388657	0.782660
383.773706	0.775011
384.158693	0.771284
384.543618	0.766803
384.928480	0.756230
385.313280	0.747438
385.698017	0.746468
386.082692	0.734484
386.467305	0.733606
386.851856	0.728685
387.236344	0.722481
387.620770	0.716983
388.005133	0.711221
388.389435	0.705972
388.773674	0.703182
389.157851	0.695225
389.541965	0.693583
389.926018	0.699842
390.310008	0.686159
390.693936	0.682463
391.077802	0.675707
391.461606	0.676488
391.845348	0.666162
392.229027	0.664996
392.612645	0.663443
392.996200	0.650551
393.379694	0.643413
393.763125	0.634139
394.146494	0.638740
394.529801	0.628868
394.913047	0.621072
395.296230	0.627418
395.679351	0.618575
396.062410	0.615129
396.445408	0.618272
396.828343	0.613462
397.211217	0.608858
397.594028	0.621295
397.976778	0.610571
398.359466	0.607353
398.742092	0.603474
399.124656	0.614839
399.507158	0.603194
399.889598	0.599945
400.271977	0.591576
400.654294	0.595302
401.036549	0.593873
401.418742	0.598372
401.800874	0.584202
402.182944	0.581111
402.564952	0.573143
402.946898	0.574688
403.328783	0.575576
403.710606	0.586721
404.092367	0.561883
404.474067	0.566712
404.855705	0.565975
405.237282	0.574309
405.618797	0.560497
406.000250	0.556311
406.381642	0.546917
406.762972	0.551737
407.144240	0.550340
407.525447	0.549781
407.906593	0.542640
408.287677	0.538230
408.668700	0.546250
409.049661	0.540957
409.430560	0.535621
409.811399	0.544782
410.192176	0.526234
410.572891	0.533186
410.953545	0.521585
411.334138	0.534739
411.714669	0.527420
412.095139	0.539340
412.475547	0.523282
412.855894	0.524938
413.236180	0.524302
413.616405	0.529673
413.996568	0.520033
414.376670	0.526719
414.756711	0.531474
415.136691	0.527972
415.516609	0.519020
415.896466	0.515647
416.276262	0.511914
416.655997	0.513470
417.035670	0.495360
417.415283	0.487226
417.794834	0.491900
418.174324	0.496811
418.553753	0.506312
418.933121	0.488522
419.312428	0.482236
419.691674	0.487597
420.070859	0.476158
420.449983	0.484480
420.829045	0.473395
421.208047	0.482688
421.586988	0.475835
421.965867	0.474808
422.344686	0.463019
422.723444	0.476002
423.102141	0.492534
423.480777	0.465328
423.859352	0.486896
424.237866	0.463670
424.616319	0.464354
424.994712	0.455075
425.373044	0.465860
425.751314	0.453394
426.129524	0.470516
426.507673	0.453249
426.885762	0.447074
427.263789	0.452508
427.641756	0.462351
428.019662	0.452836
428.397508	0.451875
428.775292	0.456438
429.153016	0.447903
429.530679	0.454695
429.908282	0.447460
430.285824	0.457669
430.663305	0.435881
431.040726	0.457364
431.418086	0.456772
431.795385	0.448976
432.172624	0.447530
432.549802	0.448216
432.926920	0.447419
433.303977	0.446942
433.680974	0.444009
434.057910	0.442662
434.434786	0.441568
434.811601	0.444251
435.188355	0.426787
435.565050	0.436256
435.941683	0.437310
436.318257	0.421015
436.694770	0.422648
437.071222	0.420510
437.447614	0.424755
437.823946	0.431093
438.200218	0.420837
438.576429	0.430227
438.952580	0.423440
439.328670	0.419824
439.704700	0.426649
440.080670	0.427747
440.456580	0.409140
440.832429	0.416592
441.208218	0.427825
441.583947	0.417073
441.959616	0.416226
442.335224	0.421939
442.710773	0.412703
443.086261	0.411182
443.461689	0.424384
443.837057	0.414161
444.212365	0.404165
444.587612	0.411288
444.962800	0.401692
445.337927	0.402712
445.712995	0.428908
446.088002	0.390853
446.462949	0.401618
446.837837	0.406582
447.212664	0.395044
447.587431	0.386472
447.962139	0.356672
448.336786	0.315679
448.711374	0.325906
449.085901	0.370422
449.460369	0.374803
449.834776	0.378515
450.209124	0.357242
450.583412	0.350345
450.957640	0.343216
451.331808	0.355024
451.705917	0.378123
452.079965	0.382618
452.453954	0.371079
452.827883	0.377968
453.201752	0.372578
453.575562	0.383708
453.949311	0.371859
454.323001	0.378331
454.696632	0.374242
455.070202	0.367011
455.443713	0.358759
455.817164	0.353640
456.190556	0.348808
456.563888	0.346060
456.937160	0.343881
457.310373	0.360977
457.683526	0.359238
458.056619	0.365001
458.429653	0.365969
458.802628	0.369470
459.175542	0.363927
459.548398	0.346249
459.921194	0.338846
460.293930	0.339057
460.666607	0.316800
461.039224	0.304694
461.411782	0.300100
461.784280	0.299669
462.156719	0.303814
462.529099	0.307735
462.901419	0.324079
463.273680	0.328598
463.645882	0.328080
464.018024	0.334046
464.390106	0.326652
464.762130	0.311637
465.134094	0.294282
465.505999	0.263279
465.877845	0.233653
466.249631	0.220667
466.621358	0.227891
466.993026	0.242055
467.364634	0.248378
467.736184	0.257079
468.107674	0.265814
468.479105	0.264821
468.850477	0.271653
469.221790	0.278479
469.593043	0.288378
469.964238	0.293316
470.335373	0.292953
470.706449	0.291136
471.077467	0.291645
471.448425	0.253849
471.819324	0.228922
472.190164	0.228788
472.560945	0.257817
472.931667	0.280076
473.302330	0.284060
473.672934	0.295884
474.043479	0.283923
474.413965	0.286066
474.784393	0.289281
475.154761	0.284416
475.525070	0.281880
475.895321	0.287492
476.265513	0.281449
476.635645	0.276869
477.005719	0.276392
477.375734	0.273645
477.745691	0.266271
478.115588	0.262815
478.485427	0.256370
478.855207	0.243324
479.224928	0.225829
479.594591	0.213728
479.964194	0.217263
480.333739	0.218448
480.703226	0.219782
481.072653	0.218215
481.442022	0.214066
481.811333	0.210580
482.180584	0.214024
482.549777	0.219343
482.918912	0.222708
483.287988	0.222598
483.657005	0.222128
484.025964	0.228477
484.394864	0.225762
484.763706	0.226606
485.132489	0.231447
485.501213	0.232458
485.869879	0.230401
486.238487	0.233518
486.607036	0.231580
486.975527	0.236541
487.343959	0.232014
487.712333	0.231210
488.080648	0.232600
488.448905	0.231749
488.817104	0.233098
489.185244	0.227298
489.553326	0.224700
489.921350	0.214469
490.289315	0.196591
490.657222	0.191513
491.025070	0.193238
491.392861	0.194853
491.760593	0.200716
492.128267	0.206498
492.495883	0.211999
492.863440	0.218209
493.230939	0.224631
493.598380	0.226034
493.965763	0.228356
494.333088	0.229961
494.700354	0.232003
495.067563	0.230855
495.434713	0.234146
495.801805	0.231852
496.168839	0.233649
496.535815	0.235207
496.902733	0.234787
497.269593	0.236464
497.636395	0.234316
498.003139	0.234415
498.369825	0.237672
498.736453	0.234112
499.103023	0.235859
499.469535	0.234874
499.835989	0.235079
500.202385	0.236131
500.568723	0.239121
500.935003	0.234413
501.301226	0.238809
501.667390	0.232916
502.033497	0.231100
502.399546	0.233953
502.765537	0.236124
503.131470	0.234462
503.497345	0.230679
503.863163	0.239251
504.228923	0.232421
504.594625	0.231067
504.960269	0.236381
505.325856	0.231801
505.691385	0.236306
506.056856	0.233006
506.422270	0.232063
506.787625	0.234840
507.152924	0.232239
507.518164	0.232456
507.883347	0.234274
508.248472	0.236030
508.613540	0.231044
508.978550	0.233537
509.343503	0.234229
509.708398	0.231901
510.073236	0.228974
510.438016	0.228842
510.802738	0.229894
511.167403	0.228932
511.532010	0.231048
511.896561	0.226323
512.261053	0.225097
512.625488	0.227296
512.989866	0.227431
513.354186	0.227773
513.718449	0.229668
514.082655	0.225980
514.446803	0.228360
514.810894	0.226018
515.174927	0.228725
515.538904	0.228237
515.902822	0.225082
516.266684	0.227327
516.630488	0.228663
516.994235	0.227647
517.357925	0.226161
517.721558	0.224736
518.085133	0.223977
518.448651	0.224193
518.812112	0.226548
519.175516	0.225952
519.538863	0.223494
519.902152	0.225309
520.265385	0.222242
520.628560	0.224080
520.991678	0.224383
521.354739	0.223289
521.717743	0.224519
522.080690	0.224749
522.443580	0.222047
522.806413	0.222924
523.169189	0.222789
523.531908	0.221481
523.894569	0.224928
524.257174	0.224518
524.619722	0.222537
524.982213	0.223486
525.344647	0.222482
525.707025	0.223505
526.069345	0.221694
526.431608	0.223190
526.793815	0.220983
527.155964	0.225310
527.518057	0.224301
527.880093	0.225267
528.242072	0.223919
528.603995	0.225701
528.965860	0.227377
529.327669	0.226455
529.689421	0.227374
530.051117	0.228255
530.412755	0.225903
530.774337	0.227910
531.135862	0.228773
531.497331	0.227756
531.858743	0.230855
532.220098	0.227587
532.581396	0.230166
532.942638	0.230436
533.303824	0.231603
533.664953	0.230977
534.026025	0.233116
534.387040	0.231105
534.747999	0.230839
535.108902	0.229728
535.469748	0.235040
535.830537	0.232599
536.191270	0.233204
536.551947	0.232724
536.912567	0.232780
537.273131	0.234489
537.633638	0.234709
537.994089	0.234878
538.354483	0.236044
538.714821	0.232863
539.075103	0.232835
539.435328	0.233416
539.795497	0.237666
540.155609	0.233890
540.515665	0.232064
540.875665	0.237802
541.235609	0.236413
541.595496	0.236393
541.955328	0.232973
542.315102	0.235666
542.674821	0.237053
543.034483	0.236998
543.394090	0.236390
543.753640	0.238364
544.113134	0.233473
544.472571	0.236855
544.831953	0.233494
545.191278	0.237808
545.550548	0.236974
545.909761	0.234069
546.268918	0.234868
546.628019	0.233203
546.987064	0.236019
547.346053	0.237313
547.704986	0.235316
548.063863	0.235703
548.422684	0.235843
548.781449	0.237665
549.140158	0.235584
549.498811	0.238299
549.857408	0.241252
550.215949	0.236131
550.574434	0.239123
550.932864	0.237395
551.291237	0.235693
551.649555	0.237451
552.007817	0.236843
552.366022	0.237922
552.724173	0.238353
553.082267	0.238508
553.440305	0.235309
553.798288	0.239844
554.156215	0.236256
554.514086	0.236944
554.871902	0.240240
555.229661	0.239092
555.587365	0.239868
555.945014	0.242197
556.302606	0.239200
556.660143	0.242066
557.017625	0.238686
557.375050	0.240488
557.732421	0.237708
558.089735	0.239585
558.446994	0.239761
558.804197	0.238899
559.161345	0.238912
559.518437	0.242233
559.875474	0.240274
560.232455	0.239613
560.589381	0.240700
560.946251	0.241055
561.303065	0.238472
561.659825	0.239611
562.016528	0.241655
562.373177	0.244119
562.729770	0.241431
563.086307	0.243263
563.442789	0.241279
563.799216	0.244084
564.155587	0.242961
564.511904	0.244229
564.868164	0.244013
565.224370	0.243750
565.580520	0.245836
565.936615	0.245488
566.292654	0.248515
566.648638	0.245588
567.004567	0.246488
567.360441	0.246873
567.716260	0.249097
568.072023	0.246517
568.427732	0.247643
568.783385	0.249967
569.138982	0.248137
569.494525	0.247624
569.850013	0.250839
570.205445	0.249044
570.560823	0.251510
570.916145	0.253430
571.271412	0.251943
571.626625	0.253523
571.981782	0.253790
572.336884	0.254654
572.691931	0.254552
573.046923	0.255837
573.401860	0.256781
573.756743	0.258525
574.111570	0.257468
574.466342	0.258007
574.821059	0.257056
575.175722	0.260116
575.530330	0.259720
575.884882	0.259708
576.239380	0.261781
576.593823	0.262147
576.948211	0.262050
577.302544	0.265057
577.656823	0.264893
578.011047	0.264755
578.365216	0.265908
578.719330	0.267697
579.073389	0.266871
579.427394	0.268122
579.781344	0.269121
580.135239	0.270689
580.489080	0.270297
580.842866	0.273408
581.196597	0.273365
581.550273	0.271891
581.903895	0.272677
582.257463	0.270978
582.610975	0.274453
582.964434	0.273495
583.317837	0.276067
583.671186	0.276430
584.024481	0.276708
584.377721	0.279125
584.730906	0.279782
585.084037	0.279297
585.437113	0.280862
585.790135	0.280438
586.143103	0.283331
586.496016	0.284167
586.848874	0.281736
587.201679	0.282338
587.554428	0.285822
587.907124	0.284746
588.259765	0.285130
588.612352	0.285627
588.964884	0.290062
589.317362	0.289132
589.669786	0.289361
590.022155	0.287530
590.374470	0.287215
590.726731	0.289230
591.078937	0.294401
591.431090	0.290353
591.783188	0.294585
592.135232	0.295045
592.487222	0.294870
592.839157	0.292962
593.191038	0.295459
593.542866	0.297195
593.894639	0.300593
594.246358	0.299327
594.598022	0.297970
594.949633	0.301922
595.301190	0.302305
595.652692	0.301469
596.004141	0.297781
596.355535	0.306115
596.706876	0.306586
597.058162	0.308813
597.409395	0.306121
597.760573	0.304046
598.111698	0.306890
598.462768	0.307513
598.813785	0.308995
599.164748	0.310101
599.515657	0.310465
599.866511	0.314289
600.217312	0.309322
600.568060	0.314070
600.918753	0.310895
601.269392	0.311759
601.619978	0.314866
601.970510	0.312825
602.320988	0.312909
602.671412	0.310740
603.021783	0.313103
603.372100	0.314440
603.722363	0.314093
604.072572	0.314851
604.422728	0.314651
604.772830	0.317252
605.122878	0.316648
605.472872	0.317159
605.822813	0.315453
606.172701	0.318301
606.522534	0.315208
606.872314	0.315708
607.222041	0.316540
607.571714	0.314661
607.921333	0.315898
608.270899	0.315768
608.620411	0.312571
608.969870	0.316683
609.319276	0.316432
609.668627	0.316554
610.017926	0.315099
610.367171	0.313659
610.716362	0.314408
611.065500	0.314512
611.414585	0.313069
611.763616	0.313608
612.112594	0.314250
612.461518	0.313231
612.810389	0.311473
613.159207	0.313640
613.507971	0.315409
613.856682	0.311227
614.205340	0.312544
614.553945	0.309586
614.902496	0.313657
615.250994	0.311542
615.599439	0.312074
615.947830	0.311705
616.296169	0.312770
616.644454	0.312221
616.992686	0.312226
617.340864	0.310442
617.688990	0.312951
618.037063	0.310621
618.385082	0.312200
618.733048	0.309239
619.080961	0.311457
619.428821	0.310708
619.776628	0.310740
620.124382	0.312592
620.472083	0.313343
620.819731	0.312284
621.167326	0.316318
621.514868	0.315798
621.862357	0.319993
622.209793	0.319229
622.557176	0.322192
622.904506	0.323018
623.251783	0.325864
623.599007	0.327824
623.946179	0.327051
624.293297	0.329315
624.640363	0.333566
624.987376	0.333582
625.334336	0.336314
625.681243	0.338530
626.028097	0.338993
626.374899	0.340077
626.721647	0.340714
627.068343	0.343672
627.414987	0.345125
627.761577	0.346975
628.108115	0.344998
628.454600	0.350915
628.801032	0.348081
629.147412	0.350150
629.493739	0.350955
629.840014	0.353600
630.186236	0.350939
630.532405	0.356585
630.878521	0.353659
631.224585	0.356373
631.570597	0.359545
631.916556	0.357977
632.262462	0.358140
632.608316	0.360919
632.954117	0.361395
633.299866	0.362329
633.645562	0.362961
633.991206	0.367024
634.336797	0.369707
634.682336	0.372389
635.027823	0.374146
635.373257	0.374398
635.718639	0.378146
636.063968	0.377946
636.409245	0.383501
636.754470	0.383727
637.099642	0.385799
637.444762	0.389735
637.789829	0.388779
638.134845	0.392406
638.479808	0.393458
638.824719	0.392942
639.169577	0.397042
639.514383	0.396001
639.859137	0.401037
640.203839	0.400143
640.548489	0.401262
640.893086	0.401679
641.237632	0.404012
641.582125	0.402465
641.926566	0.404588
642.270955	0.404013
642.615292	0.404535
642.959576	0.403854
643.303809	0.404716
643.647990	0.404113
643.992118	0.405087
644.336195	0.407919
644.680219	0.406713
645.024192	0.407755
645.368112	0.401209
645.711981	0.399865
646.055797	0.396019
646.399562	0.397530
646.743274	0.390870
647.086935	0.387795
647.430544	0.387877
647.774101	0.386739
648.117606	0.386781
648.461059	0.387385
648.804460	0.389801
649.147810	0.395089
649.491108	0.396922
649.834354	0.398409
650.177548	0.404109
650.520690	0.409264
650.863781	0.410641
651.206820	0.410277
651.549807	0.414813
651.892742	0.418660
652.235626	0.418690
652.578458	0.419218
652.921238	0.425991
653.263967	0.423798
653.606644	0.427173
653.949269	0.427575
654.291843	0.431583
654.634365	0.428624
654.976836	0.431669
655.319255	0.431734
655.661622	0.433919
656.003938	0.434605
656.346203	0.436494
656.688416	0.434935
657.030577	0.438355
657.372687	0.440792
657.714746	0.441988
658.056753	0.438426
658.398708	0.442645
658.740612	0.444062
659.082465	0.440007
659.424266	0.441285
659.766016	0.440352
660.107715	0.443994
660.449362	0.442646
660.790958	0.443244
661.132503	0.444358
661.473996	0.442189
661.815438	0.443354
662.156829	0.443573
662.498168	0.444636
662.839456	0.446153
663.180693	0.444612
663.521879	0.443980
663.863013	0.444941
664.204097	0.443785
664.545129	0.441377
664.886110	0.441470
665.227040	0.440074
665.567918	0.442137
665.908746	0.440450
666.249522	0.440607
666.590248	0.442018
666.930922	0.440333
667.271545	0.439668
667.612118	0.440124
667.952639	0.441435
668.293109	0.440945
668.633528	0.443761
668.973896	0.443514
669.314213	0.444899
669.654480	0.447334
669.994695	0.446669
670.334859	0.447584
670.674973	0.449319
671.015035	0.449133
671.355047	0.449554
671.695008	0.450361
672.034918	0.452491
672.374777	0.452542
672.714585	0.453721
673.054342	0.454190
673.394049	0.454606
673.733705	0.452955
674.073310	0.454827
674.412864	0.457373
674.752368	0.458845
675.091820	0.459200
675.431223	0.463358
675.770574	0.463344
676.109875	0.466784
676.449125	0.467134
676.788324	0.469629
677.127473	0.474993
677.466571	0.475086
677.805619	0.477153
678.144616	0.479191
678.483562	0.481418
678.822458	0.483164
679.161303	0.484096
679.500098	0.485482
679.838842	0.487383
680.177535	0.486657
680.516179	0.485575
680.854771	0.485858
681.193314	0.479652
681.531805	0.472332
681.870247	0.462095
682.208638	0.456051
682.546978	0.454891
682.885268	0.456812
683.223508	0.464053
683.561697	0.467396
683.899836	0.470820
684.237925	0.474090
684.575963	0.477368
684.913951	0.480097
685.251889	0.477250
685.589776	0.479468
685.927614	0.482118
686.265401	0.477723
686.603137	0.479662
686.940824	0.475670
687.278460	0.474027
687.616046	0.474511
687.953582	0.469604
688.291068	0.472325
688.628504	0.469411
688.965889	0.471187
689.303224	0.474976
689.640510	0.479934
689.977745	0.485129
690.314930	0.492338
690.652065	0.497041
690.989150	0.503467
691.326185	0.511249
691.663170	0.515632
692.000105	0.522291
692.336990	0.529058
692.673825	0.532446
693.010610	0.538782
693.347345	0.543731
693.684030	0.546522
694.020665	0.551201
694.357251	0.558779
694.693786	0.559513
695.030272	0.562266
695.366707	0.567891
695.703093	0.570279
696.039429	0.569229
696.375716	0.572878
696.711952	0.574116
697.048139	0.575906
697.384276	0.578991
697.720363	0.578502
698.056400	0.578227
698.392388	0.583532
698.728326	0.585092
699.064214	0.588881
699.400053	0.589891
699.735842	0.595993
700.071581	0.597241
700.407270	0.600481
700.742910	0.602859
701.078501	0.609538
701.414042	0.610718
701.749533	0.614348
702.084974	0.621178
702.420366	0.616349
702.755709	0.622741
703.091002	0.630293
703.426246	0.625991
703.761440	0.628590
704.096584	0.633445
704.431679	0.633365
704.766725	0.635978
705.101721	0.638244
705.436668	0.635285
705.771565	0.639465
706.106413	0.637138
706.441212	0.636232
706.775961	0.635917
707.110661	0.636138
707.445311	0.633049
707.779913	0.634087
708.114465	0.632434
708.448967	0.629232
708.783421	0.623685
709.117825	0.620603
709.452180	0.619836
709.786485	0.614552
710.120742	0.606565
710.454949	0.607222
710.789107	0.602479
711.123216	0.595159
711.457275	0.595799
711.791286	0.591572
712.125247	0.591738
712.459159	0.598539
712.793023	0.590834
713.126837	0.600489
713.460602	0.601274
713.794318	0.604770
714.127985	0.606029
714.461602	0.616563
714.795171	0.617981
715.128691	0.625648
715.462162	0.634058
715.795584	0.639907
716.128957	0.642452
716.462281	0.646009
716.795556	0.649460
717.128782	0.656404
717.461960	0.664451
717.795088	0.663742
718.128167	0.670453
718.461198	0.675350
718.794180	0.677000
719.127113	0.681316
719.459997	0.684962
719.792833	0.689198
720.125619	0.689294
720.458357	0.696103
720.791046	0.697849
721.123686	0.700716
721.456278	0.706346
721.788821	0.704804
722.121315	0.709385
722.453761	0.712294
722.786158	0.711988
723.118506	0.709451
723.450805	0.713169
723.783056	0.711579
724.115259	0.711790
724.447412	0.712542
724.779518	0.711692
725.111574	0.711245
725.443582	0.708821
725.775542	0.711852
726.107453	0.705927
726.439315	0.706776
726.771129	0.702746
727.102895	0.698753
727.434612	0.695517
727.766281	0.693514
728.097901	0.691889
728.429473	0.692498
728.760996	0.691589
729.092471	0.691218
729.423897	0.696421
729.755276	0.697116
730.086606	0.695397
730.417887	0.690816
730.749120	0.684241
731.080305	0.680238
731.411442	0.675824
731.742530	0.677292
732.073570	0.678242
732.404562	0.675049
732.735506	0.676232
733.066401	0.679717
733.397249	0.686750
733.728048	0.695233
734.058798	0.709745
734.389501	0.719374
734.720156	0.723412
735.050762	0.731529
735.381320	0.734467
735.711831	0.739029
736.042293	0.743814
736.372707	0.744238
736.703073	0.745985
737.033391	0.747041
737.363661	0.745586
737.693883	0.743290
738.024056	0.741847
738.354182	0.741404
738.684260	0.735149
739.014290	0.732066
739.344272	0.731638
739.674207	0.727120
740.004093	0.727016
740.333931	0.728088
740.663722	0.729722
740.993464	0.730857
741.323159	0.732408
741.652806	0.737502
741.982405	0.742589
742.311956	0.747273
742.641460	0.747952
742.970915	0.752398
743.300323	0.756854
743.629683	0.761116
743.958996	0.765197
744.288260	0.768176
744.617477	0.774706
744.946647	0.775004
745.275768	0.781650
745.604842	0.781880
745.933869	0.787508
746.262847	0.789842
746.591778	0.787174
746.920662	0.790476
747.249498	0.793921
747.578286	0.790854
747.907027	0.786403
748.235720	0.784366
748.564365	0.783421
748.892963	0.784992
749.221514	0.787141
749.550017	0.788667
749.878473	0.790751
750.206881	0.795861
750.535242	0.797105
750.863555	0.796597
751.191821	0.798777
751.520039	0.799481
751.848210	0.801483
752.176334	0.800363
752.504411	0.800420
752.832440	0.804397
753.160421	0.806941
753.488356	0.806594
753.816243	0.807407
754.144082	0.810942
754.471875	0.813063
754.799620	0.812547
755.127318	0.812666
755.454969	0.814231
755.782572	0.815297
756.110129	0.816352
756.437638	0.818548
756.765100	0.817326
757.092515	0.816724
757.419882	0.815989
757.747203	0.818619
758.074477	0.818709
758.401703	0.816540
758.728882	0.814111
759.056014	0.813765
759.383099	0.813141
759.710138	0.812292
760.037129	0.809449
760.364073	0.809326
760.690970	0.810754
761.017820	0.812285
761.344623	0.810217
761.671379	0.806079
761.998088	0.798940
762.324751	0.783545
762.651366	0.751633
762.977935	0.700611
763.304456	0.666891
763.630931	0.665583
763.957359	0.691044
764.283740	0.723406
764.610074	0.746054
764.936362	0.769774
765.262602	0.786860
765.588796	0.802093
765.914943	0.812815
766.241044	0.824224
766.567097	0.830519
766.893104	0.837033
767.219064	0.841745
767.544978	0.846325
767.870845	0.854118
768.196665	0.856160
768.522438	0.857562
768.848165	0.860036
769.173846	0.864819
769.499479	0.866997
769.825066	0.869858
770.150607	0.873876
770.476101	0.872853
770.801548	0.874560
771.126949	0.879235
771.452303	0.881436
771.777611	0.882946
772.102872	0.883260
772.428087	0.887386
772.753256	0.890244
773.078378	0.891394
773.403453	0.894565
773.728482	0.899664
774.053465	0.896648
774.378401	0.898398
774.703291	0.902935
775.028135	0.903397
775.352932	0.902089
775.677683	0.907469
776.002388	0.906830
776.327046	0.907120
776.651658	0.909911
776.976224	0.912174
777.300743	0.911324
777.625216	0.912323
777.949643	0.915247
778.274024	0.913798
778.598359	0.916238
778.922647	0.915298
779.246889	0.916721
779.571086	0.917277
779.895236	0.919189
780.219339	0.918605
780.543397	0.916634
780.867409	0.916799
781.191374	0.916508
781.515294	0.918723
781.839167	0.917592
782.162995	0.919271
782.486776	0.917756
782.810511	0.918950
783.134201	0.922337
783.457844	0.921635
783.781441	0.923280
784.104993	0.926460
784.428498	0.926252
784.751958	0.924685
785.075372	0.926161
785.398739	0.927027
785.722061	0.925288
786.045337	0.924662
786.368568	0.925148
786.691752	0.926173
787.014891	0.920188
787.337983	0.914429
787.661030	0.906789
787.984031	0.895539
788.306987	0.890079
788.629897	0.889226
788.952760	0.894543
789.275579	0.899500
789.598351	0.907846
789.921078	0.916366
790.243759	0.918857
790.566395	0.921666
790.888984	0.926329
791.211529	0.928748
791.534027	0.930531
791.856480	0.932825
792.178888	0.934947
792.501249	0.935631
792.823566	0.938703
793.145836	0.937239
793.468062	0.937768
793.790241	0.939975
794.112375	0.936749
794.434464	0.935814
794.756507	0.935391
795.078505	0.933919
795.400457	0.930413
795.722364	0.923674
796.044226	0.919064
796.366042	0.917621
796.687812	0.919247
797.009538	0.919197
797.331218	0.922688
797.652852	0.925508
797.974442	0.926893
798.295986	0.928168
798.617484	0.929952
798.938938	0.932903
799.260346	0.934325
799.581709	0.935356
799.903026	0.938497
800.224299	0.937785
800.545526	0.940390
800.866708	0.942972
801.187845	0.944809
801.508936	0.945060
801.829983	0.945404
802.150984	0.946147
802.471940	0.948192
802.792851	0.947784
803.113717	0.949562
803.434538	0.949018
803.755314	0.949743
804.076045	0.949926
804.396731	0.950974
804.717372	0.948769
805.037967	0.950781
805.358518	0.949711
805.679024	0.948666
805.999485	0.948572
806.319901	0.948120
806.640272	0.949486
806.960598	0.948191
807.280879	0.946595
807.601115	0.946987
807.921306	0.948683
808.241453	0.947354
808.561554	0.947616
808.881611	0.948706
809.201623	0.949230
809.521590	0.949725
809.841513	0.950501
810.161390	0.948736
810.481223	0.951174
810.801011	0.952497
811.120755	0.954835
811.440453	0.953668
811.760107	0.954210
812.079716	0.953896
812.399281	0.955601
812.718801	0.955808
813.038276	0.957089
813.357707	0.956737
813.677093	0.957856
813.996434	0.958169
814.315731	0.959401
814.634983	0.958773
814.954191	0.959984
815.273354	0.957851
815.592473	0.956492
815.911547	0.956807
816.230577	0.954256
816.549562	0.953448
816.868502	0.952890
817.187399	0.953110
817.506250	0.950950
817.825058	0.950377
818.143821	0.949451
818.462539	0.948099
818.781213	0.943502
819.099843	0.939629
819.418429	0.928371
819.736970	0.919977
820.055466	0.909809
820.373919	0.900971
820.692327	0.885744
821.010691	0.866500
821.329011	0.816750
821.647286	0.733992
821.965517	0.656688
822.283704	0.627721
822.601847	0.632672
822.919945	0.665876
823.237999	0.704618
823.556010	0.740615
823.873976	0.775528
824.191897	0.805009
824.509775	0.829882
824.827609	0.851317
825.145398	0.862940
825.463144	0.864330
825.780845	0.855505
826.098502	0.844063
826.416116	0.819023
826.733685	0.789454
827.051210	0.783586
827.368692	0.798225
827.686129	0.824512
828.003522	0.853895
828.320872	0.876146
828.638177	0.896790
828.955439	0.913834
829.272656	0.923458
829.589830	0.930406
829.906960	0.938835
830.224046	0.944228
830.541088	0.949392
830.858086	0.951605
831.175041	0.955492
831.491952	0.954698
831.808819	0.954477
832.125642	0.951631
832.442421	0.946335
832.759157	0.932695
833.075849	0.909235
833.392497	0.879784
833.709101	0.861068
834.025662	0.866157
834.342179	0.883513
834.658653	0.902624
834.975083	0.920468
835.291469	0.934181
835.607811	0.942399
835.924110	0.950728
836.240366	0.957837
836.556578	0.963010
836.872746	0.965458
837.188871	0.967991
837.504952	0.971455
837.820990	0.972418
838.136984	0.973437
838.452935	0.975025
838.768842	0.975483
839.084706	0.971150
839.400526	0.961803
839.716303	0.940004
840.032037	0.930734
840.347727	0.933073
840.663373	0.942562
840.978977	0.954226
841.294537	0.964493
841.610054	0.970684
841.925527	0.974188
842.240957	0.977199
842.556344	0.980122
842.871687	0.982404
843.186987	0.982856
843.502244	0.984762
843.817458	0.983320
844.132629	0.985762
844.447756	0.986309
844.762840	0.987832
845.077881	0.988167
845.392879	0.986959
845.707833	0.988675
846.022745	0.989335
846.337613	0.989456
846.652438	0.988857
846.967221	0.989908
847.281960	0.989935
847.596656	0.990874
847.911309	0.990536
848.225919	0.990529
848.540485	0.990621
848.855009	0.991713
849.169490	0.991145
849.483928	0.991314
849.798323	0.990089
850.112675	0.991974
850.426984	0.991740
850.741251	0.991636
851.055474	0.990951
851.369654	0.990721
851.683792	0.990586
851.997887	0.991620
852.311938	0.990922
852.625947	0.990083
852.939914	0.991076
853.253837	0.992047
853.567718	0.993146
853.881555	0.990686
854.195350	0.991859
854.509103	0.991862
854.822812	0.992368
855.136479	0.991024
855.450103	0.992230
855.763685	0.992095
856.077224	0.992175
856.390720	0.991312
856.704173	0.992233
857.017584	0.991554
857.330953	0.990375
857.644278	0.991087
857.957561	0.990963
858.270802	0.991929
858.584000	0.991478
858.897155	0.990885
859.210268	0.991350
859.523339	0.992467
859.836367	0.992997
860.149352	0.991542
860.462295	0.991400
860.775195	0.992434
861.088054	0.990795
861.400869	0.991699
861.713642	0.991114
862.026373	0.992358
862.339062	0.992615
862.651708	0.992605
862.964312	0.992151
863.276873	0.990748
863.589392	0.990808
863.901869	0.990177
864.214303	0.989941
864.526696	0.989542
864.839045	0.989797
865.151353	0.990085
865.463619	0.988525
865.775842	0.989932
866.088023	0.991012
866.400162	0.990352
866.712258	0.991342
867.024313	0.989231
867.336325	0.990844
867.648296	0.990069
867.960224	0.989913
868.272110	0.990001
868.583954	0.990572
868.895755	0.990047
869.207515	0.990386
869.519233	0.990218
869.830909	0.989902
870.142542	0.988883
870.454134	0.989182
870.765684	0.989522
871.077191	0.990003
871.388657	0.988150
871.700081	0.989420
872.011463	0.988428
872.322803	0.988307
872.634101	0.987799
872.945357	0.987190
873.256571	0.986430
873.567744	0.986280
873.878874	0.986914
874.189963	0.986872
874.501010	0.988345
874.812015	0.985978
875.122979	0.986640
875.433900	0.986812
875.744780	0.988224
876.055618	0.985674
876.366415	0.986500
876.677169	0.985983
876.987882	0.986193
877.298554	0.988001
877.609183	0.986650
877.919771	0.985397
878.230317	0.985529
878.540822	0.983244
878.851285	0.982874
879.161707	0.980663
879.472087	0.977535
879.782425	0.969821
880.092722	0.959056
880.402977	0.937493
880.713191	0.904241
881.023363	0.864972
881.333494	0.843059
881.643583	0.836800
881.953631	0.843895
882.263637	0.859714
882.573602	0.879093
882.883526	0.894876
883.193408	0.908254
883.503248	0.919573
883.813048	0.929486
884.122806	0.940248
884.432522	0.949048
884.742197	0.958655
885.051831	0.961937
885.361424	0.966344
885.670975	0.972197
885.980485	0.972410
886.289954	0.975417
886.599382	0.976860
886.908768	0.979811
887.218113	0.979877
887.527417	0.983206
887.836680	0.984481
888.145901	0.984885
888.455082	0.986624
888.764221	0.987634
889.073319	0.987651
889.382376	0.989292
889.691392	0.986828
890.000366	0.988961
890.309300	0.988503
890.618193	0.987721
890.927044	0.986478
891.235855	0.986756
891.544625	0.987800
891.853353	0.987294
892.162041	0.986146
892.470687	0.985566
892.779293	0.982394
893.087858	0.979575
893.396381	0.978063
893.704864	0.972685
894.013306	0.964233
894.321707	0.955192
894.630068	0.948499
894.938387	0.947223
895.246665	0.949085
895.554903	0.953352
895.863100	0.960256
896.171256	0.965805
896.479371	0.971946
896.787446	0.974912
897.095480	0.977842
897.403473	0.979964
897.711425	0.981736
898.019336	0.983356
898.327207	0.985451
898.635038	0.984063
898.942827	0.986501
899.250576	0.986079
899.558284	0.986887
899.865952	0.987847
900.173579	0.987766
900.481165	0.987893
900.788711	0.988563
901.096216	0.991109
901.403681	0.990494
901.711105	0.990994
902.018489	0.990474
902.325832	0.990325
902.633135	0.988882
902.940397	0.988685
903.247619	0.984925
903.554800	0.975775
903.861941	0.960392
904.169041	0.945082
904.476101	0.938327
904.783121	0.940414
905.090100	0.946451
905.397039	0.956158
905.703938	0.963877
906.010796	0.971608
906.317614	0.977010
906.624391	0.981596
906.931129	0.984293
907.237826	0.986529
907.544483	0.988194
907.851099	0.990268
908.157675	0.990702
908.464211	0.992838
908.770707	0.991387
909.077163	0.993368
909.383578	0.993917
909.689954	0.993887
909.996289	0.994114
910.302584	0.995331
910.608839	0.997460
910.915054	0.995254
911.221229	0.994879
911.527363	0.994242
911.833458	0.995829
912.139513	0.993834
912.445527	0.995649
912.751502	0.994610
913.057436	0.993134
913.363331	0.993961
913.669186	0.992273
913.975000	0.990594
914.280775	0.988117
914.586510	0.983425
914.892205	0.980078
915.197859	0.973230
915.503475	0.964134
915.809050	0.956226
916.114585	0.951620
916.420081	0.950322
916.725536	0.952242
917.030952	0.955908
917.336328	0.959619
917.641665	0.965911
917.946961	0.969197
918.252218	0.973622
918.557435	0.977110
918.862612	0.981213
919.167750	0.983717
919.472848	0.984796
919.777906	0.986831
920.082925	0.988936
920.387904	0.989293
920.692843	0.989379
920.997743	0.990026
921.302603	0.991855
921.607423	0.990272
921.912204	0.992079
922.216946	0.993874
922.521647	0.993701
922.826310	0.995215
923.130932	0.994664
923.435516	0.995734
923.740059	0.994959
924.044564	0.994489
924.349028	0.995324
924.653454	0.997669
924.957840	0.997075
925.262186	0.996063
925.566493	0.996513
925.870761	0.998268
926.174989	0.996778
926.479178	0.998831
926.783328	0.998898
927.087438	0.998355
927.391509	0.997594
927.695541	0.998576
927.999533	0.998902
928.303486	0.998445
928.607400	0.999037
928.911275	0.999253
929.215110	1.000632
929.518906	0.999475
929.822663	0.999472
930.126381	1.001074
930.430060	0.999279
930.733699	0.999397
931.037299	0.999464
931.340861	0.999590
931.644383	0.998291
931.947866	0.999731
932.251309	0.998578
932.554714	0.998094
932.858080	0.999152
933.161407	0.998846
933.464694	0.997899
933.767943	1.000029
934.071153	0.998931
934.374323	0.999837
934.677455	0.999502
934.980548	0.999589
935.283602	1.000074
935.586617	0.999938
935.889593	1.000594
936.192530	1.000131
936.495428	0.999657
936.798287	0.998328
937.101108	1.000157
937.403890	0.997515
937.706632	1.000088
938.009336	0.998771
938.312002	0.996928
938.614628	0.996593
938.917216	0.996301
939.219765	0.995638
939.522275	0.996499
939.824747	0.997102
940.127179	0.996330
940.429573	0.998390
940.731929	0.996812
941.034246	0.997211
941.336524	0.996815
941.638763	0.998054
941.940964	0.996903
942.243126	0.996900
942.545250	0.998579
942.847335	0.996933
943.149381	0.998772
943.451389	0.996996
943.753359	0.999072
944.055290	1.000383
944.357182	0.999141
944.659036	0.999665
944.960851	1.000370
945.262628	0.998782
945.564367	0.999739
945.866067	0.998419
946.167729	0.999469
946.469352	0.999023
946.770937	0.998373
947.072484	1.000022
947.373992	0.998613
947.675462	0.999131
947.976893	0.999354
948.278286	1.001592
948.579641	1.000902
948.880958	0.999749
949.182236	0.999082
949.483476	0.999692
949.784678	0.999806
950.085841	0.998720
950.386967	0.999069
950.688054	0.999148
950.989103	0.997956
951.290114	0.998136
951.591087	0.999747
951.892021	0.998080
952.192917	0.999566
952.493776	0.999073
952.794596	0.998758
953.095378	0.997242
953.396122	0.998366
953.696828	0.998798
953.997496	0.999011
954.298126	0.999211
954.598718	0.999818
954.899272	0.999357
955.199788	0.999802
955.500266	1.000124
955.800706	0.998899
956.101108	0.998779
956.401472	1.001383
956.701798	1.000593
957.002087	1.000119
957.302337	1.001141
957.602550	0.999997
957.902724	1.000246
958.202861	0.999750
958.502960	0.999991
958.803022	1.001316
959.103045	1.001377
959.403031	1.002786
959.702979	1.001957
960.002889	1.001235
960.302762	1.000592
960.602596	1.002655
960.902393	1.001255
961.202153	1.002440
961.501875	1.002292
961.801559	1.001761
962.101205	1.001187
962.400814	1.001865
962.700385	1.002089
962.999918	1.001909
963.299414	1.001793
963.598873	1.001900
963.898293	1.001950
964.197677	1.001412
964.497022	1.002460
964.796331	1.001091
965.095601	1.003277
965.394835	1.002743
965.694030	1.003170
965.993189	1.002462
966.292309	1.001406
966.591393	1.000632
966.890439	1.002020
967.189447	1.000380
967.488419	1.002155
967.787353	1.001942
968.086249	1.002153
968.385108	1.003052
968.683930	1.002088
968.982714	1.001561
969.281462	1.001301
969.580172	1.002140
969.878844	1.002495
970.177480	1.001831
970.476078	1.003002
970.774639	1.002863
971.073162	1.002662
971.371649	1.001577
971.670098	1.001475
971.968510	1.003137
972.266885	1.000740
972.565223	1.000536
972.863524	1.000739
973.161788	1.001434
973.460014	1.002785
973.758204	1.000712
974.056356	1.001231
974.354471	1.000982
974.652550	1.002626
974.950591	1.001513
975.248595	1.001235
975.546563	1.003018
975.844493	1.003411
976.142386	1.001767
976.440243	1.003006
976.738062	1.001947
977.035845	1.000879
977.333590	1.003113
977.631299	1.001885
977.928971	1.002478
978.226606	1.001542
978.524204	1.002381
978.821765	1.002815
979.119290	1.002879
979.416777	1.001791
979.714228	1.002425
980.011642	1.002112
980.309020	1.001749
980.606360	1.001761
980.903664	1.001632
981.200931	1.001968
981.498162	1.002395
981.795356	1.001842
982.092513	1.001248
982.389633	1.002162
982.686717	1.000153
982.983764	1.001297
983.280775	0.999461
983.577749	1.001141
983.874686	0.999606
984.171587	1.000567
984.468451	1.000838
984.765279	1.001621
985.062070	1.000730
985.358824	1.001590
985.655543	1.001920
985.952224	1.002527
986.248869	1.001899
986.545478	1.003328
986.842050	1.002168
987.138586	1.001761
987.435086	1.001553
987.731549	1.003738
988.027975	1.002943
988.324366	1.001626
988.620719	1.002773
988.917037	1.002650
989.213318	1.003053
989.509563	1.003064
989.805772	1.003364
990.101944	1.003491
990.398080	1.002040
990.694180	1.003870
990.990244	1.003309
991.286271	1.001865
991.582262	1.001326
991.878217	1.002585
992.174136	1.004113
992.470019	1.002765
992.765865	1.003026
993.061676	1.002664
993.357450	1.003029
993.653188	1.004247
993.948890	1.002746
994.244556	1.002090
994.540186	1.002542
994.835780	1.001390
995.131337	1.004350
995.426859	1.001480
995.722345	1.002826
996.017795	1.002667
996.313208	1.001976
996.608586	1.001882
996.903928	1.002406
997.199234	1.001961
997.494504	1.002010
997.789738	1.002355
998.084936	1.002074
998.380099	1.001671
998.675225	1.002584
998.970316	1.003689
999.265371	1.003034
999.560390	1.002337
999.855373	1.002960
1000.150320	1.002445
1000.445232	1.003168
1000.740108	1.002530
1001.034948	1.002782
1001.329752	1.004479
1001.624521	1.002492
1001.919254	1.003110
1002.213951	1.003478
1002.508613	1.003273
1002.803239	1.002825
1003.097829	1.004118
1003.392384	1.002766
1003.686903	1.003111
1003.981386	1.002867
1004.275834	1.003901
1004.570246	1.001806
1004.864623	1.004505
1005.158964	1.003072
1005.453270	1.003813
1005.747540	1.002909
1006.041775	1.003453
1006.335974	1.002952
1006.630138	1.004041
1006.924266	1.002145
1007.218359	1.001814
1007.512416	1.003953
1007.806438	1.003282
1008.100425	1.003161
1008.394376	1.003278
1008.688292	1.001972
1008.982172	1.001859
1009.276017	1.003078
1009.569827	1.003777
1009.863602	1.002028
1010.157341	1.003134
1010.451045	1.002463
1010.744714	1.003921
1011.038347	1.003633
1011.331945	1.003901
1011.625508	1.002684
1011.919036	1.002992
1012.212528	1.003967
1012.505986	1.003126
1012.799408	1.003882
1013.092795	1.002658
1013.386147	1.003118
1013.679464	1.003988
1013.972745	1.003086
1014.265992	1.002273
1014.559204	1.002437
1014.852380	1.003581
1015.145521	1.003891
1015.438628	1.003576
1015.731699	1.003216
1016.024736	1.004767
1016.317737	1.003526
1016.610703	1.004766
1016.903635	1.003362
1017.196531	1.002860
1017.489393	1.003105
1017.782219	1.003043
1018.075011	1.002699
1018.367768	1.002932
1018.660490	1.004481
1018.953177	1.004481
1019.245829	1.004481
