Dividing Wavelength (nm)	Counts (n)	Blue Motor Position (mm): 47.500000	Red Motor Position (mm): 0.000000	
326.493990	0.999424
326.888308	0.999424
327.282561	0.999424
327.676750	0.999713
328.070874	1.001295
328.464933	1.000591
328.858929	1.000972
329.252859	1.000048
329.646726	0.999515
330.040528	0.999419
330.434265	0.999718
330.827938	0.999356
331.221547	1.000752
331.615091	1.000269
332.008571	1.000593
332.401986	0.999316
332.795338	0.999643
333.188625	0.999989
333.581847	0.999566
333.975006	1.000290
334.368100	1.000682
334.761129	0.998864
335.154095	1.000305
335.546996	0.999977
335.939833	0.999457
336.332606	1.000858
336.725315	0.999934
337.117960	1.000377
337.510540	0.999178
337.903056	1.000471
338.295508	1.001540
338.687896	1.000873
339.080220	0.999858
339.472480	0.999843
339.864676	1.000440
340.256807	0.999042
340.648875	1.001113
341.040879	0.999604
341.432818	1.000921
341.824694	1.000010
342.216506	1.001228
342.608253	0.999633
342.999937	0.999359
343.391557	1.000404
343.783113	1.000598
344.174605	1.000158
344.566033	0.999444
344.957397	1.002305
345.348697	1.001099
345.739934	0.999309
346.131106	0.999000
346.522215	0.999640
346.913260	0.999897
347.304241	0.999601
347.695159	1.000495
348.086012	1.000078
348.476802	1.000594
348.867528	0.999257
349.258191	1.000756
349.648789	0.999630
350.039324	1.001323
350.429796	0.998632
350.820203	0.998713
351.210548	1.000162
351.600828	0.999756
351.991045	1.000105
352.381198	1.000461
352.771288	0.998798
353.161314	1.000682
353.551276	0.999203
353.941175	0.999404
354.331010	1.000794
354.720782	1.000002
355.110490	0.999935
355.500135	1.000773
355.889717	0.998645
356.279235	0.998624
356.668689	1.000098
357.058080	0.999485
357.447408	0.998902
357.836672	1.000241
358.225873	1.000604
358.615010	0.998999
359.004084	0.997874
359.393095	0.999882
359.782043	0.999886
360.170927	1.001090
360.559748	1.000671
360.948505	0.999990
361.337199	0.999566
361.725830	0.999213
362.114398	1.000275
362.502903	0.998656
362.891344	0.997570
363.279722	1.000585
363.668037	1.000068
364.056289	1.000573
364.444478	1.001167
364.832603	1.000188
365.220665	1.000119
365.608665	0.999945
365.996601	1.000421
366.384474	0.998067
366.772284	0.999988
367.160031	0.997377
367.547715	0.999329
367.935336	0.998292
368.322893	0.996316
368.710388	0.995480
369.097820	0.994556
369.485189	0.992296
369.872495	0.991896
370.259738	0.990539
370.646918	0.987276
371.034035	0.985802
371.421090	0.983061
371.808081	0.981901
372.195010	0.980442
372.581875	0.978989
372.968678	0.975414
373.355418	0.975091
373.742096	0.970078
374.128710	0.968868
374.515262	0.969314
374.901751	0.966718
375.288177	0.965548
375.674540	0.965653
376.060841	0.963062
376.447079	0.961851
376.833254	0.960820
377.219367	0.961767
377.605417	0.959626
377.991404	0.959404
378.377329	0.959907
378.763191	0.960092
379.148991	0.958466
379.534727	0.960159
379.920402	0.959327
380.306013	0.960627
380.691563	0.962020
381.077049	0.961628
381.462474	0.963652
381.847835	0.962912
382.233134	0.966244
382.618371	0.969417
383.003545	0.967893
383.388657	0.970047
383.773706	0.972495
384.158693	0.972872
384.543618	0.976581
384.928480	0.976815
385.313280	0.979266
385.698017	0.980007
386.082692	0.980911
386.467305	0.983125
386.851856	0.986452
387.236344	0.986330
387.620770	0.988276
388.005133	0.989589
388.389435	0.991122
388.773674	0.991975
389.157851	0.991854
389.541965	0.993840
389.926018	0.995317
390.310008	0.995541
390.693936	0.996900
391.077802	0.996818
391.461606	0.996465
391.845348	0.997761
392.229027	0.997674
392.612645	0.997999
392.996200	0.998946
393.379694	0.997575
393.763125	0.999893
394.146494	0.998666
394.529801	0.998962
394.913047	0.998987
395.296230	0.999628
395.679351	0.998880
396.062410	0.999398
396.445408	1.000095
396.828343	1.000135
397.211217	0.999385
397.594028	0.999207
397.976778	0.999468
398.359466	1.000025
398.742092	1.000297
399.124656	0.999413
399.507158	0.999297
399.889598	0.999298
400.271977	1.000069
400.654294	0.998841
401.036549	0.999180
401.418742	1.000020
401.800874	1.000637
402.182944	0.999126
402.564952	0.999915
402.946898	1.000370
403.328783	1.000484
403.710606	0.999376
404.092367	0.999159
404.474067	1.001088
404.855705	1.000908
405.237282	0.999847
405.618797	0.999612
406.000250	0.998815
406.381642	0.999532
406.762972	0.999848
407.144240	1.000455
407.525447	0.998437
407.906593	0.999700
408.287677	0.999543
408.668700	0.999451
409.049661	1.000345
409.430560	0.999710
409.811399	0.999865
410.192176	1.000101
410.572891	0.999843
410.953545	1.000079
411.334138	1.000219
411.714669	0.999685
412.095139	1.000365
412.475547	0.999807
412.855894	1.000419
413.236180	0.999941
413.616405	0.999504
413.996568	0.999911
414.376670	0.999764
414.756711	0.999525
415.136691	0.999379
415.516609	0.999312
415.896466	0.999602
416.276262	0.998762
416.655997	1.000246
417.035670	1.000552
417.415283	0.999994
417.794834	0.999965
418.174324	1.000774
418.553753	0.999131
418.933121	0.999745
419.312428	1.001169
419.691674	1.000330
420.070859	0.999972
420.449983	1.000208
420.829045	0.998833
421.208047	1.000738
421.586988	0.999718
421.965867	0.998786
422.344686	0.999329
422.723444	0.999874
423.102141	1.000282
423.480777	0.999180
423.859352	0.999921
424.237866	0.999937
424.616319	1.001102
424.994712	1.000132
425.373044	1.000330
425.751314	1.000084
426.129524	1.000321
426.507673	0.999425
426.885762	0.999878
427.263789	0.999601
427.641756	0.999332
428.019662	1.000113
428.397508	1.000370
428.775292	0.999921
429.153016	0.999647
429.530679	1.000170
429.908282	0.999955
430.285824	1.000410
430.663305	1.000112
431.040726	1.000105
431.418086	0.999575
431.795385	1.000539
432.172624	1.000572
432.549802	0.999755
432.926920	0.999908
433.303977	1.000021
433.680974	0.999571
434.057910	1.000952
434.434786	0.999665
434.811601	1.000477
435.188355	1.000474
435.565050	1.000068
435.941683	0.999277
436.318257	0.999461
436.694770	1.000287
437.071222	1.001034
437.447614	0.999701
437.823946	1.000464
438.200218	0.999945
438.576429	1.000056
438.952580	1.000159
439.328670	0.998857
439.704700	0.999212
440.080670	1.000155
440.456580	1.000127
440.832429	0.999856
441.208218	1.000201
441.583947	1.000248
441.959616	0.999228
442.335224	1.000616
442.710773	1.000322
443.086261	1.000627
443.461689	0.999947
443.837057	0.999696
444.212365	1.000244
444.587612	1.000439
444.962800	0.999692
445.337927	0.999999
445.712995	0.999648
446.088002	0.999428
446.462949	0.999605
446.837837	1.001067
447.212664	0.999430
447.587431	1.001208
447.962139	1.000938
448.336786	0.999705
448.711374	0.999497
449.085901	1.000576
449.460369	1.000274
449.834776	0.999315
450.209124	0.999507
450.583412	1.000495
450.957640	0.999804
451.331808	1.000404
451.705917	1.000522
452.079965	1.000319
452.453954	1.000234
452.827883	1.000930
453.201752	1.000443
453.575562	0.999868
453.949311	1.000164
454.323001	0.999667
454.696632	1.000600
455.070202	0.999753
455.443713	0.999838
455.817164	0.999862
456.190556	1.000160
456.563888	1.001005
456.937160	1.000096
457.310373	0.999689
457.683526	1.000340
458.056619	1.000734
458.429653	1.000221
458.802628	1.000005
459.175542	1.000247
459.548398	0.999870
459.921194	0.999860
460.293930	1.000917
460.666607	1.001036
461.039224	0.999489
461.411782	1.000914
461.784280	1.000448
462.156719	1.001585
462.529099	0.999877
462.901419	0.999792
463.273680	0.999064
463.645882	0.999893
464.018024	0.999799
464.390106	1.000253
464.762130	1.000320
465.134094	0.999754
465.505999	1.000709
465.877845	1.000061
466.249631	1.000253
466.621358	0.999086
466.993026	0.999700
467.364634	1.000269
467.736184	1.000106
468.107674	0.999933
468.479105	0.999875
468.850477	1.000175
469.221790	1.000469
469.593043	0.999897
469.964238	0.999922
470.335373	0.999855
470.706449	0.999812
471.077467	0.999821
471.448425	1.000330
471.819324	1.000269
472.190164	0.999599
472.560945	1.000090
472.931667	1.000525
473.302330	1.000273
473.672934	1.000237
474.043479	0.999892
474.413965	1.000102
474.784393	0.999640
475.154761	0.999697
475.525070	1.000387
475.895321	1.000481
476.265513	1.000544
476.635645	1.000055
477.005719	1.000386
477.375734	0.999733
477.745691	0.999524
478.115588	0.999582
478.485427	0.999721
478.855207	1.000306
479.224928	0.999888
479.594591	1.000727
479.964194	0.999710
480.333739	1.000281
480.703226	0.999534
481.072653	0.999419
481.442022	0.999725
481.811333	0.999867
482.180584	0.999561
482.549777	1.000355
482.918912	0.999617
483.287988	1.000210
483.657005	1.000508
484.025964	0.999839
484.394864	0.999804
484.763706	0.999470
485.132489	0.999937
485.501213	0.999388
485.869879	0.999647
486.238487	0.999291
486.607036	1.000248
486.975527	0.999631
487.343959	0.999579
487.712333	0.999698
488.080648	0.999241
488.448905	1.000466
488.817104	0.999939
489.185244	0.999882
489.553326	0.999965
489.921350	1.000033
490.289315	0.999702
490.657222	0.999510
491.025070	1.000721
491.392861	1.000041
491.760593	0.999966
492.128267	0.999439
492.495883	0.998930
492.863440	0.999894
493.230939	1.000040
493.598380	1.000312
493.965763	0.999579
494.333088	0.999237
494.700354	0.999184
495.067563	0.999724
495.434713	0.999638
495.801805	1.000174
496.168839	1.000335
496.535815	1.000099
496.902733	0.999431
497.269593	0.999730
497.636395	0.999390
498.003139	0.999476
498.369825	1.000644
498.736453	0.999779
499.103023	1.000203
499.469535	1.000254
499.835989	1.000031
500.202385	0.999384
500.568723	0.999411
500.935003	0.999898
501.301226	1.000029
501.667390	0.999018
502.033497	0.999788
502.399546	0.999514
502.765537	0.999841
503.131470	0.999991
503.497345	0.999740
503.863163	0.999712
504.228923	0.999583
504.594625	0.998698
504.960269	0.999618
505.325856	1.000616
505.691385	0.999896
506.056856	0.999401
506.422270	0.999897
506.787625	1.000024
507.152924	1.000034
507.518164	0.999564
507.883347	0.999570
508.248472	0.999866
508.613540	0.999493
508.978550	1.000264
509.343503	0.999425
509.708398	1.000540
510.073236	1.000187
510.438016	0.999369
510.802738	0.999668
511.167403	0.999302
511.532010	1.000180
511.896561	1.000458
512.261053	0.999709
512.625488	0.999231
512.989866	0.999701
513.354186	0.999205
513.718449	0.999654
514.082655	0.999335
514.446803	1.000171
514.810894	1.000347
515.174927	0.999531
515.538904	0.999976
515.902822	0.999603
516.266684	0.999732
516.630488	0.999769
516.994235	1.000261
517.357925	0.999944
517.721558	0.999792
518.085133	0.999841
518.448651	0.999618
518.812112	0.999823
519.175516	0.999959
519.538863	1.000152
519.902152	1.000211
520.265385	1.000118
520.628560	0.999442
520.991678	0.999715
521.354739	1.000058
521.717743	0.999964
522.080690	0.999247
522.443580	0.999760
522.806413	0.998908
523.169189	1.000193
523.531908	0.999205
523.894569	0.999514
524.257174	0.999296
524.619722	0.999644
524.982213	1.000015
525.344647	0.999559
525.707025	0.999586
526.069345	0.999757
526.431608	1.000216
526.793815	0.999868
527.155964	0.999714
527.518057	0.999901
527.880093	0.999915
528.242072	1.000118
528.603995	1.000113
528.965860	1.000429
529.327669	0.999918
529.689421	0.999151
530.051117	1.000064
530.412755	1.000076
530.774337	0.999576
531.135862	0.999853
531.497331	0.999876
531.858743	1.000017
532.220098	0.999174
532.581396	1.000542
532.942638	0.999783
533.303824	1.000116
533.664953	0.999495
534.026025	1.000592
534.387040	0.999864
534.747999	0.999499
535.108902	1.000094
535.469748	0.999565
535.830537	0.999540
536.191270	0.999800
536.551947	1.000196
536.912567	0.999509
537.273131	1.000422
537.633638	1.000221
537.994089	1.000283
538.354483	0.999785
538.714821	1.000023
539.075103	0.999964
539.435328	1.000185
539.795497	1.000172
540.155609	0.999952
540.515665	1.000446
540.875665	0.999564
541.235609	1.000349
541.595496	0.999228
541.955328	0.999271
542.315102	1.000271
542.674821	0.999612
543.034483	1.000552
543.394090	0.999477
543.753640	0.999864
544.113134	0.999275
544.472571	1.000404
544.831953	1.000569
545.191278	1.000223
545.550548	0.999586
545.909761	0.999570
546.268918	1.000413
546.628019	1.000033
546.987064	1.000305
547.346053	0.999325
547.704986	1.000051
548.063863	0.999942
548.422684	1.000571
548.781449	1.000086
549.140158	1.000180
549.498811	0.999595
549.857408	0.999310
550.215949	0.999363
550.574434	0.999521
550.932864	1.000285
551.291237	0.999941
551.649555	1.000552
552.007817	1.000003
552.366022	1.000258
552.724173	1.000641
553.082267	0.999706
553.440305	0.999736
553.798288	0.999152
554.156215	1.000235
554.514086	1.000100
554.871902	1.000460
555.229661	0.999337
555.587365	1.000126
555.945014	1.000827
556.302606	0.999478
556.660143	1.000209
557.017625	1.000392
557.375050	0.999123
557.732421	0.999774
558.089735	0.999340
558.446994	0.999454
558.804197	0.999761
559.161345	0.999721
559.518437	0.999317
559.875474	1.000147
560.232455	0.999466
560.589381	0.999896
560.946251	0.999460
561.303065	1.000271
561.659825	0.999719
562.016528	1.000242
562.373177	0.999943
562.729770	0.999627
563.086307	0.998705
563.442789	1.000067
563.799216	0.999144
564.155587	0.999780
564.511904	1.000019
564.868164	0.999714
565.224370	0.999635
565.580520	0.999915
565.936615	0.999791
566.292654	0.999699
566.648638	1.000395
567.004567	0.999841
567.360441	1.000419
567.716260	0.999813
568.072023	1.000205
568.427732	1.000219
568.783385	0.999944
569.138982	1.000015
569.494525	0.999556
569.850013	1.000149
570.205445	0.999760
570.560823	0.999479
570.916145	0.999500
571.271412	0.999842
571.626625	0.999622
571.981782	1.000339
572.336884	1.000068
572.691931	0.999637
573.046923	1.000425
573.401860	0.999223
573.756743	1.000031
574.111570	1.000053
574.466342	1.001003
574.821059	0.999910
575.175722	1.000206
575.530330	0.999503
575.884882	0.999656
576.239380	1.000663
576.593823	0.999821
576.948211	0.999591
577.302544	0.999593
577.656823	0.999922
578.011047	0.999506
578.365216	1.000207
578.719330	1.000056
579.073389	0.999173
579.427394	0.999496
579.781344	1.000323
580.135239	0.998972
580.489080	0.999842
580.842866	1.000611
581.196597	0.999274
581.550273	0.999663
581.903895	1.000358
582.257463	0.999752
582.610975	0.999346
582.964434	1.000257
583.317837	1.000993
583.671186	1.000624
584.024481	0.999766
584.377721	0.999279
584.730906	1.000126
585.084037	1.000852
585.437113	1.000105
585.790135	1.000468
586.143103	0.999863
586.496016	0.999680
586.848874	1.000216
587.201679	0.999695
587.554428	0.999993
587.907124	1.000642
588.259765	1.000247
588.612352	1.000465
588.964884	1.000694
589.317362	0.999484
589.669786	0.999890
590.022155	1.000105
590.374470	0.999820
590.726731	0.999048
591.078937	1.000340
591.431090	1.000585
591.783188	0.999579
592.135232	1.000695
592.487222	1.000180
592.839157	0.999987
593.191038	1.000064
593.542866	1.000086
593.894639	0.999588
594.246358	1.000704
594.598022	1.000287
594.949633	1.000043
595.301190	1.000161
595.652692	0.999643
596.004141	0.999494
596.355535	0.999663
596.706876	1.000105
597.058162	0.999994
597.409395	1.000318
597.760573	1.000099
598.111698	1.000102
598.462768	0.999279
598.813785	0.999789
599.164748	1.000250
599.515657	0.999820
599.866511	1.000111
600.217312	1.000783
600.568060	1.000134
600.918753	1.000284
601.269392	1.000717
601.619978	1.000102
601.970510	0.999691
602.320988	0.999901
602.671412	0.999418
603.021783	1.000094
603.372100	1.000493
603.722363	1.000087
604.072572	1.000278
604.422728	0.999907
604.772830	0.999965
605.122878	1.000106
605.472872	1.000459
605.822813	0.999669
606.172701	0.999287
606.522534	1.000770
606.872314	1.000978
607.222041	0.999930
607.571714	1.000786
607.921333	1.000085
608.270899	0.999539
608.620411	1.000127
608.969870	1.000784
609.319276	0.999873
609.668627	1.000417
610.017926	1.000203
610.367171	0.999522
610.716362	1.000206
611.065500	0.999398
611.414585	1.000090
611.763616	0.999472
612.112594	1.000499
612.461518	0.999177
612.810389	1.000316
613.159207	0.999985
613.507971	0.999382
613.856682	1.000907
614.205340	0.998521
614.553945	0.999212
614.902496	0.999484
615.250994	1.000824
615.599439	1.000515
615.947830	0.999124
616.296169	1.001127
616.644454	1.000613
616.992686	0.999797
617.340864	1.000373
617.688990	0.999905
618.037063	1.000750
618.385082	0.999001
618.733048	0.999525
619.080961	1.000171
619.428821	1.000327
619.776628	0.999508
620.124382	1.000425
620.472083	1.000710
620.819731	1.001057
621.167326	1.000698
621.514868	1.000445
621.862357	1.000018
622.209793	1.000319
622.557176	0.999905
622.904506	0.999825
623.251783	1.000325
623.599007	1.000378
623.946179	0.999610
624.293297	1.000443
624.640363	1.000500
624.987376	0.999147
625.334336	1.000353
625.681243	0.999831
626.028097	1.000638
626.374899	1.000073
626.721647	1.000224
627.068343	0.999649
627.414987	1.000017
627.761577	0.999534
628.108115	0.999613
628.454600	0.999473
628.801032	0.999788
629.147412	0.999588
629.493739	1.001303
629.840014	0.999062
630.186236	0.999787
630.532405	1.000051
630.878521	0.999563
631.224585	1.000330
631.570597	0.999045
631.916556	0.999775
632.262462	0.999055
632.608316	1.000859
632.954117	0.999101
633.299866	0.999852
633.645562	0.999847
633.991206	0.999845
634.336797	1.000125
634.682336	0.999829
635.027823	1.000260
635.373257	1.000209
635.718639	1.000126
636.063968	0.999910
636.409245	0.999566
636.754470	1.000292
637.099642	0.999874
637.444762	1.000230
637.789829	0.999630
638.134845	0.999294
638.479808	1.000141
638.824719	1.000327
639.169577	0.999869
639.514383	1.000614
639.859137	0.999705
640.203839	0.999327
640.548489	0.999664
640.893086	1.000001
641.237632	0.999713
641.582125	0.999712
641.926566	1.000402
642.270955	0.999907
642.615292	0.999354
642.959576	1.000748
643.303809	1.000973
643.647990	1.000098
643.992118	1.000099
644.336195	0.999179
644.680219	0.999735
645.024192	1.000139
645.368112	0.999296
645.711981	0.999641
646.055797	0.999712
646.399562	0.999044
646.743274	0.999656
647.086935	0.998925
647.430544	1.000362
647.774101	0.999045
648.117606	1.000293
648.461059	0.999897
648.804460	1.000562
649.147810	0.999093
649.491108	0.999415
649.834354	1.000012
650.177548	1.000410
650.520690	0.999887
650.863781	0.999208
651.206820	1.000011
651.549807	1.000045
651.892742	0.999726
652.235626	1.000449
652.578458	0.999679
652.921238	0.999973
653.263967	0.999594
653.606644	0.999356
653.949269	0.999746
654.291843	0.998874
654.634365	0.999348
654.976836	0.998172
655.319255	1.000021
655.661622	0.999529
656.003938	0.998959
656.346203	0.999144
656.688416	1.000738
657.030577	0.999527
657.372687	0.999275
657.714746	0.999835
658.056753	0.998870
658.398708	0.999567
658.740612	1.000485
659.082465	0.999724
659.424266	1.000382
659.766016	0.998944
660.107715	0.999276
660.449362	0.999381
660.790958	0.999070
661.132503	0.999798
661.473996	0.998741
661.815438	0.999880
662.156829	0.999464
662.498168	1.000531
662.839456	0.999005
663.180693	0.999322
663.521879	0.999223
663.863013	0.999778
664.204097	0.999810
664.545129	0.998684
664.886110	0.999887
665.227040	0.999249
665.567918	0.999523
665.908746	0.999099
666.249522	0.999315
666.590248	0.999110
666.930922	0.999099
667.271545	0.999766
667.612118	0.999601
667.952639	0.999067
668.293109	0.999459
668.633528	0.998947
668.973896	0.999531
669.314213	0.999091
669.654480	0.999649
669.994695	0.999328
670.334859	0.999552
670.674973	0.999806
671.015035	0.998955
671.355047	0.999332
671.695008	0.998805
672.034918	0.999366
672.374777	0.999402
672.714585	0.998900
673.054342	1.000202
673.394049	0.998685
673.733705	0.998970
674.073310	0.998555
674.412864	0.999610
674.752368	0.998869
675.091820	1.000704
675.431223	0.999447
675.770574	0.999410
676.109875	0.999642
676.449125	0.999219
676.788324	0.999010
677.127473	0.999806
677.466571	0.999444
677.805619	0.998916
678.144616	0.999497
678.483562	0.999539
678.822458	0.999080
679.161303	0.999108
679.500098	0.999318
679.838842	0.999368
680.177535	0.999583
680.516179	0.999113
680.854771	0.999069
681.193314	0.999565
681.531805	0.999959
681.870247	0.999126
682.208638	0.998696
682.546978	0.998677
682.885268	0.998989
683.223508	0.998816
683.561697	0.998372
683.899836	0.999440
684.237925	0.998878
684.575963	0.999527
684.913951	0.998644
685.251889	0.997922
685.589776	0.998678
685.927614	0.998702
686.265401	0.998540
686.603137	0.998348
686.940824	0.998793
687.278460	0.999736
687.616046	0.998641
687.953582	0.999147
688.291068	0.999498
688.628504	0.998738
688.965889	0.998586
689.303224	0.998458
689.640510	0.998797
689.977745	0.998358
690.314930	0.999079
690.652065	0.999398
690.989150	0.999028
691.326185	0.999188
691.663170	0.998866
692.000105	0.999383
692.336990	0.998772
692.673825	0.998047
693.010610	0.999560
693.347345	0.998587
693.684030	0.998476
694.020665	0.998665
694.357251	0.998192
694.693786	0.999349
695.030272	0.998520
695.366707	0.998620
695.703093	0.997775
696.039429	0.997905
696.375716	0.998671
696.711952	0.998510
697.048139	0.998730
697.384276	0.998766
697.720363	0.998304
698.056400	0.996518
698.392388	0.998433
698.728326	0.998902
699.064214	0.999009
699.400053	0.998805
699.735842	0.999528
700.071581	0.998608
700.407270	0.998224
700.742910	0.998886
701.078501	0.998714
701.414042	0.999523
701.749533	0.997463
702.084974	0.998825
702.420366	0.998567
702.755709	0.998616
703.091002	0.999150
703.426246	0.999310
703.761440	0.998709
704.096584	0.997953
704.431679	0.998334
704.766725	0.998567
705.101721	0.998844
705.436668	0.999042
705.771565	0.999166
706.106413	0.997812
706.441212	0.998706
706.775961	0.999092
707.110661	0.998563
707.445311	0.999389
707.779913	0.998949
708.114465	0.999582
708.448967	0.998701
708.783421	0.998742
709.117825	0.998858
709.452180	0.998451
709.786485	0.998864
710.120742	0.997918
710.454949	0.998335
710.789107	0.997624
711.123216	0.997642
711.457275	0.997416
711.791286	0.998252
712.125247	1.000104
712.459159	0.999022
712.793023	0.998002
713.126837	0.997653
713.460602	0.997508
713.794318	0.997544
714.127985	0.997397
714.461602	0.997951
714.795171	0.998487
715.128691	0.998055
715.462162	0.998288
715.795584	0.998599
716.128957	0.999851
716.462281	0.998756
716.795556	0.997182
717.128782	0.999260
717.461960	0.998556
717.795088	0.997933
718.128167	0.998791
718.461198	0.998724
718.794180	0.998243
719.127113	0.998783
719.459997	0.998000
719.792833	0.998127
720.125619	0.998353
720.458357	0.998216
720.791046	0.998902
721.123686	0.998173
721.456278	0.997846
721.788821	0.997494
722.121315	0.998883
722.453761	0.997492
722.786158	0.996825
723.118506	0.998984
723.450805	0.997844
723.783056	0.997919
724.115259	0.997984
724.447412	0.999451
724.779518	0.998315
725.111574	0.997477
725.443582	0.998414
725.775542	0.998944
726.107453	0.998783
726.439315	0.998609
726.771129	0.998411
727.102895	0.999074
727.434612	0.998204
727.766281	0.998799
728.097901	0.997573
728.429473	0.998440
728.760996	0.997483
729.092471	0.998141
729.423897	0.998882
729.755276	0.997709
730.086606	0.997588
730.417887	0.998392
730.749120	0.999311
731.080305	0.997896
731.411442	0.997369
731.742530	0.997245
732.073570	0.997878
732.404562	0.998386
732.735506	0.997408
733.066401	0.997589
733.397249	0.997692
733.728048	0.998566
734.058798	0.998659
734.389501	0.998573
734.720156	0.998722
735.050762	0.999003
735.381320	0.998472
735.711831	0.996888
736.042293	0.997206
736.372707	0.998976
736.703073	0.997073
737.033391	0.997953
737.363661	0.998951
737.693883	0.997930
738.024056	0.998091
738.354182	0.998837
738.684260	0.997754
739.014290	0.997551
739.344272	0.997921
739.674207	0.998860
740.004093	0.998233
740.333931	0.998588
740.663722	0.998062
740.993464	0.998222
741.323159	0.997658
741.652806	0.997825
741.982405	0.998123
742.311956	0.998411
742.641460	0.998926
742.970915	0.997523
743.300323	0.997437
743.629683	0.996978
743.958996	0.998918
744.288260	0.997825
744.617477	0.998572
744.946647	0.998805
745.275768	0.998080
745.604842	0.998031
745.933869	0.998881
746.262847	0.998839
746.591778	0.996816
746.920662	0.998471
747.249498	0.999128
747.578286	0.999076
747.907027	0.998740
748.235720	0.998892
748.564365	0.998868
748.892963	0.998152
749.221514	0.997897
749.550017	0.996433
749.878473	0.998352
750.206881	0.998374
750.535242	0.998157
750.863555	0.998672
751.191821	0.997924
751.520039	0.998553
751.848210	0.997000
752.176334	0.998102
752.504411	0.996993
752.832440	0.998122
753.160421	0.997914
753.488356	0.998272
753.816243	0.997642
754.144082	0.997803
754.471875	0.998742
754.799620	0.998110
755.127318	0.999141
755.454969	0.998360
755.782572	0.999832
756.110129	0.997403
756.437638	0.999182
756.765100	0.999670
757.092515	0.998649
757.419882	0.998720
757.747203	0.997894
758.074477	0.999369
758.401703	0.998599
758.728882	0.998169
759.056014	0.998044
759.383099	0.997575
759.710138	0.997523
760.037129	0.998800
760.364073	0.998511
760.690970	0.997781
761.017820	0.998540
761.344623	0.998402
761.671379	0.998751
761.998088	0.998570
762.324751	0.997940
762.651366	0.997887
762.977935	0.997746
763.304456	0.997134
763.630931	0.996997
763.957359	0.996107
764.283740	0.996540
764.610074	0.997104
764.936362	0.997458
765.262602	0.997542
765.588796	0.998455
765.914943	0.998669
766.241044	0.997020
766.567097	0.997842
766.893104	0.998761
767.219064	0.996306
767.544978	0.998672
767.870845	0.999063
768.196665	0.997197
768.522438	0.998442
768.848165	0.998989
769.173846	0.998439
769.499479	1.000237
769.825066	0.998937
770.150607	0.999530
770.476101	0.998366
770.801548	0.999419
771.126949	0.999440
771.452303	0.998157
771.777611	0.999094
772.102872	0.998133
772.428087	0.998210
772.753256	0.997933
773.078378	0.998555
773.403453	0.998374
773.728482	1.000021
774.053465	0.999525
774.378401	0.998609
774.703291	1.000970
775.028135	0.999768
775.352932	0.997971
775.677683	0.999497
776.002388	0.999217
776.327046	0.998287
776.651658	1.000229
776.976224	0.999084
777.300743	0.998846
777.625216	0.998362
777.949643	0.998849
778.274024	0.999868
778.598359	0.998970
778.922647	0.998071
779.246889	0.999347
779.571086	0.998331
779.895236	0.999234
780.219339	0.998599
780.543397	0.997919
780.867409	0.999152
781.191374	0.998497
781.515294	0.999802
781.839167	0.999420
782.162995	0.998457
782.486776	0.998147
782.810511	0.997650
783.134201	0.999180
783.457844	0.998909
783.781441	0.999224
784.104993	0.998339
784.428498	0.998609
784.751958	0.999643
785.075372	0.999283
785.398739	0.998589
785.722061	0.998453
786.045337	0.998947
786.368568	0.999528
786.691752	0.998890
787.014891	0.998681
787.337983	0.997718
787.661030	0.997698
787.984031	0.998947
788.306987	0.998507
788.629897	0.997890
788.952760	0.997869
789.275579	0.999642
789.598351	0.998847
789.921078	0.999752
790.243759	0.998261
790.566395	0.998315
790.888984	0.999157
791.211529	0.999648
791.534027	0.999010
791.856480	0.999483
792.178888	0.998709
792.501249	0.998877
792.823566	1.000500
793.145836	0.999506
793.468062	0.999410
793.790241	0.999470
794.112375	0.998719
794.434464	0.999214
794.756507	0.999897
795.078505	0.998884
795.400457	0.999539
795.722364	0.997887
796.044226	0.999477
796.366042	0.998830
796.687812	0.997954
797.009538	0.998353
797.331218	0.999382
797.652852	0.999714
797.974442	0.998449
798.295986	0.999406
798.617484	0.997772
798.938938	0.998654
799.260346	0.998819
799.581709	0.998638
799.903026	0.999707
800.224299	0.998467
800.545526	0.998881
800.866708	0.998105
801.187845	0.998864
801.508936	0.999850
801.829983	0.998852
802.150984	0.998356
802.471940	0.998926
802.792851	0.999822
803.113717	0.999970
803.434538	0.999904
803.755314	1.000257
804.076045	0.999010
804.396731	0.998549
804.717372	0.997476
805.037967	1.000629
805.358518	0.999107
805.679024	0.997825
805.999485	0.998817
806.319901	0.999852
806.640272	1.000203
806.960598	0.999545
807.280879	1.000263
807.601115	0.999146
807.921306	1.000083
808.241453	0.999360
808.561554	0.999140
808.881611	0.998617
809.201623	0.999645
809.521590	0.998592
809.841513	0.999136
810.161390	0.998137
810.481223	0.999137
810.801011	0.998803
811.120755	1.000264
811.440453	0.998116
811.760107	1.000388
812.079716	0.998588
812.399281	0.999776
812.718801	0.999281
813.038276	0.998447
813.357707	0.998244
813.677093	0.999339
813.996434	0.998615
814.315731	1.000827
814.634983	0.999028
814.954191	0.999856
815.273354	0.999114
815.592473	0.999575
815.911547	0.999620
816.230577	0.998919
816.549562	1.000403
816.868502	0.998525
817.187399	0.998795
817.506250	0.999683
817.825058	0.998293
818.143821	0.999005
818.462539	0.998846
818.781213	0.998320
819.099843	0.999555
819.418429	0.998152
819.736970	0.999056
820.055466	0.997922
820.373919	0.997494
820.692327	0.997648
821.010691	0.997384
821.329011	0.996577
821.647286	0.995289
821.965517	0.995371
822.283704	0.994755
822.601847	0.993660
822.919945	0.994031
823.237999	0.994401
823.556010	0.994771
823.873976	0.995264
824.191897	0.995097
824.509775	0.996906
824.827609	0.997175
825.145398	0.997184
825.463144	0.995988
825.780845	0.996162
826.098502	0.996534
826.416116	0.997055
826.733685	0.996839
827.051210	0.995563
827.368692	0.995896
827.686129	0.995705
828.003522	0.997155
828.320872	0.996947
828.638177	0.998250
828.955439	0.998942
829.272656	0.998680
829.589830	0.998132
829.906960	0.999375
830.224046	0.997567
830.541088	0.999310
830.858086	0.998846
831.175041	0.999535
831.491952	0.999091
831.808819	0.999159
832.125642	0.999168
832.442421	0.999178
832.759157	0.999279
833.075849	0.998564
833.392497	0.997269
833.709101	0.997351
834.025662	0.997687
834.342179	0.997811
834.658653	0.999180
834.975083	0.998557
835.291469	0.998599
835.607811	0.998209
835.924110	0.998078
836.240366	1.000004
836.556578	0.999051
836.872746	0.998534
837.188871	0.998193
837.504952	0.998556
837.820990	1.000047
838.136984	0.998554
838.452935	0.999008
838.768842	1.000399
839.084706	0.999390
839.400526	0.999295
839.716303	0.997258
840.032037	0.998802
840.347727	0.998816
840.663373	0.999070
840.978977	0.998978
841.294537	0.999653
841.610054	0.999645
841.925527	0.999396
842.240957	1.000153
842.556344	0.999436
842.871687	0.999472
843.186987	1.000138
843.502244	0.999849
843.817458	0.998768
844.132629	0.999083
844.447756	0.998288
844.762840	0.999052
845.077881	1.000385
845.392879	0.999567
845.707833	0.999397
846.022745	0.998994
846.337613	0.999969
846.652438	0.999306
846.967221	1.000275
847.281960	0.999617
847.596656	1.000267
847.911309	0.999631
848.225919	0.999589
848.540485	0.999920
848.855009	1.000029
849.169490	0.998942
849.483928	0.999074
849.798323	1.000230
850.112675	0.999904
850.426984	0.999296
850.741251	0.999272
851.055474	1.000032
851.369654	1.000080
851.683792	0.999101
851.997887	1.000631
852.311938	1.000126
852.625947	0.999248
852.939914	0.999248
853.253837	1.001338
853.567718	1.000736
853.881555	1.000136
854.195350	1.000776
854.509103	1.001160
854.822812	1.000013
855.136479	0.999161
855.450103	1.000041
855.763685	0.999179
856.077224	0.999853
856.390720	0.999407
856.704173	0.999181
857.017584	0.999061
857.330953	0.999452
857.644278	0.999267
857.957561	0.998957
858.270802	1.000068
858.584000	1.000261
858.897155	0.998418
859.210268	1.000196
859.523339	1.000196
859.836367	0.999132
860.149352	0.998603
860.462295	0.999736
860.775195	1.000046
861.088054	0.998890
861.400869	0.999308
861.713642	0.999484
862.026373	1.000046
862.339062	1.000417
862.651708	0.998606
862.964312	0.999937
863.276873	0.999924
863.589392	0.999918
863.901869	0.999330
864.214303	1.000479
864.526696	0.999234
864.839045	1.000055
865.151353	1.000010
865.463619	0.999177
865.775842	1.000198
866.088023	1.000095
866.400162	0.999675
866.712258	1.000241
867.024313	1.000635
867.336325	1.000016
867.648296	0.999144
867.960224	0.999749
868.272110	0.999648
868.583954	1.000489
868.895755	1.000193
869.207515	0.999040
869.519233	1.000362
869.830909	0.999493
870.142542	0.999249
870.454134	1.000048
870.765684	0.999498
871.077191	0.999542
871.388657	1.001002
871.700081	0.999956
872.011463	1.000694
872.322803	0.999207
872.634101	0.998228
872.945357	0.999688
873.256571	0.999320
873.567744	0.999362
873.878874	0.999936
874.189963	0.999391
874.501010	1.001454
874.812015	0.999856
875.122979	0.998981
875.433900	0.999804
875.744780	1.000117
876.055618	0.998460
876.366415	0.999423
876.677169	0.999957
876.987882	0.998714
877.298554	1.000259
877.609183	1.000265
877.919771	1.000304
878.230317	1.000415
878.540822	0.998774
878.851285	0.998935
879.161707	0.998715
879.472087	1.000614
879.782425	0.999034
880.092722	0.997737
880.402977	0.996950
880.713191	0.996482
881.023363	0.996110
881.333494	0.996064
881.643583	0.997000
881.953631	0.996066
882.263637	0.996167
882.573602	0.996867
882.883526	0.996986
883.193408	0.997463
883.503248	0.996472
883.813048	0.997253
884.122806	0.998129
884.432522	0.997760
884.742197	0.998893
885.051831	0.998854
885.361424	0.998136
885.670975	0.999776
885.980485	0.998860
886.289954	0.998796
886.599382	0.998492
886.908768	1.001185
887.218113	0.998278
887.527417	0.999684
887.836680	0.999602
888.145901	1.000301
888.455082	1.001659
888.764221	1.000871
889.073319	0.999161
889.382376	1.000289
889.691392	0.998945
890.000366	1.000743
890.309300	0.998915
890.618193	0.999458
890.927044	1.000397
891.235855	0.998723
891.544625	0.999494
891.853353	0.999683
892.162041	0.999883
892.470687	0.999841
892.779293	0.998536
893.087858	0.999151
893.396381	0.999016
893.704864	0.998404
894.013306	0.998125
894.321707	0.998270
894.630068	0.998165
894.938387	0.997915
895.246665	0.998656
895.554903	0.998004
895.863100	0.998599
896.171256	0.998700
896.479371	0.998607
896.787446	0.998530
897.095480	0.998903
897.403473	0.999818
897.711425	0.999565
898.019336	0.999960
898.327207	1.000412
898.635038	0.999165
898.942827	1.000197
899.250576	0.999469
899.558284	0.999375
899.865952	0.998861
900.173579	1.000001
900.481165	0.999244
900.788711	0.999162
901.096216	0.998638
901.403681	1.000347
901.711105	0.999651
902.018489	0.999289
902.325832	0.999313
902.633135	0.999833
902.940397	0.999894
903.247619	0.999183
903.554800	0.999011
903.861941	0.999026
904.169041	0.998505
904.476101	0.998774
904.783121	0.998819
905.090100	0.998496
905.397039	0.998654
905.703938	0.998613
906.010796	0.999244
906.317614	0.999185
906.624391	0.999611
906.931129	0.999383
907.237826	0.999095
907.544483	1.000035
907.851099	0.999778
908.157675	0.998509
908.464211	0.999495
908.770707	0.999278
909.077163	1.000743
909.383578	1.000202
909.689954	0.999762
909.996289	1.000104
910.302584	1.000269
910.608839	1.000686
910.915054	1.000004
911.221229	1.001129
911.527363	1.000797
911.833458	1.000091
912.139513	0.999210
912.445527	0.999642
912.751502	1.000789
913.057436	0.999159
913.363331	1.000821
913.669186	1.000321
913.975000	0.999555
914.280775	0.998887
914.586510	0.999516
914.892205	0.997791
915.197859	0.998325
915.503475	0.998550
915.809050	0.999082
916.114585	0.997717
916.420081	0.997636
916.725536	0.999040
917.030952	0.998646
917.336328	0.997856
917.641665	0.997622
917.946961	0.998706
918.252218	0.999540
918.557435	0.999037
918.862612	0.999602
919.167750	0.999069
919.472848	0.999797
919.777906	0.999737
920.082925	1.000057
920.387904	1.000436
920.692843	0.998797
920.997743	0.998811
921.302603	1.000864
921.607423	0.999699
921.912204	1.000477
922.216946	1.001363
922.521647	0.999810
922.826310	1.000435
923.130932	1.000629
923.435516	1.000801
923.740059	0.998575
924.044564	0.998944
924.349028	0.998580
924.653454	1.000540
924.957840	1.000661
925.262186	1.001496
925.566493	0.999493
925.870761	1.000254
926.174989	0.998338
926.479178	0.999663
926.783328	1.000181
927.087438	1.000264
927.391509	0.999117
927.695541	0.999011
927.999533	1.000244
928.303486	0.999985
928.607400	0.999063
928.911275	1.000740
929.215110	1.000408
929.518906	1.001207
929.822663	1.000455
930.126381	1.000707
930.430060	1.000371
930.733699	0.999621
931.037299	1.001132
931.340861	0.999763
931.644383	0.999646
931.947866	0.999962
932.251309	1.000763
932.554714	1.000152
932.858080	1.000725
933.161407	0.999649
933.464694	1.000622
933.767943	0.999840
934.071153	1.000161
934.374323	1.000225
934.677455	1.000172
934.980548	0.998783
935.283602	1.001189
935.586617	0.999355
935.889593	1.000436
936.192530	1.000554
936.495428	1.000311
936.798287	1.000028
937.101108	1.000277
937.403890	0.999274
937.706632	1.001479
938.009336	1.000234
938.312002	0.999161
938.614628	0.999323
938.917216	1.000458
939.219765	1.000569
939.522275	1.000863
939.824747	1.000053
940.127179	0.999862
940.429573	1.000211
940.731929	1.000430
941.034246	0.999934
941.336524	0.999078
941.638763	1.000302
941.940964	0.998746
942.243126	1.000147
942.545250	1.000767
942.847335	0.999431
943.149381	1.000572
943.451389	0.997996
943.753359	1.000764
944.055290	1.001497
944.357182	0.999387
944.659036	0.999863
944.960851	1.000884
945.262628	0.999796
945.564367	1.000347
945.866067	1.000777
946.167729	1.001119
946.469352	1.000270
946.770937	0.999165
947.072484	1.001049
947.373992	0.999883
947.675462	0.999241
947.976893	0.999027
948.278286	1.000704
948.579641	1.000923
948.880958	0.999627
949.182236	1.000016
949.483476	1.001218
949.784678	0.999122
950.085841	0.999723
950.386967	0.998839
950.688054	0.999839
950.989103	0.999240
951.290114	0.999761
951.591087	0.999646
951.892021	0.999237
952.192917	1.000168
952.493776	1.001033
952.794596	0.999943
953.095378	1.000551
953.396122	0.999877
953.696828	1.000355
953.997496	0.999455
954.298126	0.999973
954.598718	0.999945
954.899272	1.000225
955.199788	0.999291
955.500266	1.000181
955.800706	0.999402
956.101108	0.999162
956.401472	1.001462
956.701798	0.999389
957.002087	1.001607
957.302337	0.998871
957.602550	1.000113
957.902724	0.999984
958.202861	0.999863
958.502960	0.999378
958.803022	1.000042
959.103045	1.000855
959.403031	0.999838
959.702979	1.000791
960.002889	0.998971
960.302762	0.999264
960.602596	1.000698
960.902393	1.000484
961.202153	1.000443
961.501875	1.000277
961.801559	1.000121
962.101205	0.999203
962.400814	1.001368
962.700385	1.000478
962.999918	1.000471
963.299414	0.999506
963.598873	1.000936
963.898293	1.000593
964.197677	0.998703
964.497022	1.000244
964.796331	0.998754
965.095601	1.000915
965.394835	1.000496
965.694030	1.000619
965.993189	0.999753
966.292309	1.000945
966.591393	0.998033
966.890439	1.000709
967.189447	0.999235
967.488419	1.000849
967.787353	1.000314
968.086249	0.999903
968.385108	0.999287
968.683930	0.999677
968.982714	1.000113
969.281462	0.999918
969.580172	0.998467
969.878844	1.000912
970.177480	0.999381
970.476078	1.000759
970.774639	1.001098
971.073162	0.998832
971.371649	1.000120
971.670098	0.998559
971.968510	1.000370
972.266885	1.000153
972.565223	1.000096
972.863524	0.999622
973.161788	1.000097
973.460014	1.000875
973.758204	1.000414
974.056356	1.001015
974.354471	0.998901
974.652550	1.002103
974.950591	1.000500
975.248595	0.998790
975.546563	0.999855
975.844493	1.001198
976.142386	0.999601
976.440243	1.000281
976.738062	1.000521
977.035845	0.999104
977.333590	1.000756
977.631299	0.999347
977.928971	0.999893
978.226606	0.999847
978.524204	1.000497
978.821765	1.001445
979.119290	1.000760
979.416777	1.000240
979.714228	0.999813
980.011642	1.000273
980.309020	0.998773
980.606360	0.999239
980.903664	1.000659
981.200931	0.999477
981.498162	1.000042
981.795356	1.000387
982.092513	0.999794
982.389633	1.000986
982.686717	0.999691
982.983764	1.000050
983.280775	1.000372
983.577749	0.999779
983.874686	0.998514
984.171587	0.999394
984.468451	1.000259
984.765279	1.001620
985.062070	0.998626
985.358824	0.999511
985.655543	0.999978
985.952224	1.000871
986.248869	0.999328
986.545478	1.000824
986.842050	0.998917
987.138586	0.998842
987.435086	1.000322
987.731549	1.002030
988.027975	1.001069
988.324366	0.999376
988.620719	1.001442
988.917037	0.999675
989.213318	1.001066
989.509563	1.000228
989.805772	0.999612
990.101944	1.000652
990.398080	0.999682
990.694180	1.000486
990.990244	0.999833
991.286271	0.999609
991.582262	1.000703
991.878217	0.999360
992.174136	1.001687
992.470019	0.999761
992.765865	0.999556
993.061676	1.000226
993.357450	1.000390
993.653188	1.000577
993.948890	0.999718
994.244556	0.999198
994.540186	1.000396
994.835780	0.999488
995.131337	0.999604
995.426859	1.000397
995.722345	1.000326
996.017795	0.999617
996.313208	1.000067
996.608586	1.000125
996.903928	1.001189
997.199234	0.998261
997.494504	1.000946
997.789738	0.999749
998.084936	1.001002
998.380099	0.998570
998.675225	1.000301
998.970316	1.001568
999.265371	1.000319
999.560390	0.999711
999.855373	1.000288
1000.150320	0.999770
1000.445232	1.000820
1000.740108	1.000394
1001.034948	0.999134
1001.329752	0.999857
1001.624521	0.999524
1001.919254	0.999473
1002.213951	0.999586
1002.508613	0.998984
1002.803239	1.000066
1003.097829	1.000607
1003.392384	1.001578
1003.686903	1.000481
1003.981386	1.000491
1004.275834	1.002129
1004.570246	0.998260
1004.864623	1.000939
1005.158964	1.000737
1005.453270	0.999638
1005.747540	0.999025
1006.041775	1.000112
1006.335974	1.000424
1006.630138	1.000446
1006.924266	0.998744
1007.218359	0.999119
1007.512416	1.001122
1007.806438	0.999916
1008.100425	1.000034
1008.394376	1.001511
1008.688292	0.999501
1008.982172	1.000978
1009.276017	1.000690
1009.569827	1.001664
1009.863602	0.999430
1010.157341	1.001301
1010.451045	1.000132
1010.744714	1.000785
1011.038347	1.000121
1011.331945	0.999479
1011.625508	1.000490
1011.919036	0.999550
1012.212528	0.999687
1012.505986	1.000478
1012.799408	1.001010
1013.092795	1.000620
1013.386147	0.999611
1013.679464	1.001039
1013.972745	1.000235
1014.265992	0.999866
1014.559204	0.999323
1014.852380	1.000546
1015.145521	1.000660
1015.438628	1.000050
1015.731699	0.999658
1016.024736	1.001711
1016.317737	0.999256
1016.610703	1.001088
1016.903635	0.998917
1017.196531	0.999551
1017.489393	0.999835
1017.782219	1.000148
1018.075011	0.999804
1018.367768	0.999190
1018.660490	0.999854
1018.953177	0.999854
1019.245829	0.999854
