Dividing Wavelength (nm)	Counts (n)	Blue Motor Position (mm): 36.600000	Red Motor Position (mm): 0.000000	
326.493990	0.999007
326.888308	0.999007
327.282561	0.999007
327.676750	1.000606
328.070874	1.001059
328.464933	1.001686
328.858929	1.001131
329.252859	1.001260
329.646726	0.999654
330.040528	0.999206
330.434265	1.000129
330.827938	0.999616
331.221547	0.999192
331.615091	1.000945
332.008571	1.000739
332.401986	1.000237
332.795338	1.000701
333.188625	1.000299
333.581847	1.000066
333.975006	0.998945
334.368100	0.999855
334.761129	0.999391
335.154095	0.999571
335.546996	0.999606
335.939833	0.998592
336.332606	0.998727
336.725315	0.998320
337.117960	1.000625
337.510540	0.999576
337.903056	0.999944
338.295508	0.999715
338.687896	0.999531
339.080220	0.999552
339.472480	0.998940
339.864676	1.000529
340.256807	0.998965
340.648875	0.999460
341.040879	0.999000
341.432818	0.999498
341.824694	0.998731
342.216506	1.000267
342.608253	0.999040
342.999937	0.998733
343.391557	0.999234
343.783113	1.001270
344.174605	0.999894
344.566033	0.999032
344.957397	0.998840
345.348697	1.000867
345.739934	0.999314
346.131106	0.999664
346.522215	0.998429
346.913260	0.999849
347.304241	0.998263
347.695159	0.998605
348.086012	0.999259
348.476802	0.999064
348.867528	0.999216
349.258191	0.999552
349.648789	0.999525
350.039324	1.000317
350.429796	0.998141
350.820203	0.997436
351.210548	0.998578
351.600828	0.998933
351.991045	0.997878
352.381198	0.998789
352.771288	0.998630
353.161314	0.999306
353.551276	0.999211
353.941175	0.996713
354.331010	0.999436
354.720782	0.998183
355.110490	0.997793
355.500135	0.999319
355.889717	0.997585
356.279235	0.999007
356.668689	0.999039
357.058080	0.998340
357.447408	0.997311
357.836672	0.998800
358.225873	0.998308
358.615010	0.998640
359.004084	0.997463
359.393095	0.998559
359.782043	0.999034
360.170927	0.998288
360.559748	0.998542
360.948505	0.998330
361.337199	0.998237
361.725830	0.998957
362.114398	0.998051
362.502903	0.996638
362.891344	0.996261
363.279722	0.997309
363.668037	0.998347
364.056289	0.996928
364.444478	0.998962
364.832603	0.997490
365.220665	0.996959
365.608665	0.996805
365.996601	0.997529
366.384474	0.995986
366.772284	0.997118
367.160031	0.995275
367.547715	0.995998
367.935336	0.995035
368.322893	0.994619
368.710388	0.993359
369.097820	0.992020
369.485189	0.989765
369.872495	0.987384
370.259738	0.986370
370.646918	0.982575
371.034035	0.980012
371.421090	0.976501
371.808081	0.972204
372.195010	0.970271
372.581875	0.965137
372.968678	0.960113
373.355418	0.957117
373.742096	0.949341
374.128710	0.945051
374.515262	0.940425
374.901751	0.933610
375.288177	0.930373
375.674540	0.923391
376.060841	0.917191
376.447079	0.909600
376.833254	0.904434
377.219367	0.899530
377.605417	0.886724
377.991404	0.884160
378.377329	0.878347
378.763191	0.871914
379.148991	0.863248
379.534727	0.854942
379.920402	0.846818
380.306013	0.843243
380.691563	0.831104
381.077049	0.824424
381.462474	0.819571
381.847835	0.808503
382.233134	0.803423
382.618371	0.803721
383.003545	0.786394
383.388657	0.784790
383.773706	0.776216
384.158693	0.772803
384.543618	0.769020
384.928480	0.758817
385.313280	0.748782
385.698017	0.748932
386.082692	0.737918
386.467305	0.736224
386.851856	0.730258
387.236344	0.724522
387.620770	0.720120
388.005133	0.713545
388.389435	0.708167
388.773674	0.706282
389.157851	0.697614
389.541965	0.695369
389.926018	0.701935
390.310008	0.688467
390.693936	0.686231
391.077802	0.677704
391.461606	0.679418
391.845348	0.668262
392.229027	0.669124
392.612645	0.666867
392.996200	0.653769
393.379694	0.645956
393.763125	0.637365
394.146494	0.642066
394.529801	0.632661
394.913047	0.623667
395.296230	0.630385
395.679351	0.621816
396.062410	0.618144
396.445408	0.621872
396.828343	0.617557
397.211217	0.612725
397.594028	0.624910
397.976778	0.615966
398.359466	0.613203
398.742092	0.609329
399.124656	0.622943
399.507158	0.610818
399.889598	0.610955
400.271977	0.603556
400.654294	0.609747
401.036549	0.610000
401.418742	0.617530
401.800874	0.606122
402.182944	0.606084
402.564952	0.601434
402.946898	0.606896
403.328783	0.610912
403.710606	0.625180
404.092367	0.606318
404.474067	0.615495
404.855705	0.618776
405.237282	0.631005
405.618797	0.624641
406.000250	0.625655
406.381642	0.622407
406.762972	0.633964
407.144240	0.638111
407.525447	0.644477
407.906593	0.644808
408.287677	0.647538
408.668700	0.661220
409.049661	0.664211
409.430560	0.667302
409.811399	0.681899
410.192176	0.676456
410.572891	0.689060
410.953545	0.689334
411.334138	0.706116
411.714669	0.709136
412.095139	0.725612
412.475547	0.724409
412.855894	0.735127
413.236180	0.742530
413.616405	0.754096
413.996568	0.757470
414.376670	0.769465
414.756711	0.780207
415.136691	0.787492
415.516609	0.791417
415.896466	0.798808
416.276262	0.805332
416.655997	0.815859
417.035670	0.816495
417.415283	0.821722
417.794834	0.831918
418.174324	0.842176
418.553753	0.852230
418.933121	0.855560
419.312428	0.863395
419.691674	0.871990
420.070859	0.876420
420.449983	0.884774
420.829045	0.888538
421.208047	0.898234
421.586988	0.902908
421.965867	0.909009
422.344686	0.913807
422.723444	0.920247
423.102141	0.929012
423.480777	0.929922
423.859352	0.937854
424.237866	0.940981
424.616319	0.945356
424.994712	0.948888
425.373044	0.953903
425.751314	0.957332
426.129524	0.962025
426.507673	0.963011
426.885762	0.966473
427.263789	0.969512
427.641756	0.972497
428.019662	0.975136
428.397508	0.977258
428.775292	0.980376
429.153016	0.980982
429.530679	0.983814
429.908282	0.984797
430.285824	0.986852
430.663305	0.987155
431.040726	0.989782
431.418086	0.989893
431.795385	0.991948
432.172624	0.992905
432.549802	0.992676
432.926920	0.994513
433.303977	0.993339
433.680974	0.995063
434.057910	0.994969
434.434786	0.995122
434.811601	0.996587
435.188355	0.996036
435.565050	0.996563
435.941683	0.995973
436.318257	0.996301
436.694770	0.997052
437.071222	0.997628
437.447614	0.997181
437.823946	0.998188
438.200218	0.997138
438.576429	0.997382
438.952580	0.998063
439.328670	0.997425
439.704700	0.997416
440.080670	0.998620
440.456580	0.998895
440.832429	0.998547
441.208218	0.998718
441.583947	0.997964
441.959616	0.997788
442.335224	0.999126
442.710773	1.000123
443.086261	0.999385
443.461689	0.998013
443.837057	0.999329
444.212365	0.999109
444.587612	0.999803
444.962800	0.998687
445.337927	0.999549
445.712995	0.998908
446.088002	0.998011
446.462949	0.998365
446.837837	1.000756
447.212664	0.998065
447.587431	0.999878
447.962139	0.998399
448.336786	0.998171
448.711374	0.997669
449.085901	0.999003
449.460369	0.999444
449.834776	0.998942
450.209124	0.998951
450.583412	0.999801
450.957640	0.999088
451.331808	0.999156
451.705917	0.999121
452.079965	0.999217
452.453954	0.999796
452.827883	0.999504
453.201752	0.999280
453.575562	0.998480
453.949311	0.999297
454.323001	0.998670
454.696632	0.998538
455.070202	0.998795
455.443713	0.998624
455.817164	0.998724
456.190556	0.997933
456.563888	1.000212
456.937160	0.999252
457.310373	0.998958
457.683526	0.998995
458.056619	0.999101
458.429653	0.999164
458.802628	0.999032
459.175542	0.998980
459.548398	0.999199
459.921194	0.999143
460.293930	0.999296
460.666607	0.998642
461.039224	0.998929
461.411782	0.998647
461.784280	0.998639
462.156719	0.999450
462.529099	0.998133
462.901419	0.998608
463.273680	0.998444
463.645882	0.998106
464.018024	0.998854
464.390106	0.998004
464.762130	0.999362
465.134094	0.998658
465.505999	0.997723
465.877845	0.998064
466.249631	0.997665
466.621358	0.997393
466.993026	0.998106
467.364634	0.998697
467.736184	0.998870
468.107674	0.999220
468.479105	0.999134
468.850477	0.998465
469.221790	0.998402
469.593043	0.998648
469.964238	0.998488
470.335373	0.997987
470.706449	0.998594
471.077467	0.998559
471.448425	0.998842
471.819324	0.998168
472.190164	0.998189
472.560945	0.998101
472.931667	0.998432
473.302330	0.998035
473.672934	0.998881
474.043479	0.998293
474.413965	0.998918
474.784393	0.998546
475.154761	0.998727
475.525070	0.997510
475.895321	0.998883
476.265513	0.998745
476.635645	0.998538
477.005719	0.998381
477.375734	0.998143
477.745691	0.998421
478.115588	0.997864
478.485427	0.997913
478.855207	0.997873
479.224928	0.998093
479.594591	0.997800
479.964194	0.997912
480.333739	0.998308
480.703226	0.997444
481.072653	0.997533
481.442022	0.998204
481.811333	0.997951
482.180584	0.998208
482.549777	0.997763
482.918912	0.997590
483.287988	0.998242
483.657005	0.998320
484.025964	0.997928
484.394864	0.998136
484.763706	0.998633
485.132489	0.998640
485.501213	0.998423
485.869879	0.998295
486.238487	0.997410
486.607036	0.999007
486.975527	0.998621
487.343959	0.997836
487.712333	0.998048
488.080648	0.998692
488.448905	0.998831
488.817104	0.998153
489.185244	0.998525
489.553326	0.998316
489.921350	0.997806
490.289315	0.998331
490.657222	0.998276
491.025070	0.998642
491.392861	0.998100
491.760593	0.998201
492.128267	0.998604
492.495883	0.997306
492.863440	0.998615
493.230939	0.997757
493.598380	0.998450
493.965763	0.998159
494.333088	0.997804
494.700354	0.998064
495.067563	0.998241
495.434713	0.998870
495.801805	0.998365
496.168839	0.997975
496.535815	0.998717
496.902733	0.998061
497.269593	0.998163
497.636395	0.997983
498.003139	0.998451
498.369825	0.999076
498.736453	0.998594
499.103023	0.998652
499.469535	0.998801
499.835989	0.998649
500.202385	0.998397
500.568723	0.998453
500.935003	0.998799
501.301226	0.998899
501.667390	0.998345
502.033497	0.999108
502.399546	0.998094
502.765537	0.998547
503.131470	0.998282
503.497345	0.999123
503.863163	0.998961
504.228923	0.998815
504.594625	0.997928
504.960269	0.998598
505.325856	0.998651
505.691385	0.998810
506.056856	0.998475
506.422270	0.998704
506.787625	0.998487
507.152924	0.998767
507.518164	0.998280
507.883347	0.997782
508.248472	0.998943
508.613540	0.998091
508.978550	0.998698
509.343503	0.998032
509.708398	0.998845
510.073236	0.998394
510.438016	0.997574
510.802738	0.997636
511.167403	0.998387
511.532010	0.998506
511.896561	0.998535
512.261053	0.998403
512.625488	0.998058
512.989866	0.997618
513.354186	0.998417
513.718449	0.998467
514.082655	0.997970
514.446803	0.998205
514.810894	0.998421
515.174927	0.998377
515.538904	0.999266
515.902822	0.998544
516.266684	0.998713
516.630488	0.998392
516.994235	0.998944
517.357925	0.998629
517.721558	0.998923
518.085133	0.997749
518.448651	0.998502
518.812112	0.999002
519.175516	0.998426
519.538863	0.997876
519.902152	0.999358
520.265385	0.998284
520.628560	0.998279
520.991678	0.998285
521.354739	0.998879
521.717743	0.997937
522.080690	0.997998
522.443580	0.998681
522.806413	0.997769
523.169189	0.998693
523.531908	0.997693
523.894569	0.998439
524.257174	0.998012
524.619722	0.998453
524.982213	0.998780
525.344647	0.998374
525.707025	0.997639
526.069345	0.997755
526.431608	0.998379
526.793815	0.998506
527.155964	0.998671
527.518057	0.998609
527.880093	0.998598
528.242072	0.998261
528.603995	0.998252
528.965860	0.998814
529.327669	0.998709
529.689421	0.998288
530.051117	0.998545
530.412755	0.999124
530.774337	0.998325
531.135862	0.999209
531.497331	0.998314
531.858743	0.999342
532.220098	0.998006
532.581396	0.998445
532.942638	0.998631
533.303824	0.999454
533.664953	0.998238
534.026025	0.998999
534.387040	0.999053
534.747999	0.997904
535.108902	0.998458
535.469748	0.998558
535.830537	0.998487
536.191270	0.998778
536.551947	0.998376
536.912567	0.999018
537.273131	0.999029
537.633638	0.998239
537.994089	0.999228
538.354483	0.998673
538.714821	0.998489
539.075103	0.998575
539.435328	0.999212
539.795497	0.998672
540.155609	0.998658
540.515665	0.999309
540.875665	0.998304
541.235609	0.998507
541.595496	0.997816
541.955328	0.998631
542.315102	0.998529
542.674821	0.998509
543.034483	0.999276
543.394090	0.997951
543.753640	0.999063
544.113134	0.998448
544.472571	0.998938
544.831953	0.999066
545.191278	0.998791
545.550548	0.998131
545.909761	0.998238
546.268918	0.999353
546.628019	0.999276
546.987064	0.998223
547.346053	0.998213
547.704986	0.998393
548.063863	0.998596
548.422684	0.998798
548.781449	0.998990
549.140158	0.998605
549.498811	0.998114
549.857408	0.998364
550.215949	0.997599
550.574434	0.998228
550.932864	0.999155
551.291237	0.998751
551.649555	0.999465
552.007817	0.999183
552.366022	0.998737
552.724173	0.998869
553.082267	0.998409
553.440305	0.998502
553.798288	0.998191
554.156215	0.998825
554.514086	0.998673
554.871902	0.998008
555.229661	0.998302
555.587365	0.998827
555.945014	0.999436
556.302606	0.998237
556.660143	0.999285
557.017625	0.998975
557.375050	0.998418
557.732421	0.998688
558.089735	0.998542
558.446994	0.998154
558.804197	0.998969
559.161345	0.998821
559.518437	0.998081
559.875474	0.998231
560.232455	0.998863
560.589381	0.998872
560.946251	0.998565
561.303065	0.999053
561.659825	0.998127
562.016528	0.999279
562.373177	0.998702
562.729770	0.998768
563.086307	0.998118
563.442789	0.998816
563.799216	0.998073
564.155587	0.998264
564.511904	0.999233
564.868164	0.998133
565.224370	0.998893
565.580520	0.998676
565.936615	0.998118
566.292654	0.998447
566.648638	0.999020
567.004567	0.998142
567.360441	0.999072
567.716260	0.999171
568.072023	0.997898
568.427732	0.998660
568.783385	0.998986
569.138982	0.998539
569.494525	0.998426
569.850013	0.999565
570.205445	0.999030
570.560823	0.999008
570.916145	0.998023
571.271412	0.998518
571.626625	0.998813
571.981782	0.998959
572.336884	0.999352
572.691931	0.999123
573.046923	0.999042
573.401860	0.998857
573.756743	0.998578
574.111570	0.998657
574.466342	0.999243
574.821059	0.998640
575.175722	0.999094
575.530330	0.999079
575.884882	0.998494
576.239380	0.998551
576.593823	0.998249
576.948211	0.999408
577.302544	0.998485
577.656823	0.998975
578.011047	0.998763
578.365216	0.999001
578.719330	0.998385
579.073389	0.998370
579.427394	0.998507
579.781344	0.998895
580.135239	0.997903
580.489080	0.998645
580.842866	0.998950
581.196597	0.999027
581.550273	0.998807
581.903895	0.998875
582.257463	0.998500
582.610975	0.998959
582.964434	0.998920
583.317837	0.998645
583.671186	0.999005
584.024481	0.998453
584.377721	0.998539
584.730906	0.999422
585.084037	0.999089
585.437113	0.999440
585.790135	0.999350
586.143103	0.998422
586.496016	0.998839
586.848874	0.998666
587.201679	0.998837
587.554428	0.997979
587.907124	0.998468
588.259765	0.998625
588.612352	0.999192
588.964884	0.999480
589.317362	0.998631
589.669786	0.998446
590.022155	0.998481
590.374470	0.998449
590.726731	0.998134
591.078937	0.999218
591.431090	0.998708
591.783188	0.997871
592.135232	0.998498
592.487222	0.998723
592.839157	0.998812
593.191038	0.998657
593.542866	0.998412
593.894639	0.998110
594.246358	0.999067
594.598022	0.999266
594.949633	0.998922
595.301190	0.998039
595.652692	0.998461
596.004141	0.998809
596.355535	0.998395
596.706876	0.999739
597.058162	0.998358
597.409395	0.999125
597.760573	0.998815
598.111698	0.998504
598.462768	0.998463
598.813785	0.998137
599.164748	0.998686
599.515657	0.998609
599.866511	0.998364
600.217312	0.999487
600.568060	0.998517
600.918753	0.999106
601.269392	0.998932
601.619978	0.998402
601.970510	0.999753
602.320988	0.998777
602.671412	0.998521
603.021783	0.998774
603.372100	0.999269
603.722363	0.999286
604.072572	0.998640
604.422728	0.998372
604.772830	0.998349
605.122878	0.999059
605.472872	0.999350
605.822813	0.998140
606.172701	0.999154
606.522534	0.999166
606.872314	0.999863
607.222041	0.998602
607.571714	0.999371
607.921333	0.999104
608.270899	0.998472
608.620411	0.998802
608.969870	0.999979
609.319276	0.998989
609.668627	0.999454
610.017926	0.998673
610.367171	0.998308
610.716362	0.998912
611.065500	0.999009
611.414585	0.998471
611.763616	0.998447
612.112594	0.998831
612.461518	0.997759
612.810389	0.998395
613.159207	0.998778
613.507971	0.997871
613.856682	0.999418
614.205340	0.998008
614.553945	0.998854
614.902496	0.998584
615.250994	0.998697
615.599439	0.998718
615.947830	0.998269
616.296169	0.998312
616.644454	0.998831
616.992686	0.999227
617.340864	0.998808
617.688990	0.998313
618.037063	0.998676
618.385082	0.998165
618.733048	0.998401
619.080961	0.998118
619.428821	0.998872
619.776628	0.997886
620.124382	0.999495
620.472083	0.998694
620.819731	0.999829
621.167326	0.999007
621.514868	0.998886
621.862357	0.998453
622.209793	0.998493
622.557176	0.998154
622.904506	0.998334
623.251783	0.998813
623.599007	0.998540
623.946179	0.998310
624.293297	0.999319
624.640363	0.999095
624.987376	0.997993
625.334336	0.998406
625.681243	0.998005
626.028097	0.999350
626.374899	0.998243
626.721647	0.999393
627.068343	0.998201
627.414987	0.998409
627.761577	0.997865
628.108115	0.998594
628.454600	0.999117
628.801032	0.998755
629.147412	0.998666
629.493739	0.999601
629.840014	0.998107
630.186236	0.997863
630.532405	0.998465
630.878521	0.997972
631.224585	0.998512
631.570597	0.998449
631.916556	0.998875
632.262462	0.997705
632.608316	0.998503
632.954117	0.997571
633.299866	0.998505
633.645562	0.998951
633.991206	0.998439
634.336797	0.998507
634.682336	0.998956
635.027823	0.999138
635.373257	0.998799
635.718639	0.999337
636.063968	0.998423
636.409245	0.998432
636.754470	0.998524
637.099642	0.999325
637.444762	0.999032
637.789829	0.998982
638.134845	0.998801
638.479808	0.998210
638.824719	0.998924
639.169577	0.998951
639.514383	0.998755
639.859137	0.998780
640.203839	0.999232
640.548489	0.998494
640.893086	0.998713
641.237632	0.999458
641.582125	0.997953
641.926566	0.999749
642.270955	0.999242
642.615292	0.997923
642.959576	0.998633
643.303809	0.998903
643.647990	0.998966
643.992118	0.999264
644.336195	0.998279
644.680219	0.998626
645.024192	0.999459
645.368112	0.998595
645.711981	0.998441
646.055797	0.999106
646.399562	0.997372
646.743274	0.999032
647.086935	0.998343
647.430544	0.998458
647.774101	0.998313
648.117606	0.998209
648.461059	0.999303
648.804460	0.999206
649.147810	0.998278
649.491108	0.998579
649.834354	0.998281
650.177548	0.998220
650.520690	0.998152
650.863781	0.998675
651.206820	0.998924
651.549807	0.998560
651.892742	0.998660
652.235626	0.999478
652.578458	0.998960
652.921238	0.998955
653.263967	0.999081
653.606644	0.999346
653.949269	0.999110
654.291843	0.998141
654.634365	0.999247
654.976836	0.997779
655.319255	0.998904
655.661622	0.998744
656.003938	0.998733
656.346203	0.998758
656.688416	0.999696
657.030577	0.998592
657.372687	0.998989
657.714746	0.997734
658.056753	0.998705
658.398708	0.998494
658.740612	0.999064
659.082465	0.998773
659.424266	0.998334
659.766016	0.997646
660.107715	0.998640
660.449362	0.998366
660.790958	0.998352
661.132503	0.998131
661.473996	0.997626
661.815438	0.999005
662.156829	0.999352
662.498168	0.998821
662.839456	0.998108
663.180693	0.998584
663.521879	0.998583
663.863013	0.998392
664.204097	0.998197
664.545129	0.998779
664.886110	0.998934
665.227040	0.998119
665.567918	0.998798
665.908746	0.997952
666.249522	0.998320
666.590248	0.998279
666.930922	0.998513
667.271545	0.998808
667.612118	0.999073
667.952639	0.998772
668.293109	0.998546
668.633528	0.997603
668.973896	0.998567
669.314213	0.998415
669.654480	0.998552
669.994695	0.997509
670.334859	0.998302
670.674973	0.997992
671.015035	0.998397
671.355047	0.997956
671.695008	0.998060
672.034918	0.998417
672.374777	0.998810
672.714585	0.998059
673.054342	0.999253
673.394049	0.997572
673.733705	0.998381
674.073310	0.998238
674.412864	0.997796
674.752368	0.997922
675.091820	0.998873
675.431223	0.998725
675.770574	0.997668
676.109875	0.998062
676.449125	0.998379
676.788324	0.998181
677.127473	0.998254
677.466571	0.998587
677.805619	0.999027
678.144616	0.998738
678.483562	0.999044
678.822458	0.998757
679.161303	0.998597
679.500098	0.998440
679.838842	0.999813
680.177535	0.998467
680.516179	0.996817
680.854771	0.998512
681.193314	0.998558
681.531805	0.997495
681.870247	0.998334
682.208638	0.998348
682.546978	0.997486
682.885268	0.997383
683.223508	0.997616
683.561697	0.997581
683.899836	0.998041
684.237925	0.997587
684.575963	0.998195
684.913951	0.998650
685.251889	0.997858
685.589776	0.998359
685.927614	0.997042
686.265401	0.997450
686.603137	0.997115
686.940824	0.998240
687.278460	0.998252
687.616046	0.998127
687.953582	0.998629
688.291068	0.998267
688.628504	0.997711
688.965889	0.997164
689.303224	0.996077
689.640510	0.998119
689.977745	0.997712
690.314930	0.997145
690.652065	0.998251
690.989150	0.997510
691.326185	0.998339
691.663170	0.997710
692.000105	0.997815
692.336990	0.998352
692.673825	0.998136
693.010610	0.997885
693.347345	0.997919
693.684030	0.997430
694.020665	0.998528
694.357251	0.997876
694.693786	0.997806
695.030272	0.997580
695.366707	0.997868
695.703093	0.997696
696.039429	0.996825
696.375716	0.997738
696.711952	0.997452
697.048139	0.998270
697.384276	0.997481
697.720363	0.997469
698.056400	0.997076
698.392388	0.996670
698.728326	0.997393
699.064214	0.998612
699.400053	0.997450
699.735842	0.998449
700.071581	0.997412
700.407270	0.997266
700.742910	0.998358
701.078501	0.997849
701.414042	0.998318
701.749533	0.997040
702.084974	0.999115
702.420366	0.998128
702.755709	0.996979
703.091002	0.998179
703.426246	0.997973
703.761440	0.997729
704.096584	0.996884
704.431679	0.997791
704.766725	0.997461
705.101721	0.997835
705.436668	0.998234
705.771565	0.997095
706.106413	0.997097
706.441212	0.998003
706.775961	0.998164
707.110661	0.997072
707.445311	0.998020
707.779913	0.997933
708.114465	0.997577
708.448967	0.999546
708.783421	0.998165
709.117825	0.997790
709.452180	0.997450
709.786485	0.998160
710.120742	0.997254
710.454949	0.997242
710.789107	0.996994
711.123216	0.995802
711.457275	0.997294
711.791286	0.997852
712.125247	0.998615
712.459159	0.996969
712.793023	0.996884
713.126837	0.998141
713.460602	0.997583
713.794318	0.996922
714.127985	0.997189
714.461602	0.997503
714.795171	0.997009
715.128691	0.997232
715.462162	0.998167
715.795584	0.996949
716.128957	0.998213
716.462281	0.998273
716.795556	0.996866
717.128782	0.998087
717.461960	0.997196
717.795088	0.998332
718.128167	0.998963
718.461198	0.997342
718.794180	0.998710
719.127113	0.997712
719.459997	0.997777
719.792833	0.996845
720.125619	0.997652
720.458357	0.997726
720.791046	0.998408
721.123686	0.997494
721.456278	0.997544
721.788821	0.997797
722.121315	0.998092
722.453761	0.998018
722.786158	0.997952
723.118506	0.998272
723.450805	0.997694
723.783056	0.997816
724.115259	0.997180
724.447412	0.998253
724.779518	0.997618
725.111574	0.997715
725.443582	0.998231
725.775542	0.998373
726.107453	0.998144
726.439315	0.997486
726.771129	0.997876
727.102895	0.998260
727.434612	0.997444
727.766281	0.997777
728.097901	0.997336
728.429473	0.997869
728.760996	0.996508
729.092471	0.997732
729.423897	0.998046
729.755276	0.997537
730.086606	0.997276
730.417887	0.998202
730.749120	0.998295
731.080305	0.997615
731.411442	0.996458
731.742530	0.996090
732.073570	0.996754
732.404562	0.998007
732.735506	0.997627
733.066401	0.997321
733.397249	0.997739
733.728048	0.998121
734.058798	0.997892
734.389501	0.997918
734.720156	0.998649
735.050762	0.998166
735.381320	0.997556
735.711831	0.997523
736.042293	0.996747
736.372707	0.998057
736.703073	0.997193
737.033391	0.997758
737.363661	0.997738
737.693883	0.998046
738.024056	0.996558
738.354182	0.997834
738.684260	0.997725
739.014290	0.997236
739.344272	0.997539
739.674207	0.997167
740.004093	0.997301
740.333931	0.996753
740.663722	0.997210
740.993464	0.998212
741.323159	0.997314
741.652806	0.997944
741.982405	0.998365
742.311956	0.997668
742.641460	0.997781
742.970915	0.997187
743.300323	0.996829
743.629683	0.997271
743.958996	0.998309
744.288260	0.997137
744.617477	0.997989
744.946647	0.998409
745.275768	0.998642
745.604842	0.997609
745.933869	0.998344
746.262847	0.997502
746.591778	0.996956
746.920662	0.999029
747.249498	0.998196
747.578286	0.999144
747.907027	0.997955
748.235720	0.998871
748.564365	0.997818
748.892963	0.997678
749.221514	0.997222
749.550017	0.996612
749.878473	0.998109
750.206881	0.998333
750.535242	0.997653
750.863555	0.998064
751.191821	0.997282
751.520039	0.998430
751.848210	0.996392
752.176334	0.997676
752.504411	0.997103
752.832440	0.996987
753.160421	0.996858
753.488356	0.997686
753.816243	0.997744
754.144082	0.997296
754.471875	0.998850
754.799620	0.997792
755.127318	0.996706
755.454969	0.997298
755.782572	0.999101
756.110129	0.998231
756.437638	0.998767
756.765100	0.998013
757.092515	0.997006
757.419882	0.998599
757.747203	0.997130
758.074477	0.999124
758.401703	0.997740
758.728882	0.997276
759.056014	0.997542
759.383099	0.998004
759.710138	0.998046
760.037129	0.997802
760.364073	0.998589
760.690970	0.998137
761.017820	0.996554
761.344623	0.998574
761.671379	0.998112
761.998088	0.997529
762.324751	0.998064
762.651366	0.996670
762.977935	0.995760
763.304456	0.996377
763.630931	0.994772
763.957359	0.995704
764.283740	0.996737
764.610074	0.997149
764.936362	0.997068
765.262602	0.997369
765.588796	0.998233
765.914943	0.997583
766.241044	0.997214
766.567097	0.997173
766.893104	0.998463
767.219064	0.996765
767.544978	0.997950
767.870845	0.997193
768.196665	0.997468
768.522438	0.997233
768.848165	0.998649
769.173846	0.997960
769.499479	0.998471
769.825066	0.998940
770.150607	0.999216
770.476101	0.998006
770.801548	0.999121
771.126949	0.999628
771.452303	0.997997
771.777611	0.998851
772.102872	0.998893
772.428087	0.998657
772.753256	0.997982
773.078378	0.998097
773.403453	0.997558
773.728482	1.000002
774.053465	0.997777
774.378401	0.998784
774.703291	0.999158
775.028135	0.999564
775.352932	0.996446
775.677683	0.998757
776.002388	0.997668
776.327046	0.997979
776.651658	0.999116
776.976224	0.998018
777.300743	0.998546
777.625216	0.998056
777.949643	0.998725
778.274024	0.997705
778.598359	0.998724
778.922647	0.997743
779.246889	0.998463
779.571086	0.999098
779.895236	0.999253
780.219339	0.998913
780.543397	0.998137
780.867409	0.998336
781.191374	0.998107
781.515294	0.998850
781.839167	0.999573
782.162995	0.998730
782.486776	0.998435
782.810511	0.999449
783.134201	0.998780
783.457844	0.998540
783.781441	0.998475
784.104993	0.997560
784.428498	0.998876
784.751958	0.999251
785.075372	0.998334
785.398739	0.998023
785.722061	0.998291
786.045337	0.998856
786.368568	0.998587
786.691752	0.997710
787.014891	0.998087
787.337983	0.997390
787.661030	0.998466
787.984031	0.997851
788.306987	0.998761
788.629897	0.997061
788.952760	0.997597
789.275579	0.999128
789.598351	0.998331
789.921078	0.998884
790.243759	0.998703
790.566395	0.998753
790.888984	0.998340
791.211529	0.998826
791.534027	0.997620
791.856480	0.998934
792.178888	0.997878
792.501249	0.997922
792.823566	0.999181
793.145836	0.998677
793.468062	0.998979
793.790241	0.999365
794.112375	0.996683
794.434464	0.999440
794.756507	0.998263
795.078505	0.998611
795.400457	0.998726
795.722364	0.997873
796.044226	0.998491
796.366042	0.997563
796.687812	0.997278
797.009538	0.997034
797.331218	0.998734
797.652852	0.998342
797.974442	0.997738
798.295986	0.998768
798.617484	0.997472
798.938938	0.998377
799.260346	0.997378
799.581709	0.998472
799.903026	0.999448
800.224299	0.998452
800.545526	0.998101
800.866708	0.997701
801.187845	0.999155
801.508936	0.999043
801.829983	0.998109
802.150984	0.997956
802.471940	0.998698
802.792851	0.997527
803.113717	0.998910
803.434538	0.999320
803.755314	0.998790
804.076045	0.998759
804.396731	0.997911
804.717372	0.997060
805.037967	1.000059
805.358518	0.999133
805.679024	0.998226
805.999485	0.998859
806.319901	0.999070
806.640272	0.998562
806.960598	0.999014
807.280879	0.998980
807.601115	0.999033
807.921306	0.999840
808.241453	0.998502
808.561554	0.998622
808.881611	0.998986
809.201623	0.997674
809.521590	0.999327
809.841513	0.998129
810.161390	0.997550
810.481223	0.997778
810.801011	0.998185
811.120755	0.999301
811.440453	0.997462
811.760107	0.998564
812.079716	0.998827
812.399281	0.998388
812.718801	0.998033
813.038276	0.998507
813.357707	0.998539
813.677093	0.998605
813.996434	0.999113
814.315731	0.999578
814.634983	0.998753
814.954191	0.999348
815.273354	0.998403
815.592473	0.998366
815.911547	0.998991
816.230577	0.998766
816.549562	0.998667
816.868502	0.997040
817.187399	0.999611
817.506250	0.998938
817.825058	0.997611
818.143821	0.999516
818.462539	0.998257
818.781213	0.998343
819.099843	0.998621
819.418429	0.997892
819.736970	0.998448
820.055466	0.996871
820.373919	0.997712
820.692327	0.996864
821.010691	0.996268
821.329011	0.994864
821.647286	0.993404
821.965517	0.992413
822.283704	0.992237
822.601847	0.990959
822.919945	0.991989
823.237999	0.992167
823.556010	0.992809
823.873976	0.993829
824.191897	0.994066
824.509775	0.996002
824.827609	0.995742
825.145398	0.996847
825.463144	0.994434
825.780845	0.995276
826.098502	0.995028
826.416116	0.995482
826.733685	0.994954
827.051210	0.992719
827.368692	0.994051
827.686129	0.995350
828.003522	0.995595
828.320872	0.995898
828.638177	0.996323
828.955439	0.998020
829.272656	0.996598
829.589830	0.997055
829.906960	0.998052
830.224046	0.997796
830.541088	0.997653
830.858086	0.998169
831.175041	0.998590
831.491952	0.998440
831.808819	0.997700
832.125642	0.997348
832.442421	0.998231
832.759157	0.999011
833.075849	0.996793
833.392497	0.995964
833.709101	0.995280
834.025662	0.996518
834.342179	0.996249
834.658653	0.997145
834.975083	0.997558
835.291469	0.996971
835.607811	0.997542
835.924110	0.998135
836.240366	0.999357
836.556578	0.998936
836.872746	0.999013
837.188871	0.998459
837.504952	0.997985
837.820990	0.998347
838.136984	0.998351
838.452935	0.999023
838.768842	0.998886
839.084706	0.998662
839.400526	0.998607
839.716303	0.996095
840.032037	0.999365
840.347727	0.998269
840.663373	0.997713
840.978977	0.997612
841.294537	0.999672
841.610054	0.998848
841.925527	0.998333
842.240957	0.999181
842.556344	0.998501
842.871687	0.998530
843.186987	0.998711
843.502244	0.999671
843.817458	0.997827
844.132629	0.998795
844.447756	0.999890
844.762840	0.998961
845.077881	0.999753
845.392879	0.998178
845.707833	0.998817
846.022745	0.999351
846.337613	0.999456
846.652438	0.998728
846.967221	0.999234
847.281960	0.999193
847.596656	0.999422
847.911309	0.999083
848.225919	0.998742
848.540485	0.999203
848.855009	1.000065
849.169490	0.999638
849.483928	0.998410
849.798323	0.997511
850.112675	1.000429
850.426984	0.999717
850.741251	0.998325
851.055474	0.999085
851.369654	0.999390
851.683792	0.998229
851.997887	0.998454
852.311938	1.000738
852.625947	0.998824
852.939914	0.997956
853.253837	1.000088
853.567718	1.000141
853.881555	0.999047
854.195350	0.999529
854.509103	0.999899
854.822812	0.999732
855.136479	0.999529
855.450103	0.998868
855.763685	0.999005
856.077224	0.999304
856.390720	0.998587
856.704173	1.000481
857.017584	0.999355
857.330953	0.999091
857.644278	0.998641
857.957561	0.998927
858.270802	0.999686
858.584000	0.998814
858.897155	0.998257
859.210268	0.998840
859.523339	0.999132
859.836367	0.999291
860.149352	0.998359
860.462295	0.999787
860.775195	0.999809
861.088054	0.998406
861.400869	0.998991
861.713642	0.998465
862.026373	1.000183
862.339062	0.999904
862.651708	0.999575
862.964312	1.000069
863.276873	0.998718
863.589392	1.000022
863.901869	0.998783
864.214303	0.999190
864.526696	0.998876
864.839045	0.999727
865.151353	0.999212
865.463619	0.998002
865.775842	0.999069
866.088023	0.999586
866.400162	0.999823
866.712258	1.000482
867.024313	0.998654
867.336325	1.000913
867.648296	0.998900
867.960224	0.999797
868.272110	0.999453
868.583954	0.999613
868.895755	0.999263
869.207515	0.998787
869.519233	0.999797
869.830909	0.998137
870.142542	0.998127
870.454134	0.998590
870.765684	0.998409
871.077191	0.999097
871.388657	0.999829
871.700081	0.999786
872.011463	1.000330
872.322803	0.999302
872.634101	0.999173
872.945357	0.997551
873.256571	0.998964
873.567744	0.999408
873.878874	0.999046
874.189963	0.998706
874.501010	1.001144
874.812015	0.999135
875.122979	0.999445
875.433900	0.998037
875.744780	0.999847
876.055618	0.999129
876.366415	0.998357
876.677169	0.998008
876.987882	0.999074
877.298554	0.999177
877.609183	0.998381
877.919771	0.999205
878.230317	0.998764
878.540822	0.998401
878.851285	0.997241
879.161707	0.998228
879.472087	0.999404
879.782425	0.997475
880.092722	0.997699
880.402977	0.994350
880.713191	0.994318
881.023363	0.992980
881.333494	0.992912
881.643583	0.993897
881.953631	0.992537
882.263637	0.991457
882.573602	0.992017
882.883526	0.993563
883.193408	0.995356
883.503248	0.995201
883.813048	0.994867
884.122806	0.995180
884.432522	0.996327
884.742197	0.997563
885.051831	0.997055
885.361424	0.996751
885.670975	0.999095
885.980485	0.997531
886.289954	0.997330
886.599382	0.997288
886.908768	0.999321
887.218113	0.998123
887.527417	0.998379
887.836680	0.998927
888.145901	0.999566
888.455082	1.000638
888.764221	0.999176
889.073319	0.998953
889.382376	0.999369
889.691392	0.997787
890.000366	1.000153
890.309300	0.998832
890.618193	0.998806
890.927044	0.997566
891.235855	0.999286
891.544625	0.998421
891.853353	0.998816
892.162041	0.998279
892.470687	0.998957
892.779293	0.997322
893.087858	0.997588
893.396381	0.997814
893.704864	0.998329
894.013306	0.996846
894.321707	0.996058
894.630068	0.995805
894.938387	0.995691
895.246665	0.995051
895.554903	0.995545
895.863100	0.996939
896.171256	0.996760
896.479371	0.997418
896.787446	0.996907
897.095480	0.998193
897.403473	0.997783
897.711425	0.998861
898.019336	0.997921
898.327207	0.998833
898.635038	0.997024
898.942827	0.998948
899.250576	0.998190
899.558284	0.999321
899.865952	0.997386
900.173579	0.998511
900.481165	0.997976
900.788711	0.998137
901.096216	0.998822
901.403681	0.999326
901.711105	0.998938
902.018489	0.997712
902.325832	0.997856
902.633135	0.997804
902.940397	0.999250
903.247619	0.998080
903.554800	0.997122
903.861941	0.996404
904.169041	0.996047
904.476101	0.995908
904.783121	0.994271
905.090100	0.995638
905.397039	0.995373
905.703938	0.995895
906.010796	0.996570
906.317614	0.997440
906.624391	0.997101
906.931129	0.998321
907.237826	0.998738
907.544483	0.998571
907.851099	0.998576
908.157675	0.998100
908.464211	0.999731
908.770707	0.999285
909.077163	0.999176
909.383578	0.999188
909.689954	0.998140
909.996289	0.998695
910.302584	1.000470
910.608839	0.999835
910.915054	0.998083
911.221229	0.999312
911.527363	0.998988
911.833458	0.999466
912.139513	0.999786
912.445527	1.000884
912.751502	1.000609
913.057436	0.998608
913.363331	0.999714
913.669186	0.999360
913.975000	1.000027
914.280775	0.999004
914.586510	0.997243
914.892205	0.997306
915.197859	0.996033
915.503475	0.996146
915.809050	0.995724
916.114585	0.994154
916.420081	0.995357
916.725536	0.995513
917.030952	0.995373
917.336328	0.996706
917.641665	0.994942
917.946961	0.996259
918.252218	0.995954
918.557435	0.997491
918.862612	0.997198
919.167750	0.998265
919.472848	0.998457
919.777906	0.998637
920.082925	0.999062
920.387904	0.998840
920.692843	0.997318
920.997743	0.998764
921.302603	0.998097
921.607423	0.997929
921.912204	0.998430
922.216946	0.999997
922.521647	0.998642
922.826310	0.999981
923.130932	0.999722
923.435516	0.999131
923.740059	0.998862
924.044564	0.998595
924.349028	0.998563
924.653454	0.999385
924.957840	0.998022
925.262186	0.998897
925.566493	0.998943
925.870761	0.998487
926.174989	0.998975
926.479178	0.999105
926.783328	0.999497
927.087438	1.000148
927.391509	0.999043
927.695541	0.999521
927.999533	0.999611
928.303486	0.999426
928.607400	1.000382
928.911275	0.999938
929.215110	1.000705
929.518906	0.999935
929.822663	1.000100
930.126381	1.000717
930.430060	0.998937
930.733699	1.000302
931.037299	1.000424
931.340861	0.999724
931.644383	0.999030
931.947866	0.999242
932.251309	1.000717
932.554714	0.999419
932.858080	0.999813
933.161407	0.998609
933.464694	0.999400
933.767943	0.999223
934.071153	0.999613
934.374323	1.000429
934.677455	0.999058
934.980548	0.998704
935.283602	1.000046
935.586617	0.999730
935.889593	1.001061
936.192530	1.000076
936.495428	0.999799
936.798287	0.999249
937.101108	0.999258
937.403890	0.999729
937.706632	1.001324
938.009336	0.999271
938.312002	0.998554
938.614628	0.999233
938.917216	0.998706
939.219765	0.998968
939.522275	0.998837
939.824747	0.999126
940.127179	1.000260
940.429573	1.000351
940.731929	0.997946
941.034246	0.998186
941.336524	0.998966
941.638763	0.999697
941.940964	0.998460
942.243126	0.998378
942.545250	0.999822
942.847335	0.998397
943.149381	0.999628
943.451389	0.998966
943.753359	0.999969
944.055290	1.001003
944.357182	0.999437
944.659036	1.001233
944.960851	0.999330
945.262628	0.999581
945.564367	1.001008
945.866067	0.998562
946.167729	0.999742
946.469352	0.999127
946.770937	0.997956
947.072484	1.000529
947.373992	0.999510
947.675462	0.998408
947.976893	0.998629
948.278286	1.001761
948.579641	1.000080
948.880958	0.999419
949.182236	1.000361
949.483476	0.999264
949.784678	0.998477
950.085841	0.999457
950.386967	0.999245
950.688054	0.999738
950.989103	0.998465
951.290114	0.996830
951.591087	1.000821
951.892021	0.999188
952.192917	0.999621
952.493776	0.998743
952.794596	0.999615
953.095378	1.000226
953.396122	0.999963
953.696828	1.000083
953.997496	1.000169
954.298126	1.000474
954.598718	0.998371
954.899272	0.999565
955.199788	0.999876
955.500266	1.000785
955.800706	0.999476
956.101108	0.999840
956.401472	1.000680
956.701798	0.998815
957.002087	0.999417
957.302337	0.999545
957.602550	0.999711
957.902724	0.999451
958.202861	0.999970
958.502960	0.999475
958.803022	1.000665
959.103045	0.999484
959.403031	1.000213
959.702979	1.000029
960.002889	1.000144
960.302762	0.998751
960.602596	0.999752
960.902393	0.999730
961.202153	0.999429
961.501875	0.999369
961.801559	1.000034
962.101205	0.999374
962.400814	1.001694
962.700385	1.000988
962.999918	1.000554
963.299414	0.999349
963.598873	1.000002
963.898293	0.999795
964.197677	0.999456
964.497022	1.000709
964.796331	0.999696
965.095601	1.001738
965.394835	0.999909
965.694030	1.000386
965.993189	0.999745
966.292309	1.000751
966.591393	0.998590
966.890439	1.000746
967.189447	0.999896
967.488419	1.000341
967.787353	0.999714
968.086249	0.998761
968.385108	0.999966
968.683930	1.000980
968.982714	0.999744
969.281462	0.999340
969.580172	0.999602
969.878844	0.999852
970.177480	0.999593
970.476078	1.000404
970.774639	1.001406
971.073162	1.000087
971.371649	0.999497
971.670098	1.000280
971.968510	1.000441
972.266885	0.999491
972.565223	0.999145
972.863524	0.999150
973.161788	0.999128
973.460014	1.000218
973.758204	0.998714
974.056356	1.000008
974.354471	0.997634
974.652550	1.000710
974.950591	0.998788
975.248595	0.999933
975.546563	0.999910
975.844493	0.999628
976.142386	0.998925
976.440243	1.000442
976.738062	1.000117
977.035845	0.998188
977.333590	1.000339
977.631299	0.999607
977.928971	0.998500
978.226606	0.998935
978.524204	0.997885
978.821765	1.001118
979.119290	1.001519
979.416777	0.999848
979.714228	1.000033
980.011642	1.000573
980.309020	0.999229
980.606360	0.999155
980.903664	0.999800
981.200931	1.000252
981.498162	1.000611
981.795356	0.998619
982.092513	0.999256
982.389633	0.999726
982.686717	0.997638
982.983764	1.000087
983.280775	1.000533
983.577749	1.001053
983.874686	0.999767
984.171587	0.998944
984.468451	0.999411
984.765279	0.999626
985.062070	1.000060
985.358824	0.998879
985.655543	1.000227
985.952224	0.999761
986.248869	0.999530
986.545478	1.001121
986.842050	0.998805
987.138586	0.998382
987.435086	0.998984
987.731549	1.000807
988.027975	1.000997
988.324366	0.999804
988.620719	1.000128
988.917037	0.999879
989.213318	0.999816
989.509563	1.000258
989.805772	0.999217
990.101944	1.000140
990.398080	0.999950
990.694180	1.000096
990.990244	0.999906
991.286271	0.998793
991.582262	1.000844
991.878217	0.998570
992.174136	1.000737
992.470019	0.999338
992.765865	1.001328
993.061676	1.000205
993.357450	1.001062
993.653188	1.001180
993.948890	0.999107
994.244556	1.000256
994.540186	0.999658
994.835780	1.000012
995.131337	0.999524
995.426859	0.998684
995.722345	0.999115
996.017795	0.999422
996.313208	1.000651
996.608586	0.999515
996.903928	1.001283
997.199234	0.999574
997.494504	1.000815
997.789738	0.998420
998.084936	1.000964
998.380099	0.998812
998.675225	0.999758
998.970316	1.000608
999.265371	0.999441
999.560390	1.000287
999.855373	0.999966
1000.150320	0.999694
1000.445232	1.000420
1000.740108	1.000219
1001.034948	0.999458
1001.329752	1.000279
1001.624521	1.000644
1001.919254	0.999350
1002.213951	1.000434
1002.508613	0.998729
1002.803239	0.999149
1003.097829	0.999545
1003.392384	1.000961
1003.686903	0.999878
1003.981386	1.000267
1004.275834	1.001473
1004.570246	0.998840
1004.864623	1.000994
1005.158964	1.000215
1005.453270	0.998908
1005.747540	1.000321
1006.041775	1.000003
1006.335974	0.999591
1006.630138	1.000295
1006.924266	0.999224
1007.218359	0.998522
1007.512416	1.000796
1007.806438	0.998632
1008.100425	1.001053
1008.394376	1.000049
1008.688292	0.999212
1008.982172	0.999420
1009.276017	1.000684
1009.569827	1.002462
1009.863602	0.999136
1010.157341	1.000418
1010.451045	1.000199
1010.744714	1.000378
1011.038347	1.000001
1011.331945	0.998891
1011.625508	0.999421
1011.919036	1.000072
1012.212528	0.999719
1012.505986	0.999127
1012.799408	1.000837
1013.092795	1.000153
1013.386147	0.999342
1013.679464	1.000460
1013.972745	0.999762
1014.265992	0.999984
1014.559204	1.000220
1014.852380	1.000891
1015.145521	0.999185
1015.438628	1.000014
1015.731699	0.999110
1016.024736	1.000415
1016.317737	1.000347
1016.610703	1.001325
1016.903635	1.000453
1017.196531	0.999310
1017.489393	1.000030
1017.782219	1.000557
1018.075011	0.999003
1018.367768	0.999423
1018.660490	1.000446
1018.953177	1.000446
1019.245829	1.000446
