Dividing Wavelength (nm)	Counts (n)	Blue Motor Position (mm): 0.300000	Red Motor Position (mm): 0.000000	
326.493990	1.005620
326.888308	1.005620
327.282561	1.005620
327.676750	1.006236
328.070874	1.007947
328.464933	1.008033
328.858929	1.007502
329.252859	1.007528
329.646726	1.006817
330.040528	1.007371
330.434265	1.007925
330.827938	1.005388
331.221547	1.007614
331.615091	1.007037
332.008571	1.008041
332.401986	1.005540
332.795338	1.006656
333.188625	1.006935
333.581847	1.006303
333.975006	1.006087
334.368100	1.006118
334.761129	1.004383
335.154095	1.006590
335.546996	1.004529
335.939833	0.999290
336.332606	1.000571
336.725315	0.997840
337.117960	1.000584
337.510540	0.999107
337.903056	0.999784
338.295508	1.001643
338.687896	0.999733
339.080220	0.999317
339.472480	0.999098
339.864676	1.000012
340.256807	0.999078
340.648875	0.999399
341.040879	0.998884
341.432818	1.000722
341.824694	0.998950
342.216506	1.000142
342.608253	0.999881
342.999937	0.998942
343.391557	1.000525
343.783113	1.001170
344.174605	0.999993
344.566033	0.998679
344.957397	1.000611
345.348697	0.999479
345.739934	0.998156
346.131106	0.998707
346.522215	0.999105
346.913260	0.999472
347.304241	0.998500
347.695159	1.000307
348.086012	0.998958
348.476802	0.999247
348.867528	0.998020
349.258191	1.000173
349.648789	0.999570
350.039324	0.999131
350.429796	0.998319
350.820203	0.997213
351.210548	1.000307
351.600828	0.998728
351.991045	0.998340
352.381198	0.998867
352.771288	0.998795
353.161314	0.998601
353.551276	0.998820
353.941175	0.997342
354.331010	0.999276
354.720782	0.998106
355.110490	0.998154
355.500135	0.998967
355.889717	0.998269
356.279235	0.997727
356.668689	0.999331
357.058080	0.998600
357.447408	0.996425
357.836672	0.997440
358.225873	0.997792
358.615010	0.998166
359.004084	0.998252
359.393095	0.999142
359.782043	0.998170
360.170927	0.998188
360.559748	0.998329
360.948505	0.997848
361.337199	0.997401
361.725830	0.998126
362.114398	0.998011
362.502903	0.996673
362.891344	0.995950
363.279722	0.997794
363.668037	0.998272
364.056289	0.997077
364.444478	0.998266
364.832603	0.996902
365.220665	0.997947
365.608665	0.996697
365.996601	0.998363
366.384474	0.995692
366.772284	0.997520
367.160031	0.995745
367.547715	0.996153
367.935336	0.994294
368.322893	0.994905
368.710388	0.992767
369.097820	0.990087
369.485189	0.989642
369.872495	0.988116
370.259738	0.984946
370.646918	0.982240
371.034035	0.979009
371.421090	0.976640
371.808081	0.971784
372.195010	0.970330
372.581875	0.965255
372.968678	0.959988
373.355418	0.955265
373.742096	0.948597
374.128710	0.944194
374.515262	0.939441
374.901751	0.933356
375.288177	0.928612
375.674540	0.922411
376.060841	0.916423
376.447079	0.910158
376.833254	0.902428
377.219367	0.898424
377.605417	0.886196
377.991404	0.882370
378.377329	0.877038
378.763191	0.870530
379.148991	0.861512
379.534727	0.854165
379.920402	0.846607
380.306013	0.842472
380.691563	0.829854
381.077049	0.822682
381.462474	0.819052
381.847835	0.807699
382.233134	0.803308
382.618371	0.803201
383.003545	0.786024
383.388657	0.783615
383.773706	0.775638
384.158693	0.772169
384.543618	0.766468
384.928480	0.757912
385.313280	0.746923
385.698017	0.747979
386.082692	0.735864
386.467305	0.733578
386.851856	0.728876
387.236344	0.724162
387.620770	0.718158
388.005133	0.711358
388.389435	0.706596
388.773674	0.704170
389.157851	0.695990
389.541965	0.693968
389.926018	0.700269
390.310008	0.686141
390.693936	0.683517
391.077802	0.676404
391.461606	0.677623
391.845348	0.667551
392.229027	0.666348
392.612645	0.665355
392.996200	0.651605
393.379694	0.645040
393.763125	0.634605
394.146494	0.639365
394.529801	0.630382
394.913047	0.621889
395.296230	0.627883
395.679351	0.618812
396.062410	0.615503
396.445408	0.618319
396.828343	0.613458
397.211217	0.608775
397.594028	0.621125
397.976778	0.611311
398.359466	0.607663
398.742092	0.603519
399.124656	0.615291
399.507158	0.603157
399.889598	0.600790
400.271977	0.591580
400.654294	0.595942
401.036549	0.594935
401.418742	0.599444
401.800874	0.584603
402.182944	0.581799
402.564952	0.573781
402.946898	0.574572
403.328783	0.576266
403.710606	0.587092
404.092367	0.562743
404.474067	0.567204
404.855705	0.566182
405.237282	0.574427
405.618797	0.561592
406.000250	0.556222
406.381642	0.547151
406.762972	0.551652
407.144240	0.550741
407.525447	0.550103
407.906593	0.543620
408.287677	0.538377
408.668700	0.546729
409.049661	0.541492
409.430560	0.535807
409.811399	0.544867
410.192176	0.526623
410.572891	0.533341
410.953545	0.522037
411.334138	0.535572
411.714669	0.527863
412.095139	0.540096
412.475547	0.523676
412.855894	0.525884
413.236180	0.524979
413.616405	0.530052
413.996568	0.520498
414.376670	0.527361
414.756711	0.532057
415.136691	0.528786
415.516609	0.519981
415.896466	0.516813
416.276262	0.512513
416.655997	0.514952
417.035670	0.495513
417.415283	0.487601
417.794834	0.492170
418.174324	0.497671
418.553753	0.506666
418.933121	0.488472
419.312428	0.483151
419.691674	0.488605
420.070859	0.477107
420.449983	0.485062
420.829045	0.473688
421.208047	0.483434
421.586988	0.476012
421.965867	0.474230
422.344686	0.463824
422.723444	0.476134
423.102141	0.492951
423.480777	0.466292
423.859352	0.486912
424.237866	0.464084
424.616319	0.464552
424.994712	0.455148
425.373044	0.466133
425.751314	0.454096
426.129524	0.470532
426.507673	0.453807
426.885762	0.447393
427.263789	0.452842
427.641756	0.462881
428.019662	0.452685
428.397508	0.452383
428.775292	0.456490
429.153016	0.448715
429.530679	0.454961
429.908282	0.447839
430.285824	0.458110
430.663305	0.436474
431.040726	0.457544
431.418086	0.457477
431.795385	0.449534
432.172624	0.448440
432.549802	0.448720
432.926920	0.447701
433.303977	0.447200
433.680974	0.444111
434.057910	0.442508
434.434786	0.441890
434.811601	0.445377
435.188355	0.427389
435.565050	0.436281
435.941683	0.437965
436.318257	0.421361
436.694770	0.422876
437.071222	0.420948
437.447614	0.425189
437.823946	0.431582
438.200218	0.420681
438.576429	0.430340
438.952580	0.424012
439.328670	0.420063
439.704700	0.426750
440.080670	0.428018
440.456580	0.409358
440.832429	0.417243
441.208218	0.428300
441.583947	0.417484
441.959616	0.416739
442.335224	0.422642
442.710773	0.412813
443.086261	0.410896
443.461689	0.425051
443.837057	0.414873
444.212365	0.404414
444.587612	0.411997
444.962800	0.401495
445.337927	0.403577
445.712995	0.429421
446.088002	0.390970
446.462949	0.401702
446.837837	0.406215
447.212664	0.395444
447.587431	0.386433
447.962139	0.356961
448.336786	0.316244
448.711374	0.326445
449.085901	0.371047
449.460369	0.375172
449.834776	0.378899
450.209124	0.358142
450.583412	0.350607
450.957640	0.343928
451.331808	0.355661
451.705917	0.378596
452.079965	0.383227
452.453954	0.371096
452.827883	0.377832
453.201752	0.373113
453.575562	0.384024
453.949311	0.372916
454.323001	0.378794
454.696632	0.374495
455.070202	0.367664
455.443713	0.359091
455.817164	0.353921
456.190556	0.349830
456.563888	0.346553
456.937160	0.343763
457.310373	0.361611
457.683526	0.360005
458.056619	0.366043
458.429653	0.366113
458.802628	0.369914
459.175542	0.364344
459.548398	0.346854
459.921194	0.339527
460.293930	0.339120
460.666607	0.316746
461.039224	0.305206
461.411782	0.300710
461.784280	0.300170
462.156719	0.304211
462.529099	0.308488
462.901419	0.324402
463.273680	0.329030
463.645882	0.328329
464.018024	0.334368
464.390106	0.327201
464.762130	0.311532
465.134094	0.294419
465.505999	0.263245
465.877845	0.233678
466.249631	0.220666
466.621358	0.228093
466.993026	0.242071
467.364634	0.248193
467.736184	0.257118
468.107674	0.265983
468.479105	0.265243
468.850477	0.272079
469.221790	0.278656
469.593043	0.288961
469.964238	0.293582
470.335373	0.293118
470.706449	0.291510
471.077467	0.292090
471.448425	0.254069
471.819324	0.229578
472.190164	0.228993
472.560945	0.257831
472.931667	0.280334
473.302330	0.284304
473.672934	0.296281
474.043479	0.284236
474.413965	0.286305
474.784393	0.289754
475.154761	0.284694
475.525070	0.281900
475.895321	0.287472
476.265513	0.281796
476.635645	0.277113
477.005719	0.276890
477.375734	0.273645
477.745691	0.266594
478.115588	0.263098
478.485427	0.256480
478.855207	0.243359
479.224928	0.225954
479.594591	0.214014
479.964194	0.217398
480.333739	0.218348
480.703226	0.220003
481.072653	0.218420
481.442022	0.214189
481.811333	0.210778
482.180584	0.214151
482.549777	0.219591
482.918912	0.222866
483.287988	0.222531
483.657005	0.222034
484.025964	0.228499
484.394864	0.225935
484.763706	0.226567
485.132489	0.231938
485.501213	0.232569
485.869879	0.230576
486.238487	0.233694
486.607036	0.231826
486.975527	0.236553
487.343959	0.232305
487.712333	0.231692
488.080648	0.232737
488.448905	0.232312
488.817104	0.233219
489.185244	0.227697
489.553326	0.224561
489.921350	0.214190
490.289315	0.196873
490.657222	0.191656
491.025070	0.193213
491.392861	0.195023
491.760593	0.200835
492.128267	0.206575
492.495883	0.212159
492.863440	0.218399
493.230939	0.224705
493.598380	0.226152
493.965763	0.228297
494.333088	0.230550
494.700354	0.231991
495.067563	0.231142
495.434713	0.234596
495.801805	0.232266
496.168839	0.233640
496.535815	0.235375
496.902733	0.235289
497.269593	0.236941
497.636395	0.234169
498.003139	0.234669
498.369825	0.237661
498.736453	0.234305
499.103023	0.235995
499.469535	0.235298
499.835989	0.235562
500.202385	0.236188
500.568723	0.239579
500.935003	0.234910
501.301226	0.238795
501.667390	0.233240
502.033497	0.231244
502.399546	0.234103
502.765537	0.236139
503.131470	0.234744
503.497345	0.230731
503.863163	0.239468
504.228923	0.232554
504.594625	0.231287
504.960269	0.236880
505.325856	0.232134
505.691385	0.236515
506.056856	0.232975
506.422270	0.232434
506.787625	0.234884
507.152924	0.232636
507.518164	0.232801
507.883347	0.234443
508.248472	0.236381
508.613540	0.231278
508.978550	0.233712
509.343503	0.234318
509.708398	0.231630
510.073236	0.229639
510.438016	0.228857
510.802738	0.230298
511.167403	0.228999
511.532010	0.231191
511.896561	0.226699
512.261053	0.225451
512.625488	0.227593
512.989866	0.227748
513.354186	0.228267
513.718449	0.230054
514.082655	0.226343
514.446803	0.228608
514.810894	0.226201
515.174927	0.229049
515.538904	0.228607
515.902822	0.225361
516.266684	0.227698
516.630488	0.228861
516.994235	0.227777
517.357925	0.226602
517.721558	0.224706
518.085133	0.224300
518.448651	0.224056
518.812112	0.226476
519.175516	0.226156
519.538863	0.223707
519.902152	0.225453
520.265385	0.222076
520.628560	0.223941
520.991678	0.224460
521.354739	0.223307
521.717743	0.224438
522.080690	0.224969
522.443580	0.222435
522.806413	0.222913
523.169189	0.222703
523.531908	0.221485
523.894569	0.225160
524.257174	0.224928
524.619722	0.222487
524.982213	0.223607
525.344647	0.222459
525.707025	0.223424
526.069345	0.221634
526.431608	0.223367
526.793815	0.221150
527.155964	0.225450
527.518057	0.224361
527.880093	0.225409
528.242072	0.223777
528.603995	0.225984
528.965860	0.227559
529.327669	0.226589
529.689421	0.227505
530.051117	0.228210
530.412755	0.225895
530.774337	0.228161
531.135862	0.228671
531.497331	0.227844
531.858743	0.230838
532.220098	0.227235
532.581396	0.230416
532.942638	0.230469
533.303824	0.231545
533.664953	0.230972
534.026025	0.233335
534.387040	0.231080
534.747999	0.230995
535.108902	0.229631
535.469748	0.234817
535.830537	0.232591
536.191270	0.233314
536.551947	0.232339
536.912567	0.232585
537.273131	0.234254
537.633638	0.234603
537.994089	0.234862
538.354483	0.236072
538.714821	0.232909
539.075103	0.232822
539.435328	0.233484
539.795497	0.237103
540.155609	0.233838
540.515665	0.231942
540.875665	0.237414
541.235609	0.236409
541.595496	0.236099
541.955328	0.232730
542.315102	0.235611
542.674821	0.236363
543.034483	0.236559
543.394090	0.236138
543.753640	0.238074
544.113134	0.233002
544.472571	0.236321
544.831953	0.233235
545.191278	0.237487
545.550548	0.236770
545.909761	0.233859
546.268918	0.234435
546.628019	0.233024
546.987064	0.235408
547.346053	0.237119
547.704986	0.235033
548.063863	0.235166
548.422684	0.235388
548.781449	0.237564
549.140158	0.235311
549.498811	0.237879
549.857408	0.240943
550.215949	0.235231
550.574434	0.238620
550.932864	0.236819
551.291237	0.235122
551.649555	0.236848
552.007817	0.236434
552.366022	0.237306
552.724173	0.237611
553.082267	0.237806
553.440305	0.234729
553.798288	0.239055
554.156215	0.235711
554.514086	0.236567
554.871902	0.239802
555.229661	0.238846
555.587365	0.239329
555.945014	0.241989
556.302606	0.238986
556.660143	0.241371
557.017625	0.237866
557.375050	0.240301
557.732421	0.237306
558.089735	0.239150
558.446994	0.238959
558.804197	0.238325
559.161345	0.238344
559.518437	0.241451
559.875474	0.239591
560.232455	0.239167
560.589381	0.240235
560.946251	0.240553
561.303065	0.237801
561.659825	0.239281
562.016528	0.240769
562.373177	0.243409
562.729770	0.241274
563.086307	0.242982
563.442789	0.240847
563.799216	0.243572
564.155587	0.242549
564.511904	0.243707
564.868164	0.243769
565.224370	0.243749
565.580520	0.245555
565.936615	0.245048
566.292654	0.248062
566.648638	0.245074
567.004567	0.246082
567.360441	0.246565
567.716260	0.248448
568.072023	0.246048
568.427732	0.247173
568.783385	0.249589
569.138982	0.247717
569.494525	0.247481
569.850013	0.250100
570.205445	0.248821
570.560823	0.250875
570.916145	0.253098
571.271412	0.251311
571.626625	0.253098
571.981782	0.253289
572.336884	0.254178
572.691931	0.253902
573.046923	0.255483
573.401860	0.256441
573.756743	0.257914
574.111570	0.256904
574.466342	0.257409
574.821059	0.256567
575.175722	0.259467
575.530330	0.259245
575.884882	0.259444
576.239380	0.261247
576.593823	0.262200
576.948211	0.261686
577.302544	0.264990
577.656823	0.264620
578.011047	0.264472
578.365216	0.265452
578.719330	0.267316
579.073389	0.266363
579.427394	0.268381
579.781344	0.269185
580.135239	0.270157
580.489080	0.270318
580.842866	0.272942
581.196597	0.273137
581.550273	0.271607
581.903895	0.272657
582.257463	0.270995
582.610975	0.274298
582.964434	0.273624
583.317837	0.276157
583.671186	0.276795
584.024481	0.276158
584.377721	0.278843
584.730906	0.279692
585.084037	0.278842
585.437113	0.280749
585.790135	0.280098
586.143103	0.283250
586.496016	0.284175
586.848874	0.281981
587.201679	0.282324
587.554428	0.285756
587.907124	0.284701
588.259765	0.285484
588.612352	0.285732
588.964884	0.289864
589.317362	0.289062
589.669786	0.288898
590.022155	0.287529
590.374470	0.286941
590.726731	0.288824
591.078937	0.294197
591.431090	0.290164
591.783188	0.294424
592.135232	0.294966
592.487222	0.294442
592.839157	0.292791
593.191038	0.295255
593.542866	0.297136
593.894639	0.300244
594.246358	0.299149
594.598022	0.298247
594.949633	0.302043
595.301190	0.302405
595.652692	0.301679
596.004141	0.297779
596.355535	0.305770
596.706876	0.306507
597.058162	0.308812
597.409395	0.306203
597.760573	0.303601
598.111698	0.306757
598.462768	0.307275
598.813785	0.308731
599.164748	0.310272
599.515657	0.310595
599.866511	0.314147
600.217312	0.309216
600.568060	0.314364
600.918753	0.310702
601.269392	0.311846
601.619978	0.315032
601.970510	0.312762
602.320988	0.313047
602.671412	0.310809
603.021783	0.313358
603.372100	0.314421
603.722363	0.313963
604.072572	0.314805
604.422728	0.314396
604.772830	0.316652
605.122878	0.316627
605.472872	0.316890
605.822813	0.315264
606.172701	0.318342
606.522534	0.315418
606.872314	0.315770
607.222041	0.316190
607.571714	0.314165
607.921333	0.316348
608.270899	0.315542
608.620411	0.312064
608.969870	0.316230
609.319276	0.316427
609.668627	0.316482
610.017926	0.315052
610.367171	0.313352
610.716362	0.314138
611.065500	0.314274
611.414585	0.313094
611.763616	0.313581
612.112594	0.313930
612.461518	0.313207
612.810389	0.310961
613.159207	0.313431
613.507971	0.314946
613.856682	0.311029
614.205340	0.312183
614.553945	0.309258
614.902496	0.313154
615.250994	0.310942
615.599439	0.311850
615.947830	0.311630
616.296169	0.312345
616.644454	0.311948
616.992686	0.312022
617.340864	0.309640
617.688990	0.313167
618.037063	0.310041
618.385082	0.311609
618.733048	0.308637
619.080961	0.310772
619.428821	0.310482
619.776628	0.309914
620.124382	0.312159
620.472083	0.312693
620.819731	0.311873
621.167326	0.315769
621.514868	0.315345
621.862357	0.319756
622.209793	0.319194
622.557176	0.321858
622.904506	0.322722
623.251783	0.325320
623.599007	0.327396
623.946179	0.326788
624.293297	0.328936
624.640363	0.332792
624.987376	0.333399
625.334336	0.335450
625.681243	0.337870
626.028097	0.338747
626.374899	0.339737
626.721647	0.340204
627.068343	0.342614
627.414987	0.344448
627.761577	0.346543
628.108115	0.344997
628.454600	0.349567
628.801032	0.347333
629.147412	0.349245
629.493739	0.349828
629.840014	0.352814
630.186236	0.350186
630.532405	0.355594
630.878521	0.352966
631.224585	0.355695
631.570597	0.358824
631.916556	0.357908
632.262462	0.357131
632.608316	0.359794
632.954117	0.360484
633.299866	0.361260
633.645562	0.362090
633.991206	0.365818
634.336797	0.368656
634.682336	0.371835
635.027823	0.372927
635.373257	0.373202
635.718639	0.377197
636.063968	0.376830
636.409245	0.381811
636.754470	0.382677
637.099642	0.384550
637.444762	0.388819
637.789829	0.387731
638.134845	0.390744
638.479808	0.392305
638.824719	0.391892
639.169577	0.395982
639.514383	0.394854
639.859137	0.399230
640.203839	0.399146
640.548489	0.399432
640.893086	0.400989
641.237632	0.402467
641.582125	0.400867
641.926566	0.403247
642.270955	0.402523
642.615292	0.402971
642.959576	0.401909
643.303809	0.403161
643.647990	0.402552
643.992118	0.403125
644.336195	0.405907
644.680219	0.404549
645.024192	0.405231
645.368112	0.398845
645.711981	0.398230
646.055797	0.393274
646.399562	0.395912
646.743274	0.388612
647.086935	0.385093
647.430544	0.384941
647.774101	0.383895
648.117606	0.383775
648.461059	0.384281
648.804460	0.386700
649.147810	0.391612
649.491108	0.393407
649.834354	0.395458
650.177548	0.400667
650.520690	0.406045
650.863781	0.407136
651.206820	0.406075
651.549807	0.411051
651.892742	0.415194
652.235626	0.414972
652.578458	0.415743
652.921238	0.421962
653.263967	0.419575
653.606644	0.423209
653.949269	0.423417
654.291843	0.427000
654.634365	0.424199
654.976836	0.427662
655.319255	0.427555
655.661622	0.428758
656.003938	0.428685
656.346203	0.431628
656.688416	0.429603
657.030577	0.432957
657.372687	0.435462
657.714746	0.436089
658.056753	0.432783
658.398708	0.436568
658.740612	0.437860
659.082465	0.433328
659.424266	0.435098
659.766016	0.434469
660.107715	0.437445
660.449362	0.435924
660.790958	0.436190
661.132503	0.438003
661.473996	0.434280
661.815438	0.436252
662.156829	0.436107
662.498168	0.436641
662.839456	0.437908
663.180693	0.435410
663.521879	0.435481
663.863013	0.436106
664.204097	0.434292
664.545129	0.432045
664.886110	0.431773
665.227040	0.429784
665.567918	0.432314
665.908746	0.429457
666.249522	0.430336
666.590248	0.430850
666.930922	0.428675
667.271545	0.427781
667.612118	0.427521
667.952639	0.429313
668.293109	0.427772
668.633528	0.431038
668.973896	0.430134
669.314213	0.430800
669.654480	0.432786
669.994695	0.433152
670.334859	0.433758
670.674973	0.434519
671.015035	0.434186
671.355047	0.434284
671.695008	0.435356
672.034918	0.436920
672.374777	0.436788
672.714585	0.437592
673.054342	0.437701
673.394049	0.437613
673.733705	0.435140
674.073310	0.436708
674.412864	0.439599
674.752368	0.440150
675.091820	0.440276
675.431223	0.444789
675.770574	0.444071
676.109875	0.447694
676.449125	0.447174
676.788324	0.449714
677.127473	0.455411
677.466571	0.455328
677.805619	0.457198
678.144616	0.458623
678.483562	0.459720
678.822458	0.462208
679.161303	0.462676
679.500098	0.463795
679.838842	0.464877
680.177535	0.464648
680.516179	0.462673
680.854771	0.461882
681.193314	0.455618
681.531805	0.446439
681.870247	0.435524
682.208638	0.428010
682.546978	0.427076
682.885268	0.428604
683.223508	0.434937
683.561697	0.438919
683.899836	0.441457
684.237925	0.444437
684.575963	0.447334
684.913951	0.450457
685.251889	0.445606
685.589776	0.448287
685.927614	0.450614
686.265401	0.444731
686.603137	0.445634
686.940824	0.439787
687.278460	0.438502
687.616046	0.437928
687.953582	0.432595
688.291068	0.433704
688.628504	0.429154
688.965889	0.431684
689.303224	0.435617
689.640510	0.439834
689.977745	0.445680
690.314930	0.453099
690.652065	0.457965
690.989150	0.464715
691.326185	0.471983
691.663170	0.477148
692.000105	0.484275
692.336990	0.491483
692.673825	0.493713
693.010610	0.500652
693.347345	0.506553
693.684030	0.507675
694.020665	0.512084
694.357251	0.521140
694.693786	0.520831
695.030272	0.524106
695.366707	0.528359
695.703093	0.532726
696.039429	0.529077
696.375716	0.532049
696.711952	0.534215
697.048139	0.536059
697.384276	0.537455
697.720363	0.537167
698.056400	0.534996
698.392388	0.541387
698.728326	0.543432
699.064214	0.546864
699.400053	0.547534
699.735842	0.551154
700.071581	0.554198
700.407270	0.556798
700.742910	0.559887
701.078501	0.566500
701.414042	0.566583
701.749533	0.569373
702.084974	0.578398
702.420366	0.571150
702.755709	0.578230
703.091002	0.586165
703.426246	0.579752
703.761440	0.585240
704.096584	0.590426
704.431679	0.586972
704.766725	0.589577
705.101721	0.590983
705.436668	0.587526
705.771565	0.594665
706.106413	0.590223
706.441212	0.585909
706.775961	0.585293
707.110661	0.587467
707.445311	0.583791
707.779913	0.582610
708.114465	0.580727
708.448967	0.576778
708.783421	0.568585
709.117825	0.564079
709.452180	0.563427
709.786485	0.557337
710.120742	0.546180
710.454949	0.548715
710.789107	0.540912
711.123216	0.531385
711.457275	0.532337
711.791286	0.523938
712.125247	0.523679
712.459159	0.533362
712.793023	0.525756
713.126837	0.530796
713.460602	0.530669
713.794318	0.539379
714.127985	0.537997
714.461602	0.549470
714.795171	0.553186
715.128691	0.560151
715.462162	0.568137
715.795584	0.573615
716.128957	0.576753
716.462281	0.583070
716.795556	0.586622
717.128782	0.592799
717.461960	0.601701
717.795088	0.600451
718.128167	0.605925
718.461198	0.615003
718.794180	0.615581
719.127113	0.618796
719.459997	0.621672
719.792833	0.627464
720.125619	0.629007
720.458357	0.635236
720.791046	0.635092
721.123686	0.639095
721.456278	0.645426
721.788821	0.641561
722.121315	0.647253
722.453761	0.651516
722.786158	0.649081
723.118506	0.645389
723.450805	0.652504
723.783056	0.649437
724.115259	0.646418
724.447412	0.646032
724.779518	0.647272
725.111574	0.646166
725.443582	0.641219
725.775542	0.643960
726.107453	0.635738
726.439315	0.635918
726.771129	0.634576
727.102895	0.627773
727.434612	0.620727
727.766281	0.619276
728.097901	0.618065
728.429473	0.617081
728.760996	0.615835
729.092471	0.615791
729.423897	0.619812
729.755276	0.618994
730.086606	0.618901
730.417887	0.614362
730.749120	0.603929
731.080305	0.594829
731.411442	0.590430
731.742530	0.595227
732.073570	0.594977
732.404562	0.586964
732.735506	0.588738
733.066401	0.593530
733.397249	0.602570
733.728048	0.613880
734.058798	0.627362
734.389501	0.638072
734.720156	0.647801
735.050762	0.655469
735.381320	0.655657
735.711831	0.664527
736.042293	0.669378
736.372707	0.666921
736.703073	0.669870
737.033391	0.673010
737.363661	0.670276
737.693883	0.665298
738.024056	0.663848
738.354182	0.664448
738.684260	0.652907
739.014290	0.649993
739.344272	0.649941
739.674207	0.644050
740.004093	0.643461
740.333931	0.644027
740.663722	0.644126
740.993464	0.644152
741.323159	0.647890
741.652806	0.653035
741.982405	0.657653
742.311956	0.663107
742.641460	0.664836
742.970915	0.668434
743.300323	0.675286
743.629683	0.681815
743.958996	0.684978
744.288260	0.687805
744.617477	0.694264
744.946647	0.697741
745.275768	0.703129
745.604842	0.701463
745.933869	0.712329
746.262847	0.712476
746.591778	0.706416
746.920662	0.712386
747.249498	0.719910
747.578286	0.709768
747.907027	0.706202
748.235720	0.706712
748.564365	0.702305
748.892963	0.701808
749.221514	0.705119
749.550017	0.709521
749.878473	0.710137
750.206881	0.716331
750.535242	0.716274
750.863555	0.715918
751.191821	0.716905
751.520039	0.720882
751.848210	0.724564
752.176334	0.717973
752.504411	0.717039
752.832440	0.725701
753.160421	0.729792
753.488356	0.726679
753.816243	0.725068
754.144082	0.733001
754.471875	0.736910
754.799620	0.733532
755.127318	0.735219
755.454969	0.735292
755.782572	0.734433
756.110129	0.737535
756.437638	0.740588
756.765100	0.737798
757.092515	0.735055
757.419882	0.734632
757.747203	0.739693
758.074477	0.739955
758.401703	0.735943
758.728882	0.731326
759.056014	0.729392
759.383099	0.729583
759.710138	0.730061
760.037129	0.726566
760.364073	0.720011
760.690970	0.722994
761.017820	0.727934
761.344623	0.724114
761.671379	0.715371
761.998088	0.704475
762.324751	0.679735
762.651366	0.637076
762.977935	0.569581
763.304456	0.517892
763.630931	0.507977
763.957359	0.547014
764.283740	0.591899
764.610074	0.619537
764.936362	0.651823
765.262602	0.679482
765.588796	0.699934
765.914943	0.717328
766.241044	0.735631
766.567097	0.742600
766.893104	0.753570
767.219064	0.759699
767.544978	0.765979
767.870845	0.778740
768.196665	0.782415
768.522438	0.781006
768.848165	0.783163
769.173846	0.791163
769.499479	0.796086
769.825066	0.799998
770.150607	0.804412
770.476101	0.799666
770.801548	0.802096
771.126949	0.813923
771.452303	0.817509
771.777611	0.816266
772.102872	0.814396
772.428087	0.820913
772.753256	0.823987
773.078378	0.825753
773.403453	0.833821
773.728482	0.838958
774.053465	0.831854
774.378401	0.836026
774.703291	0.844423
775.028135	0.844002
775.352932	0.844743
775.677683	0.849874
776.002388	0.850039
776.327046	0.848374
776.651658	0.853193
776.976224	0.856878
777.300743	0.856258
777.625216	0.857736
777.949643	0.860621
778.274024	0.858678
778.598359	0.862196
778.922647	0.859284
779.246889	0.860634
779.571086	0.864012
779.895236	0.866716
780.219339	0.863685
780.543397	0.859039
780.867409	0.859007
781.191374	0.861768
781.515294	0.863242
781.839167	0.861918
782.162995	0.864721
782.486776	0.862351
782.810511	0.863503
783.134201	0.868565
783.457844	0.866022
783.781441	0.866806
784.104993	0.873069
784.428498	0.873979
784.751958	0.870265
785.075372	0.871591
785.398739	0.875731
785.722061	0.871037
786.045337	0.867972
786.368568	0.872495
786.691752	0.874952
787.014891	0.859782
787.337983	0.850611
787.661030	0.844195
787.984031	0.824768
788.306987	0.812627
788.629897	0.813143
788.952760	0.819357
789.275579	0.823670
789.598351	0.839899
789.921078	0.853071
790.243759	0.854028
790.566395	0.858677
790.888984	0.867563
791.211529	0.871624
791.534027	0.875371
791.856480	0.877562
792.178888	0.882170
792.501249	0.884616
792.823566	0.887231
793.145836	0.886758
793.468062	0.888331
793.790241	0.889591
794.112375	0.886735
794.434464	0.882211
794.756507	0.881374
795.078505	0.879855
795.400457	0.874360
795.722364	0.862715
796.044226	0.856430
796.366042	0.855498
796.687812	0.857880
797.009538	0.853513
797.331218	0.858291
797.652852	0.861954
797.974442	0.866736
798.295986	0.868851
798.617484	0.868842
798.938938	0.874302
799.260346	0.878389
799.581709	0.879522
799.903026	0.882885
800.224299	0.883121
800.545526	0.886404
800.866708	0.891672
801.187845	0.895867
801.508936	0.894472
801.829983	0.892503
802.150984	0.897007
802.471940	0.901190
802.792851	0.900183
803.113717	0.901415
803.434538	0.899144
803.755314	0.902031
804.076045	0.902792
804.396731	0.903468
804.717372	0.901508
805.037967	0.905586
805.358518	0.902614
805.679024	0.899073
805.999485	0.900166
806.319901	0.898971
806.640272	0.901912
806.960598	0.899906
807.280879	0.896310
807.601115	0.895025
807.921306	0.898558
808.241453	0.899485
808.561554	0.897338
808.881611	0.897646
809.201623	0.898582
809.521590	0.899174
809.841513	0.901880
810.161390	0.899194
810.481223	0.900698
810.801011	0.904679
811.120755	0.905664
811.440453	0.905972
811.760107	0.905047
812.079716	0.904286
812.399281	0.907418
812.718801	0.908983
813.038276	0.910304
813.357707	0.910609
813.677093	0.908230
813.996434	0.910314
814.315731	0.912685
814.634983	0.912513
814.954191	0.912947
815.273354	0.906354
815.592473	0.905372
815.911547	0.905674
816.230577	0.901786
816.549562	0.899338
816.868502	0.898355
817.187399	0.897396
817.506250	0.890806
817.825058	0.891747
818.143821	0.888821
818.462539	0.884263
818.781213	0.875856
819.099843	0.865052
819.418429	0.847866
819.736970	0.831226
820.055466	0.810711
820.373919	0.784375
820.692327	0.751238
821.010691	0.715350
821.329011	0.634932
821.647286	0.517747
821.965517	0.402631
822.283704	0.359651
822.601847	0.359852
822.919945	0.395926
823.237999	0.430890
823.556010	0.478699
823.873976	0.535674
824.191897	0.587260
824.509775	0.630805
824.827609	0.676636
825.145398	0.699604
825.463144	0.701689
825.780845	0.683869
826.098502	0.666060
826.416116	0.619445
826.733685	0.574305
827.051210	0.564966
827.368692	0.580631
827.686129	0.619236
828.003522	0.673748
828.320872	0.722896
828.638177	0.766575
828.955439	0.800534
829.272656	0.821700
829.589830	0.840031
829.906960	0.856293
830.224046	0.869187
830.541088	0.879546
830.858086	0.884507
831.175041	0.890693
831.491952	0.888469
831.808819	0.885755
832.125642	0.878789
832.442421	0.865351
832.759157	0.840705
833.075849	0.793616
833.392497	0.729253
833.709101	0.686907
834.025662	0.697339
834.342179	0.730130
834.658653	0.769926
834.975083	0.806511
835.291469	0.834109
835.607811	0.856830
835.924110	0.874286
836.240366	0.890746
836.556578	0.903863
836.872746	0.911525
837.188871	0.917850
837.504952	0.923825
837.820990	0.926493
838.136984	0.930365
838.452935	0.935288
838.768842	0.936063
839.084706	0.928291
839.400526	0.902755
839.716303	0.860168
840.032037	0.838430
840.347727	0.841560
840.663373	0.859020
840.978977	0.882278
841.294537	0.906149
841.610054	0.921287
841.925527	0.930206
842.240957	0.936446
842.556344	0.944231
842.871687	0.949670
843.186987	0.952994
843.502244	0.954843
843.817458	0.957187
844.132629	0.959778
844.447756	0.963484
844.762840	0.965643
845.077881	0.965679
845.392879	0.963840
845.707833	0.967115
846.022745	0.969212
846.337613	0.969821
846.652438	0.969280
846.967221	0.970958
847.281960	0.970848
847.596656	0.972275
847.911309	0.971461
848.225919	0.971063
848.540485	0.973862
848.855009	0.975323
849.169490	0.973801
849.483928	0.972812
849.798323	0.973150
850.112675	0.974682
850.426984	0.973332
850.741251	0.975247
851.055474	0.975182
851.369654	0.973437
851.683792	0.972866
851.997887	0.973776
852.311938	0.974529
852.625947	0.974050
852.939914	0.972626
853.253837	0.974452
853.567718	0.974090
853.881555	0.975558
854.195350	0.973251
854.509103	0.974540
854.822812	0.975558
855.136479	0.976876
855.450103	0.974825
855.763685	0.973902
856.077224	0.974469
856.390720	0.975226
856.704173	0.974962
857.017584	0.974101
857.330953	0.972728
857.644278	0.971475
857.957561	0.973243
858.270802	0.973852
858.584000	0.973143
858.897155	0.971586
859.210268	0.972218
859.523339	0.974314
859.836367	0.975167
860.149352	0.974000
860.462295	0.975746
860.775195	0.975035
861.088054	0.973885
861.400869	0.974698
861.713642	0.974119
862.026373	0.975597
862.339062	0.975628
862.651708	0.974405
862.964312	0.971860
863.276873	0.973909
863.589392	0.972886
863.901869	0.970321
864.214303	0.969273
864.526696	0.968339
864.839045	0.968120
865.151353	0.967187
865.463619	0.965759
865.775842	0.967680
866.088023	0.967826
866.400162	0.965991
866.712258	0.967851
867.024313	0.968103
867.336325	0.969035
867.648296	0.969016
867.960224	0.965492
868.272110	0.967139
868.583954	0.968630
868.895755	0.969435
869.207515	0.966828
869.519233	0.965424
869.830909	0.965459
870.142542	0.966769
870.454134	0.965996
870.765684	0.964607
871.077191	0.963555
871.388657	0.963111
871.700081	0.963684
872.011463	0.964175
872.322803	0.962164
872.634101	0.960322
872.945357	0.956899
873.256571	0.956569
873.567744	0.957874
873.878874	0.957838
874.189963	0.957243
874.501010	0.957583
874.812015	0.953334
875.122979	0.954784
875.433900	0.956904
875.744780	0.958798
876.055618	0.954459
876.366415	0.953661
876.677169	0.953427
876.987882	0.954598
877.298554	0.955407
877.609183	0.950794
877.919771	0.949750
878.230317	0.947328
878.540822	0.942887
878.851285	0.938207
879.161707	0.929786
879.472087	0.917590
879.782425	0.899220
880.092722	0.863818
880.402977	0.810827
880.713191	0.748109
881.023363	0.686242
881.333494	0.651161
881.643583	0.624063
881.953631	0.624715
882.263637	0.651819
882.573602	0.692968
882.883526	0.718755
883.193408	0.744366
883.503248	0.767297
883.813048	0.795824
884.122806	0.826104
884.432522	0.850435
884.742197	0.871494
885.051831	0.881617
885.361424	0.893322
885.670975	0.906117
885.980485	0.914780
886.289954	0.921553
886.599382	0.925863
886.908768	0.931188
887.218113	0.937009
887.527417	0.942009
887.836680	0.945157
888.145901	0.947647
888.455082	0.952421
888.764221	0.955630
889.073319	0.955920
889.382376	0.957226
889.691392	0.955857
890.000366	0.957480
890.309300	0.957149
890.618193	0.958175
890.927044	0.955176
891.235855	0.955246
891.544625	0.955407
891.853353	0.955807
892.162041	0.953142
892.470687	0.947183
892.779293	0.941794
893.087858	0.935851
893.396381	0.929638
893.704864	0.914170
894.013306	0.890016
894.321707	0.863914
894.630068	0.847878
894.938387	0.841630
895.246665	0.843604
895.554903	0.856143
895.863100	0.870775
896.171256	0.887628
896.479371	0.908325
896.787446	0.921495
897.095480	0.928685
897.403473	0.930222
897.711425	0.935427
898.019336	0.942496
898.327207	0.948290
898.635038	0.947402
898.942827	0.948287
899.250576	0.952876
899.558284	0.957727
899.865952	0.957931
900.173579	0.958949
900.481165	0.960402
900.788711	0.961855
901.096216	0.964840
901.403681	0.967167
901.711105	0.966992
902.018489	0.966746
902.325832	0.966258
902.633135	0.964509
902.940397	0.960227
903.247619	0.946475
903.554800	0.920457
903.861941	0.879471
904.169041	0.841206
904.476101	0.823171
904.783121	0.825079
905.090100	0.840888
905.397039	0.863299
905.703938	0.886513
906.010796	0.906615
906.317614	0.924650
906.624391	0.938303
906.931129	0.947128
907.237826	0.956197
907.544483	0.962962
907.851099	0.967117
908.157675	0.970910
908.464211	0.974498
908.770707	0.976204
909.077163	0.979207
909.383578	0.980582
909.689954	0.980420
909.996289	0.981543
910.302584	0.981269
910.608839	0.985071
910.915054	0.982983
911.221229	0.983773
911.527363	0.982125
911.833458	0.982680
912.139513	0.981926
912.445527	0.980340
912.751502	0.979087
913.057436	0.976260
913.363331	0.975227
913.669186	0.970309
913.975000	0.966900
914.280775	0.958898
914.586510	0.952037
914.892205	0.937633
915.197859	0.915425
915.503475	0.887632
915.809050	0.865402
916.114585	0.861152
916.420081	0.858017
916.725536	0.854233
917.030952	0.862876
917.336328	0.875658
917.641665	0.891528
917.946961	0.907358
918.252218	0.919634
918.557435	0.929465
918.862612	0.937997
919.167750	0.943938
919.472848	0.950003
919.777906	0.956637
920.082925	0.961080
920.387904	0.965278
920.692843	0.966794
920.997743	0.967737
921.302603	0.971753
921.607423	0.972607
921.912204	0.976175
922.216946	0.977501
922.521647	0.978555
922.826310	0.979051
923.130932	0.982186
923.435516	0.983370
923.740059	0.984036
924.044564	0.984381
924.349028	0.985508
924.653454	0.987559
924.957840	0.988040
925.262186	0.989765
925.566493	0.988705
925.870761	0.990662
926.174989	0.990084
926.479178	0.992223
926.783328	0.993845
927.087438	0.992182
927.391509	0.993216
927.695541	0.993866
927.999533	0.994741
928.303486	0.994550
928.607400	0.995796
928.911275	0.996314
929.215110	0.996512
929.518906	0.995284
929.822663	0.997257
930.126381	0.996956
930.430060	0.994969
930.733699	0.997124
931.037299	0.996187
931.340861	0.996033
931.644383	0.993846
931.947866	0.995028
932.251309	0.995838
932.554714	0.994973
932.858080	0.995671
933.161407	0.995069
933.464694	0.995888
933.767943	0.995587
934.071153	0.996102
934.374323	0.996436
934.677455	0.996785
934.980548	0.996660
935.283602	0.996306
935.586617	0.996247
935.889593	0.997739
936.192530	0.996594
936.495428	0.997150
936.798287	0.994627
937.101108	0.994458
937.403890	0.994396
937.706632	0.994558
938.009336	0.991544
938.312002	0.990030
938.614628	0.990280
938.917216	0.988459
939.219765	0.985884
939.522275	0.987445
939.824747	0.988791
940.127179	0.988992
940.429573	0.989865
940.731929	0.988714
941.034246	0.989327
941.336524	0.988927
941.638763	0.990448
941.940964	0.990911
942.243126	0.992347
942.545250	0.991877
942.847335	0.992879
943.149381	0.994478
943.451389	0.993475
943.753359	0.994322
944.055290	0.994941
944.357182	0.995388
944.659036	0.995199
944.960851	0.995742
945.262628	0.995145
945.564367	0.995618
945.866067	0.995703
946.167729	0.995382
946.469352	0.994979
946.770937	0.992989
947.072484	0.995660
947.373992	0.995376
947.675462	0.995368
947.976893	0.994688
948.278286	0.997554
948.579641	0.997293
948.880958	0.995281
949.182236	0.997067
949.483476	0.996815
949.784678	0.995621
950.085841	0.996519
950.386967	0.996392
950.688054	0.997226
950.989103	0.994060
951.290114	0.994478
951.591087	0.995345
951.892021	0.994418
952.192917	0.995010
952.493776	0.994755
952.794596	0.993498
953.095378	0.992062
953.396122	0.993172
953.696828	0.994052
953.997496	0.995309
954.298126	0.996137
954.598718	0.995843
954.899272	0.995995
955.199788	0.995512
955.500266	0.997782
955.800706	0.996448
956.101108	0.998197
956.401472	0.999027
956.701798	0.998541
957.002087	0.998462
957.302337	0.999198
957.602550	0.999720
957.902724	1.000683
958.202861	0.999717
958.502960	0.999219
958.803022	1.001024
959.103045	1.001338
959.403031	1.002960
959.702979	1.001642
960.002889	1.001701
960.302762	1.001178
960.602596	1.002585
960.902393	1.002479
961.202153	1.002697
961.501875	1.001801
961.801559	1.002255
962.101205	1.001516
962.400814	1.003470
962.700385	1.003216
962.999918	1.002762
963.299414	1.002149
963.598873	1.003099
963.898293	1.001986
964.197677	1.001803
964.497022	1.003728
964.796331	1.002261
965.095601	1.003210
965.394835	1.002914
965.694030	1.002666
965.993189	1.002474
966.292309	1.003328
966.591393	1.001014
966.890439	1.003265
967.189447	1.002952
967.488419	1.002774
967.787353	1.002219
968.086249	1.003529
968.385108	1.002967
968.683930	1.003763
968.982714	1.001765
969.281462	1.002249
969.580172	1.003698
969.878844	1.003890
970.177480	1.003304
970.476078	1.003655
970.774639	1.003924
971.073162	1.001988
971.371649	1.002025
971.670098	1.001468
971.968510	1.000948
972.266885	1.001828
972.565223	1.001713
972.863524	1.000920
973.161788	1.001591
973.460014	1.003541
973.758204	1.001415
974.056356	1.002320
974.354471	1.001689
974.652550	1.002712
974.950591	1.001286
975.248595	1.001675
975.546563	1.003407
975.844493	1.002379
976.142386	1.002500
976.440243	1.003387
976.738062	1.002542
977.035845	1.001608
977.333590	1.003721
977.631299	1.001446
977.928971	1.002990
978.226606	1.003188
978.524204	1.002262
978.821765	1.003956
979.119290	1.004795
979.416777	1.002039
979.714228	1.002712
980.011642	1.003052
980.309020	1.002536
980.606360	1.001565
980.903664	1.001506
981.200931	1.001590
981.498162	1.000707
981.795356	1.001145
982.092513	0.999016
982.389633	1.000490
982.686717	0.996221
982.983764	0.995857
983.280775	0.996780
983.577749	0.997601
983.874686	0.995272
984.171587	0.997930
984.468451	0.998640
984.765279	1.001630
985.062070	0.999617
985.358824	1.000564
985.655543	1.001952
985.952224	1.003689
986.248869	1.001961
986.545478	1.003710
986.842050	1.001883
987.138586	1.002116
987.435086	1.003587
987.731549	1.004061
988.027975	1.003751
988.324366	1.002874
988.620719	1.004683
988.917037	1.003263
989.213318	1.003672
989.509563	1.005574
989.805772	1.004244
990.101944	1.004508
990.398080	1.003549
990.694180	1.004422
990.990244	1.003972
991.286271	1.003763
991.582262	1.004161
991.878217	1.003612
992.174136	1.003668
992.470019	1.003683
992.765865	1.004434
993.061676	1.004391
993.357450	1.005104
993.653188	1.004768
993.948890	1.004104
994.244556	1.002842
994.540186	1.003943
994.835780	1.002542
995.131337	1.004798
995.426859	1.003292
995.722345	1.002618
996.017795	1.001560
996.313208	1.001496
996.608586	1.001657
996.903928	1.002592
997.199234	1.002607
997.494504	1.003560
997.789738	1.001579
998.084936	1.003516
998.380099	1.001825
998.675225	1.004167
998.970316	1.003983
999.265371	1.002898
999.560390	1.003009
999.855373	1.004358
1000.150320	1.004006
1000.445232	1.003369
1000.740108	1.004257
1001.034948	1.003218
1001.329752	1.005108
1001.624521	1.005262
1001.919254	1.004336
1002.213951	1.004995
1002.508613	1.003504
1002.803239	1.004451
1003.097829	1.006311
1003.392384	1.004185
1003.686903	1.004984
1003.981386	1.003725
1004.275834	1.005298
1004.570246	1.003055
1004.864623	1.005739
1005.158964	1.004281
1005.453270	1.003900
1005.747540	1.003114
1006.041775	1.005697
1006.335974	1.004399
1006.630138	1.004252
1006.924266	1.003639
1007.218359	1.003832
1007.512416	1.006060
1007.806438	1.005080
1008.100425	1.005368
1008.394376	1.006337
1008.688292	1.004283
1008.982172	1.003878
1009.276017	1.006014
1009.569827	1.006574
1009.863602	1.002784
1010.157341	1.005634
1010.451045	1.004554
1010.744714	1.005678
1011.038347	1.005841
1011.331945	1.003501
1011.625508	1.004559
1011.919036	1.005295
1012.212528	1.004977
1012.505986	1.003674
1012.799408	1.005275
1013.092795	1.004393
1013.386147	1.004228
1013.679464	1.005461
1013.972745	1.003993
1014.265992	1.004506
1014.559204	1.003613
1014.852380	1.005395
1015.145521	1.004698
1015.438628	1.004848
1015.731699	1.005414
1016.024736	1.005522
1016.317737	1.004861
1016.610703	1.004404
1016.903635	1.005240
1017.196531	1.004755
1017.489393	1.004337
1017.782219	1.005274
1018.075011	1.004367
1018.367768	1.004119
1018.660490	1.005485
1018.953177	1.005485
1019.245829	1.005485
