Dividing Wavelength (nm)	Counts (n)	Blue Motor Position (mm): 7.000000	Red Motor Position (mm): 0.000000	
326.493990	1.005615
326.888308	1.005615
327.282561	1.005615
327.676750	1.006310
328.070874	1.006109
328.464933	1.007034
328.858929	1.006858
329.252859	1.005595
329.646726	1.005023
330.040528	1.005084
330.434265	1.005710
330.827938	1.005049
331.221547	1.005498
331.615091	1.006285
332.008571	1.005282
332.401986	1.004468
332.795338	1.005210
333.188625	1.006202
333.581847	1.005898
333.975006	1.006228
334.368100	1.004944
334.761129	1.004387
335.154095	1.006560
335.546996	1.003764
335.939833	0.998161
336.332606	1.000322
336.725315	0.997867
337.117960	0.998682
337.510540	0.998352
337.903056	1.000126
338.295508	0.999568
338.687896	0.999655
339.080220	0.999233
339.472480	0.998576
339.864676	0.998676
340.256807	0.997922
340.648875	0.998383
341.040879	0.998429
341.432818	0.999668
341.824694	0.998517
342.216506	0.998426
342.608253	0.999555
342.999937	0.998544
343.391557	0.997910
343.783113	0.999936
344.174605	0.999290
344.566033	0.998556
344.957397	0.999687
345.348697	0.998429
345.739934	0.999005
346.131106	0.999118
346.522215	0.997839
346.913260	1.000631
347.304241	0.997192
347.695159	1.000438
348.086012	0.998977
348.476802	0.998448
348.867528	0.997603
349.258191	0.998517
349.648789	0.999332
350.039324	0.998950
350.429796	0.998943
350.820203	0.997681
351.210548	0.998533
351.600828	0.998690
351.991045	0.999880
352.381198	0.999398
352.771288	0.998850
353.161314	0.997933
353.551276	0.997876
353.941175	0.997886
354.331010	0.999351
354.720782	0.999222
355.110490	0.998930
355.500135	0.997871
355.889717	0.996738
356.279235	0.997006
356.668689	0.998255
357.058080	0.997896
357.447408	0.997639
357.836672	0.997551
358.225873	0.997603
358.615010	0.996863
359.004084	0.996946
359.393095	0.997894
359.782043	0.997014
360.170927	0.997428
360.559748	0.997712
360.948505	0.996660
361.337199	0.997194
361.725830	0.997148
362.114398	0.997473
362.502903	0.995816
362.891344	0.995798
363.279722	0.996586
363.668037	0.997274
364.056289	0.997964
364.444478	0.997244
364.832603	0.996617
365.220665	0.997000
365.608665	0.996876
365.996601	0.998510
366.384474	0.995273
366.772284	0.996038
367.160031	0.994473
367.547715	0.995244
367.935336	0.995424
368.322893	0.993799
368.710388	0.992694
369.097820	0.989718
369.485189	0.988693
369.872495	0.986580
370.259738	0.984881
370.646918	0.980181
371.034035	0.978841
371.421090	0.976125
371.808081	0.971983
372.195010	0.969104
372.581875	0.964091
372.968678	0.959961
373.355418	0.956041
373.742096	0.948672
374.128710	0.943035
374.515262	0.938616
374.901751	0.932888
375.288177	0.929049
375.674540	0.922244
376.060841	0.916113
376.447079	0.909014
376.833254	0.902635
377.219367	0.897242
377.605417	0.885827
377.991404	0.882459
378.377329	0.876827
378.763191	0.869458
379.148991	0.861172
379.534727	0.853201
379.920402	0.845280
380.306013	0.840829
380.691563	0.829022
381.077049	0.822031
381.462474	0.817786
381.847835	0.806763
382.233134	0.802943
382.618371	0.802240
383.003545	0.784281
383.388657	0.783600
383.773706	0.776813
384.158693	0.771025
384.543618	0.765664
384.928480	0.757717
385.313280	0.747012
385.698017	0.747174
386.082692	0.735072
386.467305	0.733590
386.851856	0.728220
387.236344	0.722403
387.620770	0.717556
388.005133	0.711542
388.389435	0.705461
388.773674	0.703455
389.157851	0.695399
389.541965	0.693205
389.926018	0.699423
390.310008	0.685448
390.693936	0.683828
391.077802	0.675402
391.461606	0.677187
391.845348	0.666733
392.229027	0.665846
392.612645	0.664122
392.996200	0.650569
393.379694	0.644069
393.763125	0.633596
394.146494	0.639436
394.529801	0.628758
394.913047	0.621114
395.296230	0.627307
395.679351	0.618354
396.062410	0.615024
396.445408	0.618074
396.828343	0.613509
397.211217	0.608424
397.594028	0.620894
397.976778	0.611156
398.359466	0.607445
398.742092	0.603188
399.124656	0.614820
399.507158	0.602218
399.889598	0.599695
400.271977	0.591701
400.654294	0.595163
401.036549	0.594360
401.418742	0.598331
401.800874	0.584465
402.182944	0.581274
402.564952	0.572643
402.946898	0.574915
403.328783	0.575173
403.710606	0.586989
404.092367	0.561480
404.474067	0.567172
404.855705	0.565764
405.237282	0.573977
405.618797	0.560820
406.000250	0.556770
406.381642	0.546734
406.762972	0.551317
407.144240	0.550524
407.525447	0.549810
407.906593	0.543069
408.287677	0.538476
408.668700	0.545956
409.049661	0.540645
409.430560	0.535375
409.811399	0.544100
410.192176	0.526374
410.572891	0.533789
410.953545	0.521217
411.334138	0.535039
411.714669	0.527172
412.095139	0.539834
412.475547	0.523780
412.855894	0.525420
413.236180	0.525050
413.616405	0.529879
413.996568	0.520378
414.376670	0.526871
414.756711	0.530918
415.136691	0.528315
415.516609	0.519681
415.896466	0.516395
416.276262	0.512100
416.655997	0.513714
417.035670	0.495755
417.415283	0.486558
417.794834	0.492499
418.174324	0.497572
418.553753	0.506813
418.933121	0.488407
419.312428	0.482354
419.691674	0.488349
420.070859	0.476569
420.449983	0.484235
420.829045	0.473670
421.208047	0.482975
421.586988	0.475612
421.965867	0.473939
422.344686	0.463687
422.723444	0.475848
423.102141	0.493199
423.480777	0.465320
423.859352	0.485899
424.237866	0.463768
424.616319	0.464674
424.994712	0.455353
425.373044	0.465878
425.751314	0.453421
426.129524	0.470803
426.507673	0.454222
426.885762	0.446929
427.263789	0.452653
427.641756	0.462588
428.019662	0.452652
428.397508	0.451894
428.775292	0.455997
429.153016	0.448495
429.530679	0.454619
429.908282	0.447425
430.285824	0.457691
430.663305	0.436490
431.040726	0.456832
431.418086	0.457318
431.795385	0.448855
432.172624	0.448010
432.549802	0.448278
432.926920	0.447593
433.303977	0.446766
433.680974	0.444234
434.057910	0.442572
434.434786	0.441812
434.811601	0.444015
435.188355	0.427010
435.565050	0.436483
435.941683	0.437704
436.318257	0.421196
436.694770	0.422578
437.071222	0.420591
437.447614	0.424937
437.823946	0.431388
438.200218	0.420712
438.576429	0.430781
438.952580	0.423347
439.328670	0.419875
439.704700	0.426346
440.080670	0.427431
440.456580	0.409065
440.832429	0.417090
441.208218	0.427896
441.583947	0.417097
441.959616	0.416332
442.335224	0.422533
442.710773	0.412598
443.086261	0.410960
443.461689	0.424696
443.837057	0.414398
444.212365	0.404773
444.587612	0.411659
444.962800	0.401728
445.337927	0.402864
445.712995	0.429300
446.088002	0.391156
446.462949	0.401291
446.837837	0.406510
447.212664	0.394904
447.587431	0.386604
447.962139	0.356922
448.336786	0.316047
448.711374	0.326287
449.085901	0.370855
449.460369	0.375269
449.834776	0.378525
450.209124	0.357841
450.583412	0.350533
450.957640	0.343847
451.331808	0.355014
451.705917	0.378144
452.079965	0.382568
452.453954	0.371189
452.827883	0.377750
453.201752	0.372841
453.575562	0.384056
453.949311	0.372636
454.323001	0.378728
454.696632	0.374681
455.070202	0.366929
455.443713	0.358836
455.817164	0.353594
456.190556	0.349441
456.563888	0.346226
456.937160	0.344240
457.310373	0.361065
457.683526	0.360041
458.056619	0.365643
458.429653	0.366189
458.802628	0.369525
459.175542	0.363979
459.548398	0.346529
459.921194	0.339221
460.293930	0.339501
460.666607	0.316923
461.039224	0.305205
461.411782	0.300517
461.784280	0.299621
462.156719	0.303485
462.529099	0.308173
462.901419	0.324247
463.273680	0.328623
463.645882	0.327924
464.018024	0.334100
464.390106	0.326703
464.762130	0.311472
465.134094	0.294426
465.505999	0.263226
465.877845	0.233711
466.249631	0.220734
466.621358	0.227923
466.993026	0.242006
467.364634	0.248003
467.736184	0.256889
468.107674	0.265917
468.479105	0.264825
468.850477	0.271578
469.221790	0.278802
469.593043	0.288632
469.964238	0.293395
470.335373	0.293096
470.706449	0.291345
471.077467	0.291581
471.448425	0.253570
471.819324	0.229360
472.190164	0.228917
472.560945	0.257762
472.931667	0.280243
473.302330	0.284366
473.672934	0.296089
474.043479	0.283929
474.413965	0.286173
474.784393	0.289393
475.154761	0.284551
475.525070	0.281506
475.895321	0.287263
476.265513	0.281406
476.635645	0.277297
477.005719	0.276738
477.375734	0.273355
477.745691	0.266538
478.115588	0.262652
478.485427	0.256262
478.855207	0.243401
479.224928	0.225584
479.594591	0.213743
479.964194	0.217299
480.333739	0.218400
480.703226	0.219860
481.072653	0.218095
481.442022	0.213970
481.811333	0.210512
482.180584	0.214082
482.549777	0.219459
482.918912	0.222769
483.287988	0.222356
483.657005	0.222200
484.025964	0.228694
484.394864	0.225754
484.763706	0.226579
485.132489	0.231350
485.501213	0.232418
485.869879	0.230616
486.238487	0.233723
486.607036	0.231810
486.975527	0.236453
487.343959	0.232177
487.712333	0.231140
488.080648	0.232519
488.448905	0.231860
488.817104	0.233081
489.185244	0.227556
489.553326	0.224209
489.921350	0.214403
490.289315	0.196537
490.657222	0.191656
491.025070	0.193151
491.392861	0.195013
491.760593	0.200645
492.128267	0.206528
492.495883	0.211993
492.863440	0.218117
493.230939	0.224540
493.598380	0.226138
493.965763	0.228251
494.333088	0.230582
494.700354	0.232081
495.067563	0.230877
495.434713	0.234542
495.801805	0.232183
496.168839	0.233588
496.535815	0.235078
496.902733	0.235243
497.269593	0.236358
497.636395	0.234289
498.003139	0.234598
498.369825	0.237646
498.736453	0.234100
499.103023	0.235461
499.469535	0.235003
499.835989	0.235484
500.202385	0.236094
500.568723	0.239477
500.935003	0.234455
501.301226	0.238982
501.667390	0.232706
502.033497	0.231368
502.399546	0.234108
502.765537	0.235957
503.131470	0.234599
503.497345	0.230767
503.863163	0.239523
504.228923	0.232268
504.594625	0.231117
504.960269	0.236296
505.325856	0.231777
505.691385	0.236132
506.056856	0.233095
506.422270	0.232519
506.787625	0.234855
507.152924	0.232244
507.518164	0.232654
507.883347	0.234241
508.248472	0.236240
508.613540	0.230801
508.978550	0.233731
509.343503	0.234060
509.708398	0.231740
510.073236	0.229386
510.438016	0.229010
510.802738	0.230006
511.167403	0.229124
511.532010	0.231198
511.896561	0.226596
512.261053	0.224845
512.625488	0.227239
512.989866	0.227598
513.354186	0.227972
513.718449	0.229871
514.082655	0.226087
514.446803	0.228456
514.810894	0.226062
515.174927	0.228991
515.538904	0.228351
515.902822	0.225071
516.266684	0.227716
516.630488	0.228560
516.994235	0.227632
517.357925	0.226241
517.721558	0.224581
518.085133	0.224137
518.448651	0.224154
518.812112	0.226492
519.175516	0.225841
519.538863	0.223632
519.902152	0.225325
520.265385	0.222329
520.628560	0.223893
520.991678	0.224443
521.354739	0.223244
521.717743	0.224450
522.080690	0.224717
522.443580	0.222109
522.806413	0.222948
523.169189	0.222486
523.531908	0.221327
523.894569	0.224987
524.257174	0.224775
524.619722	0.222409
524.982213	0.223340
525.344647	0.222389
525.707025	0.223270
526.069345	0.221262
526.431608	0.223317
526.793815	0.221030
527.155964	0.225497
527.518057	0.224071
527.880093	0.225256
528.242072	0.223947
528.603995	0.225995
528.965860	0.227570
529.327669	0.226559
529.689421	0.227261
530.051117	0.228003
530.412755	0.225900
530.774337	0.227861
531.135862	0.228533
531.497331	0.227674
531.858743	0.230632
532.220098	0.227288
532.581396	0.229884
532.942638	0.230506
533.303824	0.231448
533.664953	0.230901
534.026025	0.233013
534.387040	0.230879
534.747999	0.230545
535.108902	0.229623
535.469748	0.234729
535.830537	0.232487
536.191270	0.232934
536.551947	0.232585
536.912567	0.232252
537.273131	0.234437
537.633638	0.234366
537.994089	0.234790
538.354483	0.235916
538.714821	0.232883
539.075103	0.232570
539.435328	0.233457
539.795497	0.237180
540.155609	0.233756
540.515665	0.231794
540.875665	0.237431
541.235609	0.236084
541.595496	0.236165
541.955328	0.232898
542.315102	0.235296
542.674821	0.236493
543.034483	0.236613
543.394090	0.235853
543.753640	0.237955
544.113134	0.232738
544.472571	0.236288
544.831953	0.233158
545.191278	0.237352
545.550548	0.236609
545.909761	0.233745
546.268918	0.234630
546.628019	0.232629
546.987064	0.235494
547.346053	0.237279
547.704986	0.234914
548.063863	0.235272
548.422684	0.235530
548.781449	0.237385
549.140158	0.235124
549.498811	0.237952
549.857408	0.240922
550.215949	0.235519
550.574434	0.238715
550.932864	0.236827
551.291237	0.235457
551.649555	0.236953
552.007817	0.236571
552.366022	0.237646
552.724173	0.237477
553.082267	0.237618
553.440305	0.234650
553.798288	0.239224
554.156215	0.236053
554.514086	0.236442
554.871902	0.239802
555.229661	0.238912
555.587365	0.239413
555.945014	0.242086
556.302606	0.239082
556.660143	0.241558
557.017625	0.237880
557.375050	0.240054
557.732421	0.237341
558.089735	0.239116
558.446994	0.239281
558.804197	0.238321
559.161345	0.238063
559.518437	0.241969
559.875474	0.239602
560.232455	0.238980
560.589381	0.240371
560.946251	0.240365
561.303065	0.238154
561.659825	0.239160
562.016528	0.241054
562.373177	0.243583
562.729770	0.240977
563.086307	0.242860
563.442789	0.240800
563.799216	0.243512
564.155587	0.242436
564.511904	0.243786
564.868164	0.243596
565.224370	0.243526
565.580520	0.245191
565.936615	0.245025
566.292654	0.248234
566.648638	0.245352
567.004567	0.245778
567.360441	0.246417
567.716260	0.248801
568.072023	0.246253
568.427732	0.247191
568.783385	0.249437
569.138982	0.247608
569.494525	0.247444
569.850013	0.250201
570.205445	0.249013
570.560823	0.250855
570.916145	0.253337
571.271412	0.251500
571.626625	0.253049
571.981782	0.253389
572.336884	0.254527
572.691931	0.253839
573.046923	0.255418
573.401860	0.256242
573.756743	0.258189
574.111570	0.256970
574.466342	0.257205
574.821059	0.256724
575.175722	0.259638
575.530330	0.259375
575.884882	0.259211
576.239380	0.261420
576.593823	0.261896
576.948211	0.261778
577.302544	0.264410
577.656823	0.264383
578.011047	0.264293
578.365216	0.265077
578.719330	0.267148
579.073389	0.266485
579.427394	0.267890
579.781344	0.268855
580.135239	0.270406
580.489080	0.270146
580.842866	0.272969
581.196597	0.273201
581.550273	0.271665
581.903895	0.272634
582.257463	0.270336
582.610975	0.274076
582.964434	0.273584
583.317837	0.275630
583.671186	0.276477
584.024481	0.276372
584.377721	0.278790
584.730906	0.279664
585.084037	0.278963
585.437113	0.280783
585.790135	0.280011
586.143103	0.283012
586.496016	0.283940
586.848874	0.281802
587.201679	0.282269
587.554428	0.285778
587.907124	0.284681
588.259765	0.285195
588.612352	0.285695
588.964884	0.289343
589.317362	0.288989
589.669786	0.289086
590.022155	0.287451
590.374470	0.286673
590.726731	0.288669
591.078937	0.293631
591.431090	0.289856
591.783188	0.294020
592.135232	0.295012
592.487222	0.294699
592.839157	0.292849
593.191038	0.294987
593.542866	0.297060
593.894639	0.300279
594.246358	0.298888
594.598022	0.297927
594.949633	0.301658
595.301190	0.302640
595.652692	0.301445
596.004141	0.297563
596.355535	0.305581
596.706876	0.306422
597.058162	0.308772
597.409395	0.305466
597.760573	0.303805
598.111698	0.306739
598.462768	0.307431
598.813785	0.308707
599.164748	0.309701
599.515657	0.310187
599.866511	0.314177
600.217312	0.309100
600.568060	0.314116
600.918753	0.310434
601.269392	0.311450
601.619978	0.315162
601.970510	0.312683
602.320988	0.312724
602.671412	0.310549
603.021783	0.312780
603.372100	0.314095
603.722363	0.314115
604.072572	0.315024
604.422728	0.314366
604.772830	0.316604
605.122878	0.316220
605.472872	0.316970
605.822813	0.315314
606.172701	0.317884
606.522534	0.315207
606.872314	0.315581
607.222041	0.316075
607.571714	0.314010
607.921333	0.315835
608.270899	0.315656
608.620411	0.312444
608.969870	0.316389
609.319276	0.316029
609.668627	0.316174
610.017926	0.314612
610.367171	0.313242
610.716362	0.313925
611.065500	0.314102
611.414585	0.312923
611.763616	0.313397
612.112594	0.313843
612.461518	0.312999
612.810389	0.310599
613.159207	0.313274
613.507971	0.314957
613.856682	0.311000
614.205340	0.311783
614.553945	0.309359
614.902496	0.313132
615.250994	0.311308
615.599439	0.311851
615.947830	0.310971
616.296169	0.312174
616.644454	0.311713
616.992686	0.311699
617.340864	0.309683
617.688990	0.313319
618.037063	0.309757
618.385082	0.311724
618.733048	0.308368
619.080961	0.310868
619.428821	0.310347
619.776628	0.309899
620.124382	0.312138
620.472083	0.312298
620.819731	0.311974
621.167326	0.315510
621.514868	0.315107
621.862357	0.319752
622.209793	0.319018
622.557176	0.321572
622.904506	0.322544
623.251783	0.324885
623.599007	0.327472
623.946179	0.326680
624.293297	0.328949
624.640363	0.332541
624.987376	0.333188
625.334336	0.335392
625.681243	0.338103
626.028097	0.338359
626.374899	0.339481
626.721647	0.339914
627.068343	0.342900
627.414987	0.344328
627.761577	0.346387
628.108115	0.344384
628.454600	0.349846
628.801032	0.347269
629.147412	0.349058
629.493739	0.349922
629.840014	0.352509
630.186236	0.349725
630.532405	0.355956
630.878521	0.352965
631.224585	0.355324
631.570597	0.358839
631.916556	0.357482
632.262462	0.357060
632.608316	0.359717
632.954117	0.360280
633.299866	0.361275
633.645562	0.361260
633.991206	0.365991
634.336797	0.368749
634.682336	0.370943
635.027823	0.372637
635.373257	0.373348
635.718639	0.377601
636.063968	0.376442
636.409245	0.382051
636.754470	0.382366
637.099642	0.385312
637.444762	0.388248
637.789829	0.387368
638.134845	0.390977
638.479808	0.392312
638.824719	0.391920
639.169577	0.395760
639.514383	0.394962
639.859137	0.399549
640.203839	0.398870
640.548489	0.399508
640.893086	0.400444
641.237632	0.402808
641.582125	0.401258
641.926566	0.402636
642.270955	0.402818
642.615292	0.402806
642.959576	0.402336
643.303809	0.402832
643.647990	0.402315
643.992118	0.402658
644.336195	0.406102
644.680219	0.404884
645.024192	0.405356
645.368112	0.398637
645.711981	0.397996
646.055797	0.393239
646.399562	0.395663
646.743274	0.388538
647.086935	0.385191
647.430544	0.385119
647.774101	0.383528
648.117606	0.384313
648.461059	0.384592
648.804460	0.386771
649.147810	0.391770
649.491108	0.393601
649.834354	0.395331
650.177548	0.400287
650.520690	0.405697
650.863781	0.406714
651.206820	0.406087
651.549807	0.411162
651.892742	0.415099
652.235626	0.414231
652.578458	0.415343
652.921238	0.422250
653.263967	0.418908
653.606644	0.423126
653.949269	0.423886
654.291843	0.427266
654.634365	0.423951
654.976836	0.426593
655.319255	0.427504
655.661622	0.428813
656.003938	0.428947
656.346203	0.431385
656.688416	0.430079
657.030577	0.432599
657.372687	0.435290
657.714746	0.436019
658.056753	0.433068
658.398708	0.436100
658.740612	0.438221
659.082465	0.433730
659.424266	0.434237
659.766016	0.434321
660.107715	0.437425
660.449362	0.435741
660.790958	0.436261
661.132503	0.437664
661.473996	0.434613
661.815438	0.435811
662.156829	0.436015
662.498168	0.436816
662.839456	0.437711
663.180693	0.435394
663.521879	0.435487
663.863013	0.436235
664.204097	0.435240
664.545129	0.431992
664.886110	0.432153
665.227040	0.429930
665.567918	0.432457
665.908746	0.430065
666.249522	0.429988
666.590248	0.430878
666.930922	0.429037
667.271545	0.428064
667.612118	0.427949
667.952639	0.429885
668.293109	0.428275
668.633528	0.431165
668.973896	0.430991
669.314213	0.431411
669.654480	0.432685
669.994695	0.433031
670.334859	0.434052
670.674973	0.434893
671.015035	0.434506
671.355047	0.434565
671.695008	0.435529
672.034918	0.437489
672.374777	0.437060
672.714585	0.438077
673.054342	0.438155
673.394049	0.438093
673.733705	0.436075
674.073310	0.437108
674.412864	0.440222
674.752368	0.441012
675.091820	0.440961
675.431223	0.445463
675.770574	0.444855
676.109875	0.448054
676.449125	0.447642
676.788324	0.450716
677.127473	0.456033
677.466571	0.455774
677.805619	0.456798
678.144616	0.458473
678.483562	0.460082
678.822458	0.462995
679.161303	0.463081
679.500098	0.464332
679.838842	0.465838
680.177535	0.465127
680.516179	0.463160
680.854771	0.463002
681.193314	0.456316
681.531805	0.447863
681.870247	0.436818
682.208638	0.428781
682.546978	0.427810
682.885268	0.429619
683.223508	0.435594
683.561697	0.440360
683.899836	0.442573
684.237925	0.445976
684.575963	0.448536
684.913951	0.451514
685.251889	0.447764
685.589776	0.449853
685.927614	0.452263
686.265401	0.446537
686.603137	0.447603
686.940824	0.441848
687.278460	0.440635
687.616046	0.439376
687.953582	0.434397
688.291068	0.436648
688.628504	0.431887
688.965889	0.434347
689.303224	0.438384
689.640510	0.442219
689.977745	0.448132
690.314930	0.455867
690.652065	0.460815
690.989150	0.467636
691.326185	0.474996
691.663170	0.479279
692.000105	0.486455
692.336990	0.493446
692.673825	0.496148
693.010610	0.503051
693.347345	0.509061
693.684030	0.509939
694.020665	0.514444
694.357251	0.523234
694.693786	0.523550
695.030272	0.526956
695.366707	0.530911
695.703093	0.534755
696.039429	0.532057
696.375716	0.535027
696.711952	0.536919
697.048139	0.538691
697.384276	0.541001
697.720363	0.540083
698.056400	0.538448
698.392388	0.544291
698.728326	0.546539
699.064214	0.549674
699.400053	0.550298
699.735842	0.554509
700.071581	0.556421
700.407270	0.560273
700.742910	0.563162
701.078501	0.568872
701.414042	0.569715
701.749533	0.573061
702.084974	0.582055
702.420366	0.574651
702.755709	0.582618
703.091002	0.589147
703.426246	0.584036
703.761440	0.588558
704.096584	0.593672
704.431679	0.591068
704.766725	0.593481
705.101721	0.594936
705.436668	0.591893
705.771565	0.597663
706.106413	0.593520
706.441212	0.590050
706.775961	0.589871
707.110661	0.591202
707.445311	0.588396
707.779913	0.585835
708.114465	0.585101
708.448967	0.581366
708.783421	0.574050
709.117825	0.569030
709.452180	0.567947
709.786485	0.562813
710.120742	0.552809
710.454949	0.554703
710.789107	0.547112
711.123216	0.538302
711.457275	0.539156
711.791286	0.531519
712.125247	0.531480
712.459159	0.540991
712.793023	0.533057
713.126837	0.538354
713.460602	0.538183
713.794318	0.546765
714.127985	0.546644
714.461602	0.556631
714.795171	0.559263
715.128691	0.567336
715.462162	0.574975
715.795584	0.580427
716.128957	0.583154
716.462281	0.589635
716.795556	0.593186
717.128782	0.599377
717.461960	0.608788
717.795088	0.606794
718.128167	0.612863
718.461198	0.621099
718.794180	0.622567
719.127113	0.625578
719.459997	0.628059
719.792833	0.635017
720.125619	0.635377
720.458357	0.641738
720.791046	0.640941
721.123686	0.645722
721.456278	0.652159
721.788821	0.649076
722.121315	0.655018
722.453761	0.658739
722.786158	0.656261
723.118506	0.652569
723.450805	0.659464
723.783056	0.656884
724.115259	0.654585
724.447412	0.653259
724.779518	0.656257
725.111574	0.653692
725.443582	0.650281
725.775542	0.652117
726.107453	0.645581
726.439315	0.645164
726.771129	0.643852
727.102895	0.636474
727.434612	0.630255
727.766281	0.628351
728.097901	0.627435
728.429473	0.627194
728.760996	0.625672
729.092471	0.626667
729.423897	0.630421
729.755276	0.629274
730.086606	0.629330
730.417887	0.623876
730.749120	0.614783
731.080305	0.606328
731.411442	0.602184
731.742530	0.606042
732.073570	0.605839
732.404562	0.599599
732.735506	0.601317
733.066401	0.605953
733.397249	0.613855
733.728048	0.625861
734.058798	0.638420
734.389501	0.649106
734.720156	0.658453
735.050762	0.665766
735.381320	0.667277
735.711831	0.674527
736.042293	0.680251
736.372707	0.677467
736.703073	0.680965
737.033391	0.683092
737.363661	0.680885
737.693883	0.676130
738.024056	0.675208
738.354182	0.676178
738.684260	0.665712
739.014290	0.661930
739.344272	0.662178
739.674207	0.657183
740.004093	0.656100
740.333931	0.657143
740.663722	0.656460
740.993464	0.657618
741.323159	0.661214
741.652806	0.667267
741.982405	0.671781
742.311956	0.676387
742.641460	0.678450
742.970915	0.681101
743.300323	0.688064
743.629683	0.694474
743.958996	0.697438
744.288260	0.700962
744.617477	0.707343
744.946647	0.708546
745.275768	0.714948
745.604842	0.714305
745.933869	0.723768
746.262847	0.725000
746.591778	0.719865
746.920662	0.725630
747.249498	0.730894
747.578286	0.723141
747.907027	0.719351
748.235720	0.719069
748.564365	0.715269
748.892963	0.714825
749.221514	0.718320
749.550017	0.722612
749.878473	0.724263
750.206881	0.730594
750.535242	0.730121
750.863555	0.729208
751.191821	0.731509
751.520039	0.734302
751.848210	0.737526
752.176334	0.732703
752.504411	0.731193
752.832440	0.738851
753.160421	0.741746
753.488356	0.741077
753.816243	0.739325
754.144082	0.746023
754.471875	0.750032
754.799620	0.746245
755.127318	0.747398
755.454969	0.748690
755.782572	0.747580
756.110129	0.751876
756.437638	0.755487
756.765100	0.752486
757.092515	0.749576
757.419882	0.748662
757.747203	0.753586
758.074477	0.754370
758.401703	0.751644
758.728882	0.746677
759.056014	0.744764
759.383099	0.745300
759.710138	0.744906
760.037129	0.741711
760.364073	0.737178
760.690970	0.738768
761.017820	0.743211
761.344623	0.739402
761.671379	0.732706
761.998088	0.721150
762.324751	0.699151
762.651366	0.657352
762.977935	0.593123
763.304456	0.545201
763.630931	0.537621
763.957359	0.573722
764.283740	0.615344
764.610074	0.644297
764.936362	0.673982
765.262602	0.699921
765.588796	0.719530
765.914943	0.735420
766.241044	0.752972
766.567097	0.758847
766.893104	0.768157
767.219064	0.774124
767.544978	0.780866
767.870845	0.792336
768.196665	0.797095
768.522438	0.795606
768.848165	0.796655
769.173846	0.806008
769.499479	0.809855
769.825066	0.813388
770.150607	0.818059
770.476101	0.813740
770.801548	0.815962
771.126949	0.825629
771.452303	0.829416
771.777611	0.827756
772.102872	0.827308
772.428087	0.833824
772.753256	0.836386
773.078378	0.838698
773.403453	0.845782
773.728482	0.850225
774.053465	0.844153
774.378401	0.848607
774.703291	0.856203
775.028135	0.856161
775.352932	0.856175
775.677683	0.860124
776.002388	0.860352
776.327046	0.860077
776.651658	0.864377
776.976224	0.866326
777.300743	0.866569
777.625216	0.868078
777.949643	0.872070
778.274024	0.869632
778.598359	0.872004
778.922647	0.870448
779.246889	0.871829
779.571086	0.875242
779.895236	0.877573
780.219339	0.875254
780.543397	0.872167
780.867409	0.871877
781.191374	0.873392
781.515294	0.875565
781.839167	0.873271
782.162995	0.876260
782.486776	0.873661
782.810511	0.875162
783.134201	0.878756
783.457844	0.877210
783.781441	0.879522
784.104993	0.883948
784.428498	0.883323
784.751958	0.881805
785.075372	0.882636
785.398739	0.885352
785.722061	0.881717
786.045337	0.879752
786.368568	0.882807
786.691752	0.884651
787.014891	0.872132
787.337983	0.864093
787.661030	0.856192
787.984031	0.840082
788.306987	0.829940
788.629897	0.829972
788.952760	0.835784
789.275579	0.839617
789.598351	0.854779
789.921078	0.866623
790.243759	0.867775
790.566395	0.872974
790.888984	0.879242
791.211529	0.883589
791.534027	0.885832
791.856480	0.889444
792.178888	0.892105
792.501249	0.894733
792.823566	0.897344
793.145836	0.897677
793.468062	0.898379
793.790241	0.899305
794.112375	0.896689
794.434464	0.893829
794.756507	0.892827
795.078505	0.891099
795.400457	0.886182
795.722364	0.875358
796.044226	0.870796
796.366042	0.869112
796.687812	0.871821
797.009538	0.866818
797.331218	0.872790
797.652852	0.876837
797.974442	0.878437
798.295986	0.881745
798.617484	0.882780
798.938938	0.887503
799.260346	0.890426
799.581709	0.893204
799.903026	0.895512
800.224299	0.895209
800.545526	0.898225
800.866708	0.902757
801.187845	0.905472
801.508936	0.906171
801.829983	0.903699
802.150984	0.906122
802.471940	0.911864
802.792851	0.910594
803.113717	0.912492
803.434538	0.910226
803.755314	0.912484
804.076045	0.913418
804.396731	0.913162
804.717372	0.911878
805.037967	0.915457
805.358518	0.912173
805.679024	0.909291
805.999485	0.910653
806.319901	0.910042
806.640272	0.912029
806.960598	0.909969
807.280879	0.907451
807.601115	0.907716
807.921306	0.910066
808.241453	0.909966
808.561554	0.908394
808.881611	0.908038
809.201623	0.909805
809.521590	0.910611
809.841513	0.912019
810.161390	0.909755
810.481223	0.911310
810.801011	0.915282
811.120755	0.917158
811.440453	0.915081
811.760107	0.915678
812.079716	0.915083
812.399281	0.917320
812.718801	0.919536
813.038276	0.921822
813.357707	0.920893
813.677093	0.919370
813.996434	0.921123
814.315731	0.923939
814.634983	0.923374
814.954191	0.923767
815.273354	0.919419
815.592473	0.916234
815.911547	0.916600
816.230577	0.914374
816.549562	0.911200
816.868502	0.910108
817.187399	0.909768
817.506250	0.905998
817.825058	0.906803
818.143821	0.903679
818.462539	0.899178
818.781213	0.891215
819.099843	0.882210
819.418429	0.866751
819.736970	0.852216
820.055466	0.833833
820.373919	0.811296
820.692327	0.782553
821.010691	0.749705
821.329011	0.674926
821.647286	0.563955
821.965517	0.455977
822.283704	0.413296
822.601847	0.416764
822.919945	0.457114
823.237999	0.495097
823.556010	0.539388
823.873976	0.592399
824.191897	0.640080
824.509775	0.680246
824.827609	0.719927
825.145398	0.741186
825.463144	0.742975
825.780845	0.726385
826.098502	0.708310
826.416116	0.666095
826.733685	0.624413
827.051210	0.617101
827.368692	0.631598
827.686129	0.668858
828.003522	0.717587
828.320872	0.761473
828.638177	0.801139
828.955439	0.829335
829.272656	0.848107
829.589830	0.863364
829.906960	0.876670
830.224046	0.887030
830.541088	0.897890
830.858086	0.900823
831.175041	0.907985
831.491952	0.906167
831.808819	0.903263
832.125642	0.896442
832.442421	0.885347
832.759157	0.864582
833.075849	0.822412
833.392497	0.762585
833.709101	0.726832
834.025662	0.738218
834.342179	0.767510
834.658653	0.803706
834.975083	0.835435
835.291469	0.859737
835.607811	0.879066
835.924110	0.893709
836.240366	0.907614
836.556578	0.919188
836.872746	0.926186
837.188871	0.930333
837.504952	0.935291
837.820990	0.939147
838.136984	0.941206
838.452935	0.944842
838.768842	0.944980
839.084706	0.938778
839.400526	0.916620
839.716303	0.878909
840.032037	0.860185
840.347727	0.863619
840.663373	0.881386
840.978977	0.901664
841.294537	0.921233
841.610054	0.934398
841.925527	0.940805
842.240957	0.947475
842.556344	0.952941
842.871687	0.957742
843.186987	0.960259
843.502244	0.962227
843.817458	0.962701
844.132629	0.965924
844.447756	0.969436
844.762840	0.971338
845.077881	0.971002
845.392879	0.969336
845.707833	0.972211
846.022745	0.974037
846.337613	0.974464
846.652438	0.975324
846.967221	0.974579
847.281960	0.975850
847.596656	0.976946
847.911309	0.975992
848.225919	0.976043
848.540485	0.978098
848.855009	0.979384
849.169490	0.978482
849.483928	0.977150
849.798323	0.977743
850.112675	0.979666
850.426984	0.977409
850.741251	0.979095
851.055474	0.978670
851.369654	0.977874
851.683792	0.976333
851.997887	0.978572
852.311938	0.980201
852.625947	0.977906
852.939914	0.977365
853.253837	0.978804
853.567718	0.979452
853.881555	0.980946
854.195350	0.978524
854.509103	0.979286
854.822812	0.980542
855.136479	0.979674
855.450103	0.978624
855.763685	0.979295
856.077224	0.979168
856.390720	0.980463
856.704173	0.979626
857.017584	0.978411
857.330953	0.978443
857.644278	0.977165
857.957561	0.978318
858.270802	0.979498
858.584000	0.978706
858.897155	0.976945
859.210268	0.976783
859.523339	0.978902
859.836367	0.979392
860.149352	0.979436
860.462295	0.980150
860.775195	0.979336
861.088054	0.978628
861.400869	0.980292
861.713642	0.979480
862.026373	0.981263
862.339062	0.982225
862.651708	0.979284
862.964312	0.978765
863.276873	0.978418
863.589392	0.978759
863.901869	0.975529
864.214303	0.975404
864.526696	0.975098
864.839045	0.974296
865.151353	0.973540
865.463619	0.972285
865.775842	0.974160
866.088023	0.974898
866.400162	0.973515
866.712258	0.974924
867.024313	0.974491
867.336325	0.976202
867.648296	0.975148
867.960224	0.973328
868.272110	0.974356
868.583954	0.975856
868.895755	0.975209
869.207515	0.973909
869.519233	0.972079
869.830909	0.972708
870.142542	0.973877
870.454134	0.973579
870.765684	0.972180
871.077191	0.971744
871.388657	0.971165
871.700081	0.971655
872.011463	0.971119
872.322803	0.970086
872.634101	0.968593
872.945357	0.967357
873.256571	0.964990
873.567744	0.966316
873.878874	0.968257
874.189963	0.966848
874.501010	0.966744
874.812015	0.964508
875.122979	0.964411
875.433900	0.966495
875.744780	0.967190
876.055618	0.963899
876.366415	0.963541
876.677169	0.964144
876.987882	0.966412
877.298554	0.966011
877.609183	0.962958
877.919771	0.961257
878.230317	0.959903
878.540822	0.956027
878.851285	0.953929
879.161707	0.946930
879.472087	0.938501
879.782425	0.923243
880.092722	0.894415
880.402977	0.847999
880.713191	0.790041
881.023363	0.733330
881.333494	0.699830
881.643583	0.676248
881.953631	0.679367
882.263637	0.708343
882.573602	0.745313
882.883526	0.770287
883.193408	0.792663
883.503248	0.814291
883.813048	0.838581
884.122806	0.864148
884.432522	0.884273
884.742197	0.900862
885.051831	0.909482
885.361424	0.918595
885.670975	0.929792
885.980485	0.936870
886.289954	0.940566
886.599382	0.943835
886.908768	0.948398
887.218113	0.952068
887.527417	0.956267
887.836680	0.959243
888.145901	0.961352
888.455082	0.963842
888.764221	0.966330
889.073319	0.966324
889.382376	0.968710
889.691392	0.965754
890.000366	0.967987
890.309300	0.968438
890.618193	0.967944
890.927044	0.967374
891.235855	0.966958
891.544625	0.966518
891.853353	0.966842
892.162041	0.965083
892.470687	0.959968
892.779293	0.955952
893.087858	0.951349
893.396381	0.944667
893.704864	0.934184
894.013306	0.914093
894.321707	0.891377
894.630068	0.878639
894.938387	0.874656
895.246665	0.878468
895.554903	0.889438
895.863100	0.902197
896.171256	0.915767
896.479371	0.930133
896.787446	0.941381
897.095480	0.946018
897.403473	0.948400
897.711425	0.952848
898.019336	0.958040
898.327207	0.960868
898.635038	0.960568
898.942827	0.961567
899.250576	0.964059
899.558284	0.968030
899.865952	0.967877
900.173579	0.969052
900.481165	0.970878
900.788711	0.972389
901.096216	0.974859
901.403681	0.974876
901.711105	0.974784
902.018489	0.975443
902.325832	0.975821
902.633135	0.973876
902.940397	0.969925
903.247619	0.959846
903.554800	0.938231
903.861941	0.905319
904.169041	0.872900
904.476101	0.858557
904.783121	0.859945
905.090100	0.875522
905.397039	0.894868
905.703938	0.914667
906.010796	0.929666
906.317614	0.943729
906.624391	0.954231
906.931129	0.961495
907.237826	0.967924
907.544483	0.973126
907.851099	0.975622
908.157675	0.978672
908.464211	0.981717
908.770707	0.982537
909.077163	0.984716
909.383578	0.984983
909.689954	0.984489
909.996289	0.985379
910.302584	0.987768
910.608839	0.989044
910.915054	0.988152
911.221229	0.988814
911.527363	0.986986
911.833458	0.987228
912.139513	0.987776
912.445527	0.987153
912.751502	0.985230
913.057436	0.982525
913.363331	0.983050
913.669186	0.979813
913.975000	0.974775
914.280775	0.970209
914.586510	0.963701
914.892205	0.952837
915.197859	0.934634
915.503475	0.912581
915.809050	0.894917
916.114585	0.889816
916.420081	0.887198
916.725536	0.887720
917.030952	0.894145
917.336328	0.904773
917.641665	0.917693
917.946961	0.929814
918.252218	0.939430
918.557435	0.946508
918.862612	0.953414
919.167750	0.958553
919.472848	0.962789
919.777906	0.968541
920.082925	0.971746
920.387904	0.973582
920.692843	0.975406
920.997743	0.976959
921.302603	0.978901
921.607423	0.979737
921.912204	0.982525
922.216946	0.984208
922.521647	0.983476
922.826310	0.985622
923.130932	0.988129
923.435516	0.988882
923.740059	0.987999
924.044564	0.988222
924.349028	0.988361
924.653454	0.991196
924.957840	0.991173
925.262186	0.992016
925.566493	0.992088
925.870761	0.992847
926.174989	0.992653
926.479178	0.995569
926.783328	0.994702
927.087438	0.994781
927.391509	0.994967
927.695541	0.996193
927.999533	0.996661
928.303486	0.996539
928.607400	0.996512
928.911275	0.997198
929.215110	0.998075
929.518906	0.997066
929.822663	0.997271
930.126381	0.998398
930.430060	0.997326
930.733699	0.996903
931.037299	0.996989
931.340861	0.996789
931.644383	0.995085
931.947866	0.996725
932.251309	0.997382
932.554714	0.996298
932.858080	0.997614
933.161407	0.996749
933.464694	0.996701
933.767943	0.996694
934.071153	0.997807
934.374323	0.998221
934.677455	0.998062
934.980548	0.997438
935.283602	0.998113
935.586617	0.997108
935.889593	0.999220
936.192530	0.998054
936.495428	0.998496
936.798287	0.996191
937.101108	0.996258
937.403890	0.995596
937.706632	0.996650
938.009336	0.993891
938.312002	0.993043
938.614628	0.992966
938.917216	0.991692
939.219765	0.990116
939.522275	0.992375
939.824747	0.991070
940.127179	0.991910
940.429573	0.991813
940.731929	0.991530
941.034246	0.992201
941.336524	0.991804
941.638763	0.993580
941.940964	0.994404
942.243126	0.993159
942.545250	0.994852
942.847335	0.994682
943.149381	0.995192
943.451389	0.995305
943.753359	0.995850
944.055290	0.997603
944.357182	0.996649
944.659036	0.996995
944.960851	0.996612
945.262628	0.996598
945.564367	0.996145
945.866067	0.996304
946.167729	0.997574
946.469352	0.996379
946.770937	0.994999
947.072484	0.997735
947.373992	0.996866
947.675462	0.995852
947.976893	0.996501
948.278286	0.998070
948.579641	0.998702
948.880958	0.998040
949.182236	0.997020
949.483476	0.997826
949.784678	0.997747
950.085841	0.997852
950.386967	0.996580
950.688054	0.997822
950.989103	0.996641
951.290114	0.995913
951.591087	0.996616
951.892021	0.996052
952.192917	0.995947
952.493776	0.995572
952.794596	0.995139
953.095378	0.994783
953.396122	0.995438
953.696828	0.995186
953.997496	0.996638
954.298126	0.998041
954.598718	0.995678
954.899272	0.998431
955.199788	0.995780
955.500266	0.998419
955.800706	0.998475
956.101108	0.997752
956.401472	1.000065
956.701798	0.998180
957.002087	0.999465
957.302337	0.999564
957.602550	1.000401
957.902724	0.999234
958.202861	1.000118
958.502960	1.000941
958.803022	1.000882
959.103045	1.002131
959.403031	1.002008
959.702979	1.002620
960.002889	1.001162
960.302762	0.999694
960.602596	1.002415
960.902393	1.001692
961.202153	1.003611
961.501875	1.001430
961.801559	1.001574
962.101205	1.001489
962.400814	1.002615
962.700385	1.002127
962.999918	1.002328
963.299414	1.002500
963.598873	1.003226
963.898293	1.002326
964.197677	1.002410
964.497022	1.001706
964.796331	1.000887
965.095601	1.003270
965.394835	1.001571
965.694030	1.003861
965.993189	1.000845
966.292309	1.002115
966.591393	1.000504
966.890439	1.003169
967.189447	1.001679
967.488419	1.001924
967.787353	1.002144
968.086249	1.003365
968.385108	1.001280
968.683930	1.004708
968.982714	1.001836
969.281462	1.003179
969.580172	1.002527
969.878844	1.002978
970.177480	1.001921
970.476078	1.004206
970.774639	1.003336
971.073162	1.001803
971.371649	1.002788
971.670098	1.001377
971.968510	1.002319
972.266885	1.000823
972.565223	1.001473
972.863524	1.001276
973.161788	1.002149
973.460014	1.001804
973.758204	1.002567
974.056356	1.002091
974.354471	1.002300
974.652550	1.002459
974.950591	1.001232
975.248595	1.001366
975.546563	1.001900
975.844493	1.002221
976.142386	1.002222
976.440243	1.001675
976.738062	1.002623
977.035845	1.002516
977.333590	1.002786
977.631299	1.000952
977.928971	1.002296
978.226606	1.003096
978.524204	1.001473
978.821765	1.002296
979.119290	1.002030
979.416777	1.002579
979.714228	1.002344
980.011642	1.003119
980.309020	1.001823
980.606360	1.002401
980.903664	1.002031
981.200931	1.001132
981.498162	1.002370
981.795356	1.000334
982.092513	1.001020
982.389633	1.000674
982.686717	0.998336
982.983764	0.997978
983.280775	0.997841
983.577749	0.998746
983.874686	0.997737
984.171587	0.998511
984.468451	0.999065
984.765279	1.000535
985.062070	1.000701
985.358824	1.001654
985.655543	1.001395
985.952224	1.002738
986.248869	1.002507
986.545478	1.004211
986.842050	1.002653
987.138586	1.002730
987.435086	1.003106
987.731549	1.003950
988.027975	1.004331
988.324366	1.002882
988.620719	1.003865
988.917037	1.002651
989.213318	1.005194
989.509563	1.004679
989.805772	1.003691
990.101944	1.004225
990.398080	1.003577
990.694180	1.004226
990.990244	1.002530
991.286271	1.003079
991.582262	1.003905
991.878217	1.002464
992.174136	1.004440
992.470019	1.004042
992.765865	1.005139
993.061676	1.002470
993.357450	1.003210
993.653188	1.003946
993.948890	1.003430
994.244556	1.003343
994.540186	1.002557
994.835780	1.002486
995.131337	1.003930
995.426859	1.002546
995.722345	1.003250
996.017795	1.001688
996.313208	1.001968
996.608586	1.002906
996.903928	1.003124
997.199234	1.002841
997.494504	1.003964
997.789738	1.002112
998.084936	1.003263
998.380099	1.001861
998.675225	1.003843
998.970316	1.004818
999.265371	1.002963
999.560390	1.003032
999.855373	1.003024
1000.150320	1.003312
1000.445232	1.003528
1000.740108	1.003713
1001.034948	1.003772
1001.329752	1.003543
1001.624521	1.003044
1001.919254	1.002692
1002.213951	1.004328
1002.508613	1.003068
1002.803239	1.003270
1003.097829	1.004561
1003.392384	1.004099
1003.686903	1.002884
1003.981386	1.002310
1004.275834	1.005747
1004.570246	1.002862
1004.864623	1.003828
1005.158964	1.003981
1005.453270	1.003570
1005.747540	1.003356
1006.041775	1.004541
1006.335974	1.003993
1006.630138	1.004582
1006.924266	1.003353
1007.218359	1.002564
1007.512416	1.004002
1007.806438	1.003870
1008.100425	1.005160
1008.394376	1.004097
1008.688292	1.003917
1008.982172	1.002915
1009.276017	1.005543
1009.569827	1.004657
1009.863602	1.003244
1010.157341	1.004536
1010.451045	1.003616
1010.744714	1.004107
1011.038347	1.004428
1011.331945	1.002235
1011.625508	1.003712
1011.919036	1.003599
1012.212528	1.003027
1012.505986	1.002644
1012.799408	1.003747
1013.092795	1.004561
1013.386147	1.004423
1013.679464	1.003865
1013.972745	1.004107
1014.265992	1.002980
1014.559204	1.004471
1014.852380	1.005335
1015.145521	1.004611
1015.438628	1.003816
1015.731699	1.003832
1016.024736	1.005252
1016.317737	1.003664
1016.610703	1.004604
1016.903635	1.004817
1017.196531	1.004133
1017.489393	1.003400
1017.782219	1.004488
1018.075011	1.003035
1018.367768	1.003768
1018.660490	1.004944
1018.953177	1.004944
1019.245829	1.004944
