Dividing Wavelength (nm)	Counts (n)	Blue Motor Position (mm): 12.600000	Red Motor Position (mm): 0.000000	
326.493990	1.002394
326.888308	1.002394
327.282561	1.002394
327.676750	1.004338
328.070874	1.004946
328.464933	1.004323
328.858929	1.004984
329.252859	1.004516
329.646726	1.003816
330.040528	1.003410
330.434265	1.004864
330.827938	1.002837
331.221547	1.004186
331.615091	1.003386
332.008571	1.005193
332.401986	1.003335
332.795338	1.003192
333.188625	1.004605
333.581847	1.003924
333.975006	1.003312
334.368100	1.003678
334.761129	1.002776
335.154095	1.003767
335.546996	1.003110
335.939833	0.998717
336.332606	0.999279
336.725315	0.998407
337.117960	1.000326
337.510540	0.998330
337.903056	1.000403
338.295508	0.999940
338.687896	1.000155
339.080220	0.998773
339.472480	0.999174
339.864676	1.000130
340.256807	0.998834
340.648875	0.999845
341.040879	0.999337
341.432818	0.999563
341.824694	0.998369
342.216506	0.999938
342.608253	1.000135
342.999937	0.999367
343.391557	0.999830
343.783113	1.000610
344.174605	1.000400
344.566033	0.998436
344.957397	0.999793
345.348697	1.000006
345.739934	0.999221
346.131106	0.998464
346.522215	0.998762
346.913260	0.998260
347.304241	0.998481
347.695159	0.999626
348.086012	0.999645
348.476802	0.999320
348.867528	0.998529
349.258191	0.999185
349.648789	0.998098
350.039324	0.998891
350.429796	0.997963
350.820203	0.996595
351.210548	0.998653
351.600828	0.998535
351.991045	0.998265
352.381198	0.999442
352.771288	0.998123
353.161314	0.998741
353.551276	0.998183
353.941175	0.995607
354.331010	0.998404
354.720782	0.998665
355.110490	0.998426
355.500135	0.997971
355.889717	0.996695
356.279235	0.996906
356.668689	0.998014
357.058080	0.997534
357.447408	0.995675
357.836672	0.997085
358.225873	0.997255
358.615010	0.997590
359.004084	0.996647
359.393095	0.999281
359.782043	0.997916
360.170927	0.997902
360.559748	0.998597
360.948505	0.997276
361.337199	0.996681
361.725830	0.998169
362.114398	0.998124
362.502903	0.996639
362.891344	0.995313
363.279722	0.997370
363.668037	0.998126
364.056289	0.997383
364.444478	0.997862
364.832603	0.996615
365.220665	0.997606
365.608665	0.995903
365.996601	0.997398
366.384474	0.995035
366.772284	0.996417
367.160031	0.994515
367.547715	0.996220
367.935336	0.993935
368.322893	0.993867
368.710388	0.992760
369.097820	0.990837
369.485189	0.987940
369.872495	0.986965
370.259738	0.984780
370.646918	0.981703
371.034035	0.979915
371.421090	0.975834
371.808081	0.971530
372.195010	0.970667
372.581875	0.963747
372.968678	0.959924
373.355418	0.956514
373.742096	0.948176
374.128710	0.944384
374.515262	0.939328
374.901751	0.933860
375.288177	0.929237
375.674540	0.921274
376.060841	0.916481
376.447079	0.908978
376.833254	0.902007
377.219367	0.897291
377.605417	0.886547
377.991404	0.882707
378.377329	0.876214
378.763191	0.870211
379.148991	0.861271
379.534727	0.853358
379.920402	0.845534
380.306013	0.842037
380.691563	0.828707
381.077049	0.822264
381.462474	0.818599
381.847835	0.806530
382.233134	0.802380
382.618371	0.802348
383.003545	0.785846
383.388657	0.783076
383.773706	0.775642
384.158693	0.771357
384.543618	0.766853
384.928480	0.757796
385.313280	0.747738
385.698017	0.748092
386.082692	0.736274
386.467305	0.733576
386.851856	0.728771
387.236344	0.723364
387.620770	0.717536
388.005133	0.711448
388.389435	0.707052
388.773674	0.703694
389.157851	0.695753
389.541965	0.693347
389.926018	0.700486
390.310008	0.686481
390.693936	0.684921
391.077802	0.675442
391.461606	0.677705
391.845348	0.666241
392.229027	0.665837
392.612645	0.664679
392.996200	0.650439
393.379694	0.643713
393.763125	0.634546
394.146494	0.638704
394.529801	0.629334
394.913047	0.621461
395.296230	0.627229
395.679351	0.618407
396.062410	0.614583
396.445408	0.618334
396.828343	0.613641
397.211217	0.608668
397.594028	0.620521
397.976778	0.611444
398.359466	0.607921
398.742092	0.603103
399.124656	0.615608
399.507158	0.603409
399.889598	0.600753
400.271977	0.591794
400.654294	0.595180
401.036549	0.594516
401.418742	0.598707
401.800874	0.584884
402.182944	0.581189
402.564952	0.572748
402.946898	0.574704
403.328783	0.576286
403.710606	0.587515
404.092367	0.561998
404.474067	0.567262
404.855705	0.566289
405.237282	0.574441
405.618797	0.560698
406.000250	0.556494
406.381642	0.546903
406.762972	0.551943
407.144240	0.550030
407.525447	0.550134
407.906593	0.542946
408.287677	0.538853
408.668700	0.547096
409.049661	0.541333
409.430560	0.535670
409.811399	0.544986
410.192176	0.526272
410.572891	0.534028
410.953545	0.521742
411.334138	0.535390
411.714669	0.526978
412.095139	0.540593
412.475547	0.523735
412.855894	0.525787
413.236180	0.524716
413.616405	0.530303
413.996568	0.520547
414.376670	0.527211
414.756711	0.531043
415.136691	0.528309
415.516609	0.519649
415.896466	0.515844
416.276262	0.512320
416.655997	0.514330
417.035670	0.495754
417.415283	0.487281
417.794834	0.491842
418.174324	0.497388
418.553753	0.506753
418.933121	0.488701
419.312428	0.482571
419.691674	0.488491
420.070859	0.476696
420.449983	0.484568
420.829045	0.473444
421.208047	0.482443
421.586988	0.475621
421.965867	0.474646
422.344686	0.463636
422.723444	0.476290
423.102141	0.493159
423.480777	0.465537
423.859352	0.486356
424.237866	0.463830
424.616319	0.464663
424.994712	0.455492
425.373044	0.465896
425.751314	0.454166
426.129524	0.470421
426.507673	0.453804
426.885762	0.447497
427.263789	0.453123
427.641756	0.462876
428.019662	0.452687
428.397508	0.452037
428.775292	0.456318
429.153016	0.448131
429.530679	0.454703
429.908282	0.447525
430.285824	0.458209
430.663305	0.436667
431.040726	0.457352
431.418086	0.457460
431.795385	0.448886
432.172624	0.447779
432.549802	0.448474
432.926920	0.447412
433.303977	0.446688
433.680974	0.444052
434.057910	0.442264
434.434786	0.441830
434.811601	0.444817
435.188355	0.427403
435.565050	0.436519
435.941683	0.437590
436.318257	0.421323
436.694770	0.422189
437.071222	0.420279
437.447614	0.425262
437.823946	0.431631
438.200218	0.420405
438.576429	0.430462
438.952580	0.423598
439.328670	0.419858
439.704700	0.426590
440.080670	0.427527
440.456580	0.409305
440.832429	0.417616
441.208218	0.428230
441.583947	0.417084
441.959616	0.416283
442.335224	0.422035
442.710773	0.412360
443.086261	0.411059
443.461689	0.424769
443.837057	0.414177
444.212365	0.404439
444.587612	0.411297
444.962800	0.401377
445.337927	0.403413
445.712995	0.429070
446.088002	0.390936
446.462949	0.401461
446.837837	0.406644
447.212664	0.395201
447.587431	0.386627
447.962139	0.356909
448.336786	0.316137
448.711374	0.326671
449.085901	0.370948
449.460369	0.375183
449.834776	0.378765
450.209124	0.358070
450.583412	0.350214
450.957640	0.343384
451.331808	0.354576
451.705917	0.378452
452.079965	0.383034
452.453954	0.370834
452.827883	0.377740
453.201752	0.372767
453.575562	0.383904
453.949311	0.372206
454.323001	0.379100
454.696632	0.374483
455.070202	0.367149
455.443713	0.359134
455.817164	0.353455
456.190556	0.349345
456.563888	0.346520
456.937160	0.343924
457.310373	0.361379
457.683526	0.360160
458.056619	0.365971
458.429653	0.366175
458.802628	0.369903
459.175542	0.364094
459.548398	0.346513
459.921194	0.339145
460.293930	0.339187
460.666607	0.316635
461.039224	0.304617
461.411782	0.300456
461.784280	0.299714
462.156719	0.303913
462.529099	0.308324
462.901419	0.324504
463.273680	0.328646
463.645882	0.327895
464.018024	0.333872
464.390106	0.326598
464.762130	0.311289
465.134094	0.294748
465.505999	0.263453
465.877845	0.233617
466.249631	0.220685
466.621358	0.228043
466.993026	0.242080
467.364634	0.248370
467.736184	0.256816
468.107674	0.265852
468.479105	0.264993
468.850477	0.271762
469.221790	0.278806
469.593043	0.288841
469.964238	0.293856
470.335373	0.293226
470.706449	0.291153
471.077467	0.291972
471.448425	0.254001
471.819324	0.229332
472.190164	0.228973
472.560945	0.257619
472.931667	0.280233
473.302330	0.284498
473.672934	0.296032
474.043479	0.284029
474.413965	0.286049
474.784393	0.289773
475.154761	0.284590
475.525070	0.281672
475.895321	0.287309
476.265513	0.281795
476.635645	0.276617
477.005719	0.276632
477.375734	0.273439
477.745691	0.266751
478.115588	0.262782
478.485427	0.256684
478.855207	0.243594
479.224928	0.225874
479.594591	0.214055
479.964194	0.217403
480.333739	0.218870
480.703226	0.220156
481.072653	0.218476
481.442022	0.214279
481.811333	0.210807
482.180584	0.214140
482.549777	0.219680
482.918912	0.223280
483.287988	0.222750
483.657005	0.222323
484.025964	0.228836
484.394864	0.225939
484.763706	0.226529
485.132489	0.231562
485.501213	0.232541
485.869879	0.230796
486.238487	0.233748
486.607036	0.231825
486.975527	0.236659
487.343959	0.232241
487.712333	0.231295
488.080648	0.232837
488.448905	0.231966
488.817104	0.232965
489.185244	0.227658
489.553326	0.224564
489.921350	0.214534
490.289315	0.196921
490.657222	0.191675
491.025070	0.193188
491.392861	0.195106
491.760593	0.200905
492.128267	0.206698
492.495883	0.212099
492.863440	0.218312
493.230939	0.224816
493.598380	0.226454
493.965763	0.228463
494.333088	0.230576
494.700354	0.232483
495.067563	0.231365
495.434713	0.234526
495.801805	0.232127
496.168839	0.233932
496.535815	0.235278
496.902733	0.235200
497.269593	0.236796
497.636395	0.234248
498.003139	0.234837
498.369825	0.237944
498.736453	0.234300
499.103023	0.235976
499.469535	0.235175
499.835989	0.235725
500.202385	0.236230
500.568723	0.239650
500.935003	0.234899
501.301226	0.239016
501.667390	0.233404
502.033497	0.231384
502.399546	0.234307
502.765537	0.236458
503.131470	0.234586
503.497345	0.231360
503.863163	0.239399
504.228923	0.232689
504.594625	0.231290
504.960269	0.236837
505.325856	0.231922
505.691385	0.236408
506.056856	0.233375
506.422270	0.232721
506.787625	0.235035
507.152924	0.232584
507.518164	0.233113
507.883347	0.234491
508.248472	0.236376
508.613540	0.231404
508.978550	0.233737
509.343503	0.234224
509.708398	0.232005
510.073236	0.229679
510.438016	0.229316
510.802738	0.230666
511.167403	0.229282
511.532010	0.231566
511.896561	0.226829
512.261053	0.225443
512.625488	0.227735
512.989866	0.228142
513.354186	0.228375
513.718449	0.230526
514.082655	0.226669
514.446803	0.228810
514.810894	0.226456
515.174927	0.229286
515.538904	0.228717
515.902822	0.225526
516.266684	0.228085
516.630488	0.229316
516.994235	0.228108
517.357925	0.226991
517.721558	0.224917
518.085133	0.224771
518.448651	0.224577
518.812112	0.227112
519.175516	0.226721
519.538863	0.224288
519.902152	0.226118
520.265385	0.222776
520.628560	0.224819
520.991678	0.225306
521.354739	0.224270
521.717743	0.225265
522.080690	0.225778
522.443580	0.222702
522.806413	0.224077
523.169189	0.223534
523.531908	0.222202
523.894569	0.225661
524.257174	0.225653
524.619722	0.223635
524.982213	0.224442
525.344647	0.223567
525.707025	0.224361
526.069345	0.222547
526.431608	0.224219
526.793815	0.222253
527.155964	0.226353
527.518057	0.225393
527.880093	0.226504
528.242072	0.224951
528.603995	0.227089
528.965860	0.228771
529.327669	0.227669
529.689421	0.228521
530.051117	0.229181
530.412755	0.227099
530.774337	0.229499
531.135862	0.230002
531.497331	0.229309
531.858743	0.232142
532.220098	0.228710
532.581396	0.231618
532.942638	0.231855
533.303824	0.233002
533.664953	0.232493
534.026025	0.234495
534.387040	0.232511
534.747999	0.232398
535.108902	0.231250
535.469748	0.236547
535.830537	0.234106
536.191270	0.234598
536.551947	0.234117
536.912567	0.234355
537.273131	0.235712
537.633638	0.236075
537.994089	0.236561
538.354483	0.237672
538.714821	0.234670
539.075103	0.234677
539.435328	0.235051
539.795497	0.239032
540.155609	0.235734
540.515665	0.234036
540.875665	0.239351
541.235609	0.238025
541.595496	0.238021
541.955328	0.234515
542.315102	0.237344
542.674821	0.238311
543.034483	0.238552
543.394090	0.238335
543.753640	0.240014
544.113134	0.234973
544.472571	0.238233
544.831953	0.235415
545.191278	0.239634
545.550548	0.238875
545.909761	0.235642
546.268918	0.236412
546.628019	0.234785
546.987064	0.237547
547.346053	0.239189
547.704986	0.237193
548.063863	0.237296
548.422684	0.237605
548.781449	0.239203
549.140158	0.237388
549.498811	0.240013
549.857408	0.242726
550.215949	0.237730
550.574434	0.240663
550.932864	0.239019
551.291237	0.237360
551.649555	0.239232
552.007817	0.238687
552.366022	0.239841
552.724173	0.239996
553.082267	0.239919
553.440305	0.237175
553.798288	0.241247
554.156215	0.237976
554.514086	0.238843
554.871902	0.242048
555.229661	0.241234
555.587365	0.241757
555.945014	0.244327
556.302606	0.241253
556.660143	0.243716
557.017625	0.240401
557.375050	0.242294
557.732421	0.239548
558.089735	0.241711
558.446994	0.241766
558.804197	0.240850
559.161345	0.240431
559.518437	0.244120
559.875474	0.242272
560.232455	0.241594
560.589381	0.242805
560.946251	0.243066
561.303065	0.240514
561.659825	0.241878
562.016528	0.243576
562.373177	0.246292
562.729770	0.243685
563.086307	0.245501
563.442789	0.243775
563.799216	0.246034
564.155587	0.245115
564.511904	0.246340
564.868164	0.246227
565.224370	0.246063
565.580520	0.248321
565.936615	0.247839
566.292654	0.250904
566.648638	0.247884
567.004567	0.248857
567.360441	0.249482
567.716260	0.251512
568.072023	0.248978
568.427732	0.250484
568.783385	0.252600
569.138982	0.250996
569.494525	0.250689
569.850013	0.253491
570.205445	0.252143
570.560823	0.254752
570.916145	0.256731
571.271412	0.255210
571.626625	0.256658
571.981782	0.257417
572.336884	0.258422
572.691931	0.258148
573.046923	0.259706
573.401860	0.260475
573.756743	0.262568
574.111570	0.261385
574.466342	0.262038
574.821059	0.261208
575.175722	0.264371
575.530330	0.263986
575.884882	0.264628
576.239380	0.266493
576.593823	0.267092
576.948211	0.267201
577.302544	0.270208
577.656823	0.270054
578.011047	0.269800
578.365216	0.270907
578.719330	0.273266
579.073389	0.273147
579.427394	0.274348
579.781344	0.275460
580.135239	0.277043
580.489080	0.277171
580.842866	0.279775
581.196597	0.280183
581.550273	0.279178
581.903895	0.280348
582.257463	0.278668
582.610975	0.282486
582.964434	0.281935
583.317837	0.284765
583.671186	0.285379
584.024481	0.285841
584.377721	0.288181
584.730906	0.289176
585.084037	0.288956
585.437113	0.291163
585.790135	0.290758
586.143103	0.294130
586.496016	0.295099
586.848874	0.292761
587.201679	0.294141
587.554428	0.297643
587.907124	0.297147
588.259765	0.298074
588.612352	0.298959
588.964884	0.303077
589.317362	0.303194
589.669786	0.303644
590.022155	0.302352
590.374470	0.302111
590.726731	0.304209
591.078937	0.309933
591.431090	0.306742
591.783188	0.311139
592.135232	0.312396
592.487222	0.312112
592.839157	0.311036
593.191038	0.313947
593.542866	0.316201
593.894639	0.319920
594.246358	0.318872
594.598022	0.319088
594.949633	0.323017
595.301190	0.324613
595.652692	0.323860
596.004141	0.321208
596.355535	0.329098
596.706876	0.330552
597.058162	0.333180
597.409395	0.331397
597.760573	0.329670
598.111698	0.333277
598.462768	0.334657
598.813785	0.336361
599.164748	0.338509
599.515657	0.339541
599.866511	0.344414
600.217312	0.339895
600.568060	0.345934
600.918753	0.343071
601.269392	0.344766
601.619978	0.348920
601.970510	0.347701
602.320988	0.348727
602.671412	0.347481
603.021783	0.350970
603.372100	0.352760
603.722363	0.353783
604.072572	0.355536
604.422728	0.356351
604.772830	0.359376
605.122878	0.360145
605.472872	0.361480
605.822813	0.361342
606.172701	0.364892
606.522534	0.363235
606.872314	0.364632
607.222041	0.366674
607.571714	0.366067
607.921333	0.368715
608.270899	0.369741
608.620411	0.367534
608.969870	0.373017
609.319276	0.374028
609.668627	0.375323
610.017926	0.375245
610.367171	0.375867
610.716362	0.377218
611.065500	0.379373
611.414585	0.379848
611.763616	0.380733
612.112594	0.383457
612.461518	0.384618
612.810389	0.383717
613.159207	0.387333
613.507971	0.390790
613.856682	0.388567
614.205340	0.391095
614.553945	0.390436
614.902496	0.395680
615.250994	0.395669
615.599439	0.397765
615.947830	0.399036
616.296169	0.401715
616.644454	0.403642
616.992686	0.405179
617.340864	0.405469
617.688990	0.410021
618.037063	0.409550
618.385082	0.413384
618.733048	0.412677
619.080961	0.416012
619.428821	0.417604
619.776628	0.419354
620.124382	0.423774
620.472083	0.425941
620.819731	0.426304
621.167326	0.431972
621.514868	0.433385
621.862357	0.438141
622.209793	0.439240
622.557176	0.443364
622.904506	0.445997
623.251783	0.449154
623.599007	0.453531
623.946179	0.453926
624.293297	0.458680
624.640363	0.462866
624.987376	0.465370
625.334336	0.469086
625.681243	0.473567
626.028097	0.475415
626.374899	0.477971
626.721647	0.480981
627.068343	0.484690
627.414987	0.488207
627.761577	0.491684
628.108115	0.492069
628.454600	0.498794
628.801032	0.499650
629.147412	0.501723
629.493739	0.505512
629.840014	0.509513
630.186236	0.510046
630.532405	0.516239
630.878521	0.516498
631.224585	0.520542
631.570597	0.524875
631.916556	0.527054
632.262462	0.528296
632.608316	0.532402
632.954117	0.535087
633.299866	0.537278
633.645562	0.540618
633.991206	0.545547
634.336797	0.548973
634.682336	0.553063
635.027823	0.556648
635.373257	0.558211
635.718639	0.563797
636.063968	0.565087
636.409245	0.570637
636.754470	0.572905
637.099642	0.576743
637.444762	0.581714
637.789829	0.583055
638.134845	0.587092
638.479808	0.590362
638.824719	0.592069
639.169577	0.596650
639.514383	0.597556
639.859137	0.602633
640.203839	0.603559
640.548489	0.606566
640.893086	0.608744
641.237632	0.612826
641.582125	0.613743
641.926566	0.617312
642.270955	0.618992
642.615292	0.621081
642.959576	0.623533
643.303809	0.625306
643.647990	0.627299
643.992118	0.629788
644.336195	0.632844
644.680219	0.634984
645.024192	0.636527
645.368112	0.635560
645.711981	0.636292
646.055797	0.635980
646.399562	0.639734
646.743274	0.637896
647.086935	0.637440
647.430544	0.639673
647.774101	0.641558
648.117606	0.642735
648.461059	0.645531
648.804460	0.649003
649.147810	0.652687
649.491108	0.656165
649.834354	0.659561
650.177548	0.664371
650.520690	0.669696
650.863781	0.672100
651.206820	0.674598
651.549807	0.678757
651.892742	0.683800
652.235626	0.685253
652.578458	0.687798
652.921238	0.693759
653.263967	0.693776
653.606644	0.696723
653.949269	0.700157
654.291843	0.702599
654.634365	0.702975
654.976836	0.707888
655.319255	0.709195
655.661622	0.712694
656.003938	0.714635
656.346203	0.716227
656.688416	0.719005
657.030577	0.721038
657.372687	0.724558
657.714746	0.726914
658.056753	0.727249
658.398708	0.730275
658.740612	0.732432
659.082465	0.733552
659.424266	0.734861
659.766016	0.736520
660.107715	0.740275
660.449362	0.740602
660.790958	0.743040
661.132503	0.746073
661.473996	0.745861
661.815438	0.748896
662.156829	0.750398
662.498168	0.752830
662.839456	0.753821
663.180693	0.755140
663.521879	0.756219
663.863013	0.758259
664.204097	0.760030
664.545129	0.759344
664.886110	0.761777
665.227040	0.763017
665.567918	0.764629
665.908746	0.765885
666.249522	0.767052
666.590248	0.768961
666.930922	0.769681
667.271545	0.771857
667.612118	0.773062
667.952639	0.774420
668.293109	0.776315
668.633528	0.778916
668.973896	0.780160
669.314213	0.782130
669.654480	0.785563
669.994695	0.785795
670.334859	0.788395
670.674973	0.791234
671.015035	0.792304
671.355047	0.794600
671.695008	0.795641
672.034918	0.797752
672.374777	0.799725
672.714585	0.800464
673.054342	0.802053
673.394049	0.803143
673.733705	0.804955
674.073310	0.807813
674.412864	0.808842
674.752368	0.811604
675.091820	0.813967
675.431223	0.815995
675.770574	0.818072
676.109875	0.820209
676.449125	0.822448
676.788324	0.824524
677.127473	0.827862
677.466571	0.829769
677.805619	0.832085
678.144616	0.834583
678.483562	0.836449
678.822458	0.838314
679.161303	0.839561
679.500098	0.841830
679.838842	0.843782
680.177535	0.843789
680.516179	0.844254
680.854771	0.846038
681.193314	0.845125
681.531805	0.842340
681.870247	0.840398
682.208638	0.838776
682.546978	0.839792
682.885268	0.841640
683.223508	0.845257
683.561697	0.847255
683.899836	0.850517
684.237925	0.851080
684.575963	0.853149
684.913951	0.855252
685.251889	0.855446
685.589776	0.855763
685.927614	0.856692
686.265401	0.857738
686.603137	0.857625
686.940824	0.857733
687.278460	0.857730
687.616046	0.857803
687.953582	0.856513
688.291068	0.857971
688.628504	0.858143
688.965889	0.858116
689.303224	0.860049
689.640510	0.863206
689.977745	0.866432
690.314930	0.869383
690.652065	0.872182
690.989150	0.875355
691.326185	0.879266
691.663170	0.882905
692.000105	0.886063
692.336990	0.888664
692.673825	0.890346
693.010610	0.892898
693.347345	0.895042
693.684030	0.898480
694.020665	0.899811
694.357251	0.901949
694.693786	0.903026
695.030272	0.903015
695.366707	0.906337
695.703093	0.907278
696.039429	0.908464
696.375716	0.910324
696.711952	0.909837
697.048139	0.911361
697.384276	0.912687
697.720363	0.912463
698.056400	0.913146
698.392388	0.914985
698.728326	0.916212
699.064214	0.918192
699.400053	0.918105
699.735842	0.920589
700.071581	0.922311
700.407270	0.924150
700.742910	0.925397
701.078501	0.926943
701.414042	0.928132
701.749533	0.928495
702.084974	0.931900
702.420366	0.931915
702.755709	0.932919
703.091002	0.935195
703.426246	0.935913
703.761440	0.936317
704.096584	0.937088
704.431679	0.938839
704.766725	0.938926
705.101721	0.941104
705.436668	0.941004
705.771565	0.941077
706.106413	0.941339
706.441212	0.943267
706.775961	0.942926
707.110661	0.942625
707.445311	0.942867
707.779913	0.943837
708.114465	0.943372
708.448967	0.943518
708.783421	0.943626
709.117825	0.942209
709.452180	0.941671
709.786485	0.941349
710.120742	0.939000
710.454949	0.938678
710.789107	0.937546
711.123216	0.936292
711.457275	0.936438
711.791286	0.935654
712.125247	0.936697
712.459159	0.936524
712.793023	0.935727
713.126837	0.938814
713.460602	0.939034
713.794318	0.939502
714.127985	0.941303
714.461602	0.945151
714.795171	0.945997
715.128691	0.947810
715.462162	0.950322
715.795584	0.951083
716.128957	0.953608
716.462281	0.955203
716.795556	0.954994
717.128782	0.957582
717.461960	0.957461
717.795088	0.958299
718.128167	0.959746
718.461198	0.960748
718.794180	0.961215
719.127113	0.961830
719.459997	0.962630
719.792833	0.963079
720.125619	0.963856
720.458357	0.964708
720.791046	0.966110
721.123686	0.965667
721.456278	0.966315
721.788821	0.966605
722.121315	0.968558
722.453761	0.968008
722.786158	0.967119
723.118506	0.968594
723.450805	0.968329
723.783056	0.970043
724.115259	0.968680
724.447412	0.969221
724.779518	0.969837
725.111574	0.969269
725.443582	0.968759
725.775542	0.969237
726.107453	0.969997
726.439315	0.969145
726.771129	0.968857
727.102895	0.968055
727.434612	0.968197
727.766281	0.967677
728.097901	0.966302
728.429473	0.967992
728.760996	0.967647
729.092471	0.968833
729.423897	0.969627
729.755276	0.970258
730.086606	0.970259
730.417887	0.969662
730.749120	0.968961
731.080305	0.969377
731.411442	0.968083
731.742530	0.969160
732.073570	0.968906
732.404562	0.969593
732.735506	0.969131
733.066401	0.968942
733.397249	0.971084
733.728048	0.972001
734.058798	0.974946
734.389501	0.975483
734.720156	0.976164
735.050762	0.977375
735.381320	0.977880
735.711831	0.976784
736.042293	0.977128
736.372707	0.979316
736.703073	0.977226
737.033391	0.978206
737.363661	0.979494
737.693883	0.978786
738.024056	0.978221
738.354182	0.979252
738.684260	0.977928
739.014290	0.976266
739.344272	0.976497
739.674207	0.977178
740.004093	0.976930
740.333931	0.976214
740.663722	0.976813
740.993464	0.977308
741.323159	0.978043
741.652806	0.978247
741.982405	0.979372
742.311956	0.980574
742.641460	0.980112
742.970915	0.980383
743.300323	0.980373
743.629683	0.981282
743.958996	0.982149
744.288260	0.981521
744.617477	0.982512
744.946647	0.983143
745.275768	0.984446
745.604842	0.984173
745.933869	0.983965
746.262847	0.984531
746.591778	0.983289
746.920662	0.984676
747.249498	0.985391
747.578286	0.985410
747.907027	0.984215
748.235720	0.983605
748.564365	0.984683
748.892963	0.983666
749.221514	0.984247
749.550017	0.984322
749.878473	0.984576
750.206881	0.986788
750.535242	0.985454
750.863555	0.985115
751.191821	0.985235
751.520039	0.985241
751.848210	0.984443
752.176334	0.986160
752.504411	0.985835
752.832440	0.985138
753.160421	0.986226
753.488356	0.986818
753.816243	0.986160
754.144082	0.986202
754.471875	0.987073
754.799620	0.987356
755.127318	0.986392
755.454969	0.986845
755.782572	0.987929
756.110129	0.987897
756.437638	0.988385
756.765100	0.988178
757.092515	0.987363
757.419882	0.987599
757.747203	0.987261
758.074477	0.989015
758.401703	0.988379
758.728882	0.987488
759.056014	0.987027
759.383099	0.987546
759.710138	0.987382
760.037129	0.987021
760.364073	0.986832
760.690970	0.986661
761.017820	0.986630
761.344623	0.987267
761.671379	0.987734
761.998088	0.986505
762.324751	0.985650
762.651366	0.984183
762.977935	0.981010
763.304456	0.978075
763.630931	0.975118
763.957359	0.976038
764.283740	0.979779
764.610074	0.981907
764.936362	0.982625
765.262602	0.985070
765.588796	0.986527
765.914943	0.986683
766.241044	0.987785
766.567097	0.988235
766.893104	0.989454
767.219064	0.988497
767.544978	0.989244
767.870845	0.990453
768.196665	0.991373
768.522438	0.991007
768.848165	0.990789
769.173846	0.991019
769.499479	0.992551
769.825066	0.992339
770.150607	0.992979
770.476101	0.990885
770.801548	0.992451
771.126949	0.992606
771.452303	0.992020
771.777611	0.992505
772.102872	0.992466
772.428087	0.992598
772.753256	0.993358
773.078378	0.993608
773.403453	0.993167
773.728482	0.994657
774.053465	0.993229
774.378401	0.993628
774.703291	0.994299
775.028135	0.994771
775.352932	0.992501
775.677683	0.994127
776.002388	0.994366
776.327046	0.993555
776.651658	0.995116
776.976224	0.994656
777.300743	0.993532
777.625216	0.994434
777.949643	0.995124
778.274024	0.994417
778.598359	0.993847
778.922647	0.993919
779.246889	0.994569
779.571086	0.993436
779.895236	0.994371
780.219339	0.995288
780.543397	0.994644
780.867409	0.994971
781.191374	0.993998
781.515294	0.994693
781.839167	0.995060
782.162995	0.994956
782.486776	0.993959
782.810511	0.994749
783.134201	0.995085
783.457844	0.994513
783.781441	0.994750
784.104993	0.993994
784.428498	0.994915
784.751958	0.996302
785.075372	0.995863
785.398739	0.994592
785.722061	0.994204
786.045337	0.995412
786.368568	0.994119
786.691752	0.994435
787.014891	0.994514
787.337983	0.993710
787.661030	0.994039
787.984031	0.994057
788.306987	0.992794
788.629897	0.990440
788.952760	0.993306
789.275579	0.993044
789.598351	0.992831
789.921078	0.994509
790.243759	0.993400
790.566395	0.994225
790.888984	0.995628
791.211529	0.995018
791.534027	0.994861
791.856480	0.994978
792.178888	0.994938
792.501249	0.995024
792.823566	0.996251
793.145836	0.994901
793.468062	0.995227
793.790241	0.996762
794.112375	0.995136
794.434464	0.995091
794.756507	0.994713
795.078505	0.994731
795.400457	0.995921
795.722364	0.994939
796.044226	0.995273
796.366042	0.993130
796.687812	0.993612
797.009538	0.994828
797.331218	0.994349
797.652852	0.995994
797.974442	0.994341
798.295986	0.995515
798.617484	0.994443
798.938938	0.995162
799.260346	0.993611
799.581709	0.994969
799.903026	0.994548
800.224299	0.994872
800.545526	0.994614
800.866708	0.994256
801.187845	0.995901
801.508936	0.995543
801.829983	0.996350
802.150984	0.995742
802.471940	0.996838
802.792851	0.995433
803.113717	0.996275
803.434538	0.996990
803.755314	0.996934
804.076045	0.995734
804.396731	0.995650
804.717372	0.994849
805.037967	0.996824
805.358518	0.995454
805.679024	0.996368
805.999485	0.996508
806.319901	0.995819
806.640272	0.996446
806.960598	0.995967
807.280879	0.995091
807.601115	0.995121
807.921306	0.997200
808.241453	0.995191
808.561554	0.995795
808.881611	0.996515
809.201623	0.995441
809.521590	0.996115
809.841513	0.996194
810.161390	0.995087
810.481223	0.995745
810.801011	0.997266
811.120755	0.997004
811.440453	0.995998
811.760107	0.996448
812.079716	0.995747
812.399281	0.996179
812.718801	0.996048
813.038276	0.996229
813.357707	0.996864
813.677093	0.996729
813.996434	0.996638
814.315731	0.997333
814.634983	0.996292
814.954191	0.996099
815.273354	0.994714
815.592473	0.995812
815.911547	0.996914
816.230577	0.995778
816.549562	0.995868
816.868502	0.994770
817.187399	0.995971
817.506250	0.996341
817.825058	0.994451
818.143821	0.995116
818.462539	0.994420
818.781213	0.993783
819.099843	0.995058
819.418429	0.992483
819.736970	0.992546
820.055466	0.990484
820.373919	0.989346
820.692327	0.989038
821.010691	0.986110
821.329011	0.981693
821.647286	0.976286
821.965517	0.970680
822.283704	0.964351
822.601847	0.962330
822.919945	0.963332
823.237999	0.966641
823.556010	0.969695
823.873976	0.973322
824.191897	0.976240
824.509775	0.979336
824.827609	0.981404
825.145398	0.982211
825.463144	0.982314
825.780845	0.982523
826.098502	0.982643
826.416116	0.982213
826.733685	0.977968
827.051210	0.975378
827.368692	0.975986
827.686129	0.978019
828.003522	0.982146
828.320872	0.984428
828.638177	0.986110
828.955439	0.989290
829.272656	0.990225
829.589830	0.990629
829.906960	0.992537
830.224046	0.992823
830.541088	0.992933
830.858086	0.993656
831.175041	0.995249
831.491952	0.993959
831.808819	0.994940
832.125642	0.993948
832.442421	0.994416
832.759157	0.992993
833.075849	0.989488
833.392497	0.986532
833.709101	0.984422
834.025662	0.983312
834.342179	0.984501
834.658653	0.988596
834.975083	0.989586
835.291469	0.990311
835.607811	0.991914
835.924110	0.992549
836.240366	0.994929
836.556578	0.994705
836.872746	0.995516
837.188871	0.995248
837.504952	0.996166
837.820990	0.997837
838.136984	0.996442
838.452935	0.997191
838.768842	0.996849
839.084706	0.996392
839.400526	0.996600
839.716303	0.992386
840.032037	0.991558
840.347727	0.990348
840.663373	0.992252
840.978977	0.992400
841.294537	0.994503
841.610054	0.995849
841.925527	0.996796
842.240957	0.996826
842.556344	0.996298
842.871687	0.997440
843.186987	0.997252
843.502244	0.998231
843.817458	0.997279
844.132629	0.997843
844.447756	0.999157
844.762840	0.998738
845.077881	0.999028
845.392879	0.997102
845.707833	0.998863
846.022745	0.998689
846.337613	0.999482
846.652438	0.998554
846.967221	0.999447
847.281960	0.999411
847.596656	0.999772
847.911309	0.999290
848.225919	0.998877
848.540485	0.999723
848.855009	0.999986
849.169490	1.000411
849.483928	0.998562
849.798323	0.998648
850.112675	0.999593
850.426984	0.999196
850.741251	0.998364
851.055474	0.999882
851.369654	1.000726
851.683792	0.998372
851.997887	0.999006
852.311938	0.999847
852.625947	0.998331
852.939914	0.998551
853.253837	0.999540
853.567718	0.999713
853.881555	0.998643
854.195350	0.998810
854.509103	0.999310
854.822812	0.999721
855.136479	0.999389
855.450103	1.000025
855.763685	1.000389
856.077224	0.999748
856.390720	0.999052
856.704173	0.999382
857.017584	1.000789
857.330953	0.998755
857.644278	0.999048
857.957561	0.998952
858.270802	0.998281
858.584000	0.998859
858.897155	0.997905
859.210268	0.999586
859.523339	0.998646
859.836367	1.000109
860.149352	0.998540
860.462295	0.998628
860.775195	0.999348
861.088054	0.997945
861.400869	0.998691
861.713642	0.999068
862.026373	0.999321
862.339062	0.998486
862.651708	0.999648
862.964312	0.999125
863.276873	0.997412
863.589392	0.998114
863.901869	0.999049
864.214303	0.999103
864.526696	0.999006
864.839045	0.998692
865.151353	0.998074
865.463619	0.997492
865.775842	0.999218
866.088023	0.999635
866.400162	0.999420
866.712258	0.999929
867.024313	0.999143
867.336325	0.999630
867.648296	0.999889
867.960224	0.998633
868.272110	0.999391
868.583954	0.998856
868.895755	0.998101
869.207515	0.997601
869.519233	0.999327
869.830909	0.998155
870.142542	0.997676
870.454134	0.998411
870.765684	0.997649
871.077191	0.998404
871.388657	0.997745
871.700081	0.998065
872.011463	0.998384
872.322803	0.997430
872.634101	0.997351
872.945357	0.996781
873.256571	0.997457
873.567744	0.997792
873.878874	0.997430
874.189963	0.996400
874.501010	0.999439
874.812015	0.998392
875.122979	0.997058
875.433900	0.996540
875.744780	0.996994
876.055618	0.996276
876.366415	0.996227
876.677169	0.996609
876.987882	0.996862
877.298554	0.997468
877.609183	0.996875
877.919771	0.996534
878.230317	0.996846
878.540822	0.995599
878.851285	0.994969
879.161707	0.994436
879.472087	0.996413
879.782425	0.991818
880.092722	0.989106
880.402977	0.986091
880.713191	0.981310
881.023363	0.975058
881.333494	0.970429
881.643583	0.971152
881.953631	0.970077
882.263637	0.970194
882.573602	0.972148
882.883526	0.975186
883.193408	0.978247
883.503248	0.979970
883.813048	0.981525
884.122806	0.984432
884.432522	0.985508
884.742197	0.989135
885.051831	0.989972
885.361424	0.990548
885.670975	0.993268
885.980485	0.993024
886.289954	0.993719
886.599382	0.993216
886.908768	0.994549
887.218113	0.994599
887.527417	0.994816
887.836680	0.995319
888.145901	0.996603
888.455082	0.997585
888.764221	0.997207
889.073319	0.996540
889.382376	0.997258
889.691392	0.995424
890.000366	0.998264
890.309300	0.997813
890.618193	0.997202
890.927044	0.995980
891.235855	0.997681
891.544625	0.997416
891.853353	0.995567
892.162041	0.995800
892.470687	0.996464
892.779293	0.994529
893.087858	0.994156
893.396381	0.994366
893.704864	0.991856
894.013306	0.990757
894.321707	0.988330
894.630068	0.985740
894.938387	0.984161
895.246665	0.985368
895.554903	0.985435
895.863100	0.988719
896.171256	0.988719
896.479371	0.990823
896.787446	0.991815
897.095480	0.991885
897.403473	0.993092
897.711425	0.994115
898.019336	0.995409
898.327207	0.995470
898.635038	0.994929
898.942827	0.995909
899.250576	0.995615
899.558284	0.996189
899.865952	0.995034
900.173579	0.995725
900.481165	0.996134
900.788711	0.996775
901.096216	0.997413
901.403681	0.996487
901.711105	0.996410
902.018489	0.996655
902.325832	0.997073
902.633135	0.996734
902.940397	0.996865
903.247619	0.995282
903.554800	0.993199
903.861941	0.989614
904.169041	0.983875
904.476101	0.982114
904.783121	0.980967
905.090100	0.983065
905.397039	0.985425
905.703938	0.989353
906.010796	0.989777
906.317614	0.991711
906.624391	0.994060
906.931129	0.995207
907.237826	0.995299
907.544483	0.996153
907.851099	0.996349
908.157675	0.996948
908.464211	0.997987
908.770707	0.996976
909.077163	0.997489
909.383578	0.997726
909.689954	0.997850
909.996289	0.999166
910.302584	0.998496
910.608839	0.999551
910.915054	0.998062
911.221229	1.000773
911.527363	0.997441
911.833458	0.998625
912.139513	0.997917
912.445527	0.999100
912.751502	0.998373
913.057436	0.997649
913.363331	0.997670
913.669186	0.997694
913.975000	0.997264
914.280775	0.994832
914.586510	0.993159
914.892205	0.992271
915.197859	0.990687
915.503475	0.989076
915.809050	0.985397
916.114585	0.982353
916.420081	0.982869
916.725536	0.983772
917.030952	0.984864
917.336328	0.985308
917.641665	0.987941
917.946961	0.988817
918.252218	0.990073
918.557435	0.991012
918.862612	0.992678
919.167750	0.994689
919.472848	0.994997
919.777906	0.995874
920.082925	0.997250
920.387904	0.996539
920.692843	0.996654
920.997743	0.995178
921.302603	0.996488
921.607423	0.996788
921.912204	0.996534
922.216946	0.999662
922.521647	0.999176
922.826310	0.998023
923.130932	0.999311
923.435516	0.999027
923.740059	0.998376
924.044564	0.998216
924.349028	0.997717
924.653454	0.999197
924.957840	0.999471
925.262186	0.997729
925.566493	0.999481
925.870761	0.999758
926.174989	0.998580
926.479178	1.001071
926.783328	0.999216
927.087438	0.999564
927.391509	0.999762
927.695541	0.999484
927.999533	1.001261
928.303486	1.000026
928.607400	1.000855
928.911275	1.001332
929.215110	1.001052
929.518906	1.000623
929.822663	1.001299
930.126381	1.000926
930.430060	0.999907
930.733699	1.000033
931.037299	1.000905
931.340861	1.001528
931.644383	0.998608
931.947866	1.000330
932.251309	1.000105
932.554714	0.998722
932.858080	1.000590
933.161407	0.999609
933.464694	1.000088
933.767943	1.000665
934.071153	1.000994
934.374323	1.000827
934.677455	1.000483
934.980548	0.999354
935.283602	1.001409
935.586617	1.000303
935.889593	1.001215
936.192530	0.999899
936.495428	1.000631
936.798287	0.999310
937.101108	0.999719
937.403890	1.000190
937.706632	1.001416
938.009336	0.999144
938.312002	0.998540
938.614628	0.999254
938.917216	0.999041
939.219765	0.998213
939.522275	0.999517
939.824747	0.998962
940.127179	0.999629
940.429573	1.000113
940.731929	0.998531
941.034246	0.998382
941.336524	0.997738
941.638763	0.998270
941.940964	0.999776
942.243126	0.999697
942.545250	1.000433
942.847335	1.000302
943.149381	0.999740
943.451389	0.999113
943.753359	1.000096
944.055290	1.001065
944.357182	1.000694
944.659036	1.000927
944.960851	0.998811
945.262628	0.999646
945.564367	1.000522
945.866067	0.999898
946.167729	1.000648
946.469352	1.000105
946.770937	0.998492
947.072484	1.001248
947.373992	1.000819
947.675462	1.000060
947.976893	0.999407
948.278286	1.002019
948.579641	1.000166
948.880958	1.000419
949.182236	0.999975
949.483476	1.000197
949.784678	1.000270
950.085841	0.998581
950.386967	1.000426
950.688054	0.999682
950.989103	0.998549
951.290114	0.999095
951.591087	1.000453
951.892021	1.000172
952.192917	1.000697
952.493776	1.000310
952.794596	1.000335
953.095378	0.999935
953.396122	0.999508
953.696828	0.999159
953.997496	1.000835
954.298126	1.000191
954.598718	1.000673
954.899272	1.000772
955.199788	0.999743
955.500266	1.001681
955.800706	1.000140
956.101108	1.001585
956.401472	1.002000
956.701798	1.000332
957.002087	1.001115
957.302337	1.000859
957.602550	1.001848
957.902724	1.001065
958.202861	1.000850
958.502960	1.000718
958.803022	1.000606
959.103045	1.001610
959.403031	1.002264
959.702979	1.002323
960.002889	1.002651
960.302762	1.001295
960.602596	1.001363
960.902393	1.001755
961.202153	1.001135
961.501875	1.000962
961.801559	1.001638
962.101205	1.000834
962.400814	1.003263
962.700385	1.002595
962.999918	1.002018
963.299414	1.000068
963.598873	1.001474
963.898293	1.002375
964.197677	1.001814
964.497022	1.001230
964.796331	1.002390
965.095601	1.001550
965.394835	1.001948
965.694030	1.001986
965.993189	1.001700
966.292309	1.001963
966.591393	1.000165
966.890439	1.001856
967.189447	1.000807
967.488419	1.001146
967.787353	1.001137
968.086249	1.002962
968.385108	1.001252
968.683930	1.001880
968.982714	1.001686
969.281462	1.000875
969.580172	1.001387
969.878844	1.003125
970.177480	1.002541
970.476078	1.002883
970.774639	1.001994
971.073162	1.001174
971.371649	1.002168
971.670098	1.001284
971.968510	1.001137
972.266885	1.001643
972.565223	1.001449
972.863524	1.000577
973.161788	1.000894
973.460014	1.002198
973.758204	1.000548
974.056356	1.002188
974.354471	1.000947
974.652550	1.002070
974.950591	1.001665
975.248595	1.001760
975.546563	1.001704
975.844493	1.001517
976.142386	1.001174
976.440243	1.002125
976.738062	1.001817
977.035845	1.000136
977.333590	1.002680
977.631299	1.001563
977.928971	1.001347
978.226606	1.001481
978.524204	1.001031
978.821765	1.001221
979.119290	1.003726
979.416777	1.002114
979.714228	1.001902
980.011642	1.002428
980.309020	1.001496
980.606360	1.001385
980.903664	1.002041
981.200931	1.000789
981.498162	1.000690
981.795356	1.002199
982.092513	1.000642
982.389633	1.001829
982.686717	1.000906
982.983764	1.001653
983.280775	1.001561
983.577749	1.002732
983.874686	1.000966
984.171587	1.000033
984.468451	1.000801
984.765279	1.002273
985.062070	1.002019
985.358824	1.001769
985.655543	1.001596
985.952224	1.002487
986.248869	1.001238
986.545478	1.002698
986.842050	1.002341
987.138586	1.001415
987.435086	1.000926
987.731549	1.004057
988.027975	1.002744
988.324366	1.001053
988.620719	1.002388
988.917037	1.002305
989.213318	1.002328
989.509563	1.002604
989.805772	1.002857
990.101944	1.003070
990.398080	1.001477
990.694180	1.003747
990.990244	1.002374
991.286271	1.002145
991.582262	1.002695
991.878217	1.002633
992.174136	1.004041
992.470019	1.002646
992.765865	1.004262
993.061676	1.002889
993.357450	1.002234
993.653188	1.003783
993.948890	1.001773
994.244556	1.001396
994.540186	1.001395
994.835780	1.000706
995.131337	1.003018
995.426859	1.002217
995.722345	1.001583
996.017795	1.001269
996.313208	1.002374
996.608586	1.001738
996.903928	1.002004
997.199234	1.003188
997.494504	1.002446
997.789738	1.001102
998.084936	1.003002
998.380099	1.002685
998.675225	1.003168
998.970316	1.002808
999.265371	1.001664
999.560390	1.002077
999.855373	1.002827
1000.150320	1.002329
1000.445232	1.002832
1000.740108	1.002350
1001.034948	1.001980
1001.329752	1.003770
1001.624521	1.001961
1001.919254	1.002245
1002.213951	1.002234
1002.508613	1.001547
1002.803239	1.001990
1003.097829	1.002074
1003.392384	1.001042
1003.686903	1.002999
1003.981386	1.002584
1004.275834	1.003528
1004.570246	1.001241
1004.864623	1.002977
1005.158964	1.002964
1005.453270	1.002022
1005.747540	1.002276
1006.041775	1.001968
1006.335974	1.002470
1006.630138	1.003185
1006.924266	1.001021
1007.218359	1.001107
1007.512416	1.003966
1007.806438	1.002240
1008.100425	1.003859
1008.394376	1.002539
1008.688292	1.002899
1008.982172	1.001919
1009.276017	1.002591
1009.569827	1.003338
1009.863602	1.001691
1010.157341	1.003290
1010.451045	1.003001
1010.744714	1.004147
1011.038347	1.002851
1011.331945	1.002596
1011.625508	1.001885
1011.919036	1.002678
1012.212528	1.003034
1012.505986	1.001436
1012.799408	1.002119
1013.092795	1.003051
1013.386147	1.002104
1013.679464	1.003626
1013.972745	1.002422
1014.265992	1.002484
1014.559204	1.003236
1014.852380	1.004229
1015.145521	1.002972
1015.438628	1.002166
1015.731699	1.002379
1016.024736	1.003818
1016.317737	1.001749
1016.610703	1.003722
1016.903635	1.003367
1017.196531	1.001789
1017.489393	1.001722
1017.782219	1.003192
1018.075011	1.001999
1018.367768	1.001545
1018.660490	1.003217
1018.953177	1.003217
1019.245829	1.003217
