Dividing Wavelength (nm)	Counts (n)	Blue Motor Position (mm): 30.900000	Red Motor Position (mm): 0.000000	
326.493990	0.999909
326.888308	0.999909
327.282561	0.999909
327.676750	1.001880
328.070874	1.001828
328.464933	1.000512
328.858929	1.001372
329.252859	0.999944
329.646726	1.000492
330.040528	0.999227
330.434265	1.001100
330.827938	1.000029
331.221547	1.000219
331.615091	1.000623
332.008571	1.001486
332.401986	0.999755
332.795338	1.000208
333.188625	1.000779
333.581847	1.000343
333.975006	1.000177
334.368100	1.001185
334.761129	0.998600
335.154095	1.000646
335.546996	0.999960
335.939833	0.999188
336.332606	1.000737
336.725315	0.998438
337.117960	0.999930
337.510540	0.999393
337.903056	0.999197
338.295508	1.001645
338.687896	1.000177
339.080220	0.999519
339.472480	0.999529
339.864676	1.000054
340.256807	0.998726
340.648875	1.000937
341.040879	0.999207
341.432818	1.000232
341.824694	0.999908
342.216506	0.999467
342.608253	0.999335
342.999937	0.998508
343.391557	0.999814
343.783113	1.000393
344.174605	0.999610
344.566033	1.000180
344.957397	0.998556
345.348697	1.000095
345.739934	0.998930
346.131106	0.999208
346.522215	0.998905
346.913260	0.998821
347.304241	0.998556
347.695159	0.999530
348.086012	0.999269
348.476802	0.999786
348.867528	0.999222
349.258191	1.000235
349.648789	0.999848
350.039324	0.999545
350.429796	0.998620
350.820203	0.997713
351.210548	0.999328
351.600828	0.998399
351.991045	0.998078
352.381198	1.000212
352.771288	0.999586
353.161314	0.999055
353.551276	0.999595
353.941175	0.997324
354.331010	1.000938
354.720782	0.999209
355.110490	0.998535
355.500135	0.998883
355.889717	0.998224
356.279235	0.997894
356.668689	0.998550
357.058080	0.998771
357.447408	0.998263
357.836672	0.998891
358.225873	0.997761
358.615010	0.998087
359.004084	0.996826
359.393095	0.998615
359.782043	0.998630
360.170927	0.998723
360.559748	0.998281
360.948505	0.997809
361.337199	0.996838
361.725830	0.998067
362.114398	0.999017
362.502903	0.996743
362.891344	0.996619
363.279722	0.997200
363.668037	0.997878
364.056289	0.997021
364.444478	0.998575
364.832603	0.997053
365.220665	0.998359
365.608665	0.996585
365.996601	0.997307
366.384474	0.996165
366.772284	0.996762
367.160031	0.995562
367.547715	0.995102
367.935336	0.995384
368.322893	0.993205
368.710388	0.993593
369.097820	0.991770
369.485189	0.990485
369.872495	0.987274
370.259738	0.986007
370.646918	0.982331
371.034035	0.980647
371.421090	0.976924
371.808081	0.971635
372.195010	0.970571
372.581875	0.964409
372.968678	0.960354
373.355418	0.955820
373.742096	0.949011
374.128710	0.944598
374.515262	0.940402
374.901751	0.933951
375.288177	0.929564
375.674540	0.923927
376.060841	0.916915
376.447079	0.908608
376.833254	0.904167
377.219367	0.898264
377.605417	0.887460
377.991404	0.883734
378.377329	0.877509
378.763191	0.871886
379.148991	0.862618
379.534727	0.854267
379.920402	0.846978
380.306013	0.842127
380.691563	0.830587
381.077049	0.823300
381.462474	0.819345
381.847835	0.808386
382.233134	0.802435
382.618371	0.803744
383.003545	0.786522
383.388657	0.784221
383.773706	0.776151
384.158693	0.772478
384.543618	0.767882
384.928480	0.758304
385.313280	0.748227
385.698017	0.746887
386.082692	0.737178
386.467305	0.735191
386.851856	0.729727
387.236344	0.724194
387.620770	0.717553
388.005133	0.713137
388.389435	0.707964
388.773674	0.704844
389.157851	0.696920
389.541965	0.694089
389.926018	0.701320
390.310008	0.687308
390.693936	0.684564
391.077802	0.676556
391.461606	0.678600
391.845348	0.667227
392.229027	0.666735
392.612645	0.665108
392.996200	0.651663
393.379694	0.645129
393.763125	0.635743
394.146494	0.639909
394.529801	0.630860
394.913047	0.621620
395.296230	0.628413
395.679351	0.619737
396.062410	0.616898
396.445408	0.619092
396.828343	0.614569
397.211217	0.609893
397.594028	0.621837
397.976778	0.612776
398.359466	0.609026
398.742092	0.604437
399.124656	0.616302
399.507158	0.603556
399.889598	0.601482
400.271977	0.593127
400.654294	0.596621
401.036549	0.595711
401.418742	0.600192
401.800874	0.585691
402.182944	0.582706
402.564952	0.574581
402.946898	0.575997
403.328783	0.577540
403.710606	0.588077
404.092367	0.563847
404.474067	0.568258
404.855705	0.567305
405.237282	0.576236
405.618797	0.562686
406.000250	0.558553
406.381642	0.548466
406.762972	0.553078
407.144240	0.552045
407.525447	0.551370
407.906593	0.545324
408.287677	0.540287
408.668700	0.548683
409.049661	0.542661
409.430560	0.536928
409.811399	0.547032
410.192176	0.528294
410.572891	0.535643
410.953545	0.523382
411.334138	0.537574
411.714669	0.529629
412.095139	0.541714
412.475547	0.525859
412.855894	0.528265
413.236180	0.526737
413.616405	0.532174
413.996568	0.522419
414.376670	0.529149
414.756711	0.533664
415.136691	0.530899
415.516609	0.522407
415.896466	0.518588
416.276262	0.514977
416.655997	0.516495
417.035670	0.498082
417.415283	0.489894
417.794834	0.494862
418.174324	0.500179
418.553753	0.510068
418.933121	0.492095
419.312428	0.486979
419.691674	0.492888
420.070859	0.481978
420.449983	0.490426
420.829045	0.480151
421.208047	0.490557
421.586988	0.484205
421.965867	0.484524
422.344686	0.474430
422.723444	0.488052
423.102141	0.506027
423.480777	0.480658
423.859352	0.503134
424.237866	0.482673
424.616319	0.485034
424.994712	0.478374
425.373044	0.490873
425.751314	0.481470
426.129524	0.499878
426.507673	0.486423
426.885762	0.482912
427.263789	0.490987
427.641756	0.502886
428.019662	0.496760
428.397508	0.499261
428.775292	0.507473
429.153016	0.503446
429.530679	0.513304
429.908282	0.511028
430.285824	0.523540
430.663305	0.509891
431.040726	0.532932
431.418086	0.537201
431.795385	0.534787
432.172624	0.539596
432.549802	0.544851
432.926920	0.549992
433.303977	0.555267
433.680974	0.558566
434.057910	0.563888
434.434786	0.569399
434.811601	0.577572
435.188355	0.569742
435.565050	0.584381
435.941683	0.592571
436.318257	0.587364
436.694770	0.596976
437.071222	0.602543
437.447614	0.613229
437.823946	0.624882
438.200218	0.625532
438.576429	0.639552
438.952580	0.643854
439.328670	0.649362
439.704700	0.661903
440.080670	0.671103
440.456580	0.668654
440.832429	0.682227
441.208218	0.696447
441.583947	0.698517
441.959616	0.706614
442.335224	0.718547
442.710773	0.721833
443.086261	0.729889
443.461689	0.743537
443.837057	0.748907
444.212365	0.753448
444.587612	0.764025
444.962800	0.768215
445.337927	0.777190
445.712995	0.795295
446.088002	0.788454
446.462949	0.800420
446.837837	0.811253
447.212664	0.812526
447.587431	0.819433
447.962139	0.817156
448.336786	0.810416
448.711374	0.821850
449.085901	0.843126
449.460369	0.852412
449.834776	0.859879
450.209124	0.861265
450.583412	0.867432
450.957640	0.870209
451.331808	0.880475
451.705917	0.890760
452.079965	0.897851
452.453954	0.902022
452.827883	0.907856
453.201752	0.912072
453.575562	0.918244
453.949311	0.921963
454.323001	0.927184
454.696632	0.930819
455.070202	0.934605
455.443713	0.937408
455.817164	0.940891
456.190556	0.943849
456.563888	0.947529
456.937160	0.950023
457.310373	0.954805
457.683526	0.958560
458.056619	0.962835
458.429653	0.964109
458.802628	0.966860
459.175542	0.969237
459.548398	0.969739
459.921194	0.971800
460.293930	0.974039
460.666607	0.974456
461.039224	0.975059
461.411782	0.977378
461.784280	0.979064
462.156719	0.981403
462.529099	0.983480
462.901419	0.983929
463.273680	0.984671
463.645882	0.986513
464.018024	0.988537
464.390106	0.988793
464.762130	0.988803
465.134094	0.988889
465.505999	0.989636
465.877845	0.988715
466.249631	0.989201
466.621358	0.989645
466.993026	0.991377
467.364634	0.992014
467.736184	0.992341
468.107674	0.992994
468.479105	0.992836
468.850477	0.993338
469.221790	0.993803
469.593043	0.993440
469.964238	0.993997
470.335373	0.994212
470.706449	0.994835
471.077467	0.995308
471.448425	0.995688
471.819324	0.994594
472.190164	0.993724
472.560945	0.994019
472.931667	0.994909
473.302330	0.995633
473.672934	0.996211
474.043479	0.994790
474.413965	0.995325
474.784393	0.995762
475.154761	0.995216
475.525070	0.995746
475.895321	0.996116
476.265513	0.995652
476.635645	0.996446
477.005719	0.995730
477.375734	0.995815
477.745691	0.995210
478.115588	0.995808
478.485427	0.996099
478.855207	0.996155
479.224928	0.995462
479.594591	0.995370
479.964194	0.995487
480.333739	0.995532
480.703226	0.994326
481.072653	0.995073
481.442022	0.995294
481.811333	0.995105
482.180584	0.995508
482.549777	0.995948
482.918912	0.995997
483.287988	0.995739
483.657005	0.995737
484.025964	0.995817
484.394864	0.995821
484.763706	0.995562
485.132489	0.996443
485.501213	0.996118
485.869879	0.996052
486.238487	0.995522
486.607036	0.996542
486.975527	0.995694
487.343959	0.995438
487.712333	0.995720
488.080648	0.994783
488.448905	0.995811
488.817104	0.995706
489.185244	0.995932
489.553326	0.996077
489.921350	0.995747
490.289315	0.995055
490.657222	0.995047
491.025070	0.995789
491.392861	0.995480
491.760593	0.995838
492.128267	0.996470
492.495883	0.995178
492.863440	0.995802
493.230939	0.996037
493.598380	0.996109
493.965763	0.995901
494.333088	0.995609
494.700354	0.995698
495.067563	0.995404
495.434713	0.996267
495.801805	0.995971
496.168839	0.995927
496.535815	0.996192
496.902733	0.995823
497.269593	0.995972
497.636395	0.995204
498.003139	0.995613
498.369825	0.996835
498.736453	0.995417
499.103023	0.995807
499.469535	0.996014
499.835989	0.996685
500.202385	0.996082
500.568723	0.995907
500.935003	0.996290
501.301226	0.996609
501.667390	0.995834
502.033497	0.996459
502.399546	0.996393
502.765537	0.995968
503.131470	0.996066
503.497345	0.996793
503.863163	0.995732
504.228923	0.996223
504.594625	0.995800
504.960269	0.996494
505.325856	0.996669
505.691385	0.996189
506.056856	0.996209
506.422270	0.996280
506.787625	0.996929
507.152924	0.996599
507.518164	0.996272
507.883347	0.996036
508.248472	0.997025
508.613540	0.995736
508.978550	0.996206
509.343503	0.995861
509.708398	0.996944
510.073236	0.996269
510.438016	0.995390
510.802738	0.996161
511.167403	0.995772
511.532010	0.996485
511.896561	0.996751
512.261053	0.995705
512.625488	0.995784
512.989866	0.996334
513.354186	0.995529
513.718449	0.996335
514.082655	0.996322
514.446803	0.995919
514.810894	0.996544
515.174927	0.995982
515.538904	0.996509
515.902822	0.996916
516.266684	0.996762
516.630488	0.996250
516.994235	0.996635
517.357925	0.996544
517.721558	0.996013
518.085133	0.995616
518.448651	0.996206
518.812112	0.996505
519.175516	0.995932
519.538863	0.995934
519.902152	0.996377
520.265385	0.996730
520.628560	0.995230
520.991678	0.996824
521.354739	0.996338
521.717743	0.996966
522.080690	0.995920
522.443580	0.996720
522.806413	0.995922
523.169189	0.996608
523.531908	0.995906
523.894569	0.996268
524.257174	0.995957
524.619722	0.996141
524.982213	0.996165
525.344647	0.995430
525.707025	0.995894
526.069345	0.995754
526.431608	0.996146
526.793815	0.996221
527.155964	0.996369
527.518057	0.996598
527.880093	0.996186
528.242072	0.995682
528.603995	0.996779
528.965860	0.996515
529.327669	0.996554
529.689421	0.995595
530.051117	0.996384
530.412755	0.996282
530.774337	0.995627
531.135862	0.996533
531.497331	0.996048
531.858743	0.996981
532.220098	0.995715
532.581396	0.996117
532.942638	0.996640
533.303824	0.996752
533.664953	0.996501
534.026025	0.997442
534.387040	0.995821
534.747999	0.995803
535.108902	0.995908
535.469748	0.996700
535.830537	0.996379
536.191270	0.996449
536.551947	0.996125
536.912567	0.996541
537.273131	0.997064
537.633638	0.995841
537.994089	0.996522
538.354483	0.996398
538.714821	0.996246
539.075103	0.996629
539.435328	0.996505
539.795497	0.996090
540.155609	0.996791
540.515665	0.996711
540.875665	0.996135
541.235609	0.996529
541.595496	0.996119
541.955328	0.996035
542.315102	0.996559
542.674821	0.996506
543.034483	0.996581
543.394090	0.995641
543.753640	0.996178
544.113134	0.996099
544.472571	0.996596
544.831953	0.996455
545.191278	0.996678
545.550548	0.996661
545.909761	0.996021
546.268918	0.997165
546.628019	0.996821
546.987064	0.996242
547.346053	0.995321
547.704986	0.996174
548.063863	0.996477
548.422684	0.996634
548.781449	0.995912
549.140158	0.996077
549.498811	0.996146
549.857408	0.995682
550.215949	0.995726
550.574434	0.996105
550.932864	0.996715
551.291237	0.996026
551.649555	0.996572
552.007817	0.996121
552.366022	0.996353
552.724173	0.996030
553.082267	0.995842
553.440305	0.995773
553.798288	0.995605
554.156215	0.995370
554.514086	0.996297
554.871902	0.995677
555.229661	0.995316
555.587365	0.996397
555.945014	0.996521
556.302606	0.996149
556.660143	0.996875
557.017625	0.995977
557.375050	0.995798
557.732421	0.996151
558.089735	0.996230
558.446994	0.995939
558.804197	0.995903
559.161345	0.995680
559.518437	0.995633
559.875474	0.996445
560.232455	0.996567
560.589381	0.996426
560.946251	0.996001
561.303065	0.996544
561.659825	0.995777
562.016528	0.996370
562.373177	0.995977
562.729770	0.996407
563.086307	0.994873
563.442789	0.996525
563.799216	0.995117
564.155587	0.996023
564.511904	0.997041
564.868164	0.995757
565.224370	0.996108
565.580520	0.996060
565.936615	0.996259
566.292654	0.996029
566.648638	0.996136
567.004567	0.995497
567.360441	0.996863
567.716260	0.996093
568.072023	0.995200
568.427732	0.996352
568.783385	0.996012
569.138982	0.995551
569.494525	0.995714
569.850013	0.996446
570.205445	0.996151
570.560823	0.996518
570.916145	0.995852
571.271412	0.995969
571.626625	0.996669
571.981782	0.996205
572.336884	0.996420
572.691931	0.996230
573.046923	0.996623
573.401860	0.996459
573.756743	0.996709
574.111570	0.996188
574.466342	0.997098
574.821059	0.996402
575.175722	0.996949
575.530330	0.996457
575.884882	0.996168
576.239380	0.995810
576.593823	0.996604
576.948211	0.996029
577.302544	0.996624
577.656823	0.996358
578.011047	0.995686
578.365216	0.997184
578.719330	0.997010
579.073389	0.995724
579.427394	0.996242
579.781344	0.996559
580.135239	0.995811
580.489080	0.996827
580.842866	0.996294
581.196597	0.996447
581.550273	0.996515
581.903895	0.996947
582.257463	0.995889
582.610975	0.996159
582.964434	0.997131
583.317837	0.997182
583.671186	0.996667
584.024481	0.996077
584.377721	0.995697
584.730906	0.996131
585.084037	0.997441
585.437113	0.997475
585.790135	0.996555
586.143103	0.995792
586.496016	0.996603
586.848874	0.996353
587.201679	0.996559
587.554428	0.996182
587.907124	0.996811
588.259765	0.996502
588.612352	0.997126
588.964884	0.996487
589.317362	0.996733
589.669786	0.996360
590.022155	0.996074
590.374470	0.996202
590.726731	0.996575
591.078937	0.996336
591.431090	0.996960
591.783188	0.996092
592.135232	0.997243
592.487222	0.996313
592.839157	0.996939
593.191038	0.996794
593.542866	0.996258
593.894639	0.996277
594.246358	0.996987
594.598022	0.997318
594.949633	0.997076
595.301190	0.996886
595.652692	0.996531
596.004141	0.996614
596.355535	0.996680
596.706876	0.996344
597.058162	0.996546
597.409395	0.997050
597.760573	0.997204
598.111698	0.996896
598.462768	0.995793
598.813785	0.996143
599.164748	0.996659
599.515657	0.996831
599.866511	0.997680
600.217312	0.997494
600.568060	0.996310
600.918753	0.996667
601.269392	0.996931
601.619978	0.997426
601.970510	0.996893
602.320988	0.996621
602.671412	0.996491
603.021783	0.997492
603.372100	0.997413
603.722363	0.997349
604.072572	0.996303
604.422728	0.995856
604.772830	0.996815
605.122878	0.997036
605.472872	0.997028
605.822813	0.996329
606.172701	0.996587
606.522534	0.997626
606.872314	0.997508
607.222041	0.996385
607.571714	0.997345
607.921333	0.996725
608.270899	0.996765
608.620411	0.997341
608.969870	0.997717
609.319276	0.997421
609.668627	0.997516
610.017926	0.997688
610.367171	0.997554
610.716362	0.997860
611.065500	0.996645
611.414585	0.997095
611.763616	0.996850
612.112594	0.996443
612.461518	0.995769
612.810389	0.997407
613.159207	0.997018
613.507971	0.996041
613.856682	0.998019
614.205340	0.996123
614.553945	0.997852
614.902496	0.996237
615.250994	0.997749
615.599439	0.997427
615.947830	0.997027
616.296169	0.997107
616.644454	0.997304
616.992686	0.996734
617.340864	0.996904
617.688990	0.996175
618.037063	0.997340
618.385082	0.996593
618.733048	0.996563
619.080961	0.996981
619.428821	0.997450
619.776628	0.996849
620.124382	0.997750
620.472083	0.997641
620.819731	0.997810
621.167326	0.997677
621.514868	0.998094
621.862357	0.997239
622.209793	0.997428
622.557176	0.997178
622.904506	0.996902
623.251783	0.997108
623.599007	0.997875
623.946179	0.997090
624.293297	0.998470
624.640363	0.997638
624.987376	0.996303
625.334336	0.997327
625.681243	0.997133
626.028097	0.997427
626.374899	0.997308
626.721647	0.998226
627.068343	0.996813
627.414987	0.997790
627.761577	0.996690
628.108115	0.996915
628.454600	0.998099
628.801032	0.996681
629.147412	0.998010
629.493739	0.998042
629.840014	0.997857
630.186236	0.996820
630.532405	0.997323
630.878521	0.996648
631.224585	0.998049
631.570597	0.997065
631.916556	0.997815
632.262462	0.996615
632.608316	0.997047
632.954117	0.996698
633.299866	0.996928
633.645562	0.997261
633.991206	0.997428
634.336797	0.997628
634.682336	0.997957
635.027823	0.997270
635.373257	0.997960
635.718639	0.998191
636.063968	0.997184
636.409245	0.997535
636.754470	0.997741
637.099642	0.998487
637.444762	0.998028
637.789829	0.997692
638.134845	0.997474
638.479808	0.997797
638.824719	0.998247
639.169577	0.997506
639.514383	0.997748
639.859137	0.997371
640.203839	0.997253
640.548489	0.997694
640.893086	0.997525
641.237632	0.998217
641.582125	0.998239
641.926566	0.998133
642.270955	0.998069
642.615292	0.998248
642.959576	0.997866
643.303809	0.998117
643.647990	0.998247
643.992118	0.998527
644.336195	0.996676
644.680219	0.998383
645.024192	0.998035
645.368112	0.997487
645.711981	0.998220
646.055797	0.997103
646.399562	0.997205
646.743274	0.997845
647.086935	0.997031
647.430544	0.997989
647.774101	0.996857
648.117606	0.996987
648.461059	0.998268
648.804460	0.997223
649.147810	0.996972
649.491108	0.996620
649.834354	0.997196
650.177548	0.997368
650.520690	0.997677
650.863781	0.997446
651.206820	0.998679
651.549807	0.997915
651.892742	0.997809
652.235626	0.998407
652.578458	0.997001
652.921238	0.998636
653.263967	0.997903
653.606644	0.997463
653.949269	0.998150
654.291843	0.997264
654.634365	0.997998
654.976836	0.997366
655.319255	0.998516
655.661622	0.998056
656.003938	0.997691
656.346203	0.997712
656.688416	0.998537
657.030577	0.996808
657.372687	0.997839
657.714746	0.997704
658.056753	0.997171
658.398708	0.997221
658.740612	0.997770
659.082465	0.997870
659.424266	0.997896
659.766016	0.996687
660.107715	0.998164
660.449362	0.997341
660.790958	0.996928
661.132503	0.997350
661.473996	0.996740
661.815438	0.997663
662.156829	0.997899
662.498168	0.998457
662.839456	0.996653
663.180693	0.998444
663.521879	0.997650
663.863013	0.998692
664.204097	0.997491
664.545129	0.997699
664.886110	0.998604
665.227040	0.997877
665.567918	0.997417
665.908746	0.997185
666.249522	0.996813
666.590248	0.997695
666.930922	0.996890
667.271545	0.998623
667.612118	0.998130
667.952639	0.997119
668.293109	0.997841
668.633528	0.997142
668.973896	0.997182
669.314213	0.997142
669.654480	0.998311
669.994695	0.996944
670.334859	0.997451
670.674973	0.997269
671.015035	0.997602
671.355047	0.996880
671.695008	0.997024
672.034918	0.997493
672.374777	0.997370
672.714585	0.997233
673.054342	0.998337
673.394049	0.997208
673.733705	0.997020
674.073310	0.997545
674.412864	0.997031
674.752368	0.997515
675.091820	0.997869
675.431223	0.998682
675.770574	0.996918
676.109875	0.997752
676.449125	0.997926
676.788324	0.997306
677.127473	0.998661
677.466571	0.997994
677.805619	0.997310
678.144616	0.997562
678.483562	0.997354
678.822458	0.997719
679.161303	0.997865
679.500098	0.997897
679.838842	0.998668
680.177535	0.997113
680.516179	0.996748
680.854771	0.997184
681.193314	0.997403
681.531805	0.996961
681.870247	0.997539
682.208638	0.997754
682.546978	0.997122
682.885268	0.997185
683.223508	0.996824
683.561697	0.996371
683.899836	0.997316
684.237925	0.996916
684.575963	0.997593
684.913951	0.997157
685.251889	0.997381
685.589776	0.996933
685.927614	0.996827
686.265401	0.996995
686.603137	0.996576
686.940824	0.997387
687.278460	0.997768
687.616046	0.997652
687.953582	0.996628
688.291068	0.997334
688.628504	0.997661
688.965889	0.996700
689.303224	0.995981
689.640510	0.997070
689.977745	0.996911
690.314930	0.996391
690.652065	0.997097
690.989150	0.997151
691.326185	0.997399
691.663170	0.997460
692.000105	0.996946
692.336990	0.997454
692.673825	0.997738
693.010610	0.997639
693.347345	0.996841
693.684030	0.996892
694.020665	0.996919
694.357251	0.997350
694.693786	0.997525
695.030272	0.996130
695.366707	0.996459
695.703093	0.997217
696.039429	0.997096
696.375716	0.997417
696.711952	0.997022
697.048139	0.996580
697.384276	0.997283
697.720363	0.997864
698.056400	0.995643
698.392388	0.997064
698.728326	0.997438
699.064214	0.997943
699.400053	0.996861
699.735842	0.998262
700.071581	0.997191
700.407270	0.997100
700.742910	0.997533
701.078501	0.997075
701.414042	0.998042
701.749533	0.996444
702.084974	0.998027
702.420366	0.997717
702.755709	0.997657
703.091002	0.997719
703.426246	0.998111
703.761440	0.997452
704.096584	0.996917
704.431679	0.996352
704.766725	0.997269
705.101721	0.997512
705.436668	0.996639
705.771565	0.997012
706.106413	0.995829
706.441212	0.997433
706.775961	0.996720
707.110661	0.996123
707.445311	0.997148
707.779913	0.997286
708.114465	0.997926
708.448967	0.996806
708.783421	0.998062
709.117825	0.997223
709.452180	0.997753
709.786485	0.997832
710.120742	0.997041
710.454949	0.996359
710.789107	0.996570
711.123216	0.996479
711.457275	0.995230
711.791286	0.997367
712.125247	0.997599
712.459159	0.996617
712.793023	0.995971
713.126837	0.996475
713.460602	0.996171
713.794318	0.996047
714.127985	0.996273
714.461602	0.997185
714.795171	0.996702
715.128691	0.997124
715.462162	0.997107
715.795584	0.997285
716.128957	0.997428
716.462281	0.996672
716.795556	0.996943
717.128782	0.997826
717.461960	0.997876
717.795088	0.996193
718.128167	0.998340
718.461198	0.996141
718.794180	0.997542
719.127113	0.996789
719.459997	0.996949
719.792833	0.997351
720.125619	0.996985
720.458357	0.997563
720.791046	0.997784
721.123686	0.997699
721.456278	0.997415
721.788821	0.996850
722.121315	0.997509
722.453761	0.997218
722.786158	0.997093
723.118506	0.997537
723.450805	0.995964
723.783056	0.997536
724.115259	0.996793
724.447412	0.997832
724.779518	0.996923
725.111574	0.996590
725.443582	0.997002
725.775542	0.997315
726.107453	0.998389
726.439315	0.998100
726.771129	0.997571
727.102895	0.996873
727.434612	0.997280
727.766281	0.997282
728.097901	0.996311
728.429473	0.997500
728.760996	0.997508
729.092471	0.997423
729.423897	0.997098
729.755276	0.996750
730.086606	0.996185
730.417887	0.997400
730.749120	0.997278
731.080305	0.996757
731.411442	0.996406
731.742530	0.996165
732.073570	0.995870
732.404562	0.996710
732.735506	0.996058
733.066401	0.997153
733.397249	0.996910
733.728048	0.995800
734.058798	0.998069
734.389501	0.997590
734.720156	0.996760
735.050762	0.998482
735.381320	0.997002
735.711831	0.996665
736.042293	0.996750
736.372707	0.998397
736.703073	0.996516
737.033391	0.997643
737.363661	0.997242
737.693883	0.997102
738.024056	0.996980
738.354182	0.997159
738.684260	0.996780
739.014290	0.996902
739.344272	0.996305
739.674207	0.997227
740.004093	0.996862
740.333931	0.996834
740.663722	0.997146
740.993464	0.996743
741.323159	0.996731
741.652806	0.996355
741.982405	0.996699
742.311956	0.998060
742.641460	0.997708
742.970915	0.996903
743.300323	0.996457
743.629683	0.996681
743.958996	0.997696
744.288260	0.995992
744.617477	0.996893
744.946647	0.997072
745.275768	0.997573
745.604842	0.997214
745.933869	0.997409
746.262847	0.997675
746.591778	0.996103
746.920662	0.997687
747.249498	0.997488
747.578286	0.998263
747.907027	0.997883
748.235720	0.997391
748.564365	0.997206
748.892963	0.997335
749.221514	0.996901
749.550017	0.995913
749.878473	0.997085
750.206881	0.998571
750.535242	0.998065
750.863555	0.997108
751.191821	0.997507
751.520039	0.997028
751.848210	0.994703
752.176334	0.996557
752.504411	0.996328
752.832440	0.996403
753.160421	0.997323
753.488356	0.996462
753.816243	0.997020
754.144082	0.997358
754.471875	0.996940
754.799620	0.998046
755.127318	0.997988
755.454969	0.996755
755.782572	0.998445
756.110129	0.997366
756.437638	0.998335
756.765100	0.998377
757.092515	0.996965
757.419882	0.998194
757.747203	0.996820
758.074477	0.998563
758.401703	0.998192
758.728882	0.996871
759.056014	0.997569
759.383099	0.997423
759.710138	0.996435
760.037129	0.996622
760.364073	0.997616
760.690970	0.996982
761.017820	0.995833
761.344623	0.998510
761.671379	0.997002
761.998088	0.997091
762.324751	0.997292
762.651366	0.995130
762.977935	0.994773
763.304456	0.995601
763.630931	0.993243
763.957359	0.993212
764.283740	0.994695
764.610074	0.995512
764.936362	0.995341
765.262602	0.996503
765.588796	0.997206
765.914943	0.996622
766.241044	0.997027
766.567097	0.996377
766.893104	0.996249
767.219064	0.997050
767.544978	0.996795
767.870845	0.997160
768.196665	0.997904
768.522438	0.997998
768.848165	0.998062
769.173846	0.997886
769.499479	0.999323
769.825066	0.998765
770.150607	0.998467
770.476101	0.997775
770.801548	0.998565
771.126949	0.998551
771.452303	0.998567
771.777611	0.998092
772.102872	0.998176
772.428087	0.997766
772.753256	0.998154
773.078378	0.998391
773.403453	0.997470
773.728482	0.999442
774.053465	0.997178
774.378401	0.998258
774.703291	0.998502
775.028135	1.000381
775.352932	0.997329
775.677683	0.998281
776.002388	0.997833
776.327046	0.997883
776.651658	0.999204
776.976224	0.997678
777.300743	0.997925
777.625216	0.997309
777.949643	0.998825
778.274024	0.997366
778.598359	0.997821
778.922647	0.998163
779.246889	0.999001
779.571086	0.997519
779.895236	0.998081
780.219339	0.998184
780.543397	0.998487
780.867409	0.999123
781.191374	0.997743
781.515294	0.998401
781.839167	0.998900
782.162995	0.998527
782.486776	0.997976
782.810511	0.997592
783.134201	0.998596
783.457844	0.999055
783.781441	0.998820
784.104993	0.996899
784.428498	0.998447
784.751958	0.999218
785.075372	0.998353
785.398739	0.997639
785.722061	0.997970
786.045337	0.998006
786.368568	0.998840
786.691752	0.998343
787.014891	0.997831
787.337983	0.997350
787.661030	0.998191
787.984031	0.998142
788.306987	0.998020
788.629897	0.996603
788.952760	0.998072
789.275579	0.998343
789.598351	0.997819
789.921078	0.997840
790.243759	0.998042
790.566395	0.996983
790.888984	0.997711
791.211529	0.998051
791.534027	0.997330
791.856480	0.998068
792.178888	0.998518
792.501249	0.998530
792.823566	0.998831
793.145836	0.998274
793.468062	0.998403
793.790241	0.998312
794.112375	0.998280
794.434464	0.998376
794.756507	0.998978
795.078505	0.998827
795.400457	0.998827
795.722364	0.998744
796.044226	0.998920
796.366042	0.997531
796.687812	0.996286
797.009538	0.997780
797.331218	0.999013
797.652852	0.998942
797.974442	0.997872
798.295986	0.997783
798.617484	0.996972
798.938938	0.998988
799.260346	0.998046
799.581709	0.998290
799.903026	0.999398
800.224299	0.998050
800.545526	0.998269
800.866708	0.997520
801.187845	0.998303
801.508936	0.998174
801.829983	0.997588
802.150984	0.998381
802.471940	0.999050
802.792851	0.998308
803.113717	0.999379
803.434538	0.999015
803.755314	1.000354
804.076045	0.999216
804.396731	0.998033
804.717372	0.997674
805.037967	0.998816
805.358518	0.998434
805.679024	0.999385
805.999485	0.997677
806.319901	0.998736
806.640272	1.000161
806.960598	0.998380
807.280879	0.998474
807.601115	0.999016
807.921306	0.999932
808.241453	0.999006
808.561554	0.998980
808.881611	0.998123
809.201623	0.999007
809.521590	0.997734
809.841513	0.998739
810.161390	0.997207
810.481223	0.998211
810.801011	0.999327
811.120755	0.999733
811.440453	0.997789
811.760107	0.999124
812.079716	0.998503
812.399281	0.998871
812.718801	0.999101
813.038276	0.999104
813.357707	0.997730
813.677093	0.999759
813.996434	0.997929
814.315731	0.998909
814.634983	0.998973
814.954191	0.998879
815.273354	0.997753
815.592473	0.996796
815.911547	0.998118
816.230577	0.998277
816.549562	0.997957
816.868502	0.997931
817.187399	0.998436
817.506250	0.999168
817.825058	0.997477
818.143821	0.998139
818.462539	0.998354
818.781213	0.998052
819.099843	0.998545
819.418429	0.996920
819.736970	0.998015
820.055466	0.996023
820.373919	0.996082
820.692327	0.995360
821.010691	0.995381
821.329011	0.992186
821.647286	0.990690
821.965517	0.989406
822.283704	0.986838
822.601847	0.986050
822.919945	0.985798
823.237999	0.988045
823.556010	0.989671
823.873976	0.989892
824.191897	0.991681
824.509775	0.992968
824.827609	0.993627
825.145398	0.993299
825.463144	0.991812
825.780845	0.993479
826.098502	0.993493
826.416116	0.992923
826.733685	0.991387
827.051210	0.990185
827.368692	0.990437
827.686129	0.990800
828.003522	0.993810
828.320872	0.993917
828.638177	0.994896
828.955439	0.997248
829.272656	0.996401
829.589830	0.996083
829.906960	0.997905
830.224046	0.996392
830.541088	0.997572
830.858086	0.997103
831.175041	0.998123
831.491952	0.997550
831.808819	0.996817
832.125642	0.996987
832.442421	0.998463
832.759157	0.998392
833.075849	0.995405
833.392497	0.994324
833.709101	0.993298
834.025662	0.994321
834.342179	0.994029
834.658653	0.996263
834.975083	0.996423
835.291469	0.996029
835.607811	0.997293
835.924110	0.997965
836.240366	0.998413
836.556578	0.998491
836.872746	0.998643
837.188871	0.997777
837.504952	0.998625
837.820990	0.998191
838.136984	0.998238
838.452935	0.998226
838.768842	0.999260
839.084706	0.998945
839.400526	0.998944
839.716303	0.996949
840.032037	0.997582
840.347727	0.996242
840.663373	0.997649
840.978977	0.996701
841.294537	0.998604
841.610054	0.998962
841.925527	0.999672
842.240957	0.999167
842.556344	0.998716
842.871687	0.998675
843.186987	0.998781
843.502244	0.999688
843.817458	0.998561
844.132629	0.998504
844.447756	0.998705
844.762840	0.999926
845.077881	1.000828
845.392879	0.998467
845.707833	0.998999
846.022745	0.999165
846.337613	0.999000
846.652438	0.999057
846.967221	0.999128
847.281960	0.999690
847.596656	0.999416
847.911309	1.000664
848.225919	0.998411
848.540485	0.998535
848.855009	1.000454
849.169490	1.000235
849.483928	1.000023
849.798323	0.997554
850.112675	0.999931
850.426984	1.001262
850.741251	0.999926
851.055474	0.998813
851.369654	1.000559
851.683792	0.999010
851.997887	0.999329
852.311938	1.000388
852.625947	0.999317
852.939914	0.998126
853.253837	1.000205
853.567718	1.000706
853.881555	0.999782
854.195350	0.999011
854.509103	1.000047
854.822812	0.999913
855.136479	0.999232
855.450103	1.000451
855.763685	0.999973
856.077224	0.999035
856.390720	0.999168
856.704173	0.999790
857.017584	0.999724
857.330953	0.999250
857.644278	0.999252
857.957561	0.999607
858.270802	1.000541
858.584000	0.999319
858.897155	0.998957
859.210268	0.998619
859.523339	0.999916
859.836367	0.999848
860.149352	0.999316
860.462295	0.998209
860.775195	0.999284
861.088054	0.997765
861.400869	0.999546
861.713642	0.999072
862.026373	0.999385
862.339062	1.000258
862.651708	0.998576
862.964312	1.000816
863.276873	0.999264
863.589392	1.000372
863.901869	0.999453
864.214303	1.000147
864.526696	1.000151
864.839045	0.999852
865.151353	0.999784
865.463619	0.998289
865.775842	1.000214
866.088023	1.001014
866.400162	0.998743
866.712258	1.000343
867.024313	0.999729
867.336325	1.000410
867.648296	0.999630
867.960224	0.999763
868.272110	0.999265
868.583954	0.998746
868.895755	1.000339
869.207515	0.997576
869.519233	1.000561
869.830909	0.999113
870.142542	0.998559
870.454134	0.998856
870.765684	0.998391
871.077191	0.999906
871.388657	0.999918
871.700081	0.999500
872.011463	1.000619
872.322803	0.998905
872.634101	0.998679
872.945357	0.998645
873.256571	0.997700
873.567744	0.998068
873.878874	0.999338
874.189963	0.999182
874.501010	0.999435
874.812015	0.999327
875.122979	0.998979
875.433900	0.998313
875.744780	0.998833
876.055618	0.998243
876.366415	0.999038
876.677169	0.998724
876.987882	0.998458
877.298554	0.999053
877.609183	0.998681
877.919771	0.999060
878.230317	0.998231
878.540822	0.997926
878.851285	0.997097
879.161707	0.997324
879.472087	0.999256
879.782425	0.995801
880.092722	0.995244
880.402977	0.993421
880.713191	0.991782
881.023363	0.989290
881.333494	0.987163
881.643583	0.987529
881.953631	0.988823
882.263637	0.987243
882.573602	0.988073
882.883526	0.989538
883.193408	0.992151
883.503248	0.991288
883.813048	0.991633
884.122806	0.993706
884.432522	0.993331
884.742197	0.996535
885.051831	0.995170
885.361424	0.995395
885.670975	0.997402
885.980485	0.996949
886.289954	0.997279
886.599382	0.996841
886.908768	0.998179
887.218113	0.996815
887.527417	0.996854
887.836680	0.998664
888.145901	0.998493
888.455082	0.999994
888.764221	0.998331
889.073319	0.998564
889.382376	0.999508
889.691392	0.996977
890.000366	0.998923
890.309300	0.998160
890.618193	0.998875
890.927044	0.997820
891.235855	0.998844
891.544625	0.998699
891.853353	0.998103
892.162041	0.998432
892.470687	0.997988
892.779293	0.996710
893.087858	0.997282
893.396381	0.997452
893.704864	0.996923
894.013306	0.995319
894.321707	0.995213
894.630068	0.993403
894.938387	0.993113
895.246665	0.994281
895.554903	0.993067
895.863100	0.995713
896.171256	0.995371
896.479371	0.996961
896.787446	0.996473
897.095480	0.997639
897.403473	0.997362
897.711425	0.997571
898.019336	0.998539
898.327207	0.998855
898.635038	0.996463
898.942827	0.997884
899.250576	0.997541
899.558284	0.999098
899.865952	0.998324
900.173579	0.998654
900.481165	0.998338
900.788711	0.998488
901.096216	0.998780
901.403681	0.998776
901.711105	0.998776
902.018489	0.998380
902.325832	0.999362
902.633135	0.998377
902.940397	0.999274
903.247619	0.998425
903.554800	0.996758
903.861941	0.995404
904.169041	0.994341
904.476101	0.992404
904.783121	0.991857
905.090100	0.993531
905.397039	0.994119
905.703938	0.994886
906.010796	0.995259
906.317614	0.995882
906.624391	0.996911
906.931129	0.998528
907.237826	0.998439
907.544483	0.998621
907.851099	0.998194
908.157675	0.997677
908.464211	0.999249
908.770707	0.998878
909.077163	0.999443
909.383578	0.999241
909.689954	0.998437
909.996289	0.998906
910.302584	0.998419
910.608839	1.000962
910.915054	0.999734
911.221229	0.999924
911.527363	0.998201
911.833458	0.999998
912.139513	0.998534
912.445527	0.999841
912.751502	0.998468
913.057436	0.998314
913.363331	1.000115
913.669186	0.999629
913.975000	0.997934
914.280775	0.998379
914.586510	0.997933
914.892205	0.995582
915.197859	0.995903
915.503475	0.995175
915.809050	0.993495
916.114585	0.991607
916.420081	0.992029
916.725536	0.993178
917.030952	0.994100
917.336328	0.993982
917.641665	0.993655
917.946961	0.994230
918.252218	0.995555
918.557435	0.996060
918.862612	0.997854
919.167750	0.997952
919.472848	0.998238
919.777906	0.998948
920.082925	0.999045
920.387904	0.998333
920.692843	0.997332
920.997743	0.997964
921.302603	0.998580
921.607423	0.998242
921.912204	0.997942
922.216946	0.999562
922.521647	1.000262
922.826310	0.998464
923.130932	0.999742
923.435516	0.999409
923.740059	0.998878
924.044564	0.998450
924.349028	0.998388
924.653454	0.999529
924.957840	0.999210
925.262186	1.000028
925.566493	0.999509
925.870761	0.999088
926.174989	0.998996
926.479178	0.999852
926.783328	0.999859
927.087438	0.999831
927.391509	0.998605
927.695541	0.999135
927.999533	0.999961
928.303486	0.999171
928.607400	0.999997
928.911275	1.000170
929.215110	0.999841
929.518906	1.000208
929.822663	1.000469
930.126381	1.001031
930.430060	0.999832
930.733699	0.999851
931.037299	0.999945
931.340861	1.000459
931.644383	0.998763
931.947866	0.999138
932.251309	0.999308
932.554714	0.999248
932.858080	0.999527
933.161407	0.999546
933.464694	1.000397
933.767943	1.000277
934.071153	0.999174
934.374323	1.000300
934.677455	0.999982
934.980548	0.999617
935.283602	1.000259
935.586617	0.999131
935.889593	1.001107
936.192530	1.000871
936.495428	1.000100
936.798287	0.999656
937.101108	0.999392
937.403890	0.999417
937.706632	1.000581
938.009336	0.998918
938.312002	0.999393
938.614628	0.999465
938.917216	0.999399
939.219765	0.998693
939.522275	0.999519
939.824747	0.999352
940.127179	0.998607
940.429573	1.001262
940.731929	0.999665
941.034246	0.999921
941.336524	0.998114
941.638763	0.999656
941.940964	0.999625
942.243126	0.999462
942.545250	1.000248
942.847335	0.999138
943.149381	0.999735
943.451389	0.999167
943.753359	1.000273
944.055290	1.001820
944.357182	0.999895
944.659036	0.998779
944.960851	0.999478
945.262628	0.999540
945.564367	0.999383
945.866067	0.999718
946.167729	1.000617
946.469352	0.999856
946.770937	0.996342
947.072484	0.999904
947.373992	1.000222
947.675462	0.999962
947.976893	0.999375
948.278286	1.000900
948.579641	0.999757
948.880958	1.000617
949.182236	1.000532
949.483476	1.001170
949.784678	1.000135
950.085841	0.998992
950.386967	0.999644
950.688054	1.000267
950.989103	0.998254
951.290114	0.998718
951.591087	0.998366
951.892021	0.999162
952.192917	1.000585
952.493776	1.000031
952.794596	1.001285
953.095378	1.000199
953.396122	0.999144
953.696828	0.999540
953.997496	1.000127
954.298126	1.000579
954.598718	1.001590
954.899272	0.999639
955.199788	1.000646
955.500266	1.001478
955.800706	0.998918
956.101108	1.000210
956.401472	1.000817
956.701798	0.999570
957.002087	1.000274
957.302337	0.999698
957.602550	0.999728
957.902724	1.001019
958.202861	1.000418
958.502960	1.000223
958.803022	1.000489
959.103045	1.000668
959.403031	1.001188
959.702979	1.001618
960.002889	1.000449
960.302762	0.999454
960.602596	1.000269
960.902393	1.000954
961.202153	1.000024
961.501875	1.001515
961.801559	1.001315
962.101205	1.000228
962.400814	1.001578
962.700385	1.000933
962.999918	1.000347
963.299414	0.999597
963.598873	1.000331
963.898293	1.000422
964.197677	0.999163
964.497022	1.001636
964.796331	1.000152
965.095601	1.002002
965.394835	1.000122
965.694030	1.000767
965.993189	1.000210
966.292309	1.001146
966.591393	0.999416
966.890439	1.000388
967.189447	0.999610
967.488419	1.000825
967.787353	1.000426
968.086249	1.000081
968.385108	1.000204
968.683930	1.001943
968.982714	1.001094
969.281462	1.000279
969.580172	0.999604
969.878844	1.001100
970.177480	1.000308
970.476078	1.001700
970.774639	1.000919
971.073162	1.000034
971.371649	1.000783
971.670098	1.000313
971.968510	1.000986
972.266885	0.999855
972.565223	1.000473
972.863524	1.000599
973.161788	0.998631
973.460014	1.001503
973.758204	0.999230
974.056356	1.000077
974.354471	1.000194
974.652550	1.000198
974.950591	1.000136
975.248595	0.999554
975.546563	1.001196
975.844493	1.001344
976.142386	1.000134
976.440243	1.000800
976.738062	1.000392
977.035845	0.999667
977.333590	1.000679
977.631299	1.000133
977.928971	0.999915
978.226606	0.998800
978.524204	1.000278
978.821765	1.000909
979.119290	1.001742
979.416777	1.000751
979.714228	1.000549
980.011642	1.000672
980.309020	1.000631
980.606360	0.999182
980.903664	1.001286
981.200931	0.999381
981.498162	0.999088
981.795356	0.999913
982.092513	1.000161
982.389633	1.000934
982.686717	0.998937
982.983764	0.999921
983.280775	0.999353
983.577749	0.999674
983.874686	1.000063
984.171587	0.998139
984.468451	0.999932
984.765279	1.000895
985.062070	1.000198
985.358824	1.000760
985.655543	1.001629
985.952224	0.999885
986.248869	0.999665
986.545478	1.001771
986.842050	1.000251
987.138586	1.001471
987.435086	1.000405
987.731549	1.001774
988.027975	1.001437
988.324366	1.000628
988.620719	1.001313
988.917037	0.999616
989.213318	1.000283
989.509563	1.001043
989.805772	1.001397
990.101944	1.001279
990.398080	0.999871
990.694180	1.001544
990.990244	0.998806
991.286271	1.000222
991.582262	1.001737
991.878217	1.000104
992.174136	1.002107
992.470019	1.001037
992.765865	1.002372
993.061676	1.001348
993.357450	1.000482
993.653188	1.002001
993.948890	1.000493
994.244556	0.999446
994.540186	0.999726
994.835780	0.999268
995.131337	1.001299
995.426859	1.000070
995.722345	1.000617
996.017795	1.000003
996.313208	0.999259
996.608586	0.999627
996.903928	1.001385
997.199234	1.000211
997.494504	1.001679
997.789738	0.999550
998.084936	1.001284
998.380099	0.998927
998.675225	1.001507
998.970316	1.000865
999.265371	1.000728
999.560390	1.000054
999.855373	0.999704
1000.150320	1.000878
1000.445232	1.001222
1000.740108	0.999350
1001.034948	1.000713
1001.329752	1.001192
1001.624521	0.999076
1001.919254	1.000211
1002.213951	1.000912
1002.508613	1.000230
1002.803239	0.999353
1003.097829	1.000987
1003.392384	1.000190
1003.686903	1.000884
1003.981386	1.000110
1004.275834	1.000856
1004.570246	1.000017
1004.864623	1.000786
1005.158964	1.000725
1005.453270	1.000038
1005.747540	1.000197
1006.041775	1.000844
1006.335974	1.000344
1006.630138	1.000871
1006.924266	0.999803
1007.218359	0.998696
1007.512416	1.002152
1007.806438	1.000225
1008.100425	1.002231
1008.394376	1.001115
1008.688292	0.999203
1008.982172	0.999771
1009.276017	1.001307
1009.569827	1.002454
1009.863602	0.999507
1010.157341	1.001379
1010.451045	1.000372
1010.744714	1.002256
1011.038347	1.001059
1011.331945	0.999433
1011.625508	0.999814
1011.919036	1.000176
1012.212528	1.000587
1012.505986	0.999804
1012.799408	1.000597
1013.092795	1.001104
1013.386147	1.000654
1013.679464	1.001719
1013.972745	1.000107
1014.265992	0.999560
1014.559204	0.998944
1014.852380	1.000903
1015.145521	0.999493
1015.438628	0.999472
1015.731699	0.999398
1016.024736	1.000882
1016.317737	1.000068
1016.610703	1.000197
1016.903635	1.000152
1017.196531	1.001187
1017.489393	0.999610
1017.782219	0.999926
1018.075011	0.999304
1018.367768	1.000478
1018.660490	1.000358
1018.953177	1.000358
1019.245829	1.000358
