Dividing Wavelength (nm)	Counts (n)	Blue Motor Position (mm): 43.000000	Red Motor Position (mm): 0.000000	
326.493990	0.999501
326.888308	0.999501
327.282561	0.999501
327.676750	1.000075
328.070874	1.000347
328.464933	1.000761
328.858929	1.000719
329.252859	1.000765
329.646726	0.999530
330.040528	1.000084
330.434265	0.999833
330.827938	0.999429
331.221547	1.000336
331.615091	0.999918
332.008571	1.001043
332.401986	0.998642
332.795338	0.998630
333.188625	1.000991
333.581847	0.999246
333.975006	1.001168
334.368100	1.000435
334.761129	0.998494
335.154095	1.000974
335.546996	0.999204
335.939833	0.998883
336.332606	0.999376
336.725315	0.998283
337.117960	1.000361
337.510540	0.999684
337.903056	1.000047
338.295508	0.999866
338.687896	1.000227
339.080220	1.000075
339.472480	0.999775
339.864676	1.001009
340.256807	0.998670
340.648875	1.000778
341.040879	0.998183
341.432818	1.000428
341.824694	0.998971
342.216506	1.000896
342.608253	0.999339
342.999937	0.999393
343.391557	0.998474
343.783113	1.000609
344.174605	0.999158
344.566033	0.999949
344.957397	0.999811
345.348697	0.999440
345.739934	0.999983
346.131106	0.999420
346.522215	0.999700
346.913260	0.999669
347.304241	0.999003
347.695159	1.000258
348.086012	0.998641
348.476802	0.999821
348.867528	0.999163
349.258191	0.998307
349.648789	1.000223
350.039324	0.999972
350.429796	0.999304
350.820203	0.998339
351.210548	0.999908
351.600828	0.999242
351.991045	0.999755
352.381198	0.999859
352.771288	0.999594
353.161314	0.999884
353.551276	0.998019
353.941175	0.998499
354.331010	0.998922
354.720782	0.998899
355.110490	0.998959
355.500135	1.000431
355.889717	0.998001
356.279235	0.998922
356.668689	0.998390
357.058080	0.999731
357.447408	0.998856
357.836672	0.999997
358.225873	0.999030
358.615010	0.999415
359.004084	0.997689
359.393095	0.999180
359.782043	0.998214
360.170927	0.999043
360.559748	0.998604
360.948505	0.998523
361.337199	0.999820
361.725830	0.999543
362.114398	0.999440
362.502903	0.997595
362.891344	0.996948
363.279722	0.999189
363.668037	0.999017
364.056289	0.998606
364.444478	0.999711
364.832603	0.998536
365.220665	0.998771
365.608665	0.997543
365.996601	0.998650
366.384474	0.998585
366.772284	0.999332
367.160031	0.997979
367.547715	0.997442
367.935336	0.997052
368.322893	0.994632
368.710388	0.993530
369.097820	0.993254
369.485189	0.990145
369.872495	0.989002
370.259738	0.987693
370.646918	0.984011
371.034035	0.981861
371.421090	0.978781
371.808081	0.974191
372.195010	0.972719
372.581875	0.966423
372.968678	0.962724
373.355418	0.958989
373.742096	0.950127
374.128710	0.946923
374.515262	0.942731
374.901751	0.937008
375.288177	0.931638
375.674540	0.925806
376.060841	0.919019
376.447079	0.911818
376.833254	0.906334
377.219367	0.901358
377.605417	0.889421
377.991404	0.886977
378.377329	0.880562
378.763191	0.875151
379.148991	0.866672
379.534727	0.859320
379.920402	0.853066
380.306013	0.849845
380.691563	0.839913
381.077049	0.834488
381.462474	0.832847
381.847835	0.824359
382.233134	0.822293
382.618371	0.826003
383.003545	0.813720
383.388657	0.815213
383.773706	0.811006
384.158693	0.810856
384.543618	0.811177
384.928480	0.807322
385.313280	0.803213
385.698017	0.806832
386.082692	0.802711
386.467305	0.807284
386.851856	0.808443
387.236344	0.809448
387.620770	0.811613
388.005133	0.813703
388.389435	0.816776
388.773674	0.821258
389.157851	0.823465
389.541965	0.828592
389.926018	0.838667
390.310008	0.838204
390.693936	0.842922
391.077802	0.847764
391.461606	0.854182
391.845348	0.856756
392.229027	0.863846
392.612645	0.870396
392.996200	0.871497
393.379694	0.875939
393.763125	0.880017
394.146494	0.888873
394.529801	0.893710
394.913047	0.897871
395.296230	0.906294
395.679351	0.910040
396.062410	0.916782
396.445408	0.924609
396.828343	0.929028
397.211217	0.934136
397.594028	0.941198
397.976778	0.945796
398.359466	0.949335
398.742092	0.954550
399.124656	0.958559
399.507158	0.961708
399.889598	0.965134
400.271977	0.968949
400.654294	0.971569
401.036549	0.975672
401.418742	0.978523
401.800874	0.980918
402.182944	0.982039
402.564952	0.983601
402.946898	0.985657
403.328783	0.988400
403.710606	0.989120
404.092367	0.991056
404.474067	0.992408
404.855705	0.992682
405.237282	0.993222
405.618797	0.994400
406.000250	0.995267
406.381642	0.995069
406.762972	0.996709
407.144240	0.997106
407.525447	0.996131
407.906593	0.996470
408.287677	0.997095
408.668700	0.998259
409.049661	0.998537
409.430560	0.996684
409.811399	0.997397
410.192176	0.998508
410.572891	0.999491
410.953545	0.998400
411.334138	0.998673
411.714669	0.998116
412.095139	0.998872
412.475547	0.999010
412.855894	0.998525
413.236180	0.997658
413.616405	0.998682
413.996568	0.999368
414.376670	0.999168
414.756711	0.998289
415.136691	0.998960
415.516609	0.997650
415.896466	0.999426
416.276262	0.998573
416.655997	0.999703
417.035670	1.000215
417.415283	0.998652
417.794834	0.999604
418.174324	1.000156
418.553753	0.999759
418.933121	0.999590
419.312428	1.000313
419.691674	1.000047
420.070859	0.999405
420.449983	0.999508
420.829045	1.000090
421.208047	0.999896
421.586988	0.999168
421.965867	0.998951
422.344686	0.999130
422.723444	0.998041
423.102141	0.999362
423.480777	0.998385
423.859352	0.999144
424.237866	0.998979
424.616319	1.000160
424.994712	0.999279
425.373044	0.998527
425.751314	0.999531
426.129524	1.000077
426.507673	0.999500
426.885762	0.999384
427.263789	0.999512
427.641756	1.000212
428.019662	0.999271
428.397508	0.999947
428.775292	0.998828
429.153016	0.999150
429.530679	0.999356
429.908282	0.999975
430.285824	0.998641
430.663305	0.999435
431.040726	1.000071
431.418086	0.999642
431.795385	1.000297
432.172624	1.000215
432.549802	0.999247
432.926920	0.999449
433.303977	0.999935
433.680974	1.000033
434.057910	1.000040
434.434786	0.999404
434.811601	1.000252
435.188355	1.000202
435.565050	0.999328
435.941683	0.999579
436.318257	0.997778
436.694770	0.999909
437.071222	1.000117
437.447614	0.999423
437.823946	0.999932
438.200218	0.999507
438.576429	0.998866
438.952580	0.999971
439.328670	0.998670
439.704700	0.998867
440.080670	0.999808
440.456580	0.999535
440.832429	0.999305
441.208218	1.000394
441.583947	0.999221
441.959616	0.998962
442.335224	0.999869
442.710773	1.000334
443.086261	1.000239
443.461689	0.998904
443.837057	0.999795
444.212365	1.000405
444.587612	1.000744
444.962800	0.999386
445.337927	0.999789
445.712995	0.999561
446.088002	0.999836
446.462949	1.000397
446.837837	1.000516
447.212664	0.999276
447.587431	1.000304
447.962139	1.000376
448.336786	0.999047
448.711374	0.999168
449.085901	1.000113
449.460369	1.000355
449.834776	0.999732
450.209124	1.000219
450.583412	0.999751
450.957640	0.999741
451.331808	1.000178
451.705917	0.999767
452.079965	0.999595
452.453954	1.000204
452.827883	0.999246
453.201752	0.999152
453.575562	0.999647
453.949311	0.999877
454.323001	0.999063
454.696632	0.999144
455.070202	0.998945
455.443713	0.998948
455.817164	0.999683
456.190556	0.999400
456.563888	1.000369
456.937160	1.000307
457.310373	0.999898
457.683526	0.999420
458.056619	0.999790
458.429653	0.999598
458.802628	0.999471
459.175542	1.000033
459.548398	0.999456
459.921194	0.999052
460.293930	1.000135
460.666607	0.999675
461.039224	0.999853
461.411782	0.998911
461.784280	0.998688
462.156719	1.000380
462.529099	1.000002
462.901419	0.999278
463.273680	0.998721
463.645882	0.999726
464.018024	1.000725
464.390106	0.999260
464.762130	0.999713
465.134094	0.999070
465.505999	0.999453
465.877845	0.999062
466.249631	0.999811
466.621358	0.998733
466.993026	0.999094
467.364634	0.999110
467.736184	0.999371
468.107674	0.999033
468.479105	0.999704
468.850477	1.000079
469.221790	0.999743
469.593043	0.999236
469.964238	0.999382
470.335373	0.999141
470.706449	1.000025
471.077467	0.999613
471.448425	0.999298
471.819324	0.999277
472.190164	0.999370
472.560945	1.000122
472.931667	0.999707
473.302330	0.999863
473.672934	1.000548
474.043479	0.999493
474.413965	0.999890
474.784393	1.000105
475.154761	0.999144
475.525070	0.999942
475.895321	0.999371
476.265513	0.999611
476.635645	0.999886
477.005719	0.999152
477.375734	0.999284
477.745691	0.999336
478.115588	0.999442
478.485427	0.999466
478.855207	0.999630
479.224928	0.999396
479.594591	1.000009
479.964194	0.999619
480.333739	0.999025
480.703226	0.999396
481.072653	0.999214
481.442022	1.000021
481.811333	0.999299
482.180584	0.999243
482.549777	0.999332
482.918912	0.999074
483.287988	0.999305
483.657005	0.999109
484.025964	1.000241
484.394864	0.998888
484.763706	0.999213
485.132489	1.000009
485.501213	0.999309
485.869879	0.999234
486.238487	0.998807
486.607036	1.000048
486.975527	0.999866
487.343959	0.999504
487.712333	0.999590
488.080648	0.998720
488.448905	0.999785
488.817104	0.999159
489.185244	0.999009
489.553326	0.999501
489.921350	0.999308
490.289315	0.999500
490.657222	0.998824
491.025070	1.000113
491.392861	0.999173
491.760593	0.999735
492.128267	0.999417
492.495883	0.999380
492.863440	0.999476
493.230939	0.999198
493.598380	0.999861
493.965763	0.999656
494.333088	0.998629
494.700354	0.999203
495.067563	0.999371
495.434713	0.999775
495.801805	0.999243
496.168839	0.999633
496.535815	0.999568
496.902733	0.999267
497.269593	0.999486
497.636395	0.999175
498.003139	0.998580
498.369825	0.999447
498.736453	0.998947
499.103023	0.999360
499.469535	0.999617
499.835989	0.999630
500.202385	0.998913
500.568723	0.999058
500.935003	1.000137
501.301226	0.999334
501.667390	0.998964
502.033497	0.999948
502.399546	0.999351
502.765537	0.999607
503.131470	0.999393
503.497345	0.999294
503.863163	0.999542
504.228923	0.999838
504.594625	0.999131
504.960269	1.000055
505.325856	1.000073
505.691385	0.999403
506.056856	0.999385
506.422270	0.999473
506.787625	0.999321
507.152924	0.999426
507.518164	0.999364
507.883347	0.999469
508.248472	0.999530
508.613540	0.999404
508.978550	0.999440
509.343503	0.999560
509.708398	0.999961
510.073236	1.000204
510.438016	0.999141
510.802738	0.999183
511.167403	0.999362
511.532010	1.000319
511.896561	0.999994
512.261053	0.999277
512.625488	0.999488
512.989866	0.999702
513.354186	0.999184
513.718449	0.999259
514.082655	0.999442
514.446803	0.999285
514.810894	1.000249
515.174927	0.999371
515.538904	0.999428
515.902822	0.999642
516.266684	0.999457
516.630488	1.000057
516.994235	1.000166
517.357925	1.000005
517.721558	1.000846
518.085133	0.998909
518.448651	0.999591
518.812112	0.999963
519.175516	0.999677
519.538863	0.999654
519.902152	1.000285
520.265385	0.999559
520.628560	0.998978
520.991678	0.999440
521.354739	1.000339
521.717743	0.999705
522.080690	0.999225
522.443580	0.999955
522.806413	0.998886
523.169189	0.999925
523.531908	0.998975
523.894569	0.999200
524.257174	0.999757
524.619722	0.999718
524.982213	0.999269
525.344647	0.999296
525.707025	0.999102
526.069345	0.999170
526.431608	1.000073
526.793815	1.000264
527.155964	1.000074
527.518057	0.999967
527.880093	0.999365
528.242072	0.999213
528.603995	0.998965
528.965860	0.999978
529.327669	1.000314
529.689421	0.999638
530.051117	0.999692
530.412755	1.000015
530.774337	0.999078
531.135862	0.999940
531.497331	0.999473
531.858743	0.999651
532.220098	0.998810
532.581396	0.999347
532.942638	0.999502
533.303824	1.000097
533.664953	0.999207
534.026025	1.000053
534.387040	0.999548
534.747999	0.999587
535.108902	0.999457
535.469748	1.000110
535.830537	0.999588
536.191270	0.999492
536.551947	0.999409
536.912567	0.999536
537.273131	1.000420
537.633638	0.999503
537.994089	0.999970
538.354483	0.999609
538.714821	0.999123
539.075103	0.999418
539.435328	0.999852
539.795497	0.999892
540.155609	0.999901
540.515665	0.999749
540.875665	0.999154
541.235609	1.000045
541.595496	0.998680
541.955328	0.999254
542.315102	0.999793
542.674821	0.999432
543.034483	0.999821
543.394090	0.999337
543.753640	0.999197
544.113134	0.998990
544.472571	0.999931
544.831953	0.999896
545.191278	0.999860
545.550548	0.999444
545.909761	0.999340
546.268918	1.000635
546.628019	1.000147
546.987064	0.999578
547.346053	0.998775
547.704986	0.999405
548.063863	0.999593
548.422684	0.999298
548.781449	0.999707
549.140158	0.999591
549.498811	0.999218
549.857408	0.998868
550.215949	0.998654
550.574434	1.000037
550.932864	0.999499
551.291237	0.999463
551.649555	0.999926
552.007817	0.999207
552.366022	1.000293
552.724173	0.999991
553.082267	0.999605
553.440305	0.999022
553.798288	0.998646
554.156215	0.999948
554.514086	0.999529
554.871902	0.999512
555.229661	0.998583
555.587365	0.999545
555.945014	0.999911
556.302606	0.999114
556.660143	0.999592
557.017625	1.000176
557.375050	0.999391
557.732421	0.999787
558.089735	0.998968
558.446994	0.999354
558.804197	0.999705
559.161345	0.998663
559.518437	0.998659
559.875474	0.999590
560.232455	1.000156
560.589381	0.999969
560.946251	0.999057
561.303065	0.999522
561.659825	0.999300
562.016528	0.999561
562.373177	0.999216
562.729770	0.999333
563.086307	0.999141
563.442789	0.999768
563.799216	0.998821
564.155587	0.999468
564.511904	1.000016
564.868164	0.998984
565.224370	0.999416
565.580520	0.999349
565.936615	0.999411
566.292654	0.999641
566.648638	1.000093
567.004567	0.999506
567.360441	0.999608
567.716260	0.999179
568.072023	0.999410
568.427732	1.000139
568.783385	0.999821
569.138982	0.999483
569.494525	0.999160
569.850013	1.000235
570.205445	0.999771
570.560823	1.000452
570.916145	0.998906
571.271412	0.999874
571.626625	0.999498
571.981782	0.999528
572.336884	0.999877
572.691931	0.999587
573.046923	0.999544
573.401860	0.998735
573.756743	0.999385
574.111570	0.999598
574.466342	1.000237
574.821059	0.999073
575.175722	1.000451
575.530330	1.000167
575.884882	0.999452
576.239380	0.999505
576.593823	0.999589
576.948211	0.999619
577.302544	0.999066
577.656823	0.999587
578.011047	0.999326
578.365216	0.999610
578.719330	0.999623
579.073389	0.999066
579.427394	0.999243
579.781344	0.999472
580.135239	0.998500
580.489080	0.999316
580.842866	0.998790
581.196597	0.999565
581.550273	0.999330
581.903895	0.999800
582.257463	0.999151
582.610975	1.000138
582.964434	0.999627
583.317837	0.999456
583.671186	1.000172
584.024481	0.999392
584.377721	0.998655
584.730906	0.999936
585.084037	0.999962
585.437113	1.000212
585.790135	0.999253
586.143103	0.999630
586.496016	0.999210
586.848874	0.999937
587.201679	0.999302
587.554428	0.998582
587.907124	0.999468
588.259765	0.999768
588.612352	0.999862
588.964884	0.999202
589.317362	0.999277
589.669786	0.999336
590.022155	0.998289
590.374470	0.998947
590.726731	0.998278
591.078937	0.999873
591.431090	0.999344
591.783188	0.998675
592.135232	1.000284
592.487222	0.999706
592.839157	0.999228
593.191038	0.999080
593.542866	0.999456
593.894639	0.998220
594.246358	0.999666
594.598022	0.999939
594.949633	0.999848
595.301190	0.999619
595.652692	0.999134
596.004141	0.999344
596.355535	0.999028
596.706876	0.999480
597.058162	0.999460
597.409395	1.000148
597.760573	0.999162
598.111698	0.999206
598.462768	0.998326
598.813785	0.998620
599.164748	0.999049
599.515657	0.998844
599.866511	0.999267
600.217312	0.999552
600.568060	0.999211
600.918753	0.999478
601.269392	1.000046
601.619978	0.999887
601.970510	0.999031
602.320988	0.999265
602.671412	0.999911
603.021783	0.999277
603.372100	0.999979
603.722363	0.999549
604.072572	0.999206
604.422728	0.998143
604.772830	0.999174
605.122878	0.999561
605.472872	0.999714
605.822813	0.999434
606.172701	0.998809
606.522534	0.998901
606.872314	0.999536
607.222041	0.999599
607.571714	0.999754
607.921333	0.999386
608.270899	0.998875
608.620411	0.999050
608.969870	0.999246
609.319276	0.999157
609.668627	0.999833
610.017926	0.998890
610.367171	0.999307
610.716362	0.999433
611.065500	0.998895
611.414585	0.998707
611.763616	0.998224
612.112594	0.998647
612.461518	0.997899
612.810389	0.999385
613.159207	0.999097
613.507971	0.998929
613.856682	1.000053
614.205340	0.997986
614.553945	1.000176
614.902496	0.999230
615.250994	0.999675
615.599439	0.999303
615.947830	0.998635
616.296169	0.999057
616.644454	0.999412
616.992686	0.999208
617.340864	0.999359
617.688990	0.999008
618.037063	0.999934
618.385082	0.998796
618.733048	0.997861
619.080961	0.999207
619.428821	0.999253
619.776628	0.998793
620.124382	0.999793
620.472083	0.999246
620.819731	1.000869
621.167326	0.999853
621.514868	1.000064
621.862357	0.999795
622.209793	0.999317
622.557176	0.998525
622.904506	0.999014
623.251783	0.998723
623.599007	0.999314
623.946179	0.998486
624.293297	1.000351
624.640363	0.999496
624.987376	0.998044
625.334336	0.998849
625.681243	0.999747
626.028097	0.999262
626.374899	0.998133
626.721647	1.000180
627.068343	0.999034
627.414987	0.999012
627.761577	0.997792
628.108115	0.998853
628.454600	0.999879
628.801032	0.998813
629.147412	0.998482
629.493739	0.999720
629.840014	0.999663
630.186236	0.998430
630.532405	0.999036
630.878521	0.998048
631.224585	0.998948
631.570597	0.998620
631.916556	0.998726
632.262462	0.997495
632.608316	0.999108
632.954117	0.998058
633.299866	0.999058
633.645562	0.999688
633.991206	0.998672
634.336797	0.998576
634.682336	0.999428
635.027823	0.997875
635.373257	0.999341
635.718639	0.999784
636.063968	0.999195
636.409245	0.998778
636.754470	0.999366
637.099642	0.999291
637.444762	0.999925
637.789829	0.999520
638.134845	0.998583
638.479808	0.998845
638.824719	0.999058
639.169577	0.998331
639.514383	0.999700
639.859137	0.999063
640.203839	0.998878
640.548489	0.998818
640.893086	0.998590
641.237632	0.999441
641.582125	0.998955
641.926566	1.000037
642.270955	0.998518
642.615292	0.998753
642.959576	0.998846
643.303809	0.999559
643.647990	0.998535
643.992118	0.998187
644.336195	0.998371
644.680219	0.999238
645.024192	0.999140
645.368112	0.998681
645.711981	0.998944
646.055797	0.999359
646.399562	0.998648
646.743274	0.999021
647.086935	0.998408
647.430544	0.998204
647.774101	0.998514
648.117606	0.999753
648.461059	0.999299
648.804460	0.998858
649.147810	0.998012
649.491108	0.998376
649.834354	0.999253
650.177548	0.998161
650.520690	0.998734
650.863781	0.998386
651.206820	0.999236
651.549807	0.998457
651.892742	0.999630
652.235626	0.999704
652.578458	0.999418
652.921238	0.999525
653.263967	0.999058
653.606644	0.998432
653.949269	1.000316
654.291843	0.998189
654.634365	0.999433
654.976836	0.997988
655.319255	1.000143
655.661622	0.999885
656.003938	0.999242
656.346203	0.999196
656.688416	0.999148
657.030577	0.998531
657.372687	0.998464
657.714746	0.998537
658.056753	0.998533
658.398708	0.997977
658.740612	0.999319
659.082465	0.999305
659.424266	0.999292
659.766016	0.998377
660.107715	0.999216
660.449362	0.998136
660.790958	0.998535
661.132503	0.999175
661.473996	0.998120
661.815438	0.998927
662.156829	0.998715
662.498168	0.999341
662.839456	0.997700
663.180693	0.998189
663.521879	0.998500
663.863013	0.999891
664.204097	0.998294
664.545129	0.998470
664.886110	0.997968
665.227040	0.997984
665.567918	0.998596
665.908746	0.997908
666.249522	0.998351
666.590248	0.998072
666.930922	0.998680
667.271545	0.999166
667.612118	0.998758
667.952639	0.998506
668.293109	0.998646
668.633528	0.998054
668.973896	0.998387
669.314213	0.998398
669.654480	0.998188
669.994695	0.997711
670.334859	0.998501
670.674973	0.997763
671.015035	0.998544
671.355047	0.998519
671.695008	0.997673
672.034918	0.997956
672.374777	0.999159
672.714585	0.999194
673.054342	0.999631
673.394049	0.997868
673.733705	0.997816
674.073310	0.998296
674.412864	0.998235
674.752368	0.998029
675.091820	0.999277
675.431223	0.998461
675.770574	0.997884
676.109875	0.998281
676.449125	0.998037
676.788324	0.998317
677.127473	0.999079
677.466571	0.998362
677.805619	0.998558
678.144616	0.999470
678.483562	0.998832
678.822458	0.998222
679.161303	0.997766
679.500098	0.998535
679.838842	0.998706
680.177535	0.998371
680.516179	0.997586
680.854771	0.997960
681.193314	0.998236
681.531805	0.997518
681.870247	0.997296
682.208638	0.998558
682.546978	0.997936
682.885268	0.997380
683.223508	0.997266
683.561697	0.997918
683.899836	0.998243
684.237925	0.997862
684.575963	0.998160
684.913951	0.998019
685.251889	0.998603
685.589776	0.997386
685.927614	0.998326
686.265401	0.997785
686.603137	0.997824
686.940824	0.998233
687.278460	0.998722
687.616046	0.997412
687.953582	0.997910
688.291068	0.997857
688.628504	0.998029
688.965889	0.998229
689.303224	0.997399
689.640510	0.997844
689.977745	0.997597
690.314930	0.997643
690.652065	0.998438
690.989150	0.997509
691.326185	0.998795
691.663170	0.998208
692.000105	0.998517
692.336990	0.997738
692.673825	0.998344
693.010610	0.998363
693.347345	0.998099
693.684030	0.997988
694.020665	0.997608
694.357251	0.998008
694.693786	0.998390
695.030272	0.997228
695.366707	0.997857
695.703093	0.998476
696.039429	0.997042
696.375716	0.998356
696.711952	0.998145
697.048139	0.998307
697.384276	0.998863
697.720363	0.998460
698.056400	0.996948
698.392388	0.998101
698.728326	0.997069
699.064214	0.999157
699.400053	0.997884
699.735842	0.998421
700.071581	0.997587
700.407270	0.997851
700.742910	0.998328
701.078501	0.998143
701.414042	0.998757
701.749533	0.997195
702.084974	0.998030
702.420366	0.998565
702.755709	0.997300
703.091002	0.998177
703.426246	0.998566
703.761440	0.997746
704.096584	0.997218
704.431679	0.997649
704.766725	0.997596
705.101721	0.998479
705.436668	0.998802
705.771565	0.997427
706.106413	0.997842
706.441212	0.998345
706.775961	0.998385
707.110661	0.996963
707.445311	0.997756
707.779913	0.999018
708.114465	0.998682
708.448967	0.998339
708.783421	0.998521
709.117825	0.998852
709.452180	0.997825
709.786485	0.997372
710.120742	0.997020
710.454949	0.997347
710.789107	0.997821
711.123216	0.997166
711.457275	0.997636
711.791286	0.997243
712.125247	0.999302
712.459159	0.998134
712.793023	0.998392
713.126837	0.998293
713.460602	0.997197
713.794318	0.996424
714.127985	0.996919
714.461602	0.997523
714.795171	0.997763
715.128691	0.997521
715.462162	0.998664
715.795584	0.998521
716.128957	0.998988
716.462281	0.998800
716.795556	0.997188
717.128782	0.998714
717.461960	0.997953
717.795088	0.997480
718.128167	0.998493
718.461198	0.997510
718.794180	0.998197
719.127113	0.996924
719.459997	0.998063
719.792833	0.997695
720.125619	0.997418
720.458357	0.998112
720.791046	0.998867
721.123686	0.997987
721.456278	0.998993
721.788821	0.997704
722.121315	0.998904
722.453761	0.997868
722.786158	0.997390
723.118506	0.997983
723.450805	0.997297
723.783056	0.998674
724.115259	0.997837
724.447412	0.997974
724.779518	0.998111
725.111574	0.997329
725.443582	0.997672
725.775542	0.997824
726.107453	0.998481
726.439315	0.998256
726.771129	0.998650
727.102895	0.998238
727.434612	0.997997
727.766281	0.997381
728.097901	0.997515
728.429473	0.998644
728.760996	0.997965
729.092471	0.998407
729.423897	0.998493
729.755276	0.998460
730.086606	0.997332
730.417887	0.998111
730.749120	0.998152
731.080305	0.997950
731.411442	0.997404
731.742530	0.997048
732.073570	0.996824
732.404562	0.997809
732.735506	0.996719
733.066401	0.998203
733.397249	0.997818
733.728048	0.997854
734.058798	0.999461
734.389501	0.998964
734.720156	0.997856
735.050762	0.998555
735.381320	0.997569
735.711831	0.997818
736.042293	0.998218
736.372707	0.998594
736.703073	0.996623
737.033391	0.998545
737.363661	0.998286
737.693883	0.997449
738.024056	0.997404
738.354182	0.998459
738.684260	0.997126
739.014290	0.997543
739.344272	0.998494
739.674207	0.997620
740.004093	0.998526
740.333931	0.998115
740.663722	0.998189
740.993464	0.998670
741.323159	0.997888
741.652806	0.997801
741.982405	0.998067
742.311956	0.999273
742.641460	0.998682
742.970915	0.998037
743.300323	0.998265
743.629683	0.998342
743.958996	0.998757
744.288260	0.997293
744.617477	0.998518
744.946647	0.998339
745.275768	0.998874
745.604842	0.997884
745.933869	0.998054
746.262847	0.999143
746.591778	0.996904
746.920662	0.999205
747.249498	0.999040
747.578286	0.999240
747.907027	0.998735
748.235720	0.998520
748.564365	0.999255
748.892963	0.997488
749.221514	0.998100
749.550017	0.997904
749.878473	0.998696
750.206881	1.000373
750.535242	0.997287
750.863555	0.997955
751.191821	0.998217
751.520039	0.998636
751.848210	0.997062
752.176334	0.998965
752.504411	0.997641
752.832440	0.996680
753.160421	0.999053
753.488356	0.997842
753.816243	0.998902
754.144082	0.997961
754.471875	0.998760
754.799620	0.998299
755.127318	0.998346
755.454969	0.999018
755.782572	0.998312
756.110129	0.998227
756.437638	0.999961
756.765100	0.998290
757.092515	0.996926
757.419882	0.998511
757.747203	0.998235
758.074477	0.998932
758.401703	0.998731
758.728882	0.998821
759.056014	0.998203
759.383099	0.998795
759.710138	0.998082
760.037129	0.999137
760.364073	0.998624
760.690970	0.997848
761.017820	0.997716
761.344623	0.998867
761.671379	0.999054
761.998088	0.998181
762.324751	0.998701
762.651366	0.997391
762.977935	0.997216
763.304456	0.997531
763.630931	0.996893
763.957359	0.995854
764.283740	0.997514
764.610074	0.996995
764.936362	0.998118
765.262602	0.998521
765.588796	0.997591
765.914943	0.998120
766.241044	0.998396
766.567097	0.998429
766.893104	0.998552
767.219064	0.998039
767.544978	0.997981
767.870845	0.999110
768.196665	0.999072
768.522438	0.998859
768.848165	0.999697
769.173846	0.999231
769.499479	0.999757
769.825066	0.999415
770.150607	1.000442
770.476101	0.999335
770.801548	0.998955
771.126949	0.999232
771.452303	0.999148
771.777611	0.999268
772.102872	0.998775
772.428087	0.997889
772.753256	0.999046
773.078378	0.998868
773.403453	0.998679
773.728482	0.999754
774.053465	0.997783
774.378401	0.999582
774.703291	0.998945
775.028135	1.000046
775.352932	0.998378
775.677683	0.999508
776.002388	0.998226
776.327046	0.998871
776.651658	0.999413
776.976224	0.998813
777.300743	0.998981
777.625216	0.998277
777.949643	1.000285
778.274024	0.998648
778.598359	0.998648
778.922647	0.998869
779.246889	0.999388
779.571086	0.999338
779.895236	0.999101
780.219339	0.999304
780.543397	0.997888
780.867409	0.998813
781.191374	0.998615
781.515294	1.000430
781.839167	0.999642
782.162995	0.997972
782.486776	0.997760
782.810511	0.999011
783.134201	0.999243
783.457844	0.998974
783.781441	0.998957
784.104993	0.998380
784.428498	0.998917
784.751958	0.999228
785.075372	0.999060
785.398739	0.999118
785.722061	0.998376
786.045337	0.998900
786.368568	0.998507
786.691752	0.998466
787.014891	0.998378
787.337983	0.998130
787.661030	0.998395
787.984031	0.999505
788.306987	0.998823
788.629897	0.998054
788.952760	0.998968
789.275579	0.998306
789.598351	0.998047
789.921078	0.999561
790.243759	0.999602
790.566395	0.997237
790.888984	0.999391
791.211529	0.999215
791.534027	0.999216
791.856480	0.999270
792.178888	0.998677
792.501249	0.997904
792.823566	1.000514
793.145836	0.998639
793.468062	0.999172
793.790241	0.999711
794.112375	0.998796
794.434464	0.999408
794.756507	0.999942
795.078505	0.999437
795.400457	0.999375
795.722364	0.998638
796.044226	1.000002
796.366042	0.998758
796.687812	0.996969
797.009538	0.998485
797.331218	0.999400
797.652852	0.999477
797.974442	0.998378
798.295986	0.999394
798.617484	0.999036
798.938938	0.998586
799.260346	0.998227
799.581709	0.997848
799.903026	0.999357
800.224299	0.997560
800.545526	0.998913
800.866708	0.998428
801.187845	0.999428
801.508936	0.998941
801.829983	0.999171
802.150984	0.999429
802.471940	0.998924
802.792851	0.997512
803.113717	0.999897
803.434538	0.999708
803.755314	0.999852
804.076045	0.998482
804.396731	0.998127
804.717372	0.998160
805.037967	0.999858
805.358518	0.998852
805.679024	0.998400
805.999485	0.998979
806.319901	0.998273
806.640272	0.999541
806.960598	0.999860
807.280879	0.999092
807.601115	0.999718
807.921306	0.999144
808.241453	0.998719
808.561554	0.999001
808.881611	0.999111
809.201623	0.998210
809.521590	0.997950
809.841513	0.998990
810.161390	0.998533
810.481223	0.998751
810.801011	0.999395
811.120755	0.999735
811.440453	0.998887
811.760107	0.999313
812.079716	0.998553
812.399281	0.999373
812.718801	0.999181
813.038276	0.998215
813.357707	0.999021
813.677093	0.999404
813.996434	0.998633
814.315731	1.000856
814.634983	0.999147
814.954191	0.998705
815.273354	0.998997
815.592473	0.998533
815.911547	0.999649
816.230577	0.998689
816.549562	0.998981
816.868502	0.997564
817.187399	0.999669
817.506250	0.999581
817.825058	0.998430
818.143821	1.000342
818.462539	0.998731
818.781213	0.999031
819.099843	1.000050
819.418429	0.998659
819.736970	0.998952
820.055466	0.998673
820.373919	0.998549
820.692327	0.997750
821.010691	0.998753
821.329011	0.997106
821.647286	0.996336
821.965517	0.996623
822.283704	0.996610
822.601847	0.996644
822.919945	0.996183
823.237999	0.996118
823.556010	0.996241
823.873976	0.997044
824.191897	0.997620
824.509775	0.996732
824.827609	0.997347
825.145398	0.997494
825.463144	0.996689
825.780845	0.996738
826.098502	0.996844
826.416116	0.998230
826.733685	0.996992
827.051210	0.996919
827.368692	0.996158
827.686129	0.997517
828.003522	0.998095
828.320872	0.996723
828.638177	0.997975
828.955439	0.999279
829.272656	0.999206
829.589830	0.998730
829.906960	0.998720
830.224046	0.998487
830.541088	0.997815
830.858086	0.999094
831.175041	0.999722
831.491952	0.999242
831.808819	0.998939
832.125642	0.998249
832.442421	0.999884
832.759157	1.000506
833.075849	0.997598
833.392497	0.998126
833.709101	0.997755
834.025662	0.998510
834.342179	0.997836
834.658653	0.998239
834.975083	0.999533
835.291469	0.999806
835.607811	0.998001
835.924110	0.999415
836.240366	0.999876
836.556578	0.999544
836.872746	0.999245
837.188871	0.999236
837.504952	0.999523
837.820990	0.998378
838.136984	0.999225
838.452935	0.998710
838.768842	0.998900
839.084706	0.999067
839.400526	0.998108
839.716303	0.997960
840.032037	0.999290
840.347727	0.998848
840.663373	0.998877
840.978977	0.999095
841.294537	0.999806
841.610054	0.999185
841.925527	0.999360
842.240957	1.000263
842.556344	0.999802
842.871687	0.999524
843.186987	0.998192
843.502244	1.000323
843.817458	0.998254
844.132629	0.999445
844.447756	0.998521
844.762840	0.999876
845.077881	0.999880
845.392879	0.998302
845.707833	0.998044
846.022745	0.999494
846.337613	0.999861
846.652438	1.000056
846.967221	1.000146
847.281960	0.999864
847.596656	0.999678
847.911309	0.999203
848.225919	0.998763
848.540485	0.999152
848.855009	1.000616
849.169490	0.999913
849.483928	0.998172
849.798323	0.997369
850.112675	0.999791
850.426984	1.000584
850.741251	1.000807
851.055474	0.999632
851.369654	0.999104
851.683792	0.999476
851.997887	0.999433
852.311938	1.000110
852.625947	0.998260
852.939914	0.999270
853.253837	1.000336
853.567718	0.999348
853.881555	0.999901
854.195350	0.998835
854.509103	1.000286
854.822812	1.000339
855.136479	0.999864
855.450103	0.999353
855.763685	0.999270
856.077224	0.999243
856.390720	0.999429
856.704173	0.998985
857.017584	0.999714
857.330953	0.999330
857.644278	0.999754
857.957561	1.000875
858.270802	0.999536
858.584000	0.999541
858.897155	0.999038
859.210268	0.999835
859.523339	0.999663
859.836367	0.999769
860.149352	0.999687
860.462295	0.999499
860.775195	0.999699
861.088054	0.998800
861.400869	0.999340
861.713642	0.998319
862.026373	1.000735
862.339062	0.999743
862.651708	0.999213
862.964312	0.999482
863.276873	0.999727
863.589392	0.999640
863.901869	0.998845
864.214303	0.999879
864.526696	0.999168
864.839045	0.999284
865.151353	0.999256
865.463619	0.998882
865.775842	1.000112
866.088023	0.999843
866.400162	0.999500
866.712258	1.000100
867.024313	1.000284
867.336325	1.000906
867.648296	1.001160
867.960224	1.000326
868.272110	0.999735
868.583954	0.999751
868.895755	1.000623
869.207515	0.998668
869.519233	1.000347
869.830909	0.999335
870.142542	0.997758
870.454134	0.999167
870.765684	0.998968
871.077191	1.000318
871.388657	0.999457
871.700081	1.000104
872.011463	1.000183
872.322803	0.999650
872.634101	0.999559
872.945357	0.999433
873.256571	0.999722
873.567744	0.999872
873.878874	0.999531
874.189963	0.999260
874.501010	1.001308
874.812015	0.999456
875.122979	0.999498
875.433900	0.999895
875.744780	0.999481
876.055618	0.998783
876.366415	0.999271
876.677169	0.999130
876.987882	0.999671
877.298554	1.000523
877.609183	0.999112
877.919771	0.999199
878.230317	0.999153
878.540822	0.998883
878.851285	0.999219
879.161707	0.999868
879.472087	1.000457
879.782425	0.998507
880.092722	0.998460
880.402977	0.998235
880.713191	0.998076
881.023363	0.998071
881.333494	0.998265
881.643583	0.998750
881.953631	0.997711
882.263637	0.997032
882.573602	0.998060
882.883526	0.997625
883.193408	0.997516
883.503248	0.998230
883.813048	0.997910
884.122806	0.998461
884.432522	0.998124
884.742197	0.999371
885.051831	0.999157
885.361424	0.999263
885.670975	0.999755
885.980485	0.999036
886.289954	0.998411
886.599382	0.998778
886.908768	0.999476
887.218113	0.999082
887.527417	0.999999
887.836680	0.999543
888.145901	1.000100
888.455082	1.000540
888.764221	0.999991
889.073319	0.999121
889.382376	0.999892
889.691392	0.998023
890.000366	0.999702
890.309300	0.999458
890.618193	1.000594
890.927044	0.998660
891.235855	0.998469
891.544625	0.999527
891.853353	0.999377
892.162041	0.998763
892.470687	1.000833
892.779293	0.999412
893.087858	0.998402
893.396381	0.998238
893.704864	0.999101
894.013306	0.999244
894.321707	0.998785
894.630068	0.998167
894.938387	0.998791
895.246665	0.998007
895.554903	0.997976
895.863100	0.999810
896.171256	0.998217
896.479371	1.000045
896.787446	0.999624
897.095480	0.998673
897.403473	0.999421
897.711425	0.999880
898.019336	1.000852
898.327207	0.999883
898.635038	0.998645
898.942827	1.000278
899.250576	0.999924
899.558284	0.998572
899.865952	0.999520
900.173579	0.999407
900.481165	0.999623
900.788711	0.998429
901.096216	0.999046
901.403681	1.000569
901.711105	0.999649
902.018489	0.999501
902.325832	0.998362
902.633135	0.999950
902.940397	1.000060
903.247619	0.999868
903.554800	0.999450
903.861941	0.999659
904.169041	0.998688
904.476101	0.999011
904.783121	0.999389
905.090100	0.999210
905.397039	0.998892
905.703938	0.998478
906.010796	0.999440
906.317614	0.998404
906.624391	0.999991
906.931129	0.999640
907.237826	0.999267
907.544483	0.998638
907.851099	0.998666
908.157675	0.998297
908.464211	0.999024
908.770707	0.998294
909.077163	0.999892
909.383578	1.000436
909.689954	0.998438
909.996289	1.000323
910.302584	1.000770
910.608839	1.001003
910.915054	0.999051
911.221229	1.001058
911.527363	1.000011
911.833458	1.000275
912.139513	1.000110
912.445527	0.999656
912.751502	0.999293
913.057436	0.998035
913.363331	0.999868
913.669186	1.000716
913.975000	0.999931
914.280775	1.001000
914.586510	0.999845
914.892205	0.997776
915.197859	0.998478
915.503475	0.999612
915.809050	0.999479
916.114585	0.998105
916.420081	0.999913
916.725536	0.998738
917.030952	0.998967
917.336328	0.999697
917.641665	0.998631
917.946961	0.997968
918.252218	0.999202
918.557435	0.998465
918.862612	1.000010
919.167750	0.999992
919.472848	0.999912
919.777906	1.000816
920.082925	1.000889
920.387904	1.000441
920.692843	0.999776
920.997743	0.999107
921.302603	1.000801
921.607423	0.998274
921.912204	0.999969
922.216946	1.000466
922.521647	0.999894
922.826310	0.999919
923.130932	1.001366
923.435516	1.000313
923.740059	0.998717
924.044564	0.999212
924.349028	0.998440
924.653454	0.999840
924.957840	0.998422
925.262186	1.000101
925.566493	0.999337
925.870761	0.998765
926.174989	0.999523
926.479178	1.000724
926.783328	1.000002
927.087438	0.999960
927.391509	0.997966
927.695541	0.999363
927.999533	0.999566
928.303486	0.999715
928.607400	1.000120
928.911275	1.000099
929.215110	0.999497
929.518906	1.000562
929.822663	1.001733
930.126381	0.999384
930.430060	0.999729
930.733699	1.000471
931.037299	1.000419
931.340861	0.999572
931.644383	0.999312
931.947866	1.000618
932.251309	1.000490
932.554714	0.999343
932.858080	1.001109
933.161407	0.998770
933.464694	0.999910
933.767943	1.000029
934.071153	0.999111
934.374323	1.000380
934.677455	0.999742
934.980548	1.000300
935.283602	1.000250
935.586617	0.998822
935.889593	1.001234
936.192530	0.999789
936.495428	0.999998
936.798287	0.998718
937.101108	0.998964
937.403890	0.999558
937.706632	1.000984
938.009336	0.999832
938.312002	0.999259
938.614628	1.001098
938.917216	0.999567
939.219765	0.998871
939.522275	1.000113
939.824747	1.000312
940.127179	1.000295
940.429573	1.000841
940.731929	0.998442
941.034246	0.999876
941.336524	0.998233
941.638763	0.998766
941.940964	0.999288
942.243126	0.999363
942.545250	1.000093
942.847335	1.000501
943.149381	1.000693
943.451389	0.999047
943.753359	0.999786
944.055290	1.001356
944.357182	0.999017
944.659036	1.000321
944.960851	0.999607
945.262628	0.999366
945.564367	0.998839
945.866067	0.999985
946.167729	1.000106
946.469352	0.999955
946.770937	0.998379
947.072484	1.001004
947.373992	1.000588
947.675462	0.999865
947.976893	0.998880
948.278286	1.002028
948.579641	1.000768
948.880958	0.998884
949.182236	0.999493
949.483476	1.001433
949.784678	0.998649
950.085841	0.998644
950.386967	0.999886
950.688054	1.000262
950.989103	0.997661
951.290114	0.999238
951.591087	1.000436
951.892021	0.999045
952.192917	1.000337
952.493776	0.999837
952.794596	0.999779
953.095378	0.999953
953.396122	0.999008
953.696828	0.999760
953.997496	0.999724
954.298126	0.999559
954.598718	0.999980
954.899272	0.999455
955.199788	0.999478
955.500266	1.000861
955.800706	0.999337
956.101108	0.999744
956.401472	1.000307
956.701798	0.999879
957.002087	0.998883
957.302337	0.999687
957.602550	0.999808
957.902724	0.999589
958.202861	0.999741
958.502960	0.998736
958.803022	1.000691
959.103045	0.999119
959.403031	0.999773
959.702979	1.001408
960.002889	1.000590
960.302762	0.998658
960.602596	1.000210
960.902393	0.999162
961.202153	1.000633
961.501875	0.999722
961.801559	1.001307
962.101205	0.999380
962.400814	1.001244
962.700385	1.000276
962.999918	1.000281
963.299414	0.999428
963.598873	1.000370
963.898293	0.998681
964.197677	0.998860
964.497022	1.000280
964.796331	1.000305
965.095601	1.001380
965.394835	0.999363
965.694030	1.000856
965.993189	0.999824
966.292309	1.000055
966.591393	0.998594
966.890439	0.999827
967.189447	0.998508
967.488419	1.000200
967.787353	0.999896
968.086249	1.000841
968.385108	0.999295
968.683930	1.000383
968.982714	0.999885
969.281462	0.999881
969.580172	0.999873
969.878844	1.001076
970.177480	1.000848
970.476078	1.000779
970.774639	0.999245
971.073162	0.999098
971.371649	0.999405
971.670098	0.999471
971.968510	1.000089
972.266885	0.999189
972.565223	0.999997
972.863524	0.998800
973.161788	0.999315
973.460014	1.001017
973.758204	0.998540
974.056356	1.000864
974.354471	0.999535
974.652550	1.000392
974.950591	1.000023
975.248595	0.999432
975.546563	1.000574
975.844493	1.000753
976.142386	0.999016
976.440243	1.001403
976.738062	0.999700
977.035845	0.999139
977.333590	1.001736
977.631299	0.998280
977.928971	0.999358
978.226606	0.999960
978.524204	0.999005
978.821765	0.999384
979.119290	1.001241
979.416777	0.999890
979.714228	0.999779
980.011642	1.000109
980.309020	0.998684
980.606360	0.999034
980.903664	1.000437
981.200931	1.000110
981.498162	1.000231
981.795356	0.999108
982.092513	1.000460
982.389633	1.001164
982.686717	0.998930
982.983764	1.000302
983.280775	0.999891
983.577749	1.000164
983.874686	0.999200
984.171587	0.998887
984.468451	0.999936
984.765279	1.001160
985.062070	0.999409
985.358824	0.999977
985.655543	1.000309
985.952224	1.001285
986.248869	0.999643
986.545478	1.000178
986.842050	1.001284
987.138586	0.999542
987.435086	0.999017
987.731549	1.001154
988.027975	1.000803
988.324366	1.000132
988.620719	1.000343
988.917037	0.999781
989.213318	1.000496
989.509563	1.000048
989.805772	0.999623
990.101944	1.001347
990.398080	0.999375
990.694180	1.000946
990.990244	0.998625
991.286271	1.000993
991.582262	0.999544
991.878217	1.000378
992.174136	1.000128
992.470019	1.000174
992.765865	1.002299
993.061676	1.000643
993.357450	0.999715
993.653188	1.000776
993.948890	0.999629
994.244556	0.999059
994.540186	0.999715
994.835780	1.000110
995.131337	1.000824
995.426859	0.999482
995.722345	0.999619
996.017795	0.999320
996.313208	0.999193
996.608586	0.999389
996.903928	1.001316
997.199234	0.999757
997.494504	1.000780
997.789738	0.997810
998.084936	1.000340
998.380099	0.999468
998.675225	1.000841
998.970316	1.001517
999.265371	1.000296
999.560390	0.997916
999.855373	1.000073
1000.150320	1.000063
1000.445232	0.999832
1000.740108	1.000434
1001.034948	1.000921
1001.329752	1.001160
1001.624521	1.000374
1001.919254	0.998503
1002.213951	1.000891
1002.508613	0.999150
1002.803239	1.000275
1003.097829	0.998906
1003.392384	1.000349
1003.686903	0.999687
1003.981386	1.000236
1004.275834	1.001619
1004.570246	0.999383
1004.864623	1.000354
1005.158964	0.998730
1005.453270	0.999505
1005.747540	0.999153
1006.041775	1.000251
1006.335974	1.001094
1006.630138	0.999539
1006.924266	0.998818
1007.218359	0.997525
1007.512416	1.000854
1007.806438	1.000059
1008.100425	0.999944
1008.394376	1.000877
1008.688292	0.999397
1008.982172	0.998733
1009.276017	0.999853
1009.569827	1.001256
1009.863602	0.999322
1010.157341	1.000690
1010.451045	0.999493
1010.744714	1.000947
1011.038347	0.999495
1011.331945	0.999498
1011.625508	0.999125
1011.919036	1.000351
1012.212528	1.000827
1012.505986	0.999985
1012.799408	0.999844
1013.092795	0.999015
1013.386147	1.000580
1013.679464	1.000912
1013.972745	0.999910
1014.265992	0.999515
1014.559204	0.998723
1014.852380	1.000459
1015.145521	1.000117
1015.438628	1.001288
1015.731699	0.999182
1016.024736	1.000666
1016.317737	1.000041
1016.610703	1.000606
1016.903635	0.999419
1017.196531	1.000063
1017.489393	0.999501
1017.782219	0.999744
1018.075011	0.999564
1018.367768	0.999294
1018.660490	0.999071
1018.953177	0.999071
1019.245829	0.999071
