Dividing Wavelength (nm)	Counts (n)	Blue Motor Position (mm): 20.600000	Red Motor Position (mm): 0.000000	
326.493990	1.002327
326.888308	1.002327
327.282561	1.002327
327.676750	1.003579
328.070874	1.004695
328.464933	1.003250
328.858929	1.002666
329.252859	1.002678
329.646726	1.002033
330.040528	1.001502
330.434265	1.002789
330.827938	1.001907
331.221547	1.001850
331.615091	1.003320
332.008571	1.002764
332.401986	1.001710
332.795338	1.001009
333.188625	1.002899
333.581847	1.001930
333.975006	1.001652
334.368100	1.002467
334.761129	1.000749
335.154095	1.001607
335.546996	1.001400
335.939833	0.999110
336.332606	0.999881
336.725315	0.999230
337.117960	1.000445
337.510540	0.999464
337.903056	0.998874
338.295508	1.000132
338.687896	1.000416
339.080220	0.999383
339.472480	0.999911
339.864676	0.999967
340.256807	0.998242
340.648875	0.999848
341.040879	1.000695
341.432818	0.999401
341.824694	0.999274
342.216506	1.000020
342.608253	1.000248
342.999937	0.999176
343.391557	0.998963
343.783113	0.999899
344.174605	0.999970
344.566033	0.998743
344.957397	0.999643
345.348697	0.999245
345.739934	0.998041
346.131106	0.999539
346.522215	0.998642
346.913260	0.998996
347.304241	0.999698
347.695159	0.999830
348.086012	0.998488
348.476802	0.999517
348.867528	0.997832
349.258191	0.999101
349.648789	1.000175
350.039324	0.998844
350.429796	0.998321
350.820203	0.997618
351.210548	0.998800
351.600828	0.999708
351.991045	0.998850
352.381198	1.000385
352.771288	0.999109
353.161314	0.998692
353.551276	0.998536
353.941175	0.996594
354.331010	0.999970
354.720782	0.998846
355.110490	1.000215
355.500135	0.999430
355.889717	0.998767
356.279235	0.997555
356.668689	0.999694
357.058080	0.997710
357.447408	0.996897
357.836672	0.998330
358.225873	0.999269
358.615010	0.997791
359.004084	0.997541
359.393095	0.997980
359.782043	0.997050
360.170927	0.997721
360.559748	0.997631
360.948505	0.997825
361.337199	0.998141
361.725830	0.998448
362.114398	0.997337
362.502903	0.996119
362.891344	0.996604
363.279722	0.996634
363.668037	0.997227
364.056289	0.996204
364.444478	0.998434
364.832603	0.995607
365.220665	0.997300
365.608665	0.996528
365.996601	0.997865
366.384474	0.995199
366.772284	0.997020
367.160031	0.995399
367.547715	0.996088
367.935336	0.995193
368.322893	0.993258
368.710388	0.993223
369.097820	0.989591
369.485189	0.988480
369.872495	0.987870
370.259738	0.985088
370.646918	0.981124
371.034035	0.979896
371.421090	0.976959
371.808081	0.971792
372.195010	0.969309
372.581875	0.964507
372.968678	0.959864
373.355418	0.955815
373.742096	0.949212
374.128710	0.944607
374.515262	0.939787
374.901751	0.933465
375.288177	0.928593
375.674540	0.922985
376.060841	0.916049
376.447079	0.910062
376.833254	0.903173
377.219367	0.897944
377.605417	0.887178
377.991404	0.882888
378.377329	0.877275
378.763191	0.870584
379.148991	0.861633
379.534727	0.854118
379.920402	0.846226
380.306013	0.841815
380.691563	0.829862
381.077049	0.822774
381.462474	0.818744
381.847835	0.807508
382.233134	0.801911
382.618371	0.802908
383.003545	0.785200
383.388657	0.783573
383.773706	0.774748
384.158693	0.772407
384.543618	0.766440
384.928480	0.757378
385.313280	0.747877
385.698017	0.746258
386.082692	0.735150
386.467305	0.733726
386.851856	0.729028
387.236344	0.722929
387.620770	0.717696
388.005133	0.712010
388.389435	0.706689
388.773674	0.703791
389.157851	0.695782
389.541965	0.693188
389.926018	0.700427
390.310008	0.687090
390.693936	0.683833
391.077802	0.675816
391.461606	0.678101
391.845348	0.666958
392.229027	0.666024
392.612645	0.664498
392.996200	0.651356
393.379694	0.644214
393.763125	0.634713
394.146494	0.639668
394.529801	0.630055
394.913047	0.622210
395.296230	0.627176
395.679351	0.619179
396.062410	0.615609
396.445408	0.618416
396.828343	0.613717
397.211217	0.608427
397.594028	0.621163
397.976778	0.611687
398.359466	0.607684
398.742092	0.603300
399.124656	0.614752
399.507158	0.603336
399.889598	0.600615
400.271977	0.591999
400.654294	0.595664
401.036549	0.594774
401.418742	0.599377
401.800874	0.585432
402.182944	0.580978
402.564952	0.573597
402.946898	0.574784
403.328783	0.576437
403.710606	0.587158
404.092367	0.561951
404.474067	0.567917
404.855705	0.566527
405.237282	0.575086
405.618797	0.560393
406.000250	0.556392
406.381642	0.547227
406.762972	0.552138
407.144240	0.550570
407.525447	0.550650
407.906593	0.543485
408.287677	0.538378
408.668700	0.547345
409.049661	0.541050
409.430560	0.535791
409.811399	0.544697
410.192176	0.526583
410.572891	0.533963
410.953545	0.521619
411.334138	0.535572
411.714669	0.527673
412.095139	0.539809
412.475547	0.523946
412.855894	0.526093
413.236180	0.525024
413.616405	0.530376
413.996568	0.520985
414.376670	0.527018
414.756711	0.531703
415.136691	0.529029
415.516609	0.520308
415.896466	0.516767
416.276262	0.512928
416.655997	0.514367
417.035670	0.495381
417.415283	0.487480
417.794834	0.492263
418.174324	0.497474
418.553753	0.506466
418.933121	0.488692
419.312428	0.482978
419.691674	0.488562
420.070859	0.477507
420.449983	0.485113
420.829045	0.474245
421.208047	0.483127
421.586988	0.476419
421.965867	0.474662
422.344686	0.464013
422.723444	0.476073
423.102141	0.492992
423.480777	0.465883
423.859352	0.486945
424.237866	0.464270
424.616319	0.464761
424.994712	0.455708
425.373044	0.465944
425.751314	0.454067
426.129524	0.470885
426.507673	0.454220
426.885762	0.447527
427.263789	0.453502
427.641756	0.462719
428.019662	0.453034
428.397508	0.452496
428.775292	0.456871
429.153016	0.448416
429.530679	0.455228
429.908282	0.447904
430.285824	0.458410
430.663305	0.436902
431.040726	0.458112
431.418086	0.457785
431.795385	0.449642
432.172624	0.448009
432.549802	0.448442
432.926920	0.448105
433.303977	0.447379
433.680974	0.444353
434.057910	0.442957
434.434786	0.441862
434.811601	0.445348
435.188355	0.427529
435.565050	0.436690
435.941683	0.437882
436.318257	0.421666
436.694770	0.422833
437.071222	0.421173
437.447614	0.425104
437.823946	0.431729
438.200218	0.421098
438.576429	0.430975
438.952580	0.423914
439.328670	0.420357
439.704700	0.427227
440.080670	0.428455
440.456580	0.409663
440.832429	0.417565
441.208218	0.428305
441.583947	0.418086
441.959616	0.416797
442.335224	0.422516
442.710773	0.413127
443.086261	0.411783
443.461689	0.425539
443.837057	0.415199
444.212365	0.404775
444.587612	0.412418
444.962800	0.401946
445.337927	0.403677
445.712995	0.429361
446.088002	0.391603
446.462949	0.401527
446.837837	0.407232
447.212664	0.395405
447.587431	0.387346
447.962139	0.357480
448.336786	0.316541
448.711374	0.326792
449.085901	0.371205
449.460369	0.375734
449.834776	0.379288
450.209124	0.358359
450.583412	0.350810
450.957640	0.344303
451.331808	0.355556
451.705917	0.378772
452.079965	0.383498
452.453954	0.371307
452.827883	0.378126
453.201752	0.373696
453.575562	0.384644
453.949311	0.373515
454.323001	0.378963
454.696632	0.375379
455.070202	0.368045
455.443713	0.359456
455.817164	0.353917
456.190556	0.350107
456.563888	0.347047
456.937160	0.344357
457.310373	0.361685
457.683526	0.360748
458.056619	0.366308
458.429653	0.366960
458.802628	0.370552
459.175542	0.364698
459.548398	0.347098
459.921194	0.339773
460.293930	0.339875
460.666607	0.317566
461.039224	0.305756
461.411782	0.301082
461.784280	0.300661
462.156719	0.304516
462.529099	0.308859
462.901419	0.325148
463.273680	0.329444
463.645882	0.329198
464.018024	0.334972
464.390106	0.327463
464.762130	0.312150
465.134094	0.295481
465.505999	0.264139
465.877845	0.234552
466.249631	0.221478
466.621358	0.229007
466.993026	0.242780
467.364634	0.248990
467.736184	0.257762
468.107674	0.266524
468.479105	0.265937
468.850477	0.272991
469.221790	0.279326
469.593043	0.289749
469.964238	0.294865
470.335373	0.293970
470.706449	0.292279
471.077467	0.292894
471.448425	0.254903
471.819324	0.230219
472.190164	0.229759
472.560945	0.258986
472.931667	0.281284
473.302330	0.285191
473.672934	0.296973
474.043479	0.285386
474.413965	0.287272
474.784393	0.290875
475.154761	0.285724
475.525070	0.282602
475.895321	0.288749
476.265513	0.282851
476.635645	0.278275
477.005719	0.278353
477.375734	0.274730
477.745691	0.268072
478.115588	0.264660
478.485427	0.258261
478.855207	0.245497
479.224928	0.227695
479.594591	0.215611
479.964194	0.219341
480.333739	0.220670
480.703226	0.222481
481.072653	0.220713
481.442022	0.216715
481.811333	0.213570
482.180584	0.217176
482.549777	0.222725
482.918912	0.226378
483.287988	0.226489
483.657005	0.226111
484.025964	0.233091
484.394864	0.230665
484.763706	0.231323
485.132489	0.236704
485.501213	0.238030
485.869879	0.236994
486.238487	0.240379
486.607036	0.238743
486.975527	0.244269
487.343959	0.240507
487.712333	0.240079
488.080648	0.242048
488.448905	0.241929
488.817104	0.243753
489.185244	0.239118
489.553326	0.236972
489.921350	0.227756
490.289315	0.211450
490.657222	0.207230
491.025070	0.209636
491.392861	0.212197
491.760593	0.218839
492.128267	0.225345
492.495883	0.231436
492.863440	0.239083
493.230939	0.246320
493.598380	0.249131
493.965763	0.252703
494.333088	0.255872
494.700354	0.259077
495.067563	0.259056
495.434713	0.264304
495.801805	0.263358
496.168839	0.266682
496.535815	0.269942
496.902733	0.271284
497.269593	0.274563
497.636395	0.273952
498.003139	0.276905
498.369825	0.281473
498.736453	0.280352
499.103023	0.283890
499.469535	0.285580
499.835989	0.287953
500.202385	0.291130
500.568723	0.296693
500.935003	0.294042
501.301226	0.302028
501.667390	0.298000
502.033497	0.299512
502.399546	0.304593
502.765537	0.309291
503.131470	0.310815
503.497345	0.310444
503.863163	0.321227
504.228923	0.318335
504.594625	0.319805
504.960269	0.328385
505.325856	0.327774
505.691385	0.335585
506.056856	0.335677
506.422270	0.339239
506.787625	0.344879
507.152924	0.346952
507.518164	0.350538
507.883347	0.356296
508.248472	0.361709
508.613540	0.361479
508.978550	0.368912
509.343503	0.372864
509.708398	0.375251
510.073236	0.377133
510.438016	0.381366
510.802738	0.387220
511.167403	0.391154
511.532010	0.398829
511.896561	0.398100
512.261053	0.402506
512.625488	0.409496
512.989866	0.414666
513.354186	0.419461
513.718449	0.427063
514.082655	0.428436
514.446803	0.436124
514.810894	0.439395
515.174927	0.447537
515.538904	0.450974
515.902822	0.454618
516.266684	0.461826
516.630488	0.468509
516.994235	0.472420
517.357925	0.478356
517.721558	0.482330
518.085133	0.488220
518.448651	0.492828
518.812112	0.501100
519.175516	0.506816
519.538863	0.510790
519.902152	0.517487
520.265385	0.522349
520.628560	0.527350
520.991678	0.534996
521.354739	0.539199
521.717743	0.545241
522.080690	0.551288
522.443580	0.556870
522.806413	0.562893
523.169189	0.568472
523.531908	0.572965
523.894569	0.582028
524.257174	0.587462
524.619722	0.592705
524.982213	0.598200
525.344647	0.604423
525.707025	0.609810
526.069345	0.615116
526.431608	0.623464
526.793815	0.627612
527.155964	0.636325
527.518057	0.640349
527.880093	0.647010
528.242072	0.651571
528.603995	0.659659
528.965860	0.665852
529.327669	0.671095
529.689421	0.676469
530.051117	0.683085
530.412755	0.688966
530.774337	0.693699
531.135862	0.701034
531.497331	0.704820
531.858743	0.712636
532.220098	0.716232
532.581396	0.722863
532.942638	0.728371
533.303824	0.733729
533.664953	0.739458
534.026025	0.745333
534.387040	0.749920
534.747999	0.754096
535.108902	0.759498
535.469748	0.766814
535.830537	0.770019
536.191270	0.774434
536.551947	0.779940
536.912567	0.784254
537.273131	0.789775
537.633638	0.794003
537.994089	0.799285
538.354483	0.803533
538.714821	0.806734
539.075103	0.811376
539.435328	0.816648
539.795497	0.821126
540.155609	0.825163
540.515665	0.828890
540.875665	0.834256
541.235609	0.838517
541.595496	0.841440
541.955328	0.845664
542.315102	0.850061
542.674821	0.854066
543.034483	0.857629
543.394090	0.860714
543.753640	0.865018
544.113134	0.867398
544.472571	0.871920
544.831953	0.875124
545.191278	0.878815
545.550548	0.881522
545.909761	0.884188
546.268918	0.888636
546.628019	0.891081
546.987064	0.894215
547.346053	0.896973
547.704986	0.900535
548.063863	0.902451
548.422684	0.905405
548.781449	0.908722
549.140158	0.910803
549.498811	0.914026
549.857408	0.916069
550.215949	0.917951
550.574434	0.921095
550.932864	0.924278
551.291237	0.925893
551.649555	0.929006
552.007817	0.930667
552.366022	0.933173
552.724173	0.934663
553.082267	0.936774
553.440305	0.938382
553.798288	0.939478
554.156215	0.942420
554.514086	0.944049
554.871902	0.945994
555.229661	0.947437
555.587365	0.949631
555.945014	0.951725
556.302606	0.951939
556.660143	0.954972
557.017625	0.955362
557.375050	0.956410
557.732421	0.957867
558.089735	0.959377
558.446994	0.960600
558.804197	0.962065
559.161345	0.962920
559.518437	0.964970
559.875474	0.966832
560.232455	0.967022
560.589381	0.968073
560.946251	0.968784
561.303065	0.969757
561.659825	0.970932
562.016528	0.972994
562.373177	0.972601
562.729770	0.973994
563.086307	0.974197
563.442789	0.976004
563.799216	0.975511
564.155587	0.976867
564.511904	0.978147
564.868164	0.978024
565.224370	0.978570
565.580520	0.979737
565.936615	0.980331
566.292654	0.981204
566.648638	0.982287
567.004567	0.981716
567.360441	0.982471
567.716260	0.982755
568.072023	0.982874
568.427732	0.983971
568.783385	0.984343
569.138982	0.984950
569.494525	0.984833
569.850013	0.985781
570.205445	0.986275
570.560823	0.985517
570.916145	0.986589
571.271412	0.987680
571.626625	0.987182
571.981782	0.986804
572.336884	0.987713
572.691931	0.988575
573.046923	0.989075
573.401860	0.988433
573.756743	0.989436
574.111570	0.989212
574.466342	0.989880
574.821059	0.988922
575.175722	0.990130
575.530330	0.989881
575.884882	0.990097
576.239380	0.990023
576.593823	0.989958
576.948211	0.990000
577.302544	0.990165
577.656823	0.990961
578.011047	0.990247
578.365216	0.990556
578.719330	0.990778
579.073389	0.990149
579.427394	0.990883
579.781344	0.991625
580.135239	0.990529
580.489080	0.991152
580.842866	0.991361
581.196597	0.990845
581.550273	0.991069
581.903895	0.992188
582.257463	0.991106
582.610975	0.991264
582.964434	0.992304
583.317837	0.992480
583.671186	0.992294
584.024481	0.991676
584.377721	0.991327
584.730906	0.992589
585.084037	0.992996
585.437113	0.993332
585.790135	0.992435
586.143103	0.992218
586.496016	0.992422
586.848874	0.993362
587.201679	0.993068
587.554428	0.991984
587.907124	0.993080
588.259765	0.993310
588.612352	0.993095
588.964884	0.993424
589.317362	0.992933
589.669786	0.992740
590.022155	0.992313
590.374470	0.992799
590.726731	0.992139
591.078937	0.993895
591.431090	0.993212
591.783188	0.992948
592.135232	0.993947
592.487222	0.993744
592.839157	0.992635
593.191038	0.992642
593.542866	0.993571
593.894639	0.992230
594.246358	0.992645
594.598022	0.993089
594.949633	0.993587
595.301190	0.992975
595.652692	0.992839
596.004141	0.992555
596.355535	0.992850
596.706876	0.993506
597.058162	0.993130
597.409395	0.993286
597.760573	0.993181
598.111698	0.993111
598.462768	0.993421
598.813785	0.992294
599.164748	0.993033
599.515657	0.993454
599.866511	0.993789
600.217312	0.993586
600.568060	0.993172
600.918753	0.993749
601.269392	0.994048
601.619978	0.994070
601.970510	0.993284
602.320988	0.994288
602.671412	0.993402
603.021783	0.993946
603.372100	0.994097
603.722363	0.994993
604.072572	0.993788
604.422728	0.993241
604.772830	0.993931
605.122878	0.993811
605.472872	0.993563
605.822813	0.992996
606.172701	0.993851
606.522534	0.994597
606.872314	0.994391
607.222041	0.993803
607.571714	0.994540
607.921333	0.993583
608.270899	0.993555
608.620411	0.994308
608.969870	0.993920
609.319276	0.993980
609.668627	0.994310
610.017926	0.993874
610.367171	0.993529
610.716362	0.993431
611.065500	0.993585
611.414585	0.993753
611.763616	0.993924
612.112594	0.993538
612.461518	0.993070
612.810389	0.993821
613.159207	0.993957
613.507971	0.993143
613.856682	0.995095
614.205340	0.992669
614.553945	0.993244
614.902496	0.993473
615.250994	0.993674
615.599439	0.993891
615.947830	0.993392
616.296169	0.993288
616.644454	0.993594
616.992686	0.993331
617.340864	0.994699
617.688990	0.993812
618.037063	0.993399
618.385082	0.993756
618.733048	0.993203
619.080961	0.992950
619.428821	0.994171
619.776628	0.992975
620.124382	0.994036
620.472083	0.994085
620.819731	0.994843
621.167326	0.993571
621.514868	0.994235
621.862357	0.993949
622.209793	0.993982
622.557176	0.994070
622.904506	0.993283
623.251783	0.994362
623.599007	0.994379
623.946179	0.993615
624.293297	0.994133
624.640363	0.995144
624.987376	0.993281
625.334336	0.993020
625.681243	0.994433
626.028097	0.994247
626.374899	0.994410
626.721647	0.994284
627.068343	0.993621
627.414987	0.994450
627.761577	0.993014
628.108115	0.993624
628.454600	0.994235
628.801032	0.994336
629.147412	0.994634
629.493739	0.995497
629.840014	0.993395
630.186236	0.993206
630.532405	0.993864
630.878521	0.993951
631.224585	0.993366
631.570597	0.993817
631.916556	0.994108
632.262462	0.992733
632.608316	0.994159
632.954117	0.993141
633.299866	0.993918
633.645562	0.993790
633.991206	0.993965
634.336797	0.993368
634.682336	0.995119
635.027823	0.993921
635.373257	0.994084
635.718639	0.994152
636.063968	0.994155
636.409245	0.994157
636.754470	0.993750
637.099642	0.993965
637.444762	0.994133
637.789829	0.993996
638.134845	0.993684
638.479808	0.994234
638.824719	0.994146
639.169577	0.994285
639.514383	0.994191
639.859137	0.994662
640.203839	0.993436
640.548489	0.994224
640.893086	0.994019
641.237632	0.994652
641.582125	0.993852
641.926566	0.995100
642.270955	0.994075
642.615292	0.994246
642.959576	0.994371
643.303809	0.994780
643.647990	0.993886
643.992118	0.994319
644.336195	0.994324
644.680219	0.993901
645.024192	0.993825
645.368112	0.993143
645.711981	0.993346
646.055797	0.993891
646.399562	0.993120
646.743274	0.994139
647.086935	0.993191
647.430544	0.994011
647.774101	0.993105
648.117606	0.994330
648.461059	0.994760
648.804460	0.993757
649.147810	0.993769
649.491108	0.993779
649.834354	0.992963
650.177548	0.993461
650.520690	0.993363
650.863781	0.992529
651.206820	0.993825
651.549807	0.993669
651.892742	0.994278
652.235626	0.994689
652.578458	0.994086
652.921238	0.993913
653.263967	0.994236
653.606644	0.993712
653.949269	0.993968
654.291843	0.993755
654.634365	0.994097
654.976836	0.993299
655.319255	0.994085
655.661622	0.993900
656.003938	0.993524
656.346203	0.993547
656.688416	0.994584
657.030577	0.993411
657.372687	0.993488
657.714746	0.994014
658.056753	0.993025
658.398708	0.993548
658.740612	0.994932
659.082465	0.994320
659.424266	0.993445
659.766016	0.992621
660.107715	0.994387
660.449362	0.993754
660.790958	0.992833
661.132503	0.994498
661.473996	0.993660
661.815438	0.994128
662.156829	0.994114
662.498168	0.994424
662.839456	0.992847
663.180693	0.994655
663.521879	0.993614
663.863013	0.994443
664.204097	0.993116
664.545129	0.993717
664.886110	0.994481
665.227040	0.993804
665.567918	0.993134
665.908746	0.993198
666.249522	0.993278
666.590248	0.993646
666.930922	0.994050
667.271545	0.994034
667.612118	0.993753
667.952639	0.993454
668.293109	0.993159
668.633528	0.993856
668.973896	0.993607
669.314213	0.993703
669.654480	0.993756
669.994695	0.992607
670.334859	0.994306
670.674973	0.993314
671.015035	0.993831
671.355047	0.993266
671.695008	0.992913
672.034918	0.993400
672.374777	0.993785
672.714585	0.993842
673.054342	0.993975
673.394049	0.992869
673.733705	0.993809
674.073310	0.992749
674.412864	0.993156
674.752368	0.993510
675.091820	0.993891
675.431223	0.993750
675.770574	0.992065
676.109875	0.992987
676.449125	0.993384
676.788324	0.993648
677.127473	0.994181
677.466571	0.993056
677.805619	0.993106
678.144616	0.992853
678.483562	0.993501
678.822458	0.994601
679.161303	0.993190
679.500098	0.994894
679.838842	0.993717
680.177535	0.993076
680.516179	0.993286
680.854771	0.993149
681.193314	0.992286
681.531805	0.993295
681.870247	0.992468
682.208638	0.992612
682.546978	0.991759
682.885268	0.992525
683.223508	0.992562
683.561697	0.993171
683.899836	0.992729
684.237925	0.993550
684.575963	0.993753
684.913951	0.993971
685.251889	0.992941
685.589776	0.992807
685.927614	0.993488
686.265401	0.993067
686.603137	0.992775
686.940824	0.992813
687.278460	0.993486
687.616046	0.992681
687.953582	0.993474
688.291068	0.993572
688.628504	0.992889
688.965889	0.992693
689.303224	0.991427
689.640510	0.992606
689.977745	0.992280
690.314930	0.992540
690.652065	0.992096
690.989150	0.992174
691.326185	0.993191
691.663170	0.993021
692.000105	0.993606
692.336990	0.993136
692.673825	0.992834
693.010610	0.992622
693.347345	0.993556
693.684030	0.993586
694.020665	0.993562
694.357251	0.993380
694.693786	0.993399
695.030272	0.992661
695.366707	0.992787
695.703093	0.993489
696.039429	0.992994
696.375716	0.994223
696.711952	0.992723
697.048139	0.994189
697.384276	0.993819
697.720363	0.994108
698.056400	0.992504
698.392388	0.992697
698.728326	0.993145
699.064214	0.993521
699.400053	0.993262
699.735842	0.994790
700.071581	0.993854
700.407270	0.993634
700.742910	0.994410
701.078501	0.994213
701.414042	0.994282
701.749533	0.992707
702.084974	0.994501
702.420366	0.993653
702.755709	0.993149
703.091002	0.994290
703.426246	0.994115
703.761440	0.993453
704.096584	0.994276
704.431679	0.993095
704.766725	0.992888
705.101721	0.994326
705.436668	0.994646
705.771565	0.993462
706.106413	0.992274
706.441212	0.993416
706.775961	0.994029
707.110661	0.992548
707.445311	0.994118
707.779913	0.994545
708.114465	0.995078
708.448967	0.994563
708.783421	0.994715
709.117825	0.993681
709.452180	0.994490
709.786485	0.994018
710.120742	0.993384
710.454949	0.992534
710.789107	0.993680
711.123216	0.991884
711.457275	0.991980
711.791286	0.992477
712.125247	0.994409
712.459159	0.992975
712.793023	0.992996
713.126837	0.993904
713.460602	0.992607
713.794318	0.991527
714.127985	0.992846
714.461602	0.992725
714.795171	0.992666
715.128691	0.993088
715.462162	0.993279
715.795584	0.993829
716.128957	0.994189
716.462281	0.993762
716.795556	0.992999
717.128782	0.994305
717.461960	0.993673
717.795088	0.994199
718.128167	0.994075
718.461198	0.993971
718.794180	0.994041
719.127113	0.994751
719.459997	0.993480
719.792833	0.993847
720.125619	0.993256
720.458357	0.994281
720.791046	0.993829
721.123686	0.994378
721.456278	0.993935
721.788821	0.994375
722.121315	0.994419
722.453761	0.994698
722.786158	0.993795
723.118506	0.994350
723.450805	0.993403
723.783056	0.994622
724.115259	0.993693
724.447412	0.995217
724.779518	0.993876
725.111574	0.993551
725.443582	0.994348
725.775542	0.995119
726.107453	0.994779
726.439315	0.994747
726.771129	0.994847
727.102895	0.993822
727.434612	0.993566
727.766281	0.994023
728.097901	0.992975
728.429473	0.993863
728.760996	0.993028
729.092471	0.993949
729.423897	0.993964
729.755276	0.993490
730.086606	0.993579
730.417887	0.992722
730.749120	0.993932
731.080305	0.993675
731.411442	0.992753
731.742530	0.992023
732.073570	0.992528
732.404562	0.994096
732.735506	0.992910
733.066401	0.992605
733.397249	0.992704
733.728048	0.993501
734.058798	0.994312
734.389501	0.994334
734.720156	0.994250
735.050762	0.994931
735.381320	0.993544
735.711831	0.993795
736.042293	0.994181
736.372707	0.994902
736.703073	0.992733
737.033391	0.993774
737.363661	0.993626
737.693883	0.994686
738.024056	0.993375
738.354182	0.993752
738.684260	0.994125
739.014290	0.993960
739.344272	0.993057
739.674207	0.993061
740.004093	0.994577
740.333931	0.993827
740.663722	0.992578
740.993464	0.993465
741.323159	0.993446
741.652806	0.993845
741.982405	0.994464
742.311956	0.992767
742.641460	0.994238
742.970915	0.993186
743.300323	0.993173
743.629683	0.993541
743.958996	0.995051
744.288260	0.993703
744.617477	0.993465
744.946647	0.993583
745.275768	0.995096
745.604842	0.993926
745.933869	0.993631
746.262847	0.995531
746.591778	0.993201
746.920662	0.994616
747.249498	0.995073
747.578286	0.996714
747.907027	0.994646
748.235720	0.994553
748.564365	0.995081
748.892963	0.994589
749.221514	0.994914
749.550017	0.994477
749.878473	0.994575
750.206881	0.994759
750.535242	0.994810
750.863555	0.995050
751.191821	0.993917
751.520039	0.994330
751.848210	0.993265
752.176334	0.994288
752.504411	0.994121
752.832440	0.994534
753.160421	0.994526
753.488356	0.995110
753.816243	0.994855
754.144082	0.994122
754.471875	0.995180
754.799620	0.995404
755.127318	0.994385
755.454969	0.995078
755.782572	0.996114
756.110129	0.994291
756.437638	0.995510
756.765100	0.995054
757.092515	0.994283
757.419882	0.995136
757.747203	0.994425
758.074477	0.994992
758.401703	0.994840
758.728882	0.994684
759.056014	0.994774
759.383099	0.994657
759.710138	0.994366
760.037129	0.994260
760.364073	0.994717
760.690970	0.994349
761.017820	0.994342
761.344623	0.995077
761.671379	0.994328
761.998088	0.994522
762.324751	0.994473
762.651366	0.993630
762.977935	0.992680
763.304456	0.991047
763.630931	0.988944
763.957359	0.988534
764.283740	0.990346
764.610074	0.992168
764.936362	0.992526
765.262602	0.992475
765.588796	0.993276
765.914943	0.993968
766.241044	0.994525
766.567097	0.993875
766.893104	0.994328
767.219064	0.993275
767.544978	0.994199
767.870845	0.995099
768.196665	0.995160
768.522438	0.996787
768.848165	0.995276
769.173846	0.996286
769.499479	0.995995
769.825066	0.996227
770.150607	0.996888
770.476101	0.996231
770.801548	0.996551
771.126949	0.997078
771.452303	0.996077
771.777611	0.996715
772.102872	0.997176
772.428087	0.995443
772.753256	0.996310
773.078378	0.996166
773.403453	0.995867
773.728482	0.998017
774.053465	0.996731
774.378401	0.997204
774.703291	0.997218
775.028135	0.997815
775.352932	0.995449
775.677683	0.997591
776.002388	0.997502
776.327046	0.997079
776.651658	0.998195
776.976224	0.997330
777.300743	0.996021
777.625216	0.996742
777.949643	0.996670
778.274024	0.996294
778.598359	0.997031
778.922647	0.996805
779.246889	0.997762
779.571086	0.997090
779.895236	0.996957
780.219339	0.997977
780.543397	0.996548
780.867409	0.997395
781.191374	0.996795
781.515294	0.998366
781.839167	0.997881
782.162995	0.996698
782.486776	0.996549
782.810511	0.997148
783.134201	0.998597
783.457844	0.997881
783.781441	0.996324
784.104993	0.995748
784.428498	0.997199
784.751958	0.997602
785.075372	0.998041
785.398739	0.997050
785.722061	0.997101
786.045337	0.996956
786.368568	0.996201
786.691752	0.997200
787.014891	0.997198
787.337983	0.996317
787.661030	0.995905
787.984031	0.996396
788.306987	0.996682
788.629897	0.995628
788.952760	0.996739
789.275579	0.996726
789.598351	0.996308
789.921078	0.996939
790.243759	0.996022
790.566395	0.996419
790.888984	0.997188
791.211529	0.996015
791.534027	0.997447
791.856480	0.996553
792.178888	0.997379
792.501249	0.997503
792.823566	0.997817
793.145836	0.997505
793.468062	0.997545
793.790241	0.998180
794.112375	0.997383
794.434464	0.997652
794.756507	0.998039
795.078505	0.997702
795.400457	0.997474
795.722364	0.996840
796.044226	0.996153
796.366042	0.996348
796.687812	0.995600
797.009538	0.996764
797.331218	0.997494
797.652852	0.997188
797.974442	0.996435
798.295986	0.997494
798.617484	0.995940
798.938938	0.998051
799.260346	0.996965
799.581709	0.996888
799.903026	0.997571
800.224299	0.996965
800.545526	0.997238
800.866708	0.996788
801.187845	0.997916
801.508936	0.997620
801.829983	0.997717
802.150984	0.998802
802.471940	0.997759
802.792851	0.997471
803.113717	0.998781
803.434538	0.997725
803.755314	0.998183
804.076045	0.998200
804.396731	0.997775
804.717372	0.997475
805.037967	0.998218
805.358518	0.997773
805.679024	0.997995
805.999485	0.997664
806.319901	0.997392
806.640272	0.998332
806.960598	0.997523
807.280879	0.997657
807.601115	0.998370
807.921306	0.998064
808.241453	0.996966
808.561554	0.997897
808.881611	0.997690
809.201623	0.996427
809.521590	0.997760
809.841513	0.998469
810.161390	0.995783
810.481223	0.997629
810.801011	0.998630
811.120755	0.998892
811.440453	0.996978
811.760107	0.997168
812.079716	0.997620
812.399281	0.997154
812.718801	0.997471
813.038276	0.997556
813.357707	0.997211
813.677093	0.998525
813.996434	0.997986
814.315731	0.999573
814.634983	0.998259
814.954191	0.998091
815.273354	0.998418
815.592473	0.997529
815.911547	0.997656
816.230577	0.996816
816.549562	0.997476
816.868502	0.995496
817.187399	0.997900
817.506250	0.997463
817.825058	0.995370
818.143821	0.996796
818.462539	0.997580
818.781213	0.996219
819.099843	0.996942
819.418429	0.995587
819.736970	0.995657
820.055466	0.992765
820.373919	0.993846
820.692327	0.992353
821.010691	0.990979
821.329011	0.987622
821.647286	0.984645
821.965517	0.981052
822.283704	0.977207
822.601847	0.975767
822.919945	0.976123
823.237999	0.977959
823.556010	0.979818
823.873976	0.982004
824.191897	0.984266
824.509775	0.986013
824.827609	0.987525
825.145398	0.989606
825.463144	0.988221
825.780845	0.988580
826.098502	0.988443
826.416116	0.988644
826.733685	0.986010
827.051210	0.983531
827.368692	0.983278
827.686129	0.984541
828.003522	0.988361
828.320872	0.989182
828.638177	0.991129
828.955439	0.992698
829.272656	0.993477
829.589830	0.993880
829.906960	0.994130
830.224046	0.994790
830.541088	0.994980
830.858086	0.995683
831.175041	0.997578
831.491952	0.996535
831.808819	0.995953
832.125642	0.997133
832.442421	0.996785
832.759157	0.996065
833.075849	0.992525
833.392497	0.991113
833.709101	0.989213
834.025662	0.989368
834.342179	0.990050
834.658653	0.992150
834.975083	0.992868
835.291469	0.992695
835.607811	0.995617
835.924110	0.995288
836.240366	0.996794
836.556578	0.997412
836.872746	0.997826
837.188871	0.996658
837.504952	0.997120
837.820990	0.997264
838.136984	0.997965
838.452935	0.997614
838.768842	0.998262
839.084706	0.999384
839.400526	0.997148
839.716303	0.995265
840.032037	0.994438
840.347727	0.994915
840.663373	0.995355
840.978977	0.995507
841.294537	0.997281
841.610054	0.998068
841.925527	0.998396
842.240957	0.998004
842.556344	0.999039
842.871687	0.998428
843.186987	0.998727
843.502244	0.999856
843.817458	0.998292
844.132629	0.999081
844.447756	0.998882
844.762840	0.999373
845.077881	1.000484
845.392879	0.998173
845.707833	0.999360
846.022745	1.000143
846.337613	1.000194
846.652438	0.999429
846.967221	1.000297
847.281960	0.999509
847.596656	0.999934
847.911309	0.999531
848.225919	1.000047
848.540485	0.999743
848.855009	1.000282
849.169490	0.999736
849.483928	0.999052
849.798323	0.998104
850.112675	1.000218
850.426984	1.000362
850.741251	0.998776
851.055474	0.999629
851.369654	1.000066
851.683792	0.999659
851.997887	0.999756
852.311938	0.999601
852.625947	0.999724
852.939914	0.999308
853.253837	0.999897
853.567718	1.000583
853.881555	0.999995
854.195350	1.000007
854.509103	0.999742
854.822812	1.000185
855.136479	0.999747
855.450103	0.999423
855.763685	0.999221
856.077224	0.999046
856.390720	1.000285
856.704173	0.999289
857.017584	0.999541
857.330953	0.999412
857.644278	0.999271
857.957561	1.000234
858.270802	0.999490
858.584000	0.999760
858.897155	0.999871
859.210268	1.000841
859.523339	1.001027
859.836367	1.000562
860.149352	0.999350
860.462295	1.000510
860.775195	1.000823
861.088054	0.998663
861.400869	1.000174
861.713642	0.999477
862.026373	1.000490
862.339062	1.000135
862.651708	1.000399
862.964312	1.000034
863.276873	0.999432
863.589392	0.999751
863.901869	0.998908
864.214303	0.999062
864.526696	0.999554
864.839045	0.999292
865.151353	0.998077
865.463619	0.999073
865.775842	0.999117
866.088023	1.000749
866.400162	0.999606
866.712258	1.000688
867.024313	0.998547
867.336325	1.000299
867.648296	1.000215
867.960224	0.999329
868.272110	0.999379
868.583954	0.999074
868.895755	0.999972
869.207515	0.998043
869.519233	0.999772
869.830909	0.998541
870.142542	0.997442
870.454134	0.999089
870.765684	0.999216
871.077191	0.998100
871.388657	0.999227
871.700081	0.999786
872.011463	1.000029
872.322803	0.999954
872.634101	0.998220
872.945357	0.998052
873.256571	0.998523
873.567744	0.999207
873.878874	0.998745
874.189963	0.999056
874.501010	0.999776
874.812015	0.999162
875.122979	0.999621
875.433900	0.999012
875.744780	0.997964
876.055618	0.998298
876.366415	0.997854
876.677169	0.998451
876.987882	0.998648
877.298554	0.999015
877.609183	0.997278
877.919771	0.999016
878.230317	0.997626
878.540822	0.996815
878.851285	0.997313
879.161707	0.997454
879.472087	0.997666
879.782425	0.993966
880.092722	0.993368
880.402977	0.990451
880.713191	0.986043
881.023363	0.981482
881.333494	0.978256
881.643583	0.978906
881.953631	0.978831
882.263637	0.978243
882.573602	0.979943
882.883526	0.981186
883.193408	0.984217
883.503248	0.985738
883.813048	0.986506
884.122806	0.988807
884.432522	0.990680
884.742197	0.992871
885.051831	0.993056
885.361424	0.993115
885.670975	0.995095
885.980485	0.994428
886.289954	0.995080
886.599382	0.994620
886.908768	0.997560
887.218113	0.995646
887.527417	0.996418
887.836680	0.997542
888.145901	0.998820
888.455082	0.999259
888.764221	0.998826
889.073319	0.997618
889.382376	0.998974
889.691392	0.997718
890.000366	0.998325
890.309300	0.997642
890.618193	0.998467
890.927044	0.997004
891.235855	0.997379
891.544625	0.997643
891.853353	0.997490
892.162041	0.998290
892.470687	0.998647
892.779293	0.997143
893.087858	0.994949
893.396381	0.995887
893.704864	0.994629
894.013306	0.993411
894.321707	0.992259
894.630068	0.990934
894.938387	0.989988
895.246665	0.989622
895.554903	0.989658
895.863100	0.992718
896.171256	0.992716
896.479371	0.993388
896.787446	0.993276
897.095480	0.995677
897.403473	0.996586
897.711425	0.996997
898.019336	0.996613
898.327207	0.997450
898.635038	0.995191
898.942827	0.998493
899.250576	0.998001
899.558284	0.997941
899.865952	0.997690
900.173579	0.997981
900.481165	0.997820
900.788711	0.998387
901.096216	0.997829
901.403681	0.998157
901.711105	0.998682
902.018489	0.997459
902.325832	0.998657
902.633135	0.998723
902.940397	0.998203
903.247619	0.997263
903.554800	0.995006
903.861941	0.992447
904.169041	0.988710
904.476101	0.987119
904.783121	0.987051
905.090100	0.987777
905.397039	0.989590
905.703938	0.992093
906.010796	0.993675
906.317614	0.994297
906.624391	0.996772
906.931129	0.997066
907.237826	0.996895
907.544483	0.998130
907.851099	0.997690
908.157675	0.998090
908.464211	0.999532
908.770707	0.997093
909.077163	0.999757
909.383578	0.998001
909.689954	0.997439
909.996289	0.999650
910.302584	0.999666
910.608839	1.000490
910.915054	0.999606
911.221229	1.001158
911.527363	0.998601
911.833458	0.999399
912.139513	0.998715
912.445527	0.999815
912.751502	0.999267
913.057436	0.998041
913.363331	0.999983
913.669186	0.999307
913.975000	0.998574
914.280775	0.997488
914.586510	0.996491
914.892205	0.994469
915.197859	0.993207
915.503475	0.991604
915.809050	0.989517
916.114585	0.987250
916.420081	0.986852
916.725536	0.988379
917.030952	0.988294
917.336328	0.989814
917.641665	0.990224
917.946961	0.991743
918.252218	0.992754
918.557435	0.993386
918.862612	0.995317
919.167750	0.995871
919.472848	0.996382
919.777906	0.997698
920.082925	0.998093
920.387904	0.998083
920.692843	0.997218
920.997743	0.997386
921.302603	0.998605
921.607423	0.998117
921.912204	0.998272
922.216946	0.999631
922.521647	0.998990
922.826310	0.999157
923.130932	0.999276
923.435516	0.999734
923.740059	0.999088
924.044564	0.999008
924.349028	0.998090
924.653454	1.000411
924.957840	0.999409
925.262186	1.000773
925.566493	0.999168
925.870761	0.999945
926.174989	0.999049
926.479178	1.000221
926.783328	1.001506
927.087438	1.000141
927.391509	0.998706
927.695541	0.999558
927.999533	1.000833
928.303486	0.999425
928.607400	1.001058
928.911275	1.000800
929.215110	1.001836
929.518906	1.001469
929.822663	1.001530
930.126381	1.001980
930.430060	1.000462
930.733699	1.000033
931.037299	1.000700
931.340861	1.001022
931.644383	0.999999
931.947866	1.000533
932.251309	1.001380
932.554714	1.001137
932.858080	1.002227
933.161407	0.999807
933.464694	1.000726
933.767943	1.001054
934.071153	1.001497
934.374323	1.001629
934.677455	1.000710
934.980548	0.999773
935.283602	1.001511
935.586617	1.000938
935.889593	1.002260
936.192530	1.002304
936.495428	1.000062
936.798287	1.000687
937.101108	1.001393
937.403890	0.999264
937.706632	1.001790
938.009336	1.000709
938.312002	0.998868
938.614628	1.000417
938.917216	0.999933
939.219765	0.998641
939.522275	1.000843
939.824747	1.000071
940.127179	1.000983
940.429573	1.000767
940.731929	0.999313
941.034246	0.999147
941.336524	0.999116
941.638763	0.999673
941.940964	1.000015
942.243126	0.999585
942.545250	1.000182
942.847335	1.000205
943.149381	1.001403
943.451389	1.000089
943.753359	0.999801
944.055290	1.001022
944.357182	1.000456
944.659036	1.001078
944.960851	1.000281
945.262628	1.000476
945.564367	1.000832
945.866067	1.000647
946.167729	1.001290
946.469352	1.001327
946.770937	0.999916
947.072484	1.000960
947.373992	0.999519
947.675462	1.000108
947.976893	1.000169
948.278286	1.002350
948.579641	1.001991
948.880958	0.999909
949.182236	1.002720
949.483476	1.000884
949.784678	1.000465
950.085841	1.000564
950.386967	0.999807
950.688054	1.000696
950.989103	0.998903
951.290114	0.999727
951.591087	1.000728
951.892021	0.999750
952.192917	1.000361
952.493776	1.000243
952.794596	1.000376
953.095378	0.998645
953.396122	0.999781
953.696828	1.000000
953.997496	0.999716
954.298126	1.002219
954.598718	1.000207
954.899272	1.000568
955.199788	0.999489
955.500266	1.001448
955.800706	1.001634
956.101108	1.000009
956.401472	1.001789
956.701798	1.000407
957.002087	1.001024
957.302337	1.000770
957.602550	1.000977
957.902724	1.001026
958.202861	1.001056
958.502960	1.001105
958.803022	1.001881
959.103045	1.002143
959.403031	1.001431
959.702979	1.002176
960.002889	1.000280
960.302762	1.000831
960.602596	1.002728
960.902393	1.001358
961.202153	1.001142
961.501875	1.001537
961.801559	1.000960
962.101205	1.000257
962.400814	1.002152
962.700385	1.002006
962.999918	1.001178
963.299414	1.000412
963.598873	1.001699
963.898293	1.001688
964.197677	1.000696
964.497022	1.002654
964.796331	1.000729
965.095601	1.002037
965.394835	1.000609
965.694030	1.001213
965.993189	1.001927
966.292309	1.001796
966.591393	0.999645
966.890439	1.000919
967.189447	1.000978
967.488419	1.001357
967.787353	1.001043
968.086249	1.001032
968.385108	1.002504
968.683930	1.001711
968.982714	1.002299
969.281462	1.001697
969.580172	1.001054
969.878844	1.001830
970.177480	1.002238
970.476078	1.002676
970.774639	1.001750
971.073162	1.001450
971.371649	1.000772
971.670098	1.001123
971.968510	1.002576
972.266885	1.001229
972.565223	1.001201
972.863524	1.000040
973.161788	1.001870
973.460014	1.001725
973.758204	1.001691
974.056356	1.001110
974.354471	1.000494
974.652550	1.002670
974.950591	1.001222
975.248595	1.000537
975.546563	1.001807
975.844493	1.001420
976.142386	1.001193
976.440243	1.002029
976.738062	1.001362
977.035845	1.002304
977.333590	1.001997
977.631299	1.001314
977.928971	1.000393
978.226606	1.000910
978.524204	1.001226
978.821765	1.002026
979.119290	1.003215
979.416777	1.001661
979.714228	1.002102
980.011642	1.002411
980.309020	1.001292
980.606360	1.000725
980.903664	1.000945
981.200931	1.000452
981.498162	1.001363
981.795356	1.001773
982.092513	1.000932
982.389633	1.002283
982.686717	0.999825
982.983764	1.000501
983.280775	1.000190
983.577749	1.002058
983.874686	0.999990
984.171587	1.001358
984.468451	1.001695
984.765279	1.001861
985.062070	1.001749
985.358824	1.000725
985.655543	1.002059
985.952224	1.001409
986.248869	1.002893
986.545478	1.002909
986.842050	1.000490
987.138586	1.001391
987.435086	0.999807
987.731549	1.002799
988.027975	1.003281
988.324366	1.000901
988.620719	1.002750
988.917037	1.002414
989.213318	1.002216
989.509563	1.002084
989.805772	1.002377
990.101944	1.001463
990.398080	1.002358
990.694180	1.003046
990.990244	1.000977
991.286271	1.001581
991.582262	1.002634
991.878217	1.001676
992.174136	1.002494
992.470019	1.001817
992.765865	1.002050
993.061676	1.001942
993.357450	1.001693
993.653188	1.003156
993.948890	1.002524
994.244556	1.000430
994.540186	1.001172
994.835780	1.001141
995.131337	1.002664
995.426859	1.001810
995.722345	1.002221
996.017795	1.000598
996.313208	1.000651
996.608586	1.002029
996.903928	1.001623
997.199234	1.002263
997.494504	1.001562
997.789738	1.001257
998.084936	1.002211
998.380099	1.001340
998.675225	1.001877
998.970316	1.003236
999.265371	1.001340
999.560390	1.001683
999.855373	1.001537
1000.150320	1.001149
1000.445232	1.002474
1000.740108	1.000759
1001.034948	1.000344
1001.329752	1.002918
1001.624521	1.002636
1001.919254	1.001185
1002.213951	1.003221
1002.508613	1.001438
1002.803239	1.001688
1003.097829	1.003525
1003.392384	1.001707
1003.686903	1.002465
1003.981386	1.001947
1004.275834	1.002429
1004.570246	1.001289
1004.864623	1.002883
1005.158964	1.001319
1005.453270	1.002790
1005.747540	1.002355
1006.041775	1.001873
1006.335974	1.001840
1006.630138	1.001626
1006.924266	1.001265
1007.218359	1.000334
1007.512416	1.002038
1007.806438	1.002711
1008.100425	1.001173
1008.394376	1.001815
1008.688292	1.000684
1008.982172	1.002391
1009.276017	1.002038
1009.569827	1.003012
1009.863602	1.001000
1010.157341	1.002615
1010.451045	1.001558
1010.744714	1.003238
1011.038347	1.002384
1011.331945	1.000585
1011.625508	1.001566
1011.919036	1.001123
1012.212528	1.001923
1012.505986	1.001540
1012.799408	1.002504
1013.092795	1.001814
1013.386147	1.002371
1013.679464	1.002288
1013.972745	1.002121
1014.265992	1.001270
1014.559204	1.002504
1014.852380	1.000758
1015.145521	1.001747
1015.438628	1.001604
1015.731699	1.001381
1016.024736	1.002985
1016.317737	1.002179
1016.610703	1.002094
1016.903635	1.002746
1017.196531	1.001205
1017.489393	1.001570
1017.782219	1.000996
1018.075011	1.000445
1018.367768	1.000614
1018.660490	1.001562
1018.953177	1.001562
1019.245829	1.001562
