Dividing Wavelength (nm)	Counts (n)	Blue Motor Position (mm): 45.800000	Red Motor Position (mm): 0.000000	
326.493990	0.998880
326.888308	0.998880
327.282561	0.998880
327.676750	1.001848
328.070874	1.000416
328.464933	1.001613
328.858929	1.001534
329.252859	0.999940
329.646726	1.000301
330.040528	0.998624
330.434265	1.000223
330.827938	1.000294
331.221547	0.999853
331.615091	1.000280
332.008571	1.000884
332.401986	0.998712
332.795338	0.999321
333.188625	0.999588
333.581847	1.000460
333.975006	0.999979
334.368100	0.999829
334.761129	0.999192
335.154095	1.000702
335.546996	1.000502
335.939833	0.999808
336.332606	1.000190
336.725315	0.999225
337.117960	0.999834
337.510540	0.999650
337.903056	1.000276
338.295508	1.001336
338.687896	1.000200
339.080220	1.000458
339.472480	0.999214
339.864676	1.000752
340.256807	0.998727
340.648875	1.000732
341.040879	1.000002
341.432818	1.000643
341.824694	1.000057
342.216506	1.000685
342.608253	1.000359
342.999937	1.000505
343.391557	1.000388
343.783113	1.001606
344.174605	1.000193
344.566033	0.998645
344.957397	1.000687
345.348697	1.000071
345.739934	1.000459
346.131106	1.000491
346.522215	0.999351
346.913260	1.000603
347.304241	0.998961
347.695159	0.999674
348.086012	1.000020
348.476802	1.000169
348.867528	0.999650
349.258191	1.000323
349.648789	1.000825
350.039324	1.000038
350.429796	0.999117
350.820203	0.998556
351.210548	1.000286
351.600828	0.999274
351.991045	0.999526
352.381198	1.000132
352.771288	1.000292
353.161314	0.999998
353.551276	0.999576
353.941175	0.998384
354.331010	0.999297
354.720782	0.999733
355.110490	1.000601
355.500135	1.000913
355.889717	0.999684
356.279235	0.999746
356.668689	1.000117
357.058080	0.999571
357.447408	0.999044
357.836672	1.000035
358.225873	0.999901
358.615010	0.999240
359.004084	0.998944
359.393095	0.999080
359.782043	0.999996
360.170927	1.000169
360.559748	0.999997
360.948505	0.999784
361.337199	0.999459
361.725830	1.000624
362.114398	1.000137
362.502903	0.999817
362.891344	0.998573
363.279722	0.999456
363.668037	1.000693
364.056289	0.999134
364.444478	1.000596
364.832603	0.999390
365.220665	0.999897
365.608665	0.998691
365.996601	0.999473
366.384474	0.998439
366.772284	1.000053
367.160031	0.998001
367.547715	0.998515
367.935336	0.997831
368.322893	0.995898
368.710388	0.995537
369.097820	0.994516
369.485189	0.990748
369.872495	0.991091
370.259738	0.987321
370.646918	0.985780
371.034035	0.983324
371.421090	0.979896
371.808081	0.975978
372.195010	0.973553
372.581875	0.968277
372.968678	0.965189
373.355418	0.961985
373.742096	0.956130
374.128710	0.952429
374.515262	0.950443
374.901751	0.944293
375.288177	0.942657
375.674540	0.939462
376.060841	0.935071
376.447079	0.931489
376.833254	0.928313
377.219367	0.926752
377.605417	0.920144
377.991404	0.921547
378.377329	0.919659
378.763191	0.917425
379.148991	0.914637
379.534727	0.912570
379.920402	0.910426
380.306013	0.912142
380.691563	0.909582
381.077049	0.909136
381.462474	0.909827
381.847835	0.908530
382.233134	0.910616
382.618371	0.915450
383.003545	0.911887
383.388657	0.914434
383.773706	0.916931
384.158693	0.919003
384.543618	0.923652
384.928480	0.924777
385.313280	0.926047
385.698017	0.930371
386.082692	0.931535
386.467305	0.935978
386.851856	0.940077
387.236344	0.941722
387.620770	0.946610
388.005133	0.949675
388.389435	0.952666
388.773674	0.955646
389.157851	0.958727
389.541965	0.963072
389.926018	0.967056
390.310008	0.969780
390.693936	0.972984
391.077802	0.974909
391.461606	0.977684
391.845348	0.978962
392.229027	0.980399
392.612645	0.983081
392.996200	0.985201
393.379694	0.986099
393.763125	0.988395
394.146494	0.988619
394.529801	0.990889
394.913047	0.990731
395.296230	0.993545
395.679351	0.993436
396.062410	0.994709
396.445408	0.995686
396.828343	0.996410
397.211217	0.996266
397.594028	0.996862
397.976778	0.998426
398.359466	0.998226
398.742092	0.998770
399.124656	0.997806
399.507158	0.997780
399.889598	0.998982
400.271977	0.999173
400.654294	0.998800
401.036549	0.999415
401.418742	1.000092
401.800874	0.999934
402.182944	0.998263
402.564952	0.999733
402.946898	0.999787
403.328783	0.999919
403.710606	0.999086
404.092367	0.999996
404.474067	1.000202
404.855705	1.001000
405.237282	0.998856
405.618797	0.999899
406.000250	0.999567
406.381642	0.998420
406.762972	1.000332
407.144240	1.000311
407.525447	0.998338
407.906593	0.998818
408.287677	0.999127
408.668700	0.999441
409.049661	1.000704
409.430560	0.999141
409.811399	0.998700
410.192176	0.999317
410.572891	1.001307
410.953545	0.998704
411.334138	0.999259
411.714669	0.999077
412.095139	0.999433
412.475547	1.000059
412.855894	0.999260
413.236180	0.999495
413.616405	0.999493
413.996568	0.999424
414.376670	0.999177
414.756711	0.999464
415.136691	0.999869
415.516609	0.998723
415.896466	1.000117
416.276262	0.999647
416.655997	1.000191
417.035670	1.000064
417.415283	1.000549
417.794834	0.999505
418.174324	1.000358
418.553753	0.999458
418.933121	0.999969
419.312428	1.000649
419.691674	1.000280
420.070859	0.999875
420.449983	0.999787
420.829045	0.999412
421.208047	1.000545
421.586988	0.999302
421.965867	0.997813
422.344686	1.000135
422.723444	0.999444
423.102141	1.000100
423.480777	0.999265
423.859352	0.998798
424.237866	0.999547
424.616319	1.000602
424.994712	0.999825
425.373044	0.999824
425.751314	0.999954
426.129524	0.999890
426.507673	0.999244
426.885762	0.999371
427.263789	0.999719
427.641756	0.999342
428.019662	0.999204
428.397508	0.999661
428.775292	0.999233
429.153016	0.999095
429.530679	0.999494
429.908282	1.000892
430.285824	0.999904
430.663305	0.998802
431.040726	0.999904
431.418086	0.999878
431.795385	0.999900
432.172624	1.001105
432.549802	0.999377
432.926920	0.999590
433.303977	0.999904
433.680974	0.999278
434.057910	0.999318
434.434786	0.998304
434.811601	0.999678
435.188355	0.999846
435.565050	0.999694
435.941683	0.999044
436.318257	0.998881
436.694770	0.999346
437.071222	1.000583
437.447614	1.000194
437.823946	0.999752
438.200218	0.999926
438.576429	0.999308
438.952580	0.999533
439.328670	0.998861
439.704700	0.998942
440.080670	1.000000
440.456580	0.999765
440.832429	0.999760
441.208218	0.999736
441.583947	0.999213
441.959616	0.998355
442.335224	1.000775
442.710773	1.001443
443.086261	1.000304
443.461689	0.999658
443.837057	0.999670
444.212365	0.999806
444.587612	1.000482
444.962800	0.999356
445.337927	1.000552
445.712995	0.999702
446.088002	0.999666
446.462949	0.999257
446.837837	1.000860
447.212664	0.999348
447.587431	1.000338
447.962139	1.000216
448.336786	0.999708
448.711374	1.000004
449.085901	1.000896
449.460369	1.000732
449.834776	0.999586
450.209124	1.000396
450.583412	1.000147
450.957640	0.999996
451.331808	1.000642
451.705917	0.998833
452.079965	1.000299
452.453954	1.000627
452.827883	1.000077
453.201752	0.999925
453.575562	0.999738
453.949311	0.999539
454.323001	1.000100
454.696632	0.999475
455.070202	0.999439
455.443713	0.999317
455.817164	1.000093
456.190556	0.999815
456.563888	1.001049
456.937160	0.999653
457.310373	0.999457
457.683526	0.999531
458.056619	1.000137
458.429653	0.999466
458.802628	1.000241
459.175542	0.999992
459.548398	1.000246
459.921194	0.999712
460.293930	1.000731
460.666607	0.999737
461.039224	0.999981
461.411782	0.999511
461.784280	0.999710
462.156719	1.000140
462.529099	1.000252
462.901419	0.999652
463.273680	0.999725
463.645882	0.999694
464.018024	0.999951
464.390106	0.999459
464.762130	1.000048
465.134094	1.000134
465.505999	1.000468
465.877845	0.999843
466.249631	0.999751
466.621358	0.999095
466.993026	0.999674
467.364634	1.000091
467.736184	0.999952
468.107674	0.999546
468.479105	0.998954
468.850477	0.999857
469.221790	0.999767
469.593043	0.999291
469.964238	0.998908
470.335373	0.999247
470.706449	0.999971
471.077467	1.000168
471.448425	0.999566
471.819324	1.000201
472.190164	0.999522
472.560945	0.999816
472.931667	0.999884
473.302330	0.999028
473.672934	0.999713
474.043479	0.999287
474.413965	1.000174
474.784393	1.000282
475.154761	0.998842
475.525070	0.999597
475.895321	1.000433
476.265513	0.999997
476.635645	1.000577
477.005719	0.999391
477.375734	0.999521
477.745691	0.998791
478.115588	0.998719
478.485427	0.999482
478.855207	0.999460
479.224928	0.999037
479.594591	1.000127
479.964194	0.999765
480.333739	1.000545
480.703226	0.999219
481.072653	0.999693
481.442022	0.999647
481.811333	0.999942
482.180584	0.999319
482.549777	0.999388
482.918912	0.999610
483.287988	1.000113
483.657005	0.999511
484.025964	0.999357
484.394864	0.999258
484.763706	0.998852
485.132489	0.999747
485.501213	1.000108
485.869879	1.000010
486.238487	0.998708
486.607036	0.999814
486.975527	0.999589
487.343959	0.998739
487.712333	0.999415
488.080648	0.999043
488.448905	0.999982
488.817104	0.999195
489.185244	0.999511
489.553326	0.999519
489.921350	0.999685
490.289315	0.999670
490.657222	0.998825
491.025070	0.999655
491.392861	0.999796
491.760593	0.999489
492.128267	0.999901
492.495883	0.998291
492.863440	0.999995
493.230939	0.999735
493.598380	0.999990
493.965763	0.999493
494.333088	0.998914
494.700354	0.998843
495.067563	0.999223
495.434713	0.999436
495.801805	0.999369
496.168839	0.999786
496.535815	0.999395
496.902733	0.999112
497.269593	0.999554
497.636395	0.998807
498.003139	0.999034
498.369825	1.000095
498.736453	0.999568
499.103023	0.999260
499.469535	0.999121
499.835989	0.999702
500.202385	0.999291
500.568723	0.999503
500.935003	0.999945
501.301226	0.999662
501.667390	0.999813
502.033497	0.999654
502.399546	0.999812
502.765537	0.999523
503.131470	0.999728
503.497345	1.000042
503.863163	0.999501
504.228923	1.000025
504.594625	0.999081
504.960269	0.999447
505.325856	1.000369
505.691385	0.999496
506.056856	0.999295
506.422270	0.999779
506.787625	0.999888
507.152924	1.000043
507.518164	0.999764
507.883347	0.999533
508.248472	0.999634
508.613540	0.999025
508.978550	1.000018
509.343503	0.999458
509.708398	1.000503
510.073236	0.999890
510.438016	0.999005
510.802738	0.999176
511.167403	0.999203
511.532010	0.999929
511.896561	0.999625
512.261053	0.999591
512.625488	0.999986
512.989866	1.000161
513.354186	0.998639
513.718449	0.999373
514.082655	0.999364
514.446803	0.999213
514.810894	0.999901
515.174927	0.999908
515.538904	0.999863
515.902822	0.999518
516.266684	0.999715
516.630488	0.999664
516.994235	0.999795
517.357925	0.999608
517.721558	0.999675
518.085133	0.998866
518.448651	0.999408
518.812112	1.000393
519.175516	0.999715
519.538863	0.998954
519.902152	0.999349
520.265385	0.999575
520.628560	0.999270
520.991678	0.999601
521.354739	1.000095
521.717743	0.999350
522.080690	0.999261
522.443580	1.000055
522.806413	0.999084
523.169189	1.000049
523.531908	0.999456
523.894569	0.999428
524.257174	0.999234
524.619722	0.999327
524.982213	0.999896
525.344647	0.999442
525.707025	0.999646
526.069345	0.999431
526.431608	1.000000
526.793815	0.999825
527.155964	0.999838
527.518057	1.000118
527.880093	0.999613
528.242072	0.999847
528.603995	0.999468
528.965860	0.999468
529.327669	0.999785
529.689421	0.999221
530.051117	0.999673
530.412755	1.000033
530.774337	0.999229
531.135862	1.000096
531.497331	0.999803
531.858743	0.999819
532.220098	0.999188
532.581396	0.999858
532.942638	0.999694
533.303824	1.000189
533.664953	0.999277
534.026025	1.000127
534.387040	0.999404
534.747999	0.999610
535.108902	0.999408
535.469748	1.000475
535.830537	0.999669
536.191270	1.000130
536.551947	0.999768
536.912567	0.999696
537.273131	0.999754
537.633638	0.999031
537.994089	1.000077
538.354483	0.999659
538.714821	0.999743
539.075103	0.999942
539.435328	0.999986
539.795497	1.000045
540.155609	0.999496
540.515665	1.000308
540.875665	0.999257
541.235609	0.999642
541.595496	0.999470
541.955328	0.999545
542.315102	1.000225
542.674821	0.999970
543.034483	0.999912
543.394090	0.999248
543.753640	0.999683
544.113134	0.999741
544.472571	1.000701
544.831953	0.999825
545.191278	0.999515
545.550548	0.999268
545.909761	0.999243
546.268918	1.000535
546.628019	1.000186
546.987064	0.999399
547.346053	0.998834
547.704986	0.999306
548.063863	0.999708
548.422684	0.999893
548.781449	0.999751
549.140158	0.999966
549.498811	0.999353
549.857408	0.999229
550.215949	0.999106
550.574434	0.999019
550.932864	1.000181
551.291237	0.999748
551.649555	1.000005
552.007817	0.999156
552.366022	1.000166
552.724173	1.000496
553.082267	0.998913
553.440305	0.999587
553.798288	0.998764
554.156215	0.999508
554.514086	1.000102
554.871902	0.999329
555.229661	0.998943
555.587365	0.999263
555.945014	0.999786
556.302606	0.999844
556.660143	1.000273
557.017625	1.000166
557.375050	0.999006
557.732421	0.999833
558.089735	0.999117
558.446994	0.999045
558.804197	1.000073
559.161345	0.999343
559.518437	0.999004
559.875474	1.000274
560.232455	1.000160
560.589381	1.000332
560.946251	0.998983
561.303065	0.999191
561.659825	0.998965
562.016528	0.999534
562.373177	0.999788
562.729770	0.999749
563.086307	0.999207
563.442789	0.999714
563.799216	0.999351
564.155587	1.000239
564.511904	0.999767
564.868164	0.998521
565.224370	0.999329
565.580520	0.999471
565.936615	0.999599
566.292654	0.999216
566.648638	1.000758
567.004567	0.999414
567.360441	0.999966
567.716260	0.999671
568.072023	0.999442
568.427732	0.999698
568.783385	0.999495
569.138982	0.999609
569.494525	0.999205
569.850013	0.999586
570.205445	0.999585
570.560823	0.999059
570.916145	0.999471
571.271412	0.999339
571.626625	0.999895
571.981782	0.999285
572.336884	0.999870
572.691931	0.999988
573.046923	0.999926
573.401860	0.999445
573.756743	0.999396
574.111570	0.999865
574.466342	1.000363
574.821059	0.999728
575.175722	0.999989
575.530330	0.999975
575.884882	0.999595
576.239380	1.000055
576.593823	0.999331
576.948211	1.000100
577.302544	1.000127
577.656823	0.999836
578.011047	0.998785
578.365216	0.999663
578.719330	0.999772
579.073389	0.998671
579.427394	0.999260
579.781344	0.999761
580.135239	0.998940
580.489080	0.999550
580.842866	0.999271
581.196597	0.999429
581.550273	0.998976
581.903895	0.999931
582.257463	0.999256
582.610975	0.999890
582.964434	0.999555
583.317837	1.000492
583.671186	1.000043
584.024481	0.999661
584.377721	0.999097
584.730906	1.000152
585.084037	1.000461
585.437113	1.000372
585.790135	0.999517
586.143103	0.999588
586.496016	0.998837
586.848874	0.999484
587.201679	0.999390
587.554428	0.999147
587.907124	0.999953
588.259765	0.999690
588.612352	1.000365
588.964884	0.999968
589.317362	0.999802
589.669786	0.999233
590.022155	0.999021
590.374470	0.999965
590.726731	0.999233
591.078937	0.999240
591.431090	0.999860
591.783188	0.998800
592.135232	0.999758
592.487222	0.999747
592.839157	0.999213
593.191038	0.999748
593.542866	0.998994
593.894639	0.998963
594.246358	1.000252
594.598022	0.999427
594.949633	1.000214
595.301190	0.999398
595.652692	0.998809
596.004141	0.999250
596.355535	0.999400
596.706876	0.999478
597.058162	0.999629
597.409395	0.999936
597.760573	0.999263
598.111698	0.999290
598.462768	0.999002
598.813785	0.998676
599.164748	0.999197
599.515657	0.999038
599.866511	1.000003
600.217312	1.000260
600.568060	0.998818
600.918753	1.000288
601.269392	1.000114
601.619978	0.999628
601.970510	0.999450
602.320988	0.999430
602.671412	0.999198
603.021783	1.000150
603.372100	0.999921
603.722363	0.999939
604.072572	0.999528
604.422728	0.999062
604.772830	0.998800
605.122878	0.999209
605.472872	0.999789
605.822813	0.999105
606.172701	0.999342
606.522534	0.999762
606.872314	0.999804
607.222041	0.999262
607.571714	0.999933
607.921333	0.999435
608.270899	0.998705
608.620411	0.999688
608.969870	0.999435
609.319276	0.999354
609.668627	1.000540
610.017926	0.999622
610.367171	1.000446
610.716362	1.000026
611.065500	0.999127
611.414585	0.999616
611.763616	0.998628
612.112594	0.999376
612.461518	0.999055
612.810389	0.999538
613.159207	0.998798
613.507971	0.999544
613.856682	1.000360
614.205340	0.998324
614.553945	0.999849
614.902496	0.999281
615.250994	0.999434
615.599439	0.999392
615.947830	0.998411
616.296169	1.000278
616.644454	0.999760
616.992686	0.999566
617.340864	0.999931
617.688990	0.999163
618.037063	1.000214
618.385082	0.999062
618.733048	0.998725
619.080961	0.999643
619.428821	0.999782
619.776628	0.999036
620.124382	0.999872
620.472083	0.999557
620.819731	1.001121
621.167326	0.999871
621.514868	0.999792
621.862357	0.999310
622.209793	0.998671
622.557176	0.999376
622.904506	0.998794
623.251783	0.999811
623.599007	1.000110
623.946179	0.998734
624.293297	1.000606
624.640363	0.999728
624.987376	0.999283
625.334336	0.998987
625.681243	1.000005
626.028097	0.998946
626.374899	0.999740
626.721647	0.999437
627.068343	0.999047
627.414987	1.000438
627.761577	0.999076
628.108115	0.999330
628.454600	0.999960
628.801032	0.999386
629.147412	0.999740
629.493739	1.000395
629.840014	0.999247
630.186236	0.998621
630.532405	1.000024
630.878521	0.998902
631.224585	0.999555
631.570597	0.999238
631.916556	1.000141
632.262462	0.998624
632.608316	0.999592
632.954117	0.998621
633.299866	0.999385
633.645562	0.999518
633.991206	0.999001
634.336797	0.999063
634.682336	0.999992
635.027823	0.999198
635.373257	1.000268
635.718639	0.999370
636.063968	0.999037
636.409245	0.999039
636.754470	0.999886
637.099642	0.999817
637.444762	0.999626
637.789829	0.999308
638.134845	0.998716
638.479808	0.999186
638.824719	0.999578
639.169577	0.998677
639.514383	0.999674
639.859137	0.999860
640.203839	0.999858
640.548489	0.999735
640.893086	0.998417
641.237632	0.999626
641.582125	0.999265
641.926566	1.000609
642.270955	0.999749
642.615292	0.998419
642.959576	0.999840
643.303809	0.999444
643.647990	0.998727
643.992118	1.000027
644.336195	0.999073
644.680219	0.999698
645.024192	0.999290
645.368112	0.998669
645.711981	0.998333
646.055797	0.998524
646.399562	0.998665
646.743274	0.999706
647.086935	0.998606
647.430544	0.998595
647.774101	0.998619
648.117606	0.999417
648.461059	1.000188
648.804460	0.999451
649.147810	0.998956
649.491108	0.998566
649.834354	0.999232
650.177548	0.999507
650.520690	0.999167
650.863781	0.999187
651.206820	0.999355
651.549807	0.999626
651.892742	1.000198
652.235626	0.999666
652.578458	0.998991
652.921238	0.999745
653.263967	0.998643
653.606644	0.998894
653.949269	1.000175
654.291843	0.998927
654.634365	1.000296
654.976836	0.998821
655.319255	0.999935
655.661622	0.999479
656.003938	0.999423
656.346203	0.999167
656.688416	1.000161
657.030577	0.999472
657.372687	0.999143
657.714746	0.999380
658.056753	0.999109
658.398708	0.998532
658.740612	0.999919
659.082465	0.999572
659.424266	0.999866
659.766016	0.999062
660.107715	0.999661
660.449362	0.998982
660.790958	0.998821
661.132503	0.999979
661.473996	0.998453
661.815438	1.001009
662.156829	0.999892
662.498168	0.999906
662.839456	0.998382
663.180693	0.999258
663.521879	0.998786
663.863013	0.999832
664.204097	0.998504
664.545129	0.998623
664.886110	0.998953
665.227040	0.998783
665.567918	0.999193
665.908746	0.998384
666.249522	0.999186
666.590248	0.999525
666.930922	0.998883
667.271545	0.999771
667.612118	0.999689
667.952639	0.999877
668.293109	0.998785
668.633528	0.998947
668.973896	0.999261
669.314213	0.999098
669.654480	0.999929
669.994695	0.998624
670.334859	0.998662
670.674973	0.999416
671.015035	0.998923
671.355047	0.999150
671.695008	0.998903
672.034918	0.998675
672.374777	0.998609
672.714585	0.998688
673.054342	0.999060
673.394049	0.998962
673.733705	0.998889
674.073310	0.999238
674.412864	0.999146
674.752368	0.998928
675.091820	1.000456
675.431223	0.999771
675.770574	0.997921
676.109875	0.999369
676.449125	0.998475
676.788324	0.998571
677.127473	0.999445
677.466571	0.999784
677.805619	0.999238
678.144616	0.999210
678.483562	0.999777
678.822458	0.999716
679.161303	0.998163
679.500098	0.999507
679.838842	0.999527
680.177535	0.998498
680.516179	0.998870
680.854771	0.998962
681.193314	0.999347
681.531805	0.999489
681.870247	0.998974
682.208638	0.999407
682.546978	0.999166
682.885268	0.999401
683.223508	0.998504
683.561697	0.998420
683.899836	0.999019
684.237925	0.998186
684.575963	0.999349
684.913951	0.998897
685.251889	0.998284
685.589776	0.998615
685.927614	0.999325
686.265401	0.999152
686.603137	0.998731
686.940824	0.999111
687.278460	1.000029
687.616046	0.998958
687.953582	0.998460
688.291068	0.999071
688.628504	0.999543
688.965889	0.998436
689.303224	0.998025
689.640510	0.998743
689.977745	0.997850
690.314930	0.997395
690.652065	0.999145
690.989150	0.998935
691.326185	0.999454
691.663170	0.998676
692.000105	0.998757
692.336990	0.998583
692.673825	0.998215
693.010610	0.998644
693.347345	0.998922
693.684030	0.998683
694.020665	0.998531
694.357251	0.998329
694.693786	0.998337
695.030272	0.997541
695.366707	0.998498
695.703093	0.999253
696.039429	0.997845
696.375716	0.998436
696.711952	0.999066
697.048139	0.998967
697.384276	0.998842
697.720363	0.999619
698.056400	0.997157
698.392388	0.997745
698.728326	0.998567
699.064214	0.999883
699.400053	0.999138
699.735842	0.999205
700.071581	0.998520
700.407270	0.998185
700.742910	0.999190
701.078501	0.998275
701.414042	0.999272
701.749533	0.998078
702.084974	0.999444
702.420366	0.998637
702.755709	0.998829
703.091002	0.999318
703.426246	0.999251
703.761440	0.999463
704.096584	0.997438
704.431679	0.998002
704.766725	0.998310
705.101721	0.998613
705.436668	0.998134
705.771565	0.997674
706.106413	0.997733
706.441212	0.998868
706.775961	0.998751
707.110661	0.998855
707.445311	0.998140
707.779913	1.000067
708.114465	0.999423
708.448967	0.998831
708.783421	0.998610
709.117825	0.998779
709.452180	0.999553
709.786485	0.999903
710.120742	0.998342
710.454949	0.997679
710.789107	0.999420
711.123216	0.997346
711.457275	0.997960
711.791286	0.998911
712.125247	1.000118
712.459159	0.998116
712.793023	0.998460
713.126837	0.999217
713.460602	0.998006
713.794318	0.997730
714.127985	0.997929
714.461602	0.998335
714.795171	0.997938
715.128691	0.998569
715.462162	0.998330
715.795584	0.998421
716.128957	0.998995
716.462281	0.999133
716.795556	0.998327
717.128782	0.999057
717.461960	0.997959
717.795088	0.998940
718.128167	0.998764
718.461198	0.998232
718.794180	0.998828
719.127113	0.999176
719.459997	0.998235
719.792833	0.998517
720.125619	0.998480
720.458357	0.998691
720.791046	0.998712
721.123686	0.999182
721.456278	0.998722
721.788821	0.998453
722.121315	1.000285
722.453761	0.998846
722.786158	0.997373
723.118506	0.998673
723.450805	0.997986
723.783056	0.999410
724.115259	0.998583
724.447412	0.999126
724.779518	0.999093
725.111574	0.997606
725.443582	0.998868
725.775542	0.998447
726.107453	0.998953
726.439315	0.999801
726.771129	0.999056
727.102895	0.999310
727.434612	0.999122
727.766281	0.998735
728.097901	0.997918
728.429473	0.999650
728.760996	0.998189
729.092471	0.998470
729.423897	0.998767
729.755276	0.998490
730.086606	0.998132
730.417887	0.999159
730.749120	0.999245
731.080305	0.997997
731.411442	0.998780
731.742530	0.998401
732.073570	0.998460
732.404562	0.998448
732.735506	0.999249
733.066401	0.998749
733.397249	0.998937
733.728048	0.999173
734.058798	0.999388
734.389501	0.999030
734.720156	0.999259
735.050762	0.999419
735.381320	0.998507
735.711831	0.998495
736.042293	0.998373
736.372707	0.999677
736.703073	0.997693
737.033391	0.998229
737.363661	0.998384
737.693883	0.999835
738.024056	0.997741
738.354182	0.999162
738.684260	0.998151
739.014290	0.999255
739.344272	0.998377
739.674207	0.998786
740.004093	0.999294
740.333931	0.998285
740.663722	0.999111
740.993464	0.998883
741.323159	0.998764
741.652806	0.999013
741.982405	0.999089
742.311956	0.998491
742.641460	0.999442
742.970915	0.998028
743.300323	0.998962
743.629683	0.998861
743.958996	1.000265
744.288260	0.997108
744.617477	0.998930
744.946647	0.999337
745.275768	0.999994
745.604842	0.997570
745.933869	0.998745
746.262847	0.998725
746.591778	0.997294
746.920662	0.998819
747.249498	1.001173
747.578286	1.000350
747.907027	0.999151
748.235720	0.999406
748.564365	0.999374
748.892963	0.998500
749.221514	0.999821
749.550017	0.998322
749.878473	0.999219
750.206881	0.999809
750.535242	0.999257
750.863555	0.998381
751.191821	0.998652
751.520039	0.997208
751.848210	0.997204
752.176334	0.998651
752.504411	0.999000
752.832440	0.997228
753.160421	0.998404
753.488356	0.999199
753.816243	0.997802
754.144082	0.997845
754.471875	0.998462
754.799620	0.998709
755.127318	0.997741
755.454969	0.998439
755.782572	0.999459
756.110129	0.999348
756.437638	0.999595
756.765100	0.998381
757.092515	0.998930
757.419882	0.998704
757.747203	0.999134
758.074477	0.999344
758.401703	0.999574
758.728882	0.998998
759.056014	0.998967
759.383099	0.999132
759.710138	0.998012
760.037129	0.998862
760.364073	0.998651
760.690970	0.999600
761.017820	0.999026
761.344623	0.999438
761.671379	0.999250
761.998088	0.999529
762.324751	0.999661
762.651366	0.999606
762.977935	0.998003
763.304456	0.999215
763.630931	0.997687
763.957359	0.997585
764.283740	0.998844
764.610074	0.998988
764.936362	0.998112
765.262602	0.998606
765.588796	0.998582
765.914943	0.999002
766.241044	0.998245
766.567097	0.998289
766.893104	0.999022
767.219064	0.997760
767.544978	0.999120
767.870845	0.999288
768.196665	0.998201
768.522438	0.998765
768.848165	0.998497
769.173846	0.999285
769.499479	1.000017
769.825066	0.999884
770.150607	1.000139
770.476101	0.998625
770.801548	1.000141
771.126949	1.000084
771.452303	0.999367
771.777611	0.999656
772.102872	0.999237
772.428087	0.998890
772.753256	0.999441
773.078378	0.998867
773.403453	0.999088
773.728482	1.001058
774.053465	0.998288
774.378401	1.000178
774.703291	0.999578
775.028135	1.000612
775.352932	0.998282
775.677683	1.000614
776.002388	0.998351
776.327046	0.999093
776.651658	1.000439
776.976224	0.999309
777.300743	0.998823
777.625216	0.999319
777.949643	1.000451
778.274024	0.998741
778.598359	0.998824
778.922647	0.999673
779.246889	0.999279
779.571086	0.999616
779.895236	0.998631
780.219339	0.999855
780.543397	0.997999
780.867409	0.999549
781.191374	0.999752
781.515294	1.000324
781.839167	1.000363
782.162995	0.998386
782.486776	0.999137
782.810511	1.000007
783.134201	0.998754
783.457844	0.999711
783.781441	0.998980
784.104993	0.998457
784.428498	0.999469
784.751958	1.000280
785.075372	0.999771
785.398739	0.999298
785.722061	0.999158
786.045337	0.998463
786.368568	0.998973
786.691752	0.999578
787.014891	0.998369
787.337983	0.997662
787.661030	0.998539
787.984031	0.999626
788.306987	0.999782
788.629897	0.998529
788.952760	0.999081
789.275579	0.999138
789.598351	0.998298
789.921078	1.000488
790.243759	0.998571
790.566395	0.999510
790.888984	0.998847
791.211529	0.999308
791.534027	0.998879
791.856480	0.999696
792.178888	0.999078
792.501249	0.999064
792.823566	1.000807
793.145836	0.999923
793.468062	0.999122
793.790241	0.999573
794.112375	0.998433
794.434464	1.000448
794.756507	1.000020
795.078505	1.000176
795.400457	0.998822
795.722364	0.999838
796.044226	0.999445
796.366042	0.999756
796.687812	0.997887
797.009538	0.998817
797.331218	0.999850
797.652852	1.000730
797.974442	0.998098
798.295986	0.998924
798.617484	0.998711
798.938938	0.999984
799.260346	0.999826
799.581709	0.999357
799.903026	0.999788
800.224299	0.999342
800.545526	0.998844
800.866708	0.999036
801.187845	1.000384
801.508936	1.000544
801.829983	0.998533
802.150984	0.998517
802.471940	0.999293
802.792851	0.999040
803.113717	0.999010
803.434538	0.999978
803.755314	1.000393
804.076045	0.999765
804.396731	0.998649
804.717372	0.997960
805.037967	0.999636
805.358518	1.000250
805.679024	0.998863
805.999485	0.999775
806.319901	1.000584
806.640272	0.999739
806.960598	1.000157
807.280879	1.000166
807.601115	0.999971
807.921306	1.000632
808.241453	0.999433
808.561554	0.999177
808.881611	0.999867
809.201623	0.999474
809.521590	0.998243
809.841513	0.999751
810.161390	0.998669
810.481223	0.999008
810.801011	1.000537
811.120755	1.000056
811.440453	0.998807
811.760107	0.999910
812.079716	0.999741
812.399281	0.999243
812.718801	0.998472
813.038276	0.999166
813.357707	0.999111
813.677093	0.999771
813.996434	0.999508
814.315731	1.001377
814.634983	1.000611
814.954191	0.999568
815.273354	0.999469
815.592473	0.998593
815.911547	0.999898
816.230577	0.999368
816.549562	1.000384
816.868502	0.998342
817.187399	1.000161
817.506250	0.999968
817.825058	0.999238
818.143821	0.999635
818.462539	1.000212
818.781213	0.999919
819.099843	0.999748
819.418429	0.998916
819.736970	1.000161
820.055466	0.998170
820.373919	0.998461
820.692327	0.998596
821.010691	0.998398
821.329011	0.997515
821.647286	0.996876
821.965517	0.996133
822.283704	0.995325
822.601847	0.995333
822.919945	0.994894
823.237999	0.996055
823.556010	0.997365
823.873976	0.996007
824.191897	0.997048
824.509775	0.997007
824.827609	0.997703
825.145398	0.998299
825.463144	0.997486
825.780845	0.996929
826.098502	0.998129
826.416116	0.998808
826.733685	0.997786
827.051210	0.996230
827.368692	0.997793
827.686129	0.997166
828.003522	0.998357
828.320872	0.998165
828.638177	0.998192
828.955439	0.999917
829.272656	0.998377
829.589830	0.998541
829.906960	0.998846
830.224046	0.999499
830.541088	0.998869
830.858086	0.999133
831.175041	1.000792
831.491952	0.998538
831.808819	0.999132
832.125642	0.998754
832.442421	0.999467
832.759157	1.000536
833.075849	0.998418
833.392497	0.998465
833.709101	0.997567
834.025662	0.999138
834.342179	0.998121
834.658653	0.999035
834.975083	0.999261
835.291469	0.999088
835.607811	0.998815
835.924110	1.000246
836.240366	1.000095
836.556578	1.000313
836.872746	0.999739
837.188871	0.999288
837.504952	0.999323
837.820990	0.999745
838.136984	0.998926
838.452935	0.998403
838.768842	1.000368
839.084706	0.999582
839.400526	1.000088
839.716303	0.998239
840.032037	0.999990
840.347727	0.999647
840.663373	0.999314
840.978977	0.999245
841.294537	1.000052
841.610054	0.999083
841.925527	1.000044
842.240957	1.000255
842.556344	0.998952
842.871687	0.998551
843.186987	1.000296
843.502244	0.999748
843.817458	0.998501
844.132629	0.999015
844.447756	0.999783
844.762840	0.999723
845.077881	1.001622
845.392879	0.998437
845.707833	0.999263
846.022745	1.001230
846.337613	0.999805
846.652438	0.999525
846.967221	0.999817
847.281960	0.999534
847.596656	1.000360
847.911309	1.000926
848.225919	0.999148
848.540485	1.000188
848.855009	1.001054
849.169490	0.999797
849.483928	0.999981
849.798323	0.999216
850.112675	1.000713
850.426984	1.000038
850.741251	1.000209
851.055474	0.999458
851.369654	0.999734
851.683792	0.999803
851.997887	0.999501
852.311938	0.999811
852.625947	0.998653
852.939914	0.998342
853.253837	1.000736
853.567718	1.001601
853.881555	1.000183
854.195350	1.000031
854.509103	0.999693
854.822812	1.000191
855.136479	0.999549
855.450103	1.000364
855.763685	1.000842
856.077224	1.000514
856.390720	0.999551
856.704173	1.001248
857.017584	0.999647
857.330953	0.999782
857.644278	0.999712
857.957561	0.999568
858.270802	1.000571
858.584000	1.000557
858.897155	0.998967
859.210268	1.000031
859.523339	1.000732
859.836367	1.000202
860.149352	1.000056
860.462295	1.001108
860.775195	1.000401
861.088054	0.999087
861.400869	0.998799
861.713642	0.998601
862.026373	1.000709
862.339062	0.999764
862.651708	1.000946
862.964312	1.001376
863.276873	0.999302
863.589392	0.999987
863.901869	0.999690
864.214303	1.000109
864.526696	1.000749
864.839045	0.999984
865.151353	1.000209
865.463619	0.998337
865.775842	1.000089
866.088023	1.000698
866.400162	1.000495
866.712258	1.001809
867.024313	1.000182
867.336325	1.000979
867.648296	1.000245
867.960224	1.001356
868.272110	1.000703
868.583954	1.000103
868.895755	0.999848
869.207515	0.999788
869.519233	1.001012
869.830909	0.999010
870.142542	0.999030
870.454134	1.000500
870.765684	1.000253
871.077191	1.000116
871.388657	0.999980
871.700081	1.000278
872.011463	1.000931
872.322803	1.000721
872.634101	0.999354
872.945357	0.999132
873.256571	0.999018
873.567744	0.999966
873.878874	0.999711
874.189963	0.999071
874.501010	1.001216
874.812015	1.000170
875.122979	1.000938
875.433900	1.000209
875.744780	1.000775
876.055618	0.998604
876.366415	0.999114
876.677169	0.999717
876.987882	0.999591
877.298554	1.000554
877.609183	1.000273
877.919771	1.000113
878.230317	1.000150
878.540822	0.999607
878.851285	1.000033
879.161707	1.000145
879.472087	1.000825
879.782425	0.998990
880.092722	0.999376
880.402977	0.998109
880.713191	0.997630
881.023363	0.996598
881.333494	0.996442
881.643583	0.997380
881.953631	0.997959
882.263637	0.996009
882.573602	0.996974
882.883526	0.996869
883.193408	0.997913
883.503248	0.998414
883.813048	0.997709
884.122806	0.999039
884.432522	0.997668
884.742197	0.999600
885.051831	0.998918
885.361424	0.998593
885.670975	1.000120
885.980485	0.998528
886.289954	0.998687
886.599382	0.998444
886.908768	1.000290
887.218113	0.999343
887.527417	0.999354
887.836680	1.000468
888.145901	0.998814
888.455082	1.000509
888.764221	1.000566
889.073319	0.999995
889.382376	1.000603
889.691392	0.999733
890.000366	1.000464
890.309300	0.999873
890.618193	0.999522
890.927044	0.999230
891.235855	0.999628
891.544625	0.999518
891.853353	0.999647
892.162041	0.999286
892.470687	1.000650
892.779293	0.999762
893.087858	0.999540
893.396381	0.999495
893.704864	0.998537
894.013306	0.998452
894.321707	0.999309
894.630068	0.998215
894.938387	0.998049
895.246665	0.997971
895.554903	0.998783
895.863100	0.999183
896.171256	0.998810
896.479371	0.999472
896.787446	0.999550
897.095480	0.999524
897.403473	0.999737
897.711425	1.000958
898.019336	1.000804
898.327207	1.000918
898.635038	0.999037
898.942827	1.001092
899.250576	0.998510
899.558284	0.999879
899.865952	0.999406
900.173579	0.999488
900.481165	0.998770
900.788711	0.999292
901.096216	0.999363
901.403681	1.000467
901.711105	0.998958
902.018489	0.999703
902.325832	0.999057
902.633135	1.000022
902.940397	1.000581
903.247619	0.999581
903.554800	0.999727
903.861941	1.000260
904.169041	0.998673
904.476101	1.000281
904.783121	0.997895
905.090100	0.999271
905.397039	0.999090
905.703938	0.998304
906.010796	0.998671
906.317614	0.998981
906.624391	0.999351
906.931129	1.000124
907.237826	0.999502
907.544483	0.999752
907.851099	1.000165
908.157675	0.999717
908.464211	1.000013
908.770707	1.000591
909.077163	1.000078
909.383578	1.000535
909.689954	0.999129
909.996289	0.999897
910.302584	0.999519
910.608839	1.002414
910.915054	0.998890
911.221229	1.001128
911.527363	0.998663
911.833458	1.000164
912.139513	1.000599
912.445527	1.000156
912.751502	0.999835
913.057436	0.998229
913.363331	0.999598
913.669186	1.000893
913.975000	1.000295
914.280775	1.000411
914.586510	0.999979
914.892205	0.999747
915.197859	0.999115
915.503475	0.999103
915.809050	0.999492
916.114585	0.998382
916.420081	0.998946
916.725536	1.000379
917.030952	0.998807
917.336328	0.998609
917.641665	0.999401
917.946961	0.999252
918.252218	0.998861
918.557435	0.997058
918.862612	0.999952
919.167750	1.000509
919.472848	0.999459
919.777906	1.000239
920.082925	1.001134
920.387904	1.000198
920.692843	0.999340
920.997743	0.999489
921.302603	1.000330
921.607423	0.999818
921.912204	0.999648
922.216946	1.000975
922.521647	1.000019
922.826310	0.999954
923.130932	1.001597
923.435516	1.001432
923.740059	1.000243
924.044564	0.999502
924.349028	0.999873
924.653454	0.999905
924.957840	0.999789
925.262186	0.999781
925.566493	0.999390
925.870761	1.000255
926.174989	0.999378
926.479178	1.001107
926.783328	1.000110
927.087438	0.999052
927.391509	0.998886
927.695541	0.999682
927.999533	0.999125
928.303486	0.998898
928.607400	1.000044
928.911275	1.000205
929.215110	1.000074
929.518906	0.999646
929.822663	1.000377
930.126381	1.000825
930.430060	0.999771
930.733699	1.000785
931.037299	1.000515
931.340861	0.999785
931.644383	0.998248
931.947866	1.000311
932.251309	1.001267
932.554714	0.999934
932.858080	0.999406
933.161407	1.000469
933.464694	0.999688
933.767943	1.000164
934.071153	0.999764
934.374323	1.000997
934.677455	1.000178
934.980548	1.000356
935.283602	1.000778
935.586617	1.000257
935.889593	1.000246
936.192530	1.000692
936.495428	0.999824
936.798287	0.998977
937.101108	0.999283
937.403890	0.999638
937.706632	1.001024
938.009336	1.000938
938.312002	0.999600
938.614628	1.000624
938.917216	0.999704
939.219765	1.000496
939.522275	1.001017
939.824747	1.000275
940.127179	0.999979
940.429573	1.001187
940.731929	0.999887
941.034246	0.999624
941.336524	0.998906
941.638763	1.000277
941.940964	1.000476
942.243126	1.000104
942.545250	1.000696
942.847335	1.000000
943.149381	0.999974
943.451389	0.999927
943.753359	0.999641
944.055290	1.001821
944.357182	0.999778
944.659036	1.000393
944.960851	0.999610
945.262628	1.000902
945.564367	1.000003
945.866067	1.000431
946.167729	1.001405
946.469352	1.000349
946.770937	0.999506
947.072484	1.001096
947.373992	0.999357
947.675462	1.000037
947.976893	0.999559
948.278286	1.001465
948.579641	1.001262
948.880958	0.998626
949.182236	1.000154
949.483476	1.001188
949.784678	1.000253
950.085841	0.999728
950.386967	0.999818
950.688054	1.000474
950.989103	0.998710
951.290114	0.999553
951.591087	1.000122
951.892021	0.999047
952.192917	1.000191
952.493776	0.999637
952.794596	0.999927
953.095378	1.000455
953.396122	0.999293
953.696828	1.000508
953.997496	1.000629
954.298126	1.001470
954.598718	0.998587
954.899272	1.000761
955.199788	0.999600
955.500266	1.001620
955.800706	1.001020
956.101108	1.000349
956.401472	1.000569
956.701798	0.998684
957.002087	0.999990
957.302337	0.999855
957.602550	1.000898
957.902724	1.000615
958.202861	0.999530
958.502960	0.998994
958.803022	1.001258
959.103045	1.000646
959.403031	1.000357
959.702979	0.999568
960.002889	0.999635
960.302762	0.998967
960.602596	1.000223
960.902393	1.000112
961.202153	1.000516
961.501875	0.999673
961.801559	1.000254
962.101205	1.000051
962.400814	1.001403
962.700385	1.000681
962.999918	0.999725
963.299414	0.999540
963.598873	1.000720
963.898293	1.000769
964.197677	0.999256
964.497022	1.000587
964.796331	0.999350
965.095601	1.001637
965.394835	0.999076
965.694030	1.001709
965.993189	0.998748
966.292309	1.000892
966.591393	0.999231
966.890439	1.000372
967.189447	0.999176
967.488419	1.001024
967.787353	0.999481
968.086249	0.999034
968.385108	1.001262
968.683930	1.000087
968.982714	1.000190
969.281462	1.001962
969.580172	0.999476
969.878844	1.001045
970.177480	1.000550
970.476078	1.000645
970.774639	1.000217
971.073162	1.000570
971.371649	1.001034
971.670098	0.999492
971.968510	1.000179
972.266885	0.999536
972.565223	0.999227
972.863524	0.999151
973.161788	0.999107
973.460014	0.999997
973.758204	0.999652
974.056356	0.999944
974.354471	0.999778
974.652550	1.001039
974.950591	0.999299
975.248595	0.999308
975.546563	1.000583
975.844493	1.000904
976.142386	1.000753
976.440243	1.000567
976.738062	1.001148
977.035845	1.000339
977.333590	1.000850
977.631299	0.999082
977.928971	1.000778
978.226606	0.999266
978.524204	0.999805
978.821765	1.001389
979.119290	1.001407
979.416777	0.998831
979.714228	0.999953
980.011642	1.000642
980.309020	1.001003
980.606360	0.999199
980.903664	1.001169
981.200931	0.999723
981.498162	1.000359
981.795356	1.000249
982.092513	0.999403
982.389633	1.001278
982.686717	0.999986
982.983764	1.000343
983.280775	1.000293
983.577749	1.001907
983.874686	1.000159
984.171587	0.999598
984.468451	1.000164
984.765279	1.000464
985.062070	1.000538
985.358824	0.999137
985.655543	1.000257
985.952224	1.001148
986.248869	0.999277
986.545478	1.002087
986.842050	0.998889
987.138586	0.999710
987.435086	0.997878
987.731549	1.000630
988.027975	1.000784
988.324366	0.999200
988.620719	1.001581
988.917037	1.000547
989.213318	1.000471
989.509563	1.000334
989.805772	1.000481
990.101944	1.001302
990.398080	1.000293
990.694180	0.999721
990.990244	0.999525
991.286271	1.000409
991.582262	1.000363
991.878217	0.999910
992.174136	1.000383
992.470019	1.000265
992.765865	1.001777
993.061676	1.000807
993.357450	1.000988
993.653188	1.001883
993.948890	1.000550
994.244556	1.000061
994.540186	1.000148
994.835780	0.999832
995.131337	1.001437
995.426859	0.998793
995.722345	1.000045
996.017795	1.000667
996.313208	0.999649
996.608586	0.999413
996.903928	1.001010
997.199234	1.000671
997.494504	0.999984
997.789738	0.999566
998.084936	1.001142
998.380099	1.000427
998.675225	1.000579
998.970316	1.000849
999.265371	1.001136
999.560390	0.999353
999.855373	1.000908
1000.150320	0.999696
1000.445232	1.000265
1000.740108	1.000826
1001.034948	0.999831
1001.329752	1.000159
1001.624521	1.000049
1001.919254	0.999104
1002.213951	1.000666
1002.508613	1.000064
1002.803239	1.000587
1003.097829	1.000691
1003.392384	1.000149
1003.686903	0.999857
1003.981386	1.000224
1004.275834	1.001405
1004.570246	0.999292
1004.864623	1.000859
1005.158964	1.000812
1005.453270	0.999990
1005.747540	0.999321
1006.041775	1.000478
1006.335974	1.000050
1006.630138	1.000063
1006.924266	0.998611
1007.218359	0.999223
1007.512416	1.000222
1007.806438	0.999636
1008.100425	1.000260
1008.394376	1.000192
1008.688292	1.000563
1008.982172	0.999495
1009.276017	1.000430
1009.569827	1.001288
1009.863602	0.999531
1010.157341	1.001149
1010.451045	1.000377
1010.744714	1.001511
1011.038347	1.001104
1011.331945	0.998788
1011.625508	1.000603
1011.919036	1.000615
1012.212528	1.001357
1012.505986	0.999636
1012.799408	1.001058
1013.092795	1.000220
1013.386147	1.000377
1013.679464	1.000322
1013.972745	1.000127
1014.265992	1.001687
1014.559204	0.999100
1014.852380	1.000859
1015.145521	0.999385
1015.438628	1.000671
1015.731699	0.999422
1016.024736	1.000132
1016.317737	1.000397
1016.610703	1.000559
1016.903635	0.999484
1017.196531	0.999819
1017.489393	0.999664
1017.782219	1.000068
1018.075011	1.000244
1018.367768	1.000030
1018.660490	1.001473
1018.953177	1.001473
1019.245829	1.001473
