Dividing Wavelength (nm)	Counts (n)	Blue Motor Position (mm): 36.300000	Red Motor Position (mm): 0.000000	
326.493990	0.999022
326.888308	0.999022
327.282561	0.999022
327.676750	1.000150
328.070874	1.000744
328.464933	1.000008
328.858929	1.001289
329.252859	1.000548
329.646726	0.998948
330.040528	0.999899
330.434265	0.999328
330.827938	0.999789
331.221547	0.999994
331.615091	0.999987
332.008571	0.999442
332.401986	0.999616
332.795338	0.999721
333.188625	1.001379
333.581847	1.000328
333.975006	1.000569
334.368100	1.000289
334.761129	0.998668
335.154095	0.999874
335.546996	0.999363
335.939833	0.998850
336.332606	0.999543
336.725315	0.998057
337.117960	1.000296
337.510540	0.998017
337.903056	0.999636
338.295508	0.999735
338.687896	1.000517
339.080220	0.998329
339.472480	0.999557
339.864676	0.998921
340.256807	0.998356
340.648875	1.000589
341.040879	0.999557
341.432818	0.999761
341.824694	0.998759
342.216506	1.000384
342.608253	0.998257
342.999937	0.998743
343.391557	0.998644
343.783113	1.000559
344.174605	0.999933
344.566033	0.999607
344.957397	0.999492
345.348697	1.000224
345.739934	0.999570
346.131106	0.999517
346.522215	0.998884
346.913260	1.000355
347.304241	0.999212
347.695159	0.999433
348.086012	1.000729
348.476802	0.999537
348.867528	0.997764
349.258191	1.000017
349.648789	0.999768
350.039324	0.999903
350.429796	0.998912
350.820203	0.998344
351.210548	0.998408
351.600828	0.999540
351.991045	0.999068
352.381198	0.998753
352.771288	0.999497
353.161314	0.999490
353.551276	0.997595
353.941175	0.998417
354.331010	0.998413
354.720782	0.999972
355.110490	0.998465
355.500135	0.998555
355.889717	0.997625
356.279235	0.997503
356.668689	1.000360
357.058080	0.997576
357.447408	0.998080
357.836672	0.997850
358.225873	0.998749
358.615010	0.998017
359.004084	0.998281
359.393095	0.998245
359.782043	0.998450
360.170927	0.998815
360.559748	0.998218
360.948505	0.997989
361.337199	0.997699
361.725830	0.998339
362.114398	0.999316
362.502903	0.997907
362.891344	0.996187
363.279722	0.997342
363.668037	0.998926
364.056289	0.996778
364.444478	0.999098
364.832603	0.997715
365.220665	0.997733
365.608665	0.996582
365.996601	0.996508
366.384474	0.996107
366.772284	0.996326
367.160031	0.995963
367.547715	0.996315
367.935336	0.995303
368.322893	0.993807
368.710388	0.992301
369.097820	0.992269
369.485189	0.989485
369.872495	0.987605
370.259738	0.985168
370.646918	0.983241
371.034035	0.980510
371.421090	0.978386
371.808081	0.972471
372.195010	0.970332
372.581875	0.964780
372.968678	0.960565
373.355418	0.956663
373.742096	0.948588
374.128710	0.944339
374.515262	0.940578
374.901751	0.934448
375.288177	0.929346
375.674540	0.922350
376.060841	0.916574
376.447079	0.909806
376.833254	0.903576
377.219367	0.898415
377.605417	0.887087
377.991404	0.883586
378.377329	0.878776
378.763191	0.871237
379.148991	0.863107
379.534727	0.854555
379.920402	0.846863
380.306013	0.843309
380.691563	0.829700
381.077049	0.823606
381.462474	0.819761
381.847835	0.809084
382.233134	0.803656
382.618371	0.803918
383.003545	0.786047
383.388657	0.784768
383.773706	0.777333
384.158693	0.772625
384.543618	0.767949
384.928480	0.759373
385.313280	0.749438
385.698017	0.748376
386.082692	0.737362
386.467305	0.735806
386.851856	0.730769
387.236344	0.725445
387.620770	0.719587
388.005133	0.713742
388.389435	0.708076
388.773674	0.706052
389.157851	0.697622
389.541965	0.695269
389.926018	0.702105
390.310008	0.688286
390.693936	0.686312
391.077802	0.678311
391.461606	0.678599
391.845348	0.669074
392.229027	0.667439
392.612645	0.666017
392.996200	0.653188
393.379694	0.645775
393.763125	0.636725
394.146494	0.641255
394.529801	0.631916
394.913047	0.623456
395.296230	0.630416
395.679351	0.620885
396.062410	0.618213
396.445408	0.620975
396.828343	0.616567
397.211217	0.611969
397.594028	0.624302
397.976778	0.615529
398.359466	0.610983
398.742092	0.607990
399.124656	0.620145
399.507158	0.608642
399.889598	0.607210
400.271977	0.599800
400.654294	0.604441
401.036549	0.604868
401.418742	0.611041
401.800874	0.599565
402.182944	0.598496
402.564952	0.592802
402.946898	0.597015
403.328783	0.600261
403.710606	0.615314
404.092367	0.595562
404.474067	0.603142
404.855705	0.606146
405.237282	0.617712
405.618797	0.609694
406.000250	0.610854
406.381642	0.606593
406.762972	0.616554
407.144240	0.620349
407.525447	0.625751
407.906593	0.625817
408.287677	0.627865
408.668700	0.640392
409.049661	0.643071
409.430560	0.645163
409.811399	0.659749
410.192176	0.652807
410.572891	0.664321
410.953545	0.664326
411.334138	0.681595
411.714669	0.683819
412.095139	0.699943
412.475547	0.697446
412.855894	0.707308
413.236180	0.714878
413.616405	0.726872
413.996568	0.729300
414.376670	0.741896
414.756711	0.752827
415.136691	0.760175
415.516609	0.762999
415.896466	0.769951
416.276262	0.776998
416.655997	0.786732
417.035670	0.787569
417.415283	0.792541
417.794834	0.803701
418.174324	0.814356
418.553753	0.825036
418.933121	0.827113
419.312428	0.834526
419.691674	0.844731
420.070859	0.849314
420.449983	0.860319
420.829045	0.863886
421.208047	0.873595
421.586988	0.879471
421.965867	0.886041
422.344686	0.892056
422.723444	0.900551
423.102141	0.909329
423.480777	0.910297
423.859352	0.920026
424.237866	0.922094
424.616319	0.928262
424.994712	0.931637
425.373044	0.938140
425.751314	0.941872
426.129524	0.948268
426.507673	0.949604
426.885762	0.953602
427.263789	0.958104
427.641756	0.962488
428.019662	0.964419
428.397508	0.968233
428.775292	0.971054
429.153016	0.973568
429.530679	0.976089
429.908282	0.978473
430.285824	0.979954
430.663305	0.981886
431.040726	0.984168
431.418086	0.985464
431.795385	0.987264
432.172624	0.989435
432.549802	0.989753
432.926920	0.991037
433.303977	0.991360
433.680974	0.992732
434.057910	0.993225
434.434786	0.993469
434.811601	0.994082
435.188355	0.994769
435.565050	0.995565
435.941683	0.995843
436.318257	0.995532
436.694770	0.996556
437.071222	0.996881
437.447614	0.997211
437.823946	0.997035
438.200218	0.997109
438.576429	0.997426
438.952580	0.997709
439.328670	0.997447
439.704700	0.997160
440.080670	0.998298
440.456580	0.998740
440.832429	0.998292
441.208218	0.998335
441.583947	0.998535
441.959616	0.997381
442.335224	0.999343
442.710773	0.999151
443.086261	0.999485
443.461689	0.998648
443.837057	0.998989
444.212365	0.999558
444.587612	0.999603
444.962800	0.999127
445.337927	0.999070
445.712995	0.998527
446.088002	0.998503
446.462949	0.998761
446.837837	1.000803
447.212664	0.999000
447.587431	0.999807
447.962139	0.999034
448.336786	0.998540
448.711374	0.998962
449.085901	0.998718
449.460369	0.999203
449.834776	0.999438
450.209124	0.998876
450.583412	0.998883
450.957640	0.999038
451.331808	0.999547
451.705917	0.998638
452.079965	0.999205
452.453954	0.999282
452.827883	0.999425
453.201752	0.999213
453.575562	0.999246
453.949311	0.999288
454.323001	0.998524
454.696632	0.998998
455.070202	0.999494
455.443713	0.998707
455.817164	0.998716
456.190556	0.998983
456.563888	0.999997
456.937160	0.999415
457.310373	0.999276
457.683526	0.999004
458.056619	0.999436
458.429653	0.998913
458.802628	0.999166
459.175542	0.999541
459.548398	0.998586
459.921194	0.999529
460.293930	0.999577
460.666607	0.999783
461.039224	0.998881
461.411782	0.999016
461.784280	0.999181
462.156719	0.999766
462.529099	0.999378
462.901419	0.998769
463.273680	0.998678
463.645882	0.998216
464.018024	0.998933
464.390106	0.999281
464.762130	0.998960
465.134094	0.999404
465.505999	0.998944
465.877845	0.998614
466.249631	0.998790
466.621358	0.997448
466.993026	0.998883
467.364634	0.998916
467.736184	0.998316
468.107674	0.998589
468.479105	0.998523
468.850477	0.999243
469.221790	0.998556
469.593043	0.997765
469.964238	0.998487
470.335373	0.998572
470.706449	0.998304
471.077467	0.999053
471.448425	0.998534
471.819324	0.999157
472.190164	0.998128
472.560945	0.998450
472.931667	0.998669
473.302330	0.998675
473.672934	0.998982
474.043479	0.998580
474.413965	0.998727
474.784393	0.997795
475.154761	0.997976
475.525070	0.998763
475.895321	0.998128
476.265513	0.998310
476.635645	0.998897
477.005719	0.998171
477.375734	0.997435
477.745691	0.998079
478.115588	0.998608
478.485427	0.998395
478.855207	0.998501
479.224928	0.998307
479.594591	0.999011
479.964194	0.997611
480.333739	0.997842
480.703226	0.997164
481.072653	0.997488
481.442022	0.998492
481.811333	0.997918
482.180584	0.997863
482.549777	0.998041
482.918912	0.998041
483.287988	0.998120
483.657005	0.998008
484.025964	0.998148
484.394864	0.998578
484.763706	0.998675
485.132489	0.998414
485.501213	0.998723
485.869879	0.997774
486.238487	0.997536
486.607036	0.998248
486.975527	0.998332
487.343959	0.997915
487.712333	0.998047
488.080648	0.997768
488.448905	0.998392
488.817104	0.998000
489.185244	0.998347
489.553326	0.997935
489.921350	0.998550
490.289315	0.998372
490.657222	0.998071
491.025070	0.998873
491.392861	0.998348
491.760593	0.998310
492.128267	0.998746
492.495883	0.997836
492.863440	0.998757
493.230939	0.998671
493.598380	0.998784
493.965763	0.998470
494.333088	0.997862
494.700354	0.998246
495.067563	0.998244
495.434713	0.998958
495.801805	0.998538
496.168839	0.998915
496.535815	0.998540
496.902733	0.998144
497.269593	0.998773
497.636395	0.997336
498.003139	0.998186
498.369825	0.998488
498.736453	0.998284
499.103023	0.998904
499.469535	0.998214
499.835989	0.998796
500.202385	0.998899
500.568723	0.998524
500.935003	0.998711
501.301226	0.998654
501.667390	0.998336
502.033497	0.999120
502.399546	0.997970
502.765537	0.998256
503.131470	0.997972
503.497345	0.998518
503.863163	0.998924
504.228923	0.998318
504.594625	0.998007
504.960269	0.998611
505.325856	0.999664
505.691385	0.998840
506.056856	0.998752
506.422270	0.998242
506.787625	0.998669
507.152924	0.998836
507.518164	0.998467
507.883347	0.998546
508.248472	0.999033
508.613540	0.997952
508.978550	0.998470
509.343503	0.998515
509.708398	0.998750
510.073236	0.998476
510.438016	0.998192
510.802738	0.997876
511.167403	0.998525
511.532010	0.998516
511.896561	0.998486
512.261053	0.998177
512.625488	0.998589
512.989866	0.997984
513.354186	0.997917
513.718449	0.998307
514.082655	0.998018
514.446803	0.998605
514.810894	0.998606
515.174927	0.999019
515.538904	0.999278
515.902822	0.998692
516.266684	0.998847
516.630488	0.998842
516.994235	0.997946
517.357925	0.998108
517.721558	0.998276
518.085133	0.997915
518.448651	0.998595
518.812112	0.999051
519.175516	0.998235
519.538863	0.997783
519.902152	0.999062
520.265385	0.998243
520.628560	0.998278
520.991678	0.998135
521.354739	0.999024
521.717743	0.998355
522.080690	0.998250
522.443580	0.998930
522.806413	0.997891
523.169189	0.998430
523.531908	0.997761
523.894569	0.998109
524.257174	0.998135
524.619722	0.998431
524.982213	0.998604
525.344647	0.998296
525.707025	0.998476
526.069345	0.997733
526.431608	0.998569
526.793815	0.999122
527.155964	0.999077
527.518057	0.999201
527.880093	0.998451
528.242072	0.998270
528.603995	0.998079
528.965860	0.998766
529.327669	0.998754
529.689421	0.998376
530.051117	0.998653
530.412755	0.999073
530.774337	0.997974
531.135862	0.998892
531.497331	0.998576
531.858743	0.998857
532.220098	0.997931
532.581396	0.999035
532.942638	0.998500
533.303824	0.999738
533.664953	0.998491
534.026025	0.999265
534.387040	0.998908
534.747999	0.998755
535.108902	0.998848
535.469748	0.999130
535.830537	0.999286
536.191270	0.999527
536.551947	0.998335
536.912567	0.999284
537.273131	0.999187
537.633638	0.998707
537.994089	0.998463
538.354483	0.998824
538.714821	0.998541
539.075103	0.998831
539.435328	0.999007
539.795497	0.999335
540.155609	0.998874
540.515665	0.998633
540.875665	0.998358
541.235609	0.999186
541.595496	0.998272
541.955328	0.998953
542.315102	0.998978
542.674821	0.998888
543.034483	0.998952
543.394090	0.997869
543.753640	0.998900
544.113134	0.998365
544.472571	0.999270
544.831953	0.999045
545.191278	0.998201
545.550548	0.997866
545.909761	0.998617
546.268918	0.999609
546.628019	0.999218
546.987064	0.998704
547.346053	0.998356
547.704986	0.998738
548.063863	0.998683
548.422684	0.998897
548.781449	0.998694
549.140158	0.998793
549.498811	0.998803
549.857408	0.998209
550.215949	0.998191
550.574434	0.998676
550.932864	0.998643
551.291237	0.998620
551.649555	0.999439
552.007817	0.998872
552.366022	0.998984
552.724173	0.999031
553.082267	0.998222
553.440305	0.998396
553.798288	0.998135
554.156215	0.998527
554.514086	0.998535
554.871902	0.999136
555.229661	0.998222
555.587365	0.999012
555.945014	0.998942
556.302606	0.998602
556.660143	0.998911
557.017625	0.998904
557.375050	0.998715
557.732421	0.998577
558.089735	0.998145
558.446994	0.997504
558.804197	0.998705
559.161345	0.998128
559.518437	0.998350
559.875474	0.998501
560.232455	0.999374
560.589381	0.998761
560.946251	0.998193
561.303065	0.998713
561.659825	0.998697
562.016528	0.998887
562.373177	0.998350
562.729770	0.999092
563.086307	0.998225
563.442789	0.999194
563.799216	0.998062
564.155587	0.998660
564.511904	0.998772
564.868164	0.998327
565.224370	0.998519
565.580520	0.998587
565.936615	0.998447
566.292654	0.998462
566.648638	0.998988
567.004567	0.998377
567.360441	0.999614
567.716260	0.998216
568.072023	0.998257
568.427732	0.998781
568.783385	0.998560
569.138982	0.998360
569.494525	0.998130
569.850013	0.999582
570.205445	0.999328
570.560823	0.999009
570.916145	0.998322
571.271412	0.998907
571.626625	0.998995
571.981782	0.998265
572.336884	0.998814
572.691931	0.998026
573.046923	0.998667
573.401860	0.998447
573.756743	0.998503
574.111570	0.998988
574.466342	1.000037
574.821059	0.998487
575.175722	0.999349
575.530330	0.998670
575.884882	0.998449
576.239380	0.998760
576.593823	0.998711
576.948211	0.999314
577.302544	0.998512
577.656823	0.999535
578.011047	0.998310
578.365216	0.999492
578.719330	0.999323
579.073389	0.998508
579.427394	0.998355
579.781344	0.999433
580.135239	0.998061
580.489080	0.998816
580.842866	0.998981
581.196597	0.998835
581.550273	0.998405
581.903895	0.999071
582.257463	0.998696
582.610975	0.998805
582.964434	0.998710
583.317837	0.999513
583.671186	0.998565
584.024481	0.998557
584.377721	0.998400
584.730906	0.999001
585.084037	0.999107
585.437113	0.999111
585.790135	0.999076
586.143103	0.998747
586.496016	0.998398
586.848874	0.998159
587.201679	0.998716
587.554428	0.998724
587.907124	0.998826
588.259765	0.998895
588.612352	0.999362
588.964884	0.998894
589.317362	0.998634
589.669786	0.998887
590.022155	0.998627
590.374470	0.999034
590.726731	0.998808
591.078937	0.998910
591.431090	0.998782
591.783188	0.998880
592.135232	0.998976
592.487222	0.999414
592.839157	0.998827
593.191038	0.998213
593.542866	0.999105
593.894639	0.997814
594.246358	0.998993
594.598022	0.999034
594.949633	0.999243
595.301190	0.998717
595.652692	0.998346
596.004141	0.998248
596.355535	0.998860
596.706876	0.999235
597.058162	0.998485
597.409395	0.999383
597.760573	0.998697
598.111698	0.998578
598.462768	0.998982
598.813785	0.997540
599.164748	0.998719
599.515657	0.997916
599.866511	0.999003
600.217312	0.999453
600.568060	0.999200
600.918753	0.999582
601.269392	0.998438
601.619978	0.999161
601.970510	0.998745
602.320988	0.998970
602.671412	0.998209
603.021783	0.999040
603.372100	0.999753
603.722363	0.999525
604.072572	0.998599
604.422728	0.998352
604.772830	0.998748
605.122878	0.999143
605.472872	0.998912
605.822813	0.998486
606.172701	0.999018
606.522534	0.999143
606.872314	0.999142
607.222041	0.999076
607.571714	0.998800
607.921333	0.999038
608.270899	0.998392
608.620411	0.998694
608.969870	0.999717
609.319276	0.998668
609.668627	0.999171
610.017926	1.000004
610.367171	0.998911
610.716362	0.999152
611.065500	0.998215
611.414585	0.998439
611.763616	0.997757
612.112594	0.998898
612.461518	0.998044
612.810389	0.998776
613.159207	0.998552
613.507971	0.998669
613.856682	0.999801
614.205340	0.998622
614.553945	0.999284
614.902496	0.998047
615.250994	0.999058
615.599439	0.999825
615.947830	0.998485
616.296169	0.998794
616.644454	0.999090
616.992686	0.998093
617.340864	0.998998
617.688990	0.997918
618.037063	0.998550
618.385082	0.998314
618.733048	0.998161
619.080961	0.999065
619.428821	0.999575
619.776628	0.997923
620.124382	0.999856
620.472083	0.998754
620.819731	0.999364
621.167326	0.999299
621.514868	0.999261
621.862357	0.998572
622.209793	0.998983
622.557176	0.998588
622.904506	0.998384
623.251783	0.999256
623.599007	0.998893
623.946179	0.998825
624.293297	0.999551
624.640363	0.999258
624.987376	0.998176
625.334336	0.998225
625.681243	0.998532
626.028097	0.998706
626.374899	0.998557
626.721647	1.000182
627.068343	0.998671
627.414987	0.998786
627.761577	0.997603
628.108115	0.998173
628.454600	0.999095
628.801032	0.999345
629.147412	0.998696
629.493739	0.999335
629.840014	0.998235
630.186236	0.997778
630.532405	0.998401
630.878521	0.998696
631.224585	0.999383
631.570597	0.997779
631.916556	0.998391
632.262462	0.997683
632.608316	0.998658
632.954117	0.998516
633.299866	0.998856
633.645562	0.998813
633.991206	0.998222
634.336797	0.998653
634.682336	0.999046
635.027823	0.998370
635.373257	0.999148
635.718639	0.998976
636.063968	0.999398
636.409245	0.998053
636.754470	0.998998
637.099642	0.998509
637.444762	0.998924
637.789829	0.998539
638.134845	0.998558
638.479808	0.998875
638.824719	0.998970
639.169577	0.999346
639.514383	0.998744
639.859137	0.998622
640.203839	0.998425
640.548489	0.998739
640.893086	0.997496
641.237632	0.998916
641.582125	0.999284
641.926566	0.999500
642.270955	0.998401
642.615292	0.998283
642.959576	0.999101
643.303809	0.998871
643.647990	0.998905
643.992118	0.999945
644.336195	0.998678
644.680219	0.998202
645.024192	0.998174
645.368112	0.997242
645.711981	0.998521
646.055797	0.998719
646.399562	0.998190
646.743274	0.999731
647.086935	0.997690
647.430544	0.998265
647.774101	0.998130
648.117606	0.998852
648.461059	0.999155
648.804460	0.998643
649.147810	0.998314
649.491108	0.998252
649.834354	0.998572
650.177548	0.998725
650.520690	0.998400
650.863781	0.998100
651.206820	0.998574
651.549807	0.997524
651.892742	0.999096
652.235626	0.998505
652.578458	0.998422
652.921238	0.999577
653.263967	0.999394
653.606644	0.998942
653.949269	0.998931
654.291843	0.997587
654.634365	0.999031
654.976836	0.998002
655.319255	0.999432
655.661622	0.999605
656.003938	0.997729
656.346203	0.998116
656.688416	0.998322
657.030577	0.998074
657.372687	0.998114
657.714746	0.998443
658.056753	0.998097
658.398708	0.998555
658.740612	0.999249
659.082465	0.998552
659.424266	0.998417
659.766016	0.998301
660.107715	0.998886
660.449362	0.998098
660.790958	0.998114
661.132503	0.998934
661.473996	0.997449
661.815438	0.998100
662.156829	0.998521
662.498168	0.999366
662.839456	0.997374
663.180693	0.999529
663.521879	0.997892
663.863013	0.998332
664.204097	0.998073
664.545129	0.998439
664.886110	0.997720
665.227040	0.997911
665.567918	0.998354
665.908746	0.997484
666.249522	0.998135
666.590248	0.998424
666.930922	0.998594
667.271545	0.998390
667.612118	0.998618
667.952639	0.998025
668.293109	0.997240
668.633528	0.998288
668.973896	0.998854
669.314213	0.997972
669.654480	0.998291
669.994695	0.997394
670.334859	0.997634
670.674973	0.998298
671.015035	0.998144
671.355047	0.997790
671.695008	0.997950
672.034918	0.998317
672.374777	0.998146
672.714585	0.998055
673.054342	0.997917
673.394049	0.997770
673.733705	0.997889
674.073310	0.998744
674.412864	0.998005
674.752368	0.997538
675.091820	0.998973
675.431223	0.997947
675.770574	0.996675
676.109875	0.998427
676.449125	0.997370
676.788324	0.997216
677.127473	0.998612
677.466571	0.997802
677.805619	0.998364
678.144616	0.998220
678.483562	0.997835
678.822458	0.998306
679.161303	0.997469
679.500098	0.998343
679.838842	0.998525
680.177535	0.998277
680.516179	0.997226
680.854771	0.997976
681.193314	0.997408
681.531805	0.997490
681.870247	0.997320
682.208638	0.998038
682.546978	0.997051
682.885268	0.998011
683.223508	0.996904
683.561697	0.997345
683.899836	0.997335
684.237925	0.997680
684.575963	0.997027
684.913951	0.997509
685.251889	0.997321
685.589776	0.997472
685.927614	0.997496
686.265401	0.997283
686.603137	0.997227
686.940824	0.997926
687.278460	0.997879
687.616046	0.997929
687.953582	0.997396
688.291068	0.997801
688.628504	0.998263
688.965889	0.997390
689.303224	0.996693
689.640510	0.997370
689.977745	0.997080
690.314930	0.997739
690.652065	0.997365
690.989150	0.997201
691.326185	0.998045
691.663170	0.997916
692.000105	0.997754
692.336990	0.997925
692.673825	0.997357
693.010610	0.997127
693.347345	0.997621
693.684030	0.997282
694.020665	0.997424
694.357251	0.997469
694.693786	0.998220
695.030272	0.996162
695.366707	0.997479
695.703093	0.997718
696.039429	0.996518
696.375716	0.997776
696.711952	0.997604
697.048139	0.997415
697.384276	0.997486
697.720363	0.997656
698.056400	0.996511
698.392388	0.996784
698.728326	0.996878
699.064214	0.997633
699.400053	0.997040
699.735842	0.998697
700.071581	0.997570
700.407270	0.996934
700.742910	0.997663
701.078501	0.997216
701.414042	0.998127
701.749533	0.995898
702.084974	0.997853
702.420366	0.998250
702.755709	0.997529
703.091002	0.997806
703.426246	0.998332
703.761440	0.997374
704.096584	0.996785
704.431679	0.997437
704.766725	0.996536
705.101721	0.997899
705.436668	0.997175
705.771565	0.997260
706.106413	0.997008
706.441212	0.997648
706.775961	0.998468
707.110661	0.996940
707.445311	0.997286
707.779913	0.998578
708.114465	0.998590
708.448967	0.998064
708.783421	0.998345
709.117825	0.998341
709.452180	0.997758
709.786485	0.997256
710.120742	0.997293
710.454949	0.997042
710.789107	0.997612
711.123216	0.996170
711.457275	0.997087
711.791286	0.998048
712.125247	0.998657
712.459159	0.997946
712.793023	0.996772
713.126837	0.997462
713.460602	0.996905
713.794318	0.996329
714.127985	0.996724
714.461602	0.996438
714.795171	0.996386
715.128691	0.997251
715.462162	0.997613
715.795584	0.997257
716.128957	0.997728
716.462281	0.997599
716.795556	0.997060
717.128782	0.997464
717.461960	0.996683
717.795088	0.997154
718.128167	0.998298
718.461198	0.997134
718.794180	0.997230
719.127113	0.997720
719.459997	0.996487
719.792833	0.997408
720.125619	0.996753
720.458357	0.997198
720.791046	0.997487
721.123686	0.997503
721.456278	0.996837
721.788821	0.997831
722.121315	0.998329
722.453761	0.997225
722.786158	0.997700
723.118506	0.997758
723.450805	0.996459
723.783056	0.998122
724.115259	0.997167
724.447412	0.997712
724.779518	0.997957
725.111574	0.996504
725.443582	0.998177
725.775542	0.997887
726.107453	0.998057
726.439315	0.998051
726.771129	0.997477
727.102895	0.997820
727.434612	0.997722
727.766281	0.997226
728.097901	0.997493
728.429473	0.997610
728.760996	0.996833
729.092471	0.997474
729.423897	0.998132
729.755276	0.996799
730.086606	0.996866
730.417887	0.997425
730.749120	0.997498
731.080305	0.998158
731.411442	0.996894
731.742530	0.995931
732.073570	0.996980
732.404562	0.996858
732.735506	0.996751
733.066401	0.996581
733.397249	0.996989
733.728048	0.996953
734.058798	0.998244
734.389501	0.997926
734.720156	0.997123
735.050762	0.998183
735.381320	0.998002
735.711831	0.996457
736.042293	0.998132
736.372707	0.997835
736.703073	0.996072
737.033391	0.997419
737.363661	0.997139
737.693883	0.996770
738.024056	0.996748
738.354182	0.998085
738.684260	0.996749
739.014290	0.997256
739.344272	0.997395
739.674207	0.997547
740.004093	0.996741
740.333931	0.996581
740.663722	0.997004
740.993464	0.997382
741.323159	0.997263
741.652806	0.997277
741.982405	0.997671
742.311956	0.997618
742.641460	0.997658
742.970915	0.997238
743.300323	0.996016
743.629683	0.996944
743.958996	0.998372
744.288260	0.996292
744.617477	0.997604
744.946647	0.997249
745.275768	0.998093
745.604842	0.997094
745.933869	0.997816
746.262847	0.997782
746.591778	0.996223
746.920662	0.997875
747.249498	0.998926
747.578286	0.998018
747.907027	0.998040
748.235720	0.997627
748.564365	0.997743
748.892963	0.996745
749.221514	0.997595
749.550017	0.996788
749.878473	0.997357
750.206881	0.998946
750.535242	0.996912
750.863555	0.996645
751.191821	0.997911
751.520039	0.996913
751.848210	0.996085
752.176334	0.997015
752.504411	0.996914
752.832440	0.996946
753.160421	0.997406
753.488356	0.997272
753.816243	0.996619
754.144082	0.998310
754.471875	0.997034
754.799620	0.998029
755.127318	0.997829
755.454969	0.997522
755.782572	0.998790
756.110129	0.997343
756.437638	0.998661
756.765100	0.997974
757.092515	0.996921
757.419882	0.998744
757.747203	0.997313
758.074477	0.997806
758.401703	0.997788
758.728882	0.996642
759.056014	0.996990
759.383099	0.997477
759.710138	0.997731
760.037129	0.997763
760.364073	0.997593
760.690970	0.997914
761.017820	0.997167
761.344623	0.998179
761.671379	0.997644
761.998088	0.998131
762.324751	0.997309
762.651366	0.997209
762.977935	0.996109
763.304456	0.996973
763.630931	0.995049
763.957359	0.995167
764.283740	0.995720
764.610074	0.996170
764.936362	0.995676
765.262602	0.997602
765.588796	0.996671
765.914943	0.996710
766.241044	0.996604
766.567097	0.996592
766.893104	0.997795
767.219064	0.996967
767.544978	0.997959
767.870845	0.997141
768.196665	0.997171
768.522438	0.997081
768.848165	0.998349
769.173846	0.998061
769.499479	0.998942
769.825066	0.998161
770.150607	0.998631
770.476101	0.998135
770.801548	0.998695
771.126949	0.998998
771.452303	0.998458
771.777611	0.998278
772.102872	0.998395
772.428087	0.997276
772.753256	0.998032
773.078378	0.998464
773.403453	0.998320
773.728482	0.999033
774.053465	0.997918
774.378401	0.998537
774.703291	0.998607
775.028135	0.998958
775.352932	0.997146
775.677683	0.998408
776.002388	0.997678
776.327046	0.997106
776.651658	0.999362
776.976224	0.998527
777.300743	0.998964
777.625216	0.996775
777.949643	0.998836
778.274024	0.997768
778.598359	0.998397
778.922647	0.998388
779.246889	0.997852
779.571086	0.998555
779.895236	0.998079
780.219339	0.998934
780.543397	0.997165
780.867409	0.998644
781.191374	0.998628
781.515294	0.999087
781.839167	0.998319
782.162995	0.998112
782.486776	0.997990
782.810511	0.997986
783.134201	0.998313
783.457844	0.998533
783.781441	0.997483
784.104993	0.997861
784.428498	0.998109
784.751958	0.998857
785.075372	0.999154
785.398739	0.998170
785.722061	0.998182
786.045337	0.999112
786.368568	0.998523
786.691752	0.998430
787.014891	0.997860
787.337983	0.997794
787.661030	0.998067
787.984031	0.998303
788.306987	0.998385
788.629897	0.997718
788.952760	0.998531
789.275579	0.997408
789.598351	0.998388
789.921078	0.999273
790.243759	0.998762
790.566395	0.997571
790.888984	0.999532
791.211529	0.998210
791.534027	0.999096
791.856480	0.998657
792.178888	0.998492
792.501249	0.997943
792.823566	0.999525
793.145836	0.998444
793.468062	0.999187
793.790241	0.998877
794.112375	0.997265
794.434464	0.998638
794.756507	0.997804
795.078505	0.998747
795.400457	0.998696
795.722364	0.998179
796.044226	0.997847
796.366042	0.997624
796.687812	0.997085
797.009538	0.997722
797.331218	0.998344
797.652852	0.998307
797.974442	0.998237
798.295986	0.997911
798.617484	0.998091
798.938938	0.997898
799.260346	0.996193
799.581709	0.997049
799.903026	0.998051
800.224299	0.997561
800.545526	0.998002
800.866708	0.997932
801.187845	0.998271
801.508936	0.999076
801.829983	0.997957
802.150984	0.999456
802.471940	0.998163
802.792851	0.998662
803.113717	0.999323
803.434538	0.998806
803.755314	0.999067
804.076045	0.999192
804.396731	0.997361
804.717372	0.997001
805.037967	0.998287
805.358518	0.999039
805.679024	0.998393
805.999485	0.998438
806.319901	0.998846
806.640272	0.999008
806.960598	0.997771
807.280879	0.999038
807.601115	0.999461
807.921306	0.999964
808.241453	0.998129
808.561554	0.998456
808.881611	0.998959
809.201623	0.998630
809.521590	0.998203
809.841513	0.998733
810.161390	0.997919
810.481223	0.997752
810.801011	0.999364
811.120755	0.999898
811.440453	0.997090
811.760107	0.999898
812.079716	0.998110
812.399281	0.999388
812.718801	0.997284
813.038276	0.997619
813.357707	0.998178
813.677093	0.999504
813.996434	0.997707
814.315731	1.000481
814.634983	0.998395
814.954191	0.998337
815.273354	0.998265
815.592473	0.997271
815.911547	0.998859
816.230577	0.997525
816.549562	0.998393
816.868502	0.997430
817.187399	0.998318
817.506250	0.998654
817.825058	0.996861
818.143821	0.998342
818.462539	0.998158
818.781213	0.998176
819.099843	0.999902
819.418429	0.996973
819.736970	0.998151
820.055466	0.996938
820.373919	0.995956
820.692327	0.994847
821.010691	0.995002
821.329011	0.993057
821.647286	0.992119
821.965517	0.990903
822.283704	0.990263
822.601847	0.989456
822.919945	0.989433
823.237999	0.990774
823.556010	0.992021
823.873976	0.991759
824.191897	0.992326
824.509775	0.994289
824.827609	0.994273
825.145398	0.995413
825.463144	0.993875
825.780845	0.994143
826.098502	0.993521
826.416116	0.993825
826.733685	0.994219
827.051210	0.992314
827.368692	0.993059
827.686129	0.993350
828.003522	0.995187
828.320872	0.995597
828.638177	0.995921
828.955439	0.997375
829.272656	0.996337
829.589830	0.995977
829.906960	0.997741
830.224046	0.997516
830.541088	0.997474
830.858086	0.996588
831.175041	0.998961
831.491952	0.998069
831.808819	0.997227
832.125642	0.997190
832.442421	0.997826
832.759157	0.997457
833.075849	0.996160
833.392497	0.996886
833.709101	0.994459
834.025662	0.994740
834.342179	0.994327
834.658653	0.997040
834.975083	0.997214
835.291469	0.995941
835.607811	0.996825
835.924110	0.997791
836.240366	0.998704
836.556578	0.997676
836.872746	0.998186
837.188871	0.998326
837.504952	0.997198
837.820990	0.999301
838.136984	0.997567
838.452935	0.997986
838.768842	0.998456
839.084706	0.998900
839.400526	0.998595
839.716303	0.996350
840.032037	0.997610
840.347727	0.997543
840.663373	0.997951
840.978977	0.997616
841.294537	0.998742
841.610054	0.997283
841.925527	0.999558
842.240957	0.999261
842.556344	0.998543
842.871687	0.999389
843.186987	0.999216
843.502244	0.999356
843.817458	0.997481
844.132629	0.997934
844.447756	0.999129
844.762840	0.998721
845.077881	0.999484
845.392879	0.998183
845.707833	0.998764
846.022745	0.998588
846.337613	0.999100
846.652438	0.998339
846.967221	0.999059
847.281960	1.000145
847.596656	0.999939
847.911309	0.999154
848.225919	0.999154
848.540485	0.998833
848.855009	1.001272
849.169490	0.998476
849.483928	0.999397
849.798323	0.998407
850.112675	0.999212
850.426984	0.998716
850.741251	0.999474
851.055474	0.998649
851.369654	0.999354
851.683792	0.998977
851.997887	0.999182
852.311938	0.999006
852.625947	0.996993
852.939914	0.998372
853.253837	1.000153
853.567718	0.999697
853.881555	0.999059
854.195350	0.999211
854.509103	0.999456
854.822812	0.998793
855.136479	0.999047
855.450103	0.999296
855.763685	0.999005
856.077224	0.999026
856.390720	1.000225
856.704173	0.999406
857.017584	1.000758
857.330953	0.999877
857.644278	0.999596
857.957561	0.999336
858.270802	0.999687
858.584000	0.999794
858.897155	0.999193
859.210268	0.999505
859.523339	0.999362
859.836367	0.999614
860.149352	0.998815
860.462295	0.999234
860.775195	0.999145
861.088054	0.998337
861.400869	0.999110
861.713642	0.998175
862.026373	1.000485
862.339062	0.999364
862.651708	0.999345
862.964312	0.999184
863.276873	0.999847
863.589392	0.998364
863.901869	0.999150
864.214303	0.999508
864.526696	0.998704
864.839045	0.999457
865.151353	0.999555
865.463619	0.998227
865.775842	0.999381
866.088023	0.999688
866.400162	1.000576
866.712258	0.999942
867.024313	1.000071
867.336325	1.000638
867.648296	0.999781
867.960224	0.999670
868.272110	1.000041
868.583954	0.999844
868.895755	1.000518
869.207515	0.999139
869.519233	0.998304
869.830909	0.997841
870.142542	0.998060
870.454134	0.998892
870.765684	0.999704
871.077191	0.999966
871.388657	0.999264
871.700081	0.999805
872.011463	0.999660
872.322803	0.998922
872.634101	0.998504
872.945357	0.997588
873.256571	0.997831
873.567744	0.999022
873.878874	0.998790
874.189963	0.998006
874.501010	1.000038
874.812015	0.998938
875.122979	0.999029
875.433900	0.998966
875.744780	0.999392
876.055618	0.997824
876.366415	0.997993
876.677169	0.998119
876.987882	0.998416
877.298554	1.000420
877.609183	0.999579
877.919771	0.998965
878.230317	0.998685
878.540822	0.997639
878.851285	0.998090
879.161707	0.997886
879.472087	0.999613
879.782425	0.997016
880.092722	0.996319
880.402977	0.994600
880.713191	0.993026
881.023363	0.991650
881.333494	0.990748
881.643583	0.991533
881.953631	0.990954
882.263637	0.990601
882.573602	0.990511
882.883526	0.991971
883.193408	0.992245
883.503248	0.992776
883.813048	0.993570
884.122806	0.995100
884.432522	0.995002
884.742197	0.996632
885.051831	0.995726
885.361424	0.995908
885.670975	0.997945
885.980485	0.997422
886.289954	0.997727
886.599382	0.996246
886.908768	0.998349
887.218113	0.998084
887.527417	0.997793
887.836680	0.998488
888.145901	0.998646
888.455082	0.999222
888.764221	0.998881
889.073319	0.998197
889.382376	0.998922
889.691392	0.997666
890.000366	0.998589
890.309300	0.999189
890.618193	0.998893
890.927044	0.998315
891.235855	0.997916
891.544625	0.999131
891.853353	0.998383
892.162041	0.997594
892.470687	0.998483
892.779293	0.997777
893.087858	0.997158
893.396381	0.998211
893.704864	0.997835
894.013306	0.997006
894.321707	0.996499
894.630068	0.995171
894.938387	0.993929
895.246665	0.995194
895.554903	0.995179
895.863100	0.996582
896.171256	0.996013
896.479371	0.996170
896.787446	0.996700
897.095480	0.997473
897.403473	0.998072
897.711425	0.997504
898.019336	0.997760
898.327207	0.997413
898.635038	0.997224
898.942827	0.998804
899.250576	0.997307
899.558284	0.998561
899.865952	0.997983
900.173579	0.998721
900.481165	0.998824
900.788711	0.997236
901.096216	0.998144
901.403681	0.998202
901.711105	0.998456
902.018489	0.998582
902.325832	0.998632
902.633135	0.997940
902.940397	0.998808
903.247619	0.998169
903.554800	0.997970
903.861941	0.996348
904.169041	0.995575
904.476101	0.993833
904.783121	0.994236
905.090100	0.994959
905.397039	0.995278
905.703938	0.994674
906.010796	0.996540
906.317614	0.996902
906.624391	0.997823
906.931129	0.997315
907.237826	0.998023
907.544483	0.998394
907.851099	0.998569
908.157675	0.999092
908.464211	0.998948
908.770707	0.997927
909.077163	0.999578
909.383578	1.000435
909.689954	0.998908
909.996289	0.999763
910.302584	0.998605
910.608839	1.000276
910.915054	0.997589
911.221229	0.999986
911.527363	0.997856
911.833458	0.999565
912.139513	0.999843
912.445527	0.999872
912.751502	0.998235
913.057436	0.998179
913.363331	1.000344
913.669186	0.999854
913.975000	0.998832
914.280775	0.998805
914.586510	0.997432
914.892205	0.996771
915.197859	0.996588
915.503475	0.995681
915.809050	0.994947
916.114585	0.992599
916.420081	0.993498
916.725536	0.994594
917.030952	0.994721
917.336328	0.994896
917.641665	0.994982
917.946961	0.995694
918.252218	0.996028
918.557435	0.995436
918.862612	0.997495
919.167750	0.997931
919.472848	0.998212
919.777906	0.999196
920.082925	0.999270
920.387904	0.998117
920.692843	0.998672
920.997743	0.998489
921.302603	0.998680
921.607423	0.998021
921.912204	0.998550
922.216946	1.000256
922.521647	0.998077
922.826310	0.997652
923.130932	0.999778
923.435516	0.998640
923.740059	0.998798
924.044564	0.998728
924.349028	0.998552
924.653454	0.999293
924.957840	0.998647
925.262186	0.998449
925.566493	0.999075
925.870761	0.999561
926.174989	0.997802
926.479178	1.001083
926.783328	0.998591
927.087438	0.998345
927.391509	0.998656
927.695541	0.998880
927.999533	0.998739
928.303486	0.999602
928.607400	1.000101
928.911275	0.999440
929.215110	0.999786
929.518906	0.999330
929.822663	1.000428
930.126381	1.000278
930.430060	0.999175
930.733699	0.999733
931.037299	0.999808
931.340861	0.999507
931.644383	0.999118
931.947866	0.999684
932.251309	0.999489
932.554714	1.000101
932.858080	0.999802
933.161407	0.998858
933.464694	0.999315
933.767943	0.998493
934.071153	1.000274
934.374323	1.000661
934.677455	0.999952
934.980548	0.998899
935.283602	1.001385
935.586617	0.998267
935.889593	1.000878
936.192530	1.000687
936.495428	1.000997
936.798287	1.000267
937.101108	0.999523
937.403890	0.998640
937.706632	1.000088
938.009336	1.000117
938.312002	0.999234
938.614628	0.999415
938.917216	0.998633
939.219765	0.999157
939.522275	0.999684
939.824747	0.999858
940.127179	0.999171
940.429573	1.001379
940.731929	0.998834
941.034246	0.998947
941.336524	0.998219
941.638763	0.999491
941.940964	0.998774
942.243126	0.998347
942.545250	0.999917
942.847335	0.999617
943.149381	0.999770
943.451389	0.999067
943.753359	0.999048
944.055290	1.000684
944.357182	0.997946
944.659036	0.999680
944.960851	0.998505
945.262628	0.999821
945.564367	0.999609
945.866067	0.998747
946.167729	0.998638
946.469352	0.999833
946.770937	0.998290
947.072484	1.000104
947.373992	1.000069
947.675462	0.998718
947.976893	0.999048
948.278286	1.001225
948.579641	0.999603
948.880958	0.998832
949.182236	0.999806
949.483476	1.001377
949.784678	0.998992
950.085841	0.999230
950.386967	0.998059
950.688054	0.999790
950.989103	0.998843
951.290114	0.998632
951.591087	0.999358
951.892021	0.998731
952.192917	1.000128
952.493776	0.999024
952.794596	0.999268
953.095378	0.999243
953.396122	1.000113
953.696828	0.999507
953.997496	0.999435
954.298126	0.999975
954.598718	0.998958
954.899272	0.999436
955.199788	0.998448
955.500266	1.000746
955.800706	0.999776
956.101108	0.999206
956.401472	1.001390
956.701798	0.999904
957.002087	0.999328
957.302337	0.999382
957.602550	1.000097
957.902724	1.000295
958.202861	1.000779
958.502960	0.999140
958.803022	1.000313
959.103045	1.000335
959.403031	1.000117
959.702979	1.000161
960.002889	0.999316
960.302762	0.999180
960.602596	1.000857
960.902393	0.999668
961.202153	0.999357
961.501875	0.999864
961.801559	1.000278
962.101205	0.998807
962.400814	1.001132
962.700385	0.999608
962.999918	1.000219
963.299414	0.998865
963.598873	0.999444
963.898293	0.999909
964.197677	0.999338
964.497022	0.999334
964.796331	1.000791
965.095601	1.000358
965.394835	0.999436
965.694030	1.000652
965.993189	0.999156
966.292309	1.001237
966.591393	0.998164
966.890439	1.000228
967.189447	1.000895
967.488419	1.000443
967.787353	0.999631
968.086249	1.000177
968.385108	0.998975
968.683930	1.000404
968.982714	0.999581
969.281462	1.000637
969.580172	0.998843
969.878844	1.000844
970.177480	1.000035
970.476078	1.001298
970.774639	1.000605
971.073162	0.999990
971.371649	0.999952
971.670098	0.999329
971.968510	0.999557
972.266885	0.999272
972.565223	0.999430
972.863524	0.999891
973.161788	0.998956
973.460014	1.000566
973.758204	0.999245
974.056356	0.999837
974.354471	0.999089
974.652550	0.999890
974.950591	0.999152
975.248595	0.998713
975.546563	0.999553
975.844493	1.000530
976.142386	0.999247
976.440243	1.000065
976.738062	1.000229
977.035845	0.998852
977.333590	1.000571
977.631299	0.999630
977.928971	0.999278
978.226606	0.999823
978.524204	0.999053
978.821765	1.000475
979.119290	1.001195
979.416777	0.998388
979.714228	0.999259
980.011642	0.999685
980.309020	0.998774
980.606360	0.999017
980.903664	0.999872
981.200931	0.999271
981.498162	1.000332
981.795356	0.999731
982.092513	0.998755
982.389633	1.000905
982.686717	0.998473
982.983764	0.999908
983.280775	1.000258
983.577749	1.000189
983.874686	0.998631
984.171587	0.999374
984.468451	1.000183
984.765279	0.999889
985.062070	0.999567
985.358824	0.998454
985.655543	1.000909
985.952224	1.000026
986.248869	0.999186
986.545478	1.001266
986.842050	0.998241
987.138586	0.999602
987.435086	1.000121
987.731549	0.999839
988.027975	1.001045
988.324366	0.999781
988.620719	0.999730
988.917037	0.999504
989.213318	1.000578
989.509563	1.000271
989.805772	1.000681
990.101944	1.001256
990.398080	0.998836
990.694180	1.000813
990.990244	0.998731
991.286271	0.999615
991.582262	0.999767
991.878217	0.999455
992.174136	1.000198
992.470019	1.000598
992.765865	1.000834
993.061676	0.999742
993.357450	1.000783
993.653188	1.000450
993.948890	1.000237
994.244556	0.999694
994.540186	0.999449
994.835780	0.998699
995.131337	1.001361
995.426859	0.998671
995.722345	1.000218
996.017795	0.998062
996.313208	1.000219
996.608586	0.998959
996.903928	1.000544
997.199234	0.999430
997.494504	0.999353
997.789738	0.998470
998.084936	1.001143
998.380099	1.000022
998.675225	1.000515
998.970316	0.999494
999.265371	0.999589
999.560390	0.999501
999.855373	1.000710
1000.150320	0.999876
1000.445232	1.001122
1000.740108	1.000317
1001.034948	0.999121
1001.329752	1.001771
1001.624521	0.999946
1001.919254	1.000838
1002.213951	1.000091
1002.508613	0.998301
1002.803239	0.999984
1003.097829	1.001105
1003.392384	1.000112
1003.686903	0.999565
1003.981386	1.000562
1004.275834	1.000996
1004.570246	0.998192
1004.864623	1.000862
1005.158964	1.000162
1005.453270	0.999567
1005.747540	0.997658
1006.041775	1.000851
1006.335974	0.999901
1006.630138	0.999946
1006.924266	0.999090
1007.218359	0.997869
1007.512416	1.000121
1007.806438	1.000403
1008.100425	1.000531
1008.394376	1.000248
1008.688292	0.998988
1008.982172	0.999698
1009.276017	1.000140
1009.569827	1.001567
1009.863602	0.999439
1010.157341	1.000376
1010.451045	1.000205
1010.744714	1.001676
1011.038347	1.001306
1011.331945	0.998869
1011.625508	0.999490
1011.919036	1.000015
1012.212528	1.000996
1012.505986	0.999232
1012.799408	1.000373
1013.092795	1.000111
1013.386147	0.999202
1013.679464	1.000885
1013.972745	0.999899
1014.265992	0.999271
1014.559204	1.000193
1014.852380	1.001118
1015.145521	0.998791
1015.438628	1.000399
1015.731699	0.999628
1016.024736	1.001418
1016.317737	1.000417
1016.610703	1.001150
1016.903635	0.999328
1017.196531	1.000046
1017.489393	0.999229
1017.782219	1.000301
1018.075011	0.999370
1018.367768	1.000331
1018.660490	1.000040
1018.953177	1.000040
1019.245829	1.000040
