Dividing Wavelength (nm)	Counts (n)	Blue Motor Position (mm): 38.100000	Red Motor Position (mm): 0.000000	
326.493990	1.000239
326.888308	1.000239
327.282561	1.000239
327.676750	1.000302
328.070874	1.000347
328.464933	1.001259
328.858929	1.000550
329.252859	0.999298
329.646726	0.999316
330.040528	1.000178
330.434265	0.999878
330.827938	0.999954
331.221547	0.999991
331.615091	1.000654
332.008571	1.001175
332.401986	0.998311
332.795338	0.999780
333.188625	1.001105
333.581847	0.998778
333.975006	1.000972
334.368100	1.000330
334.761129	0.999387
335.154095	1.000820
335.546996	0.998856
335.939833	0.999386
336.332606	1.000702
336.725315	0.998684
337.117960	1.000442
337.510540	0.999653
337.903056	0.999668
338.295508	1.001085
338.687896	0.999618
339.080220	0.999878
339.472480	0.999586
339.864676	1.000239
340.256807	0.998391
340.648875	0.999362
341.040879	0.999300
341.432818	1.000574
341.824694	0.998901
342.216506	1.001668
342.608253	0.998894
342.999937	0.998883
343.391557	1.000044
343.783113	1.001288
344.174605	0.999844
344.566033	0.998042
344.957397	0.999798
345.348697	0.999651
345.739934	1.000174
346.131106	0.999713
346.522215	0.999075
346.913260	0.998586
347.304241	0.998572
347.695159	1.000229
348.086012	0.998410
348.476802	0.999794
348.867528	0.997465
349.258191	1.000003
349.648789	0.999760
350.039324	1.000564
350.429796	0.998715
350.820203	0.997189
351.210548	0.999592
351.600828	0.999380
351.991045	0.999971
352.381198	0.999991
352.771288	0.998697
353.161314	0.998993
353.551276	0.998711
353.941175	0.998135
354.331010	0.999834
354.720782	0.998871
355.110490	0.999274
355.500135	0.998737
355.889717	0.997838
356.279235	0.998626
356.668689	1.000099
357.058080	0.998309
357.447408	0.998411
357.836672	0.998813
358.225873	0.998895
358.615010	0.999370
359.004084	0.997993
359.393095	0.998866
359.782043	0.998564
360.170927	0.999577
360.559748	0.998692
360.948505	0.998781
361.337199	0.997470
361.725830	0.999707
362.114398	0.997560
362.502903	0.998127
362.891344	0.996953
363.279722	0.997122
363.668037	0.999344
364.056289	0.997636
364.444478	0.998626
364.832603	0.997974
365.220665	0.998010
365.608665	0.996783
365.996601	0.997049
366.384474	0.995825
366.772284	0.997546
367.160031	0.997117
367.547715	0.995542
367.935336	0.995127
368.322893	0.995063
368.710388	0.993723
369.097820	0.992706
369.485189	0.989977
369.872495	0.986701
370.259738	0.985609
370.646918	0.983094
371.034035	0.981753
371.421090	0.977748
371.808081	0.972949
372.195010	0.970169
372.581875	0.965431
372.968678	0.959634
373.355418	0.958171
373.742096	0.948631
374.128710	0.945742
374.515262	0.940859
374.901751	0.936096
375.288177	0.930270
375.674540	0.923778
376.060841	0.917116
376.447079	0.910570
376.833254	0.903744
377.219367	0.898701
377.605417	0.888136
377.991404	0.884278
378.377329	0.877125
378.763191	0.872727
379.148991	0.862692
379.534727	0.855223
379.920402	0.847533
380.306013	0.844547
380.691563	0.830961
381.077049	0.824187
381.462474	0.820757
381.847835	0.809286
382.233134	0.804568
382.618371	0.805615
383.003545	0.787202
383.388657	0.785395
383.773706	0.778741
384.158693	0.773503
384.543618	0.768714
384.928480	0.760504
385.313280	0.749353
385.698017	0.749524
386.082692	0.738217
386.467305	0.736272
386.851856	0.731570
387.236344	0.725147
387.620770	0.720425
388.005133	0.714346
388.389435	0.709545
388.773674	0.706123
389.157851	0.698272
389.541965	0.695935
389.926018	0.702780
390.310008	0.688589
390.693936	0.686528
391.077802	0.679490
391.461606	0.680577
391.845348	0.670302
392.229027	0.669825
392.612645	0.669053
392.996200	0.655166
393.379694	0.649062
393.763125	0.641100
394.146494	0.646449
394.529801	0.638225
394.913047	0.632543
395.296230	0.638711
395.679351	0.633373
396.062410	0.632279
396.445408	0.638428
396.828343	0.635650
397.211217	0.635045
397.594028	0.649549
397.976778	0.644045
398.359466	0.644543
398.742092	0.645165
399.124656	0.659305
399.507158	0.653961
399.889598	0.655950
400.271977	0.653560
400.654294	0.661737
401.036549	0.667226
401.418742	0.676606
401.800874	0.671553
402.182944	0.674485
402.564952	0.675586
402.946898	0.684293
403.328783	0.691889
403.710606	0.708459
404.092367	0.697238
404.474067	0.708791
404.855705	0.716271
405.237282	0.729459
405.618797	0.729679
406.000250	0.735005
406.381642	0.737425
406.762972	0.749510
407.144240	0.757267
407.525447	0.765302
407.906593	0.770088
408.287677	0.776908
408.668700	0.790427
409.049661	0.796140
409.430560	0.802519
409.811399	0.815003
410.192176	0.816679
410.572891	0.828135
410.953545	0.831498
411.334138	0.845109
411.714669	0.850083
412.095139	0.862363
412.475547	0.865052
412.855894	0.873405
413.236180	0.880563
413.616405	0.888996
413.996568	0.893748
414.376670	0.901733
414.756711	0.908316
415.136691	0.914639
415.516609	0.918498
415.896466	0.924340
416.276262	0.928228
416.655997	0.934490
417.035670	0.936995
417.415283	0.941054
417.794834	0.946259
418.174324	0.952314
418.553753	0.956342
418.933121	0.958569
419.312428	0.962072
419.691674	0.967074
420.070859	0.968327
420.449983	0.972417
420.829045	0.973271
421.208047	0.976563
421.586988	0.979365
421.965867	0.980047
422.344686	0.982385
422.723444	0.983968
423.102141	0.987049
423.480777	0.986756
423.859352	0.988956
424.237866	0.989893
424.616319	0.990676
424.994712	0.992121
425.373044	0.993834
425.751314	0.993663
426.129524	0.995310
426.507673	0.993881
426.885762	0.995378
427.263789	0.995891
427.641756	0.995683
428.019662	0.996631
428.397508	0.996025
428.775292	0.995742
429.153016	0.996089
429.530679	0.997291
429.908282	0.998295
430.285824	0.997271
430.663305	0.997924
431.040726	0.998276
431.418086	0.998208
431.795385	0.998311
432.172624	0.998624
432.549802	0.997670
432.926920	0.998337
433.303977	0.997902
433.680974	0.998852
434.057910	0.998832
434.434786	0.997969
434.811601	0.999340
435.188355	0.999523
435.565050	0.999652
435.941683	0.998054
436.318257	0.998408
436.694770	0.999182
437.071222	0.999161
437.447614	0.999025
437.823946	0.998697
438.200218	0.998873
438.576429	0.998909
438.952580	0.999007
439.328670	0.998298
439.704700	0.998338
440.080670	0.999283
440.456580	0.999245
440.832429	0.999865
441.208218	1.000006
441.583947	0.998892
441.959616	0.998502
442.335224	1.000111
442.710773	0.999871
443.086261	0.999422
443.461689	0.998258
443.837057	0.998944
444.212365	0.999974
444.587612	0.999919
444.962800	0.999099
445.337927	0.999267
445.712995	0.999241
446.088002	0.998751
446.462949	0.999227
446.837837	0.999966
447.212664	0.998814
447.587431	0.999011
447.962139	0.999230
448.336786	0.997377
448.711374	0.998459
449.085901	0.999173
449.460369	0.999506
449.834776	0.999224
450.209124	0.998546
450.583412	0.998936
450.957640	0.998703
451.331808	0.999739
451.705917	0.998333
452.079965	1.000074
452.453954	0.999892
452.827883	0.999244
453.201752	0.999239
453.575562	0.999415
453.949311	0.999772
454.323001	0.999558
454.696632	0.999089
455.070202	0.998506
455.443713	0.998658
455.817164	0.998527
456.190556	0.998962
456.563888	1.000413
456.937160	0.999474
457.310373	0.998696
457.683526	0.999061
458.056619	0.999373
458.429653	0.998395
458.802628	0.998781
459.175542	0.999469
459.548398	0.998734
459.921194	0.999478
460.293930	0.999927
460.666607	0.999733
461.039224	0.999403
461.411782	0.998338
461.784280	0.998509
462.156719	0.999619
462.529099	0.999064
462.901419	0.998678
463.273680	0.998067
463.645882	0.998355
464.018024	0.999739
464.390106	0.998672
464.762130	0.998564
465.134094	0.999102
465.505999	0.999052
465.877845	0.998312
466.249631	0.998402
466.621358	0.997496
466.993026	0.998296
467.364634	0.998933
467.736184	0.998681
468.107674	0.998680
468.479105	0.998247
468.850477	0.998989
469.221790	0.999304
469.593043	0.998453
469.964238	0.998821
470.335373	0.997771
470.706449	0.999034
471.077467	0.999298
471.448425	0.998550
471.819324	0.999073
472.190164	0.998094
472.560945	0.998762
472.931667	0.998396
473.302330	0.998266
473.672934	0.999058
474.043479	0.998547
474.413965	0.998789
474.784393	0.998451
475.154761	0.998267
475.525070	0.998769
475.895321	0.998189
476.265513	0.998837
476.635645	0.999016
477.005719	0.998104
477.375734	0.998276
477.745691	0.998196
478.115588	0.998064
478.485427	0.998324
478.855207	0.998083
479.224928	0.998645
479.594591	0.998435
479.964194	0.998274
480.333739	0.999100
480.703226	0.998025
481.072653	0.997776
481.442022	0.998722
481.811333	0.998061
482.180584	0.998553
482.549777	0.998553
482.918912	0.998657
483.287988	0.998460
483.657005	0.998709
484.025964	0.998535
484.394864	0.997937
484.763706	0.998419
485.132489	0.999074
485.501213	0.999460
485.869879	0.998697
486.238487	0.998334
486.607036	0.999137
486.975527	0.998530
487.343959	0.998461
487.712333	0.998141
488.080648	0.998506
488.448905	0.998417
488.817104	0.998861
489.185244	0.999407
489.553326	0.998868
489.921350	0.998865
490.289315	0.998165
490.657222	0.997763
491.025070	0.998934
491.392861	0.999322
491.760593	0.998700
492.128267	0.999057
492.495883	0.998024
492.863440	0.999052
493.230939	0.998330
493.598380	0.999074
493.965763	0.998976
494.333088	0.998191
494.700354	0.998084
495.067563	0.998156
495.434713	0.998999
495.801805	0.998297
496.168839	0.998742
496.535815	0.998197
496.902733	0.998613
497.269593	0.997742
497.636395	0.998194
498.003139	0.998194
498.369825	0.998805
498.736453	0.998652
499.103023	0.998526
499.469535	0.998815
499.835989	0.998833
500.202385	0.998201
500.568723	0.998527
500.935003	0.998349
501.301226	0.998369
501.667390	0.998701
502.033497	0.998628
502.399546	0.998336
502.765537	0.998989
503.131470	0.999095
503.497345	0.999028
503.863163	0.998648
504.228923	0.998019
504.594625	0.998341
504.960269	0.998874
505.325856	0.999399
505.691385	0.999257
506.056856	0.998671
506.422270	0.998634
506.787625	0.999222
507.152924	0.998835
507.518164	0.998931
507.883347	0.998455
508.248472	0.998532
508.613540	0.998154
508.978550	0.998995
509.343503	0.998533
509.708398	0.999473
510.073236	0.998978
510.438016	0.998232
510.802738	0.998511
511.167403	0.998577
511.532010	0.999231
511.896561	0.998946
512.261053	0.998284
512.625488	0.998393
512.989866	0.998564
513.354186	0.997563
513.718449	0.998631
514.082655	0.998737
514.446803	0.998436
514.810894	0.999553
515.174927	0.998789
515.538904	0.998592
515.902822	0.998380
516.266684	0.999122
516.630488	0.999398
516.994235	0.998978
517.357925	0.999244
517.721558	0.998699
518.085133	0.998424
518.448651	0.998851
518.812112	0.999120
519.175516	0.998966
519.538863	0.998412
519.902152	0.999152
520.265385	0.998771
520.628560	0.998222
520.991678	0.998242
521.354739	0.999269
521.717743	0.999432
522.080690	0.998387
522.443580	0.999382
522.806413	0.998100
523.169189	0.999446
523.531908	0.997869
523.894569	0.999004
524.257174	0.998744
524.619722	0.999007
524.982213	0.998415
525.344647	0.998078
525.707025	0.998059
526.069345	0.997792
526.431608	0.998667
526.793815	0.999188
527.155964	0.998859
527.518057	0.998917
527.880093	0.998917
528.242072	0.998700
528.603995	0.998607
528.965860	0.998723
529.327669	0.998563
529.689421	0.998548
530.051117	0.999181
530.412755	0.999208
530.774337	0.998723
531.135862	0.999502
531.497331	0.998361
531.858743	0.999402
532.220098	0.998421
532.581396	0.998890
532.942638	0.998818
533.303824	0.999506
533.664953	0.999487
534.026025	0.999807
534.387040	0.998859
534.747999	0.998006
535.108902	0.998718
535.469748	0.999087
535.830537	0.999016
536.191270	0.998617
536.551947	0.998871
536.912567	0.999375
537.273131	0.999197
537.633638	0.999067
537.994089	0.998873
538.354483	0.999198
538.714821	0.998992
539.075103	0.998610
539.435328	0.998613
539.795497	0.999311
540.155609	0.998818
540.515665	0.999159
540.875665	0.998634
541.235609	0.999001
541.595496	0.998651
541.955328	0.998183
542.315102	0.999436
542.674821	0.999308
543.034483	0.999803
543.394090	0.998190
543.753640	0.999190
544.113134	0.997965
544.472571	0.999468
544.831953	0.999660
545.191278	0.999158
545.550548	0.998372
545.909761	0.998774
546.268918	0.999673
546.628019	0.999115
546.987064	0.998580
547.346053	0.998528
547.704986	0.998509
548.063863	0.998524
548.422684	0.999098
548.781449	0.998710
549.140158	0.999411
549.498811	0.998682
549.857408	0.998816
550.215949	0.998139
550.574434	0.998746
550.932864	0.999642
551.291237	0.999065
551.649555	0.999369
552.007817	0.999134
552.366022	0.999127
552.724173	1.000032
553.082267	0.998895
553.440305	0.999058
553.798288	0.998031
554.156215	0.999119
554.514086	0.998760
554.871902	0.999192
555.229661	0.998095
555.587365	0.999258
555.945014	0.999437
556.302606	0.998559
556.660143	0.999394
557.017625	0.999323
557.375050	0.998461
557.732421	0.999062
558.089735	0.998343
558.446994	0.998876
558.804197	0.998805
559.161345	0.998973
559.518437	0.998952
559.875474	0.998660
560.232455	0.999443
560.589381	0.999833
560.946251	0.998657
561.303065	0.999396
561.659825	0.998588
562.016528	0.999136
562.373177	0.998925
562.729770	0.999542
563.086307	0.998036
563.442789	0.999089
563.799216	0.998308
564.155587	0.999391
564.511904	1.000026
564.868164	0.997836
565.224370	0.998924
565.580520	0.998595
565.936615	0.998929
566.292654	0.998299
566.648638	0.999339
567.004567	0.999028
567.360441	0.998526
567.716260	0.998698
568.072023	0.998904
568.427732	0.999197
568.783385	0.999144
569.138982	0.999084
569.494525	0.998613
569.850013	0.999020
570.205445	0.999130
570.560823	0.999019
570.916145	0.999180
571.271412	0.998695
571.626625	0.998911
571.981782	0.998903
572.336884	0.999372
572.691931	0.999123
573.046923	0.999720
573.401860	0.998574
573.756743	0.999021
574.111570	0.998849
574.466342	0.999590
574.821059	0.999178
575.175722	0.999611
575.530330	0.998855
575.884882	0.999032
576.239380	0.998807
576.593823	0.998635
576.948211	0.999090
577.302544	0.999075
577.656823	0.999724
578.011047	0.998318
578.365216	0.999487
578.719330	0.999148
579.073389	0.998385
579.427394	0.998481
579.781344	0.999347
580.135239	0.998183
580.489080	0.998983
580.842866	0.999454
581.196597	0.998721
581.550273	0.998791
581.903895	0.999513
582.257463	0.998612
582.610975	0.998917
582.964434	0.998714
583.317837	0.999936
583.671186	0.999162
584.024481	0.998911
584.377721	0.998596
584.730906	0.999306
585.084037	1.000021
585.437113	0.998988
585.790135	0.998706
586.143103	0.998754
586.496016	0.999150
586.848874	0.999544
587.201679	0.999156
587.554428	0.998655
587.907124	0.999875
588.259765	0.999834
588.612352	0.999354
588.964884	0.999402
589.317362	0.998804
589.669786	0.998991
590.022155	0.998975
590.374470	0.998834
590.726731	0.998144
591.078937	0.998886
591.431090	0.999313
591.783188	0.998105
592.135232	0.998893
592.487222	0.998625
592.839157	0.998653
593.191038	0.998749
593.542866	0.998446
593.894639	0.998333
594.246358	0.999162
594.598022	0.998946
594.949633	0.999415
595.301190	0.998885
595.652692	0.998706
596.004141	0.998866
596.355535	0.999038
596.706876	0.998968
597.058162	0.999537
597.409395	0.999551
597.760573	0.998974
598.111698	0.998373
598.462768	0.998068
598.813785	0.998441
599.164748	0.998793
599.515657	0.998000
599.866511	0.999723
600.217312	0.999504
600.568060	0.998460
600.918753	0.999617
601.269392	0.999305
601.619978	0.999648
601.970510	0.998479
602.320988	0.999173
602.671412	0.998409
603.021783	0.999682
603.372100	0.998776
603.722363	0.998956
604.072572	0.998979
604.422728	0.998137
604.772830	0.998768
605.122878	0.999269
605.472872	0.999178
605.822813	0.998645
606.172701	0.998551
606.522534	0.999238
606.872314	0.998557
607.222041	0.998856
607.571714	0.999363
607.921333	0.998943
608.270899	0.998962
608.620411	0.998663
608.969870	0.999283
609.319276	0.998807
609.668627	0.999897
610.017926	0.998817
610.367171	0.999504
610.716362	0.999500
611.065500	0.998146
611.414585	0.999234
611.763616	0.998331
612.112594	0.998657
612.461518	0.998700
612.810389	0.999062
613.159207	0.998754
613.507971	0.998184
613.856682	0.999207
614.205340	0.998054
614.553945	0.999229
614.902496	0.998774
615.250994	0.998118
615.599439	0.999360
615.947830	0.997915
616.296169	0.998649
616.644454	0.999078
616.992686	0.999041
617.340864	0.999286
617.688990	0.998545
618.037063	0.998892
618.385082	0.998335
618.733048	0.998315
619.080961	0.998268
619.428821	0.999189
619.776628	0.998220
620.124382	0.999426
620.472083	0.999541
620.819731	0.999234
621.167326	0.999083
621.514868	0.999307
621.862357	0.999145
622.209793	0.998638
622.557176	0.999249
622.904506	0.998796
623.251783	0.998035
623.599007	0.998442
623.946179	0.998027
624.293297	0.999551
624.640363	0.999400
624.987376	0.997684
625.334336	0.998735
625.681243	0.998662
626.028097	0.999010
626.374899	0.999032
626.721647	0.999462
627.068343	0.998651
627.414987	0.998962
627.761577	0.998450
628.108115	0.998428
628.454600	0.999259
628.801032	0.998491
629.147412	0.999376
629.493739	0.999134
629.840014	0.998248
630.186236	0.998825
630.532405	0.999453
630.878521	0.998197
631.224585	0.999087
631.570597	0.998618
631.916556	0.999104
632.262462	0.998207
632.608316	0.999520
632.954117	0.998739
633.299866	0.998570
633.645562	0.998617
633.991206	0.998787
634.336797	0.998676
634.682336	0.999505
635.027823	0.999077
635.373257	0.999374
635.718639	0.999422
636.063968	0.998598
636.409245	0.997693
636.754470	0.999076
637.099642	0.999819
637.444762	0.998954
637.789829	0.998826
638.134845	0.998870
638.479808	0.999316
638.824719	0.999224
639.169577	0.998852
639.514383	0.998985
639.859137	0.999031
640.203839	0.998510
640.548489	0.998731
640.893086	0.998594
641.237632	0.998562
641.582125	0.998164
641.926566	0.999748
642.270955	0.998745
642.615292	0.998127
642.959576	0.998925
643.303809	0.999153
643.647990	0.999797
643.992118	0.999320
644.336195	0.998320
644.680219	0.998641
645.024192	0.998952
645.368112	0.998261
645.711981	0.998455
646.055797	0.998278
646.399562	0.997935
646.743274	0.998957
647.086935	0.999108
647.430544	0.998691
647.774101	0.998397
648.117606	0.999081
648.461059	0.999704
648.804460	0.998785
649.147810	0.999089
649.491108	0.998750
649.834354	0.998196
650.177548	0.998596
650.520690	0.997880
650.863781	0.998213
651.206820	0.998943
651.549807	0.998707
651.892742	0.999340
652.235626	0.999004
652.578458	0.998360
652.921238	0.999097
653.263967	0.999146
653.606644	0.998611
653.949269	0.998905
654.291843	0.998230
654.634365	0.999807
654.976836	0.998136
655.319255	0.999418
655.661622	0.999012
656.003938	0.998432
656.346203	0.998213
656.688416	0.999162
657.030577	0.998265
657.372687	0.998996
657.714746	0.998814
658.056753	0.999064
658.398708	0.999051
658.740612	0.999771
659.082465	0.998697
659.424266	0.998350
659.766016	0.997843
660.107715	0.998948
660.449362	0.999146
660.790958	0.999084
661.132503	0.999034
661.473996	0.998257
661.815438	0.998916
662.156829	0.999421
662.498168	0.999603
662.839456	0.997480
663.180693	0.999099
663.521879	0.997971
663.863013	0.999714
664.204097	0.998015
664.545129	0.998729
664.886110	0.999413
665.227040	0.998874
665.567918	0.999078
665.908746	0.998655
666.249522	0.998423
666.590248	0.998737
666.930922	0.998305
667.271545	0.998981
667.612118	0.998845
667.952639	0.999100
668.293109	0.998426
668.633528	0.997973
668.973896	0.998801
669.314213	0.998464
669.654480	0.997964
669.994695	0.998479
670.334859	0.999193
670.674973	0.998029
671.015035	0.998009
671.355047	0.998000
671.695008	0.998643
672.034918	0.998302
672.374777	0.999442
672.714585	0.998131
673.054342	0.998419
673.394049	0.998005
673.733705	0.999470
674.073310	0.999371
674.412864	0.998124
674.752368	0.997793
675.091820	0.999424
675.431223	0.999632
675.770574	0.998218
676.109875	0.998299
676.449125	0.998244
676.788324	0.997663
677.127473	0.998912
677.466571	0.999479
677.805619	0.998997
678.144616	0.999019
678.483562	0.999738
678.822458	0.998766
679.161303	0.999050
679.500098	0.999368
679.838842	0.999245
680.177535	0.997777
680.516179	0.997591
680.854771	0.998018
681.193314	0.998677
681.531805	0.998271
681.870247	0.998756
682.208638	0.998860
682.546978	0.998046
682.885268	0.998469
683.223508	0.998550
683.561697	0.998330
683.899836	0.998278
684.237925	0.998455
684.575963	0.998929
684.913951	0.998882
685.251889	0.998521
685.589776	0.998078
685.927614	0.996676
686.265401	0.997763
686.603137	0.997193
686.940824	0.997866
687.278460	0.998875
687.616046	0.998287
687.953582	0.998263
688.291068	0.998829
688.628504	0.998741
688.965889	0.997762
689.303224	0.997532
689.640510	0.998166
689.977745	0.998277
690.314930	0.997955
690.652065	0.998311
690.989150	0.997261
691.326185	0.998942
691.663170	0.998615
692.000105	0.999063
692.336990	0.997950
692.673825	0.997849
693.010610	0.998276
693.347345	0.998604
693.684030	0.998278
694.020665	0.998136
694.357251	0.997096
694.693786	0.998826
695.030272	0.997010
695.366707	0.997926
695.703093	0.997347
696.039429	0.997566
696.375716	0.998973
696.711952	0.997478
697.048139	0.998629
697.384276	0.997719
697.720363	0.997845
698.056400	0.997000
698.392388	0.998469
698.728326	0.997495
699.064214	0.998832
699.400053	0.998398
699.735842	0.998947
700.071581	0.998588
700.407270	0.997622
700.742910	0.998851
701.078501	0.997559
701.414042	0.998489
701.749533	0.997039
702.084974	0.999169
702.420366	0.997955
702.755709	0.998051
703.091002	0.997875
703.426246	0.999278
703.761440	0.997545
704.096584	0.997704
704.431679	0.997671
704.766725	0.998417
705.101721	0.998578
705.436668	0.998468
705.771565	0.998285
706.106413	0.996661
706.441212	0.997949
706.775961	0.999204
707.110661	0.997409
707.445311	0.998754
707.779913	0.998473
708.114465	0.998933
708.448967	0.998464
708.783421	0.998830
709.117825	0.998256
709.452180	0.998596
709.786485	0.999125
710.120742	0.998315
710.454949	0.997281
710.789107	0.997977
711.123216	0.997152
711.457275	0.996484
711.791286	0.998186
712.125247	0.999023
712.459159	0.997680
712.793023	0.997907
713.126837	0.997935
713.460602	0.997300
713.794318	0.997586
714.127985	0.997456
714.461602	0.998619
714.795171	0.997131
715.128691	0.998151
715.462162	0.998662
715.795584	0.997637
716.128957	0.997327
716.462281	0.998077
716.795556	0.997252
717.128782	0.997702
717.461960	0.997965
717.795088	0.998709
718.128167	0.998803
718.461198	0.998120
718.794180	0.998900
719.127113	0.998859
719.459997	0.997883
719.792833	0.997764
720.125619	0.998130
720.458357	0.997903
720.791046	0.998542
721.123686	0.998429
721.456278	0.997697
721.788821	0.997939
722.121315	0.998732
722.453761	0.998230
722.786158	0.997102
723.118506	0.998012
723.450805	0.997852
723.783056	0.998228
724.115259	0.997097
724.447412	0.999253
724.779518	0.997972
725.111574	0.997433
725.443582	0.998495
725.775542	0.998956
726.107453	0.998432
726.439315	0.998224
726.771129	0.998479
727.102895	0.997070
727.434612	0.997797
727.766281	0.998116
728.097901	0.997930
728.429473	0.998535
728.760996	0.996795
729.092471	0.998298
729.423897	0.998256
729.755276	0.998165
730.086606	0.997088
730.417887	0.997656
730.749120	0.997725
731.080305	0.998059
731.411442	0.997825
731.742530	0.997153
732.073570	0.997766
732.404562	0.997567
732.735506	0.997848
733.066401	0.997965
733.397249	0.998435
733.728048	0.997253
734.058798	0.998133
734.389501	0.998231
734.720156	0.998106
735.050762	0.998961
735.381320	0.996882
735.711831	0.998229
736.042293	0.997852
736.372707	0.998638
736.703073	0.996874
737.033391	0.997607
737.363661	0.998808
737.693883	0.998267
738.024056	0.997318
738.354182	0.998201
738.684260	0.998374
739.014290	0.998325
739.344272	0.997815
739.674207	0.998945
740.004093	0.998276
740.333931	0.997913
740.663722	0.997984
740.993464	0.997945
741.323159	0.998387
741.652806	0.998034
741.982405	0.997251
742.311956	0.998721
742.641460	0.998020
742.970915	0.996825
743.300323	0.997148
743.629683	0.998134
743.958996	0.998778
744.288260	0.997008
744.617477	0.998247
744.946647	0.998256
745.275768	0.999161
745.604842	0.997343
745.933869	0.998471
746.262847	0.998078
746.591778	0.997644
746.920662	0.998769
747.249498	0.998130
747.578286	0.999271
747.907027	0.998391
748.235720	0.999290
748.564365	0.998699
748.892963	0.997764
749.221514	0.998468
749.550017	0.997994
749.878473	0.997837
750.206881	0.999040
750.535242	0.998444
750.863555	0.997083
751.191821	0.997883
751.520039	0.998150
751.848210	0.996976
752.176334	0.997408
752.504411	0.997662
752.832440	0.996568
753.160421	0.997992
753.488356	0.998625
753.816243	0.997429
754.144082	0.997292
754.471875	0.998382
754.799620	0.998644
755.127318	0.997796
755.454969	0.998407
755.782572	0.998406
756.110129	0.997525
756.437638	0.998937
756.765100	0.998291
757.092515	0.998803
757.419882	0.998363
757.747203	0.997630
758.074477	0.998952
758.401703	0.997769
758.728882	0.999164
759.056014	0.997859
759.383099	0.998475
759.710138	0.997041
760.037129	0.997380
760.364073	0.998136
760.690970	0.997485
761.017820	0.996046
761.344623	0.997060
761.671379	0.999315
761.998088	0.998370
762.324751	0.998126
762.651366	0.997707
762.977935	0.996770
763.304456	0.997298
763.630931	0.995760
763.957359	0.996203
764.283740	0.996436
764.610074	0.996520
764.936362	0.997197
765.262602	0.996852
765.588796	0.998015
765.914943	0.998334
766.241044	0.997757
766.567097	0.998211
766.893104	0.997901
767.219064	0.997182
767.544978	0.997082
767.870845	0.998037
768.196665	0.996909
768.522438	0.998074
768.848165	0.998165
769.173846	0.998627
769.499479	0.999046
769.825066	0.998848
770.150607	0.999810
770.476101	0.998094
770.801548	0.998000
771.126949	0.999915
771.452303	0.998308
771.777611	0.998079
772.102872	0.999127
772.428087	0.998093
772.753256	0.998696
773.078378	0.999491
773.403453	0.998633
773.728482	0.998587
774.053465	0.998274
774.378401	0.999376
774.703291	0.999442
775.028135	0.999467
775.352932	0.997071
775.677683	0.999432
776.002388	0.997826
776.327046	0.998420
776.651658	0.999549
776.976224	1.000063
777.300743	0.997568
777.625216	0.997956
777.949643	0.999192
778.274024	0.998683
778.598359	0.998632
778.922647	0.998601
779.246889	0.999189
779.571086	0.998593
779.895236	0.998992
780.219339	1.000105
780.543397	0.998251
780.867409	0.999641
781.191374	0.999152
781.515294	0.998975
781.839167	0.999460
782.162995	0.999105
782.486776	0.997758
782.810511	0.998119
783.134201	0.999933
783.457844	0.999579
783.781441	0.999512
784.104993	0.998008
784.428498	0.998986
784.751958	0.999360
785.075372	0.999320
785.398739	0.998406
785.722061	0.997884
786.045337	0.998830
786.368568	0.997201
786.691752	0.998630
787.014891	0.998802
787.337983	0.997803
787.661030	0.998354
787.984031	0.998437
788.306987	0.998449
788.629897	0.997362
788.952760	0.998549
789.275579	0.998998
789.598351	0.998466
789.921078	0.999773
790.243759	0.998217
790.566395	0.998123
790.888984	0.998590
791.211529	0.999011
791.534027	0.998369
791.856480	0.998645
792.178888	0.998380
792.501249	0.997359
792.823566	0.999642
793.145836	0.998031
793.468062	0.998587
793.790241	0.999324
794.112375	0.997267
794.434464	0.997935
794.756507	0.999596
795.078505	0.998977
795.400457	0.998608
795.722364	0.999468
796.044226	0.998723
796.366042	0.998314
796.687812	0.996572
797.009538	0.997868
797.331218	0.999650
797.652852	0.998678
797.974442	0.998626
798.295986	0.998458
798.617484	0.998027
798.938938	0.998499
799.260346	0.996760
799.581709	0.998440
799.903026	0.998175
800.224299	0.998367
800.545526	0.997658
800.866708	0.997764
801.187845	0.998236
801.508936	0.999101
801.829983	0.998286
802.150984	0.999118
802.471940	0.998991
802.792851	0.998064
803.113717	0.999296
803.434538	0.999546
803.755314	0.999780
804.076045	0.998403
804.396731	0.997967
804.717372	0.996820
805.037967	0.999110
805.358518	0.999286
805.679024	0.998292
805.999485	0.998947
806.319901	0.998841
806.640272	0.999777
806.960598	0.998072
807.280879	0.997964
807.601115	0.999449
807.921306	0.999265
808.241453	0.999118
808.561554	0.998543
808.881611	0.999601
809.201623	0.998883
809.521590	1.000101
809.841513	0.998982
810.161390	0.997825
810.481223	0.998132
810.801011	0.999308
811.120755	0.999286
811.440453	0.997308
811.760107	0.998598
812.079716	0.998607
812.399281	0.998623
812.718801	0.997946
813.038276	0.999199
813.357707	0.998764
813.677093	0.999265
813.996434	0.999008
814.315731	1.000163
814.634983	0.998922
814.954191	0.998798
815.273354	0.998902
815.592473	0.998016
815.911547	1.000141
816.230577	0.998666
816.549562	0.999051
816.868502	0.997810
817.187399	0.998636
817.506250	0.999120
817.825058	0.997899
818.143821	0.998854
818.462539	0.998713
818.781213	0.997769
819.099843	0.998704
819.418429	0.998427
819.736970	0.998114
820.055466	0.997817
820.373919	0.998054
820.692327	0.996818
821.010691	0.997557
821.329011	0.994665
821.647286	0.993466
821.965517	0.993116
822.283704	0.991697
822.601847	0.991348
822.919945	0.991516
823.237999	0.992711
823.556010	0.992586
823.873976	0.994231
824.191897	0.994686
824.509775	0.995362
824.827609	0.995761
825.145398	0.996385
825.463144	0.994246
825.780845	0.994379
826.098502	0.996210
826.416116	0.995742
826.733685	0.995509
827.051210	0.994633
827.368692	0.994246
827.686129	0.993695
828.003522	0.996266
828.320872	0.995804
828.638177	0.996894
828.955439	0.998625
829.272656	0.998015
829.589830	0.997394
829.906960	0.997861
830.224046	0.997561
830.541088	0.997680
830.858086	0.998314
831.175041	0.999423
831.491952	0.998243
831.808819	0.997687
832.125642	0.998526
832.442421	0.998383
832.759157	0.999296
833.075849	0.996099
833.392497	0.996522
833.709101	0.995704
834.025662	0.996431
834.342179	0.995898
834.658653	0.998261
834.975083	0.998026
835.291469	0.998193
835.607811	0.997038
835.924110	0.997898
836.240366	0.997805
836.556578	0.998235
836.872746	0.998720
837.188871	0.998863
837.504952	0.998079
837.820990	0.999628
838.136984	0.999051
838.452935	0.999089
838.768842	0.999590
839.084706	0.998778
839.400526	0.998652
839.716303	0.996028
840.032037	0.998127
840.347727	0.996712
840.663373	0.996978
840.978977	0.998652
841.294537	0.999929
841.610054	0.999440
841.925527	0.999306
842.240957	0.999199
842.556344	0.998865
842.871687	0.998506
843.186987	0.998505
843.502244	0.999264
843.817458	0.998867
844.132629	0.998983
844.447756	0.998874
844.762840	1.000677
845.077881	1.001099
845.392879	0.998184
845.707833	0.999624
846.022745	1.000207
846.337613	0.999513
846.652438	0.998855
846.967221	0.999657
847.281960	0.999367
847.596656	0.999647
847.911309	1.000252
848.225919	0.998921
848.540485	0.999049
848.855009	0.999954
849.169490	1.000528
849.483928	0.999171
849.798323	0.997966
850.112675	1.000050
850.426984	1.000436
850.741251	0.998794
851.055474	0.999714
851.369654	1.000429
851.683792	0.999083
851.997887	0.999191
852.311938	1.000355
852.625947	0.999203
852.939914	0.999139
853.253837	1.000291
853.567718	0.999440
853.881555	0.999629
854.195350	0.999184
854.509103	0.999337
854.822812	0.999727
855.136479	0.999891
855.450103	0.998889
855.763685	0.998784
856.077224	0.998632
856.390720	0.999434
856.704173	1.000103
857.017584	0.999875
857.330953	1.000407
857.644278	0.999514
857.957561	0.999270
858.270802	0.998829
858.584000	0.998640
858.897155	0.999073
859.210268	0.999753
859.523339	1.001019
859.836367	1.000311
860.149352	0.998717
860.462295	0.999775
860.775195	0.999473
861.088054	0.998760
861.400869	0.998712
861.713642	0.998212
862.026373	1.000545
862.339062	0.999511
862.651708	0.999766
862.964312	0.999610
863.276873	0.999717
863.589392	0.999522
863.901869	0.998930
864.214303	1.000260
864.526696	0.999500
864.839045	1.000034
865.151353	0.999328
865.463619	0.998484
865.775842	0.999392
866.088023	1.000822
866.400162	0.999660
866.712258	1.000946
867.024313	0.999976
867.336325	0.999718
867.648296	0.999720
867.960224	0.999536
868.272110	0.999886
868.583954	0.999967
868.895755	1.000070
869.207515	0.999158
869.519233	1.000287
869.830909	0.998215
870.142542	0.998606
870.454134	0.999275
870.765684	0.998596
871.077191	0.998940
871.388657	0.999980
871.700081	1.000670
872.011463	0.999854
872.322803	0.999008
872.634101	0.997418
872.945357	0.998723
873.256571	0.998654
873.567744	1.000321
873.878874	0.999806
874.189963	0.999133
874.501010	1.000623
874.812015	0.999828
875.122979	1.000075
875.433900	0.999161
875.744780	0.999033
876.055618	0.997875
876.366415	0.998548
876.677169	0.998931
876.987882	0.999631
877.298554	0.999836
877.609183	0.999310
877.919771	1.000040
878.230317	0.999112
878.540822	0.998695
878.851285	0.998252
879.161707	0.998857
879.472087	0.999343
879.782425	0.998085
880.092722	0.996580
880.402977	0.996632
880.713191	0.994140
881.023363	0.993435
881.333494	0.992735
881.643583	0.993531
881.953631	0.992378
882.263637	0.992756
882.573602	0.993125
882.883526	0.993926
883.193408	0.995545
883.503248	0.994796
883.813048	0.994101
884.122806	0.996435
884.432522	0.996390
884.742197	0.997919
885.051831	0.997311
885.361424	0.997681
885.670975	0.998395
885.980485	0.998359
886.289954	0.998439
886.599382	0.997561
886.908768	0.999029
887.218113	0.997887
887.527417	0.998127
887.836680	0.999248
888.145901	0.999379
888.455082	1.000158
888.764221	0.999661
889.073319	0.998162
889.382376	1.000382
889.691392	0.998151
890.000366	0.999592
890.309300	0.997954
890.618193	0.999110
890.927044	0.998872
891.235855	0.998271
891.544625	0.999296
891.853353	0.998178
892.162041	0.999068
892.470687	0.999946
892.779293	0.998148
893.087858	0.997554
893.396381	0.997574
893.704864	0.997512
894.013306	0.996912
894.321707	0.997857
894.630068	0.995215
894.938387	0.996979
895.246665	0.995838
895.554903	0.995725
895.863100	0.996663
896.171256	0.997084
896.479371	0.997318
896.787446	0.997153
897.095480	0.997515
897.403473	0.997613
897.711425	0.998166
898.019336	0.998858
898.327207	0.999849
898.635038	0.997462
898.942827	0.998547
899.250576	0.998628
899.558284	0.999921
899.865952	0.998039
900.173579	0.998325
900.481165	0.999530
900.788711	0.999022
901.096216	0.999038
901.403681	0.999243
901.711105	0.998878
902.018489	0.998582
902.325832	0.998790
902.633135	0.999277
902.940397	0.998865
903.247619	0.998434
903.554800	0.998870
903.861941	0.997869
904.169041	0.996109
904.476101	0.996309
904.783121	0.994669
905.090100	0.996400
905.397039	0.996476
905.703938	0.997196
906.010796	0.996778
906.317614	0.997873
906.624391	0.997515
906.931129	0.997994
907.237826	0.998743
907.544483	1.000455
907.851099	0.998830
908.157675	0.997891
908.464211	0.999258
908.770707	0.997844
909.077163	0.999248
909.383578	0.999695
909.689954	0.997976
909.996289	0.998403
910.302584	1.000232
910.608839	0.999537
910.915054	0.999190
911.221229	0.999397
911.527363	0.998295
911.833458	0.999006
912.139513	0.998725
912.445527	0.999976
912.751502	0.998816
913.057436	0.998400
913.363331	0.999553
913.669186	0.999203
913.975000	0.998971
914.280775	0.999242
914.586510	0.998497
914.892205	0.998115
915.197859	0.997316
915.503475	0.997149
915.809050	0.995875
916.114585	0.995126
916.420081	0.995298
916.725536	0.996153
917.030952	0.996295
917.336328	0.996276
917.641665	0.995997
917.946961	0.997155
918.252218	0.997451
918.557435	0.997635
918.862612	0.997419
919.167750	0.998298
919.472848	0.999259
919.777906	0.999281
920.082925	0.999324
920.387904	0.999126
920.692843	0.998058
920.997743	0.997754
921.302603	0.998588
921.607423	0.997026
921.912204	0.998140
922.216946	1.000538
922.521647	0.998599
922.826310	0.998797
923.130932	0.999575
923.435516	1.000474
923.740059	0.999103
924.044564	0.999769
924.349028	0.999872
924.653454	0.999595
924.957840	1.000087
925.262186	0.999506
925.566493	0.999693
925.870761	1.000171
926.174989	0.998372
926.479178	0.999835
926.783328	0.999825
927.087438	0.999578
927.391509	0.998302
927.695541	0.998684
927.999533	1.000278
928.303486	0.999617
928.607400	0.999266
928.911275	0.999304
929.215110	1.001205
929.518906	0.999839
929.822663	1.000563
930.126381	1.000414
930.430060	0.999805
930.733699	0.999933
931.037299	1.000036
931.340861	1.001053
931.644383	0.998450
931.947866	1.000486
932.251309	0.999241
932.554714	0.998948
932.858080	1.000295
933.161407	0.999628
933.464694	1.000876
933.767943	1.000032
934.071153	0.999802
934.374323	0.999920
934.677455	1.000082
934.980548	0.999056
935.283602	1.000555
935.586617	0.998960
935.889593	1.000310
936.192530	0.999425
936.495428	0.999979
936.798287	0.999260
937.101108	0.999384
937.403890	0.999099
937.706632	1.000593
938.009336	1.000049
938.312002	0.998770
938.614628	0.999228
938.917216	0.999507
939.219765	0.999211
939.522275	1.000556
939.824747	1.000238
940.127179	0.999511
940.429573	1.000740
940.731929	0.998820
941.034246	0.998886
941.336524	0.999513
941.638763	0.999779
941.940964	0.999214
942.243126	0.998258
942.545250	1.000163
942.847335	0.999211
943.149381	0.999966
943.451389	0.998566
943.753359	0.998443
944.055290	0.999951
944.357182	0.999006
944.659036	1.000182
944.960851	0.999252
945.262628	0.999671
945.564367	0.999206
945.866067	0.999485
946.167729	1.000335
946.469352	0.999656
946.770937	0.998217
947.072484	0.999817
947.373992	1.000435
947.675462	0.998383
947.976893	0.999480
948.278286	1.001372
948.579641	1.000359
948.880958	0.999582
949.182236	0.999703
949.483476	1.001101
949.784678	0.999917
950.085841	0.999629
950.386967	0.999220
950.688054	0.999495
950.989103	0.998218
951.290114	0.998264
951.591087	1.000240
951.892021	0.999809
952.192917	0.999152
952.493776	0.998899
952.794596	0.999815
953.095378	0.998280
953.396122	0.999637
953.696828	0.999932
953.997496	0.999299
954.298126	1.000801
954.598718	0.998678
954.899272	1.001239
955.199788	0.999268
955.500266	1.000597
955.800706	0.999355
956.101108	0.999700
956.401472	1.000335
956.701798	0.999418
957.002087	0.999727
957.302337	0.999460
957.602550	0.999340
957.902724	0.999624
958.202861	0.999267
958.502960	0.999189
958.803022	1.000489
959.103045	1.000364
959.403031	1.000812
959.702979	1.000784
960.002889	1.000076
960.302762	0.999122
960.602596	1.000901
960.902393	0.999519
961.202153	0.999243
961.501875	1.000288
961.801559	0.999408
962.101205	0.999481
962.400814	0.999626
962.700385	1.000871
962.999918	0.998786
963.299414	0.999251
963.598873	1.000633
963.898293	1.000738
964.197677	0.999427
964.497022	0.999828
964.796331	0.998646
965.095601	1.000670
965.394835	0.999218
965.694030	1.001216
965.993189	0.999484
966.292309	1.000643
966.591393	0.998839
966.890439	1.000540
967.189447	0.999185
967.488419	0.999569
967.787353	1.000196
968.086249	1.000208
968.385108	1.000128
968.683930	0.999695
968.982714	1.000576
969.281462	0.999852
969.580172	0.999759
969.878844	1.000677
970.177480	0.999235
970.476078	1.001284
970.774639	1.000205
971.073162	0.998971
971.371649	0.999652
971.670098	0.999407
971.968510	1.000596
972.266885	0.999877
972.565223	0.998985
972.863524	0.998818
973.161788	1.000055
973.460014	1.000510
973.758204	0.998946
974.056356	1.000435
974.354471	0.999008
974.652550	1.000141
974.950591	0.999846
975.248595	0.998575
975.546563	1.001523
975.844493	1.000783
976.142386	0.999319
976.440243	1.001522
976.738062	0.999723
977.035845	0.999333
977.333590	1.000305
977.631299	0.999424
977.928971	0.999876
978.226606	0.999937
978.524204	1.000065
978.821765	1.000440
979.119290	1.000938
979.416777	0.999300
979.714228	0.998874
980.011642	0.999607
980.309020	0.999298
980.606360	0.998412
980.903664	0.999890
981.200931	0.998906
981.498162	0.999199
981.795356	0.999925
982.092513	0.999313
982.389633	1.000607
982.686717	0.998427
982.983764	1.000271
983.280775	0.999918
983.577749	1.001216
983.874686	0.999137
984.171587	0.998884
984.468451	1.000187
984.765279	0.998666
985.062070	1.000225
985.358824	0.999354
985.655543	0.999688
985.952224	0.999472
986.248869	0.999071
986.545478	1.000923
986.842050	0.999520
987.138586	0.999769
987.435086	1.000147
987.731549	1.001477
988.027975	1.000012
988.324366	0.999838
988.620719	1.001112
988.917037	0.999849
989.213318	0.999490
989.509563	1.000194
989.805772	0.999843
990.101944	1.000643
990.398080	1.000155
990.694180	1.000299
990.990244	0.999653
991.286271	1.000332
991.582262	1.000944
991.878217	1.000233
992.174136	1.000390
992.470019	0.999526
992.765865	1.000470
993.061676	0.999781
993.357450	1.000247
993.653188	1.000684
993.948890	1.000243
994.244556	0.998844
994.540186	0.999036
994.835780	0.999482
995.131337	1.001118
995.426859	0.999743
995.722345	1.000335
996.017795	0.998256
996.313208	0.999736
996.608586	0.999505
996.903928	1.000261
997.199234	0.999577
997.494504	1.000661
997.789738	0.998934
998.084936	1.000374
998.380099	0.998755
998.675225	1.000338
998.970316	1.000476
999.265371	1.000905
999.560390	1.000014
999.855373	0.999803
1000.150320	0.999937
1000.445232	0.999745
1000.740108	0.999240
1001.034948	0.998577
1001.329752	1.001599
1001.624521	0.999602
1001.919254	0.998722
1002.213951	1.000999
1002.508613	0.999972
1002.803239	0.999801
1003.097829	1.000735
1003.392384	1.000608
1003.686903	0.999442
1003.981386	0.999854
1004.275834	1.001682
1004.570246	0.999089
1004.864623	1.000120
1005.158964	1.000940
1005.453270	0.999741
1005.747540	1.000005
1006.041775	1.000010
1006.335974	1.000106
1006.630138	1.000645
1006.924266	0.998932
1007.218359	0.998484
1007.512416	1.000967
1007.806438	1.001033
1008.100425	0.999813
1008.394376	1.001147
1008.688292	0.999635
1008.982172	0.999741
1009.276017	1.000642
1009.569827	1.000928
1009.863602	0.998925
1010.157341	1.000600
1010.451045	0.999900
1010.744714	1.000728
1011.038347	1.000309
1011.331945	0.999467
1011.625508	0.999418
1011.919036	0.999394
1012.212528	1.000412
1012.505986	0.999932
1012.799408	1.000375
1013.092795	0.999779
1013.386147	0.999876
1013.679464	1.001284
1013.972745	0.999113
1014.265992	1.000806
1014.559204	0.999355
1014.852380	1.000461
1015.145521	1.000133
1015.438628	0.999797
1015.731699	0.998545
1016.024736	1.000195
1016.317737	0.998973
1016.610703	0.999922
1016.903635	0.999064
1017.196531	1.000198
1017.489393	1.000259
1017.782219	0.999430
1018.075011	0.999788
1018.367768	0.999918
1018.660490	0.999986
1018.953177	0.999986
1019.245829	0.999986
