Dividing Wavelength (nm)	Counts (n)	Blue Motor Position (mm): 13.200000	Red Motor Position (mm): 0.000000	
326.493990	1.002646
326.888308	1.002646
327.282561	1.002646
327.676750	1.004711
328.070874	1.005235
328.464933	1.005021
328.858929	1.004754
329.252859	1.003859
329.646726	1.003182
330.040528	1.003481
330.434265	1.004664
330.827938	1.003099
331.221547	1.004069
331.615091	1.004411
332.008571	1.004395
332.401986	1.003248
332.795338	1.004354
333.188625	1.003717
333.581847	1.003476
333.975006	1.003248
334.368100	1.004005
334.761129	1.002579
335.154095	1.003092
335.546996	1.002182
335.939833	0.997845
336.332606	0.999212
336.725315	0.997862
337.117960	1.000106
337.510540	0.998995
337.903056	0.999120
338.295508	0.998938
338.687896	0.999383
339.080220	0.999403
339.472480	0.998034
339.864676	0.999106
340.256807	0.997840
340.648875	1.000803
341.040879	0.998931
341.432818	0.999108
341.824694	0.997972
342.216506	0.999816
342.608253	0.999158
342.999937	0.998201
343.391557	0.999366
343.783113	0.999568
344.174605	0.998916
344.566033	0.997883
344.957397	0.999312
345.348697	0.998688
345.739934	0.999238
346.131106	0.998907
346.522215	0.997445
346.913260	0.998471
347.304241	0.998274
347.695159	0.999603
348.086012	0.998697
348.476802	0.999041
348.867528	0.998891
349.258191	0.999348
349.648789	0.999407
350.039324	0.998574
350.429796	0.998507
350.820203	0.996698
351.210548	0.998530
351.600828	0.999109
351.991045	0.998755
352.381198	1.000101
352.771288	0.997960
353.161314	0.999186
353.551276	0.998038
353.941175	0.995658
354.331010	0.999165
354.720782	0.998115
355.110490	0.997881
355.500135	0.998876
355.889717	0.996863
356.279235	0.997966
356.668689	0.998750
357.058080	0.997604
357.447408	0.996409
357.836672	0.998654
358.225873	0.997270
358.615010	0.997334
359.004084	0.997056
359.393095	0.997311
359.782043	0.996903
360.170927	0.997853
360.559748	0.997387
360.948505	0.997439
361.337199	0.996706
361.725830	0.997837
362.114398	0.996657
362.502903	0.997141
362.891344	0.995698
363.279722	0.996590
363.668037	0.998353
364.056289	0.996536
364.444478	0.996829
364.832603	0.996565
365.220665	0.996173
365.608665	0.997725
365.996601	0.997495
366.384474	0.995585
366.772284	0.996313
367.160031	0.994507
367.547715	0.994538
367.935336	0.993865
368.322893	0.993699
368.710388	0.990776
369.097820	0.989754
369.485189	0.988079
369.872495	0.985236
370.259738	0.984559
370.646918	0.981321
371.034035	0.979317
371.421090	0.976007
371.808081	0.970716
372.195010	0.968815
372.581875	0.963787
372.968678	0.958615
373.355418	0.954882
373.742096	0.947302
374.128710	0.943843
374.515262	0.939444
374.901751	0.934391
375.288177	0.928639
375.674540	0.920516
376.060841	0.915747
376.447079	0.908800
376.833254	0.902103
377.219367	0.898552
377.605417	0.885570
377.991404	0.882622
378.377329	0.875699
378.763191	0.870767
379.148991	0.861789
379.534727	0.852459
379.920402	0.844980
380.306013	0.841315
380.691563	0.828924
381.077049	0.821681
381.462474	0.818472
381.847835	0.806825
382.233134	0.802086
382.618371	0.802355
383.003545	0.784929
383.388657	0.783563
383.773706	0.774736
384.158693	0.770964
384.543618	0.766630
384.928480	0.757557
385.313280	0.747936
385.698017	0.747039
386.082692	0.735661
386.467305	0.733967
386.851856	0.727681
387.236344	0.723038
387.620770	0.717521
388.005133	0.711660
388.389435	0.706468
388.773674	0.704160
389.157851	0.695721
389.541965	0.693266
389.926018	0.699330
390.310008	0.686300
390.693936	0.683394
391.077802	0.674794
391.461606	0.677923
391.845348	0.665961
392.229027	0.666066
392.612645	0.664328
392.996200	0.651136
393.379694	0.644265
393.763125	0.634070
394.146494	0.639005
394.529801	0.629154
394.913047	0.622011
395.296230	0.627201
395.679351	0.618449
396.062410	0.615307
396.445408	0.618256
396.828343	0.613024
397.211217	0.608439
397.594028	0.621255
397.976778	0.611170
398.359466	0.607244
398.742092	0.602912
399.124656	0.615382
399.507158	0.603232
399.889598	0.600510
400.271977	0.591092
400.654294	0.595044
401.036549	0.594762
401.418742	0.598876
401.800874	0.584860
402.182944	0.581392
402.564952	0.572993
402.946898	0.574904
403.328783	0.576076
403.710606	0.586294
404.092367	0.561770
404.474067	0.567425
404.855705	0.566054
405.237282	0.574827
405.618797	0.560605
406.000250	0.556385
406.381642	0.546478
406.762972	0.551872
407.144240	0.550355
407.525447	0.550533
407.906593	0.542978
408.287677	0.538622
408.668700	0.546716
409.049661	0.540179
409.430560	0.536507
409.811399	0.544499
410.192176	0.526032
410.572891	0.533593
410.953545	0.521648
411.334138	0.535312
411.714669	0.527748
412.095139	0.539156
412.475547	0.524116
412.855894	0.525537
413.236180	0.524591
413.616405	0.530241
413.996568	0.519955
414.376670	0.526196
414.756711	0.531693
415.136691	0.528375
415.516609	0.519527
415.896466	0.516296
416.276262	0.512153
416.655997	0.513540
417.035670	0.495124
417.415283	0.487262
417.794834	0.492002
418.174324	0.497296
418.553753	0.506389
418.933121	0.488377
419.312428	0.482779
419.691674	0.488399
420.070859	0.476890
420.449983	0.484297
420.829045	0.473903
421.208047	0.482667
421.586988	0.475985
421.965867	0.474489
422.344686	0.463140
422.723444	0.476141
423.102141	0.492528
423.480777	0.465732
423.859352	0.486640
424.237866	0.463922
424.616319	0.464774
424.994712	0.455380
425.373044	0.465601
425.751314	0.453508
426.129524	0.470473
426.507673	0.453972
426.885762	0.447257
427.263789	0.452449
427.641756	0.462553
428.019662	0.452782
428.397508	0.452038
428.775292	0.456158
429.153016	0.448346
429.530679	0.454197
429.908282	0.448086
430.285824	0.457681
430.663305	0.436104
431.040726	0.457223
431.418086	0.457416
431.795385	0.449001
432.172624	0.448131
432.549802	0.448435
432.926920	0.447154
433.303977	0.446581
433.680974	0.444354
434.057910	0.442186
434.434786	0.441892
434.811601	0.444784
435.188355	0.427074
435.565050	0.436455
435.941683	0.437865
436.318257	0.421320
436.694770	0.422565
437.071222	0.420525
437.447614	0.425019
437.823946	0.431475
438.200218	0.421244
438.576429	0.430251
438.952580	0.423452
439.328670	0.419900
439.704700	0.426228
440.080670	0.427782
440.456580	0.409176
440.832429	0.417241
441.208218	0.428179
441.583947	0.417320
441.959616	0.416661
442.335224	0.421826
442.710773	0.412434
443.086261	0.410841
443.461689	0.424858
443.837057	0.414345
444.212365	0.404252
444.587612	0.411795
444.962800	0.401896
445.337927	0.402977
445.712995	0.429255
446.088002	0.391083
446.462949	0.401512
446.837837	0.407111
447.212664	0.394706
447.587431	0.386343
447.962139	0.357025
448.336786	0.315773
448.711374	0.326472
449.085901	0.370955
449.460369	0.375568
449.834776	0.378336
450.209124	0.358074
450.583412	0.350523
450.957640	0.343205
451.331808	0.355092
451.705917	0.378553
452.079965	0.382839
452.453954	0.371014
452.827883	0.377955
453.201752	0.372819
453.575562	0.384097
453.949311	0.372623
454.323001	0.378563
454.696632	0.374510
455.070202	0.367356
455.443713	0.358868
455.817164	0.353488
456.190556	0.349535
456.563888	0.346476
456.937160	0.344062
457.310373	0.361205
457.683526	0.359661
458.056619	0.365841
458.429653	0.365994
458.802628	0.370057
459.175542	0.363956
459.548398	0.346543
459.921194	0.338843
460.293930	0.339625
460.666607	0.316806
461.039224	0.304778
461.411782	0.300363
461.784280	0.299690
462.156719	0.303976
462.529099	0.308244
462.901419	0.324574
463.273680	0.329027
463.645882	0.328474
464.018024	0.334550
464.390106	0.326934
464.762130	0.311795
465.134094	0.294691
465.505999	0.263671
465.877845	0.233948
466.249631	0.220730
466.621358	0.228132
466.993026	0.242268
467.364634	0.248371
467.736184	0.257187
468.107674	0.266042
468.479105	0.265010
468.850477	0.271899
469.221790	0.278509
469.593043	0.288907
469.964238	0.293830
470.335373	0.293029
470.706449	0.291658
471.077467	0.291968
471.448425	0.254006
471.819324	0.229462
472.190164	0.228852
472.560945	0.257577
472.931667	0.280039
473.302330	0.284388
473.672934	0.296402
474.043479	0.284468
474.413965	0.286434
474.784393	0.289490
475.154761	0.284795
475.525070	0.281624
475.895321	0.287435
476.265513	0.281462
476.635645	0.277056
477.005719	0.277019
477.375734	0.273320
477.745691	0.266702
478.115588	0.263027
478.485427	0.256265
478.855207	0.243307
479.224928	0.225955
479.594591	0.214105
479.964194	0.217486
480.333739	0.218739
480.703226	0.219833
481.072653	0.218322
481.442022	0.214253
481.811333	0.211007
482.180584	0.214303
482.549777	0.219492
482.918912	0.222976
483.287988	0.222662
483.657005	0.222529
484.025964	0.228634
484.394864	0.226045
484.763706	0.226879
485.132489	0.231850
485.501213	0.232513
485.869879	0.230875
486.238487	0.233881
486.607036	0.232080
486.975527	0.236422
487.343959	0.232373
487.712333	0.231406
488.080648	0.233042
488.448905	0.232136
488.817104	0.233223
489.185244	0.228070
489.553326	0.224502
489.921350	0.214584
490.289315	0.196988
490.657222	0.191839
491.025070	0.193152
491.392861	0.195082
491.760593	0.201146
492.128267	0.206812
492.495883	0.212020
492.863440	0.218344
493.230939	0.225015
493.598380	0.226105
493.965763	0.228465
494.333088	0.230679
494.700354	0.232336
495.067563	0.231111
495.434713	0.234587
495.801805	0.232134
496.168839	0.233726
496.535815	0.235337
496.902733	0.235175
497.269593	0.237037
497.636395	0.234341
498.003139	0.234592
498.369825	0.238029
498.736453	0.234248
499.103023	0.235936
499.469535	0.234994
499.835989	0.235595
500.202385	0.236328
500.568723	0.239677
500.935003	0.234667
501.301226	0.239049
501.667390	0.233340
502.033497	0.231330
502.399546	0.234329
502.765537	0.236256
503.131470	0.234582
503.497345	0.231044
503.863163	0.239546
504.228923	0.232846
504.594625	0.231406
504.960269	0.236759
505.325856	0.232165
505.691385	0.236357
506.056856	0.233487
506.422270	0.232778
506.787625	0.235201
507.152924	0.232655
507.518164	0.232731
507.883347	0.234579
508.248472	0.236366
508.613540	0.231174
508.978550	0.233854
509.343503	0.234391
509.708398	0.232226
510.073236	0.229649
510.438016	0.229470
510.802738	0.230269
511.167403	0.229570
511.532010	0.231777
511.896561	0.226902
512.261053	0.225530
512.625488	0.227912
512.989866	0.227961
513.354186	0.228533
513.718449	0.230740
514.082655	0.226693
514.446803	0.228948
514.810894	0.226509
515.174927	0.229069
515.538904	0.229049
515.902822	0.225926
516.266684	0.228137
516.630488	0.229326
516.994235	0.228143
517.357925	0.226973
517.721558	0.225502
518.085133	0.224863
518.448651	0.225018
518.812112	0.227216
519.175516	0.226816
519.538863	0.224298
519.902152	0.226317
520.265385	0.223199
520.628560	0.224895
520.991678	0.225164
521.354739	0.224398
521.717743	0.225524
522.080690	0.225870
522.443580	0.223198
522.806413	0.223935
523.169189	0.223646
523.531908	0.222377
523.894569	0.226024
524.257174	0.225929
524.619722	0.223612
524.982213	0.224853
525.344647	0.223513
525.707025	0.224419
526.069345	0.222726
526.431608	0.224614
526.793815	0.222444
527.155964	0.226752
527.518057	0.225435
527.880093	0.226582
528.242072	0.225265
528.603995	0.227237
528.965860	0.228871
529.327669	0.227910
529.689421	0.228568
530.051117	0.229544
530.412755	0.227113
530.774337	0.229542
531.135862	0.229953
531.497331	0.229459
531.858743	0.232409
532.220098	0.228823
532.581396	0.231691
532.942638	0.232250
533.303824	0.233104
533.664953	0.232668
534.026025	0.234869
534.387040	0.232614
534.747999	0.232429
535.108902	0.231179
535.469748	0.236518
535.830537	0.234410
536.191270	0.234853
536.551947	0.234133
536.912567	0.234262
537.273131	0.236077
537.633638	0.236532
537.994089	0.236950
538.354483	0.237770
538.714821	0.234832
539.075103	0.234627
539.435328	0.235308
539.795497	0.239298
540.155609	0.235950
540.515665	0.233847
540.875665	0.239566
541.235609	0.237997
541.595496	0.238495
541.955328	0.234988
542.315102	0.237828
542.674821	0.238570
543.034483	0.238885
543.394090	0.238539
543.753640	0.240299
544.113134	0.235377
544.472571	0.238656
544.831953	0.235518
545.191278	0.239923
545.550548	0.238823
545.909761	0.235999
546.268918	0.236719
546.628019	0.234984
546.987064	0.238024
547.346053	0.239509
547.704986	0.237396
548.063863	0.237662
548.422684	0.238070
548.781449	0.239595
549.140158	0.237605
549.498811	0.240396
549.857408	0.243332
550.215949	0.238304
550.574434	0.241575
550.932864	0.239325
551.291237	0.237926
551.649555	0.239560
552.007817	0.239201
552.366022	0.240304
552.724173	0.240457
553.082267	0.240600
553.440305	0.237585
553.798288	0.242097
554.156215	0.239014
554.514086	0.239207
554.871902	0.242459
555.229661	0.241614
555.587365	0.242474
555.945014	0.244906
556.302606	0.242159
556.660143	0.244417
557.017625	0.241127
557.375050	0.243425
557.732421	0.240311
558.089735	0.242425
558.446994	0.242364
558.804197	0.241679
559.161345	0.241496
559.518437	0.245038
559.875474	0.243149
560.232455	0.242808
560.589381	0.243789
560.946251	0.244306
561.303065	0.241480
561.659825	0.242864
562.016528	0.244751
562.373177	0.247652
562.729770	0.245013
563.086307	0.246884
563.442789	0.244904
563.799216	0.247976
564.155587	0.246849
564.511904	0.248275
564.868164	0.248267
565.224370	0.247971
565.580520	0.250047
565.936615	0.249718
566.292654	0.253051
566.648638	0.250062
567.004567	0.251352
567.360441	0.252085
567.716260	0.254145
568.072023	0.252147
568.427732	0.253069
568.783385	0.255303
569.138982	0.253975
569.494525	0.253874
569.850013	0.256808
570.205445	0.255573
570.560823	0.257878
570.916145	0.260247
571.271412	0.258849
571.626625	0.260265
571.981782	0.261301
572.336884	0.262334
572.691931	0.262138
573.046923	0.264109
573.401860	0.264993
573.756743	0.267161
574.111570	0.266380
574.466342	0.267081
574.821059	0.266436
575.175722	0.269470
575.530330	0.269491
575.884882	0.269857
576.239380	0.272178
576.593823	0.272814
576.948211	0.272985
577.302544	0.276641
577.656823	0.276554
578.011047	0.276572
578.365216	0.278126
578.719330	0.280496
579.073389	0.280296
579.427394	0.281553
579.781344	0.283218
580.135239	0.284869
580.489080	0.284840
580.842866	0.288320
581.196597	0.288944
581.550273	0.288292
581.903895	0.289755
582.257463	0.288238
582.610975	0.292475
582.964434	0.292140
583.317837	0.295414
583.671186	0.296166
584.024481	0.296693
584.377721	0.299699
584.730906	0.300884
585.084037	0.300883
585.437113	0.303254
585.790135	0.303592
586.143103	0.307276
586.496016	0.308828
586.848874	0.307478
587.201679	0.308585
587.554428	0.312494
587.907124	0.312522
588.259765	0.313699
588.612352	0.315318
588.964884	0.319306
589.317362	0.320343
589.669786	0.321459
590.022155	0.319998
590.374470	0.320883
590.726731	0.323388
591.078937	0.329216
591.431090	0.327115
591.783188	0.331357
592.135232	0.333177
592.487222	0.333524
592.839157	0.333507
593.191038	0.336068
593.542866	0.339065
593.894639	0.343419
594.246358	0.343087
594.598022	0.343660
594.949633	0.347972
595.301190	0.349721
595.652692	0.349322
596.004141	0.347628
596.355535	0.355778
596.706876	0.357881
597.058162	0.361374
597.409395	0.359571
597.760573	0.359094
598.111698	0.363222
598.462768	0.365133
598.813785	0.366682
599.164748	0.370230
599.515657	0.371215
599.866511	0.376692
600.217312	0.373168
600.568060	0.379330
600.918753	0.377364
601.269392	0.379770
601.619978	0.384882
601.970510	0.384105
602.320988	0.385453
602.671412	0.385232
603.021783	0.389362
603.372100	0.391636
603.722363	0.393721
604.072572	0.395495
604.422728	0.396696
604.772830	0.400795
605.122878	0.402260
605.472872	0.403916
605.822813	0.404587
606.172701	0.408509
606.522534	0.407925
606.872314	0.410106
607.222041	0.412575
607.571714	0.412532
607.921333	0.415521
608.270899	0.417782
608.620411	0.416568
608.969870	0.422281
609.319276	0.423887
609.668627	0.426655
610.017926	0.426736
610.367171	0.428042
610.716362	0.430146
611.065500	0.432448
611.414585	0.434674
611.763616	0.435821
612.112594	0.438456
612.461518	0.439921
612.810389	0.440414
613.159207	0.444889
613.507971	0.448042
613.856682	0.447426
614.205340	0.449947
614.553945	0.450177
614.902496	0.455970
615.250994	0.456220
615.599439	0.459140
615.947830	0.461035
616.296169	0.464765
616.644454	0.466202
616.992686	0.468707
617.340864	0.470270
617.688990	0.475094
618.037063	0.474908
618.385082	0.479196
618.733048	0.479504
619.080961	0.483703
619.428821	0.486148
619.776628	0.487968
620.124382	0.492381
620.472083	0.495182
620.819731	0.496816
621.167326	0.501624
621.514868	0.503355
621.862357	0.508944
622.209793	0.510751
622.557176	0.515175
622.904506	0.517812
623.251783	0.521923
623.599007	0.526474
623.946179	0.527387
624.293297	0.532107
624.640363	0.536630
624.987376	0.539320
625.334336	0.543049
625.681243	0.548381
626.028097	0.550171
626.374899	0.552741
626.721647	0.556588
627.068343	0.560209
627.414987	0.564028
627.761577	0.566839
628.108115	0.567471
628.454600	0.574328
628.801032	0.575840
629.147412	0.578155
629.493739	0.582255
629.840014	0.585858
630.186236	0.586522
630.532405	0.592539
630.878521	0.593337
631.224585	0.597771
631.570597	0.601360
631.916556	0.603876
632.262462	0.604834
632.608316	0.611039
632.954117	0.612511
633.299866	0.615578
633.645562	0.618408
633.991206	0.622979
634.336797	0.627020
634.682336	0.631425
635.027823	0.634558
635.373257	0.635873
635.718639	0.641220
636.063968	0.642924
636.409245	0.647756
636.754470	0.650951
637.099642	0.654015
637.444762	0.659480
637.789829	0.660930
638.134845	0.664757
638.479808	0.668958
638.824719	0.670297
639.169577	0.673961
639.514383	0.676376
639.859137	0.681106
640.203839	0.682136
640.548489	0.685355
640.893086	0.688404
641.237632	0.691701
641.582125	0.692371
641.926566	0.696491
642.270955	0.698114
642.615292	0.699945
642.959576	0.702705
643.303809	0.704453
643.647990	0.706921
643.992118	0.709467
644.336195	0.711683
644.680219	0.714677
645.024192	0.716250
645.368112	0.714674
645.711981	0.716943
646.055797	0.716456
646.399562	0.719585
646.743274	0.719316
647.086935	0.718512
647.430544	0.721055
647.774101	0.722030
648.117606	0.724507
648.461059	0.727686
648.804460	0.730289
649.147810	0.733153
649.491108	0.737361
649.834354	0.739654
650.177548	0.744119
650.520690	0.748578
650.863781	0.750985
651.206820	0.753271
651.549807	0.757638
651.892742	0.761897
652.235626	0.763999
652.578458	0.766123
652.921238	0.770309
653.263967	0.770629
653.606644	0.773572
653.949269	0.776190
654.291843	0.778359
654.634365	0.780263
654.976836	0.783171
655.319255	0.784820
655.661622	0.788168
656.003938	0.789416
656.346203	0.790582
656.688416	0.794411
657.030577	0.796143
657.372687	0.798565
657.714746	0.800801
658.056753	0.800752
658.398708	0.804224
658.740612	0.805875
659.082465	0.807003
659.424266	0.809056
659.766016	0.810090
660.107715	0.813323
660.449362	0.813664
660.790958	0.815364
661.132503	0.818920
661.473996	0.819097
661.815438	0.821699
662.156829	0.823109
662.498168	0.824836
662.839456	0.825642
663.180693	0.827512
663.521879	0.828685
663.863013	0.831629
664.204097	0.832116
664.545129	0.832484
664.886110	0.835030
665.227040	0.836210
665.567918	0.836772
665.908746	0.837396
666.249522	0.838634
666.590248	0.840680
666.930922	0.841442
667.271545	0.843457
667.612118	0.844510
667.952639	0.845654
668.293109	0.847726
668.633528	0.849103
668.973896	0.851177
669.314213	0.852470
669.654480	0.855850
669.994695	0.856476
670.334859	0.857745
670.674973	0.860571
671.015035	0.861408
671.355047	0.863210
671.695008	0.864065
672.034918	0.865892
672.374777	0.866928
672.714585	0.868799
673.054342	0.868813
673.394049	0.870150
673.733705	0.872114
674.073310	0.874137
674.412864	0.874239
674.752368	0.876824
675.091820	0.878960
675.431223	0.880688
675.770574	0.881633
676.109875	0.883386
676.449125	0.884486
676.788324	0.886516
677.127473	0.888868
677.466571	0.891203
677.805619	0.892819
678.144616	0.893893
678.483562	0.895197
678.822458	0.897292
679.161303	0.897873
679.500098	0.899848
679.838842	0.901094
680.177535	0.901094
680.516179	0.901731
680.854771	0.903230
681.193314	0.902790
681.531805	0.900837
681.870247	0.899775
682.208638	0.897320
682.546978	0.898563
682.885268	0.900401
683.223508	0.903051
683.561697	0.905579
683.899836	0.906463
684.237925	0.908136
684.575963	0.907204
684.913951	0.910736
685.251889	0.909981
685.589776	0.911600
685.927614	0.912164
686.265401	0.912150
686.603137	0.912390
686.940824	0.912515
687.278460	0.912639
687.616046	0.911551
687.953582	0.911190
688.291068	0.911921
688.628504	0.912217
688.965889	0.912403
689.303224	0.913349
689.640510	0.916503
689.977745	0.918163
690.314930	0.920841
690.652065	0.923119
690.989150	0.925063
691.326185	0.927857
691.663170	0.929577
692.000105	0.932158
692.336990	0.933485
692.673825	0.935449
693.010610	0.936496
693.347345	0.938862
693.684030	0.939736
694.020665	0.940898
694.357251	0.942060
694.693786	0.943540
695.030272	0.943413
695.366707	0.945190
695.703093	0.945887
696.039429	0.945790
696.375716	0.947979
696.711952	0.947406
697.048139	0.948813
697.384276	0.949651
697.720363	0.949612
698.056400	0.948961
698.392388	0.949752
698.728326	0.951071
699.064214	0.952431
699.400053	0.953040
699.735842	0.955726
700.071581	0.954604
700.407270	0.956170
700.742910	0.957550
701.078501	0.957624
701.414042	0.960006
701.749533	0.959353
702.084974	0.960747
702.420366	0.962078
702.755709	0.961886
703.091002	0.964236
703.426246	0.963864
703.761440	0.964048
704.096584	0.964450
704.431679	0.965417
704.766725	0.965958
705.101721	0.967662
705.436668	0.966363
705.771565	0.966893
706.106413	0.966567
706.441212	0.967642
706.775961	0.967842
707.110661	0.967625
707.445311	0.968346
707.779913	0.968945
708.114465	0.969069
708.448967	0.968387
708.783421	0.968206
709.117825	0.968171
709.452180	0.968137
709.786485	0.968851
710.120742	0.965921
710.454949	0.966433
710.789107	0.966314
711.123216	0.964761
711.457275	0.964431
711.791286	0.963573
712.125247	0.965164
712.459159	0.964130
712.793023	0.964219
713.126837	0.965840
713.460602	0.965509
713.794318	0.966366
714.127985	0.966366
714.461602	0.968975
714.795171	0.968711
715.128691	0.970857
715.462162	0.971755
715.795584	0.972550
716.128957	0.974865
716.462281	0.974229
716.795556	0.973800
717.128782	0.975421
717.461960	0.976799
717.795088	0.976677
718.128167	0.978259
718.461198	0.977477
718.794180	0.977657
719.127113	0.979104
719.459997	0.979209
719.792833	0.978879
720.125619	0.977850
720.458357	0.979536
720.791046	0.980406
721.123686	0.980723
721.456278	0.980493
721.788821	0.980829
722.121315	0.982232
722.453761	0.981103
722.786158	0.981780
723.118506	0.981368
723.450805	0.981578
723.783056	0.982235
724.115259	0.981561
724.447412	0.982555
724.779518	0.981913
725.111574	0.981662
725.443582	0.982887
725.775542	0.981778
726.107453	0.983012
726.439315	0.982864
726.771129	0.982548
727.102895	0.980976
727.434612	0.981430
727.766281	0.981401
728.097901	0.980666
728.429473	0.981620
728.760996	0.980344
729.092471	0.981938
729.423897	0.982213
729.755276	0.982698
730.086606	0.981843
730.417887	0.982522
730.749120	0.982404
731.080305	0.982910
731.411442	0.980613
731.742530	0.981619
732.073570	0.981550
732.404562	0.981536
732.735506	0.981149
733.066401	0.982957
733.397249	0.982679
733.728048	0.983430
734.058798	0.984828
734.389501	0.985456
734.720156	0.985167
735.050762	0.986121
735.381320	0.986030
735.711831	0.985721
736.042293	0.986565
736.372707	0.987914
736.703073	0.986067
737.033391	0.987015
737.363661	0.986936
737.693883	0.987360
738.024056	0.986072
738.354182	0.987382
738.684260	0.986136
739.014290	0.985930
739.344272	0.986251
739.674207	0.985994
740.004093	0.986762
740.333931	0.986216
740.663722	0.986106
740.993464	0.985808
741.323159	0.986268
741.652806	0.986828
741.982405	0.986417
742.311956	0.988291
742.641460	0.986721
742.970915	0.987350
743.300323	0.986321
743.629683	0.987461
743.958996	0.989459
744.288260	0.987686
744.617477	0.988363
744.946647	0.988627
745.275768	0.990434
745.604842	0.988663
745.933869	0.989905
746.262847	0.989638
746.591778	0.988964
746.920662	0.989398
747.249498	0.988792
747.578286	0.991393
747.907027	0.990103
748.235720	0.989953
748.564365	0.989930
748.892963	0.989671
749.221514	0.989903
749.550017	0.989852
749.878473	0.989859
750.206881	0.989835
750.535242	0.989434
750.863555	0.990349
751.191821	0.990127
751.520039	0.989754
751.848210	0.988308
752.176334	0.990416
752.504411	0.990725
752.832440	0.990907
753.160421	0.990338
753.488356	0.991708
753.816243	0.990821
754.144082	0.990539
754.471875	0.990616
754.799620	0.990670
755.127318	0.990893
755.454969	0.990503
755.782572	0.992018
756.110129	0.989954
756.437638	0.992877
756.765100	0.991414
757.092515	0.990877
757.419882	0.991460
757.747203	0.989965
758.074477	0.992320
758.401703	0.991862
758.728882	0.990556
759.056014	0.991520
759.383099	0.991830
759.710138	0.989934
760.037129	0.990383
760.364073	0.990788
760.690970	0.990948
761.017820	0.990340
761.344623	0.991472
761.671379	0.991526
761.998088	0.990576
762.324751	0.990587
762.651366	0.989004
762.977935	0.986971
763.304456	0.986166
763.630931	0.982052
763.957359	0.981705
764.283740	0.984408
764.610074	0.985740
764.936362	0.987476
765.262602	0.989367
765.588796	0.989757
765.914943	0.990466
766.241044	0.990663
766.567097	0.991405
766.893104	0.991568
767.219064	0.991838
767.544978	0.993037
767.870845	0.992411
768.196665	0.993449
768.522438	0.992763
768.848165	0.993871
769.173846	0.993700
769.499479	0.993951
769.825066	0.994587
770.150607	0.994684
770.476101	0.993757
770.801548	0.994272
771.126949	0.994369
771.452303	0.995024
771.777611	0.994117
772.102872	0.994113
772.428087	0.992734
772.753256	0.995303
773.078378	0.993826
773.403453	0.993380
773.728482	0.995208
774.053465	0.994228
774.378401	0.994921
774.703291	0.995127
775.028135	0.996148
775.352932	0.993751
775.677683	0.996146
776.002388	0.995954
776.327046	0.995431
776.651658	0.996630
776.976224	0.995810
777.300743	0.994581
777.625216	0.995105
777.949643	0.995500
778.274024	0.994373
778.598359	0.995444
778.922647	0.995643
779.246889	0.995650
779.571086	0.995415
779.895236	0.994702
780.219339	0.996381
780.543397	0.995413
780.867409	0.995956
781.191374	0.995488
781.515294	0.997167
781.839167	0.995330
782.162995	0.994692
782.486776	0.995614
782.810511	0.996164
783.134201	0.996293
783.457844	0.995959
783.781441	0.996028
784.104993	0.995422
784.428498	0.996018
784.751958	0.996777
785.075372	0.996244
785.398739	0.995456
785.722061	0.995349
786.045337	0.996350
786.368568	0.995737
786.691752	0.995177
787.014891	0.995995
787.337983	0.994905
787.661030	0.995041
787.984031	0.995671
788.306987	0.994377
788.629897	0.993203
788.952760	0.993720
789.275579	0.994730
789.598351	0.994086
789.921078	0.995676
790.243759	0.995316
790.566395	0.995464
790.888984	0.995145
791.211529	0.996894
791.534027	0.995852
791.856480	0.996035
792.178888	0.996132
792.501249	0.995104
792.823566	0.997702
793.145836	0.995787
793.468062	0.996448
793.790241	0.997093
794.112375	0.996166
794.434464	0.996242
794.756507	0.995740
795.078505	0.996081
795.400457	0.996827
795.722364	0.995701
796.044226	0.995102
796.366042	0.993901
796.687812	0.993919
797.009538	0.995338
797.331218	0.995137
797.652852	0.996601
797.974442	0.995461
798.295986	0.995403
798.617484	0.994724
798.938938	0.995060
799.260346	0.994290
799.581709	0.994941
799.903026	0.997120
800.224299	0.996348
800.545526	0.995724
800.866708	0.995268
801.187845	0.996580
801.508936	0.996237
801.829983	0.996159
802.150984	0.996098
802.471940	0.996839
802.792851	0.995829
803.113717	0.998234
803.434538	0.997955
803.755314	0.997455
804.076045	0.997982
804.396731	0.995388
804.717372	0.995846
805.037967	0.997340
805.358518	0.997752
805.679024	0.994965
805.999485	0.997069
806.319901	0.997395
806.640272	0.998485
806.960598	0.996238
807.280879	0.996163
807.601115	0.996916
807.921306	0.997907
808.241453	0.996163
808.561554	0.996450
808.881611	0.997001
809.201623	0.997464
809.521590	0.996272
809.841513	0.996503
810.161390	0.996664
810.481223	0.996381
810.801011	0.997442
811.120755	0.997970
811.440453	0.995706
811.760107	0.996823
812.079716	0.995982
812.399281	0.997134
812.718801	0.996498
813.038276	0.996636
813.357707	0.997498
813.677093	0.998102
813.996434	0.996816
814.315731	0.998074
814.634983	0.996284
814.954191	0.997188
815.273354	0.995769
815.592473	0.995916
815.911547	0.997023
816.230577	0.996368
816.549562	0.997021
816.868502	0.995146
817.187399	0.996397
817.506250	0.996223
817.825058	0.995088
818.143821	0.995854
818.462539	0.995425
818.781213	0.995516
819.099843	0.995082
819.418429	0.993797
819.736970	0.993506
820.055466	0.991142
820.373919	0.991273
820.692327	0.989655
821.010691	0.988431
821.329011	0.984696
821.647286	0.979836
821.965517	0.974750
822.283704	0.970006
822.601847	0.967386
822.919945	0.967630
823.237999	0.970851
823.556010	0.973352
823.873976	0.976678
824.191897	0.978523
824.509775	0.981147
824.827609	0.982798
825.145398	0.984935
825.463144	0.985487
825.780845	0.985451
826.098502	0.984818
826.416116	0.984891
826.733685	0.981369
827.051210	0.977710
827.368692	0.978744
827.686129	0.980520
828.003522	0.983893
828.320872	0.985521
828.638177	0.988135
828.955439	0.989705
829.272656	0.991529
829.589830	0.991020
829.906960	0.994357
830.224046	0.993382
830.541088	0.994782
830.858086	0.994397
831.175041	0.995855
831.491952	0.995207
831.808819	0.995407
832.125642	0.994587
832.442421	0.995101
832.759157	0.993077
833.075849	0.990225
833.392497	0.987913
833.709101	0.986003
834.025662	0.985169
834.342179	0.986769
834.658653	0.988255
834.975083	0.990755
835.291469	0.991297
835.607811	0.992952
835.924110	0.993864
836.240366	0.995541
836.556578	0.995069
836.872746	0.995490
837.188871	0.995886
837.504952	0.996036
837.820990	0.996363
838.136984	0.996187
838.452935	0.995567
838.768842	0.997040
839.084706	0.997060
839.400526	0.997203
839.716303	0.993836
840.032037	0.992751
840.347727	0.992427
840.663373	0.993467
840.978977	0.994437
841.294537	0.995999
841.610054	0.996570
841.925527	0.997370
842.240957	0.997277
842.556344	0.997095
842.871687	0.997864
843.186987	0.997461
843.502244	0.999011
843.817458	0.998094
844.132629	0.997406
844.447756	0.998332
844.762840	0.999090
845.077881	0.999597
845.392879	0.998289
845.707833	0.998951
846.022745	0.998318
846.337613	0.999449
846.652438	0.998299
846.967221	0.999343
847.281960	0.998744
847.596656	1.000258
847.911309	0.999934
848.225919	0.999462
848.540485	0.998857
848.855009	1.000413
849.169490	0.998912
849.483928	0.999911
849.798323	0.997698
850.112675	1.000091
850.426984	0.998396
850.741251	0.998948
851.055474	0.999677
851.369654	1.000229
851.683792	0.998339
851.997887	0.998659
852.311938	0.999557
852.625947	0.998328
852.939914	0.997475
853.253837	1.000583
853.567718	1.000460
853.881555	0.999849
854.195350	0.999014
854.509103	0.999425
854.822812	0.999695
855.136479	0.998850
855.450103	0.998829
855.763685	1.000022
856.077224	0.998996
856.390720	0.999110
856.704173	0.999806
857.017584	0.999255
857.330953	1.000228
857.644278	1.000174
857.957561	0.999734
858.270802	0.999631
858.584000	0.998886
858.897155	0.998152
859.210268	0.999230
859.523339	0.999490
859.836367	0.999246
860.149352	0.998567
860.462295	0.999247
860.775195	0.998299
861.088054	0.997098
861.400869	0.998812
861.713642	0.998206
862.026373	0.999612
862.339062	0.999356
862.651708	0.999251
862.964312	0.999404
863.276873	0.999992
863.589392	0.999859
863.901869	0.998111
864.214303	0.998740
864.526696	0.998572
864.839045	0.999237
865.151353	0.997698
865.463619	0.997793
865.775842	0.998045
866.088023	1.000159
866.400162	0.999575
866.712258	0.998951
867.024313	0.998461
867.336325	0.999463
867.648296	0.999426
867.960224	0.999271
868.272110	0.999735
868.583954	0.998667
868.895755	0.999427
869.207515	0.998702
869.519233	0.998748
869.830909	0.997384
870.142542	0.997390
870.454134	0.998739
870.765684	0.998343
871.077191	0.999699
871.388657	0.997297
871.700081	0.997564
872.011463	0.999194
872.322803	0.998853
872.634101	0.997111
872.945357	0.997894
873.256571	0.996989
873.567744	0.997761
873.878874	0.996982
874.189963	0.997127
874.501010	0.998759
874.812015	0.997838
875.122979	0.997773
875.433900	0.998214
875.744780	0.998053
876.055618	0.996746
876.366415	0.997568
876.677169	0.997347
876.987882	0.996937
877.298554	0.998653
877.609183	0.996429
877.919771	0.996599
878.230317	0.997410
878.540822	0.995291
878.851285	0.995376
879.161707	0.995749
879.472087	0.996306
879.782425	0.991965
880.092722	0.991165
880.402977	0.987480
880.713191	0.981800
881.023363	0.976487
881.333494	0.971915
881.643583	0.972983
881.953631	0.972431
882.263637	0.971940
882.573602	0.973904
882.883526	0.976910
883.193408	0.979575
883.503248	0.981687
883.813048	0.982928
884.122806	0.984926
884.432522	0.987357
884.742197	0.990727
885.051831	0.989676
885.361424	0.990952
885.670975	0.994636
885.980485	0.992920
886.289954	0.993784
886.599382	0.994679
886.908768	0.995673
887.218113	0.994257
887.527417	0.995609
887.836680	0.996825
888.145901	0.996611
888.455082	0.999048
888.764221	0.997742
889.073319	0.996388
889.382376	0.997603
889.691392	0.997265
890.000366	0.997968
890.309300	0.996864
890.618193	0.997219
890.927044	0.996721
891.235855	0.996391
891.544625	0.997314
891.853353	0.996503
892.162041	0.995137
892.470687	0.996637
892.779293	0.995835
893.087858	0.994929
893.396381	0.994745
893.704864	0.992485
894.013306	0.991782
894.321707	0.990060
894.630068	0.985597
894.938387	0.986983
895.246665	0.987144
895.554903	0.987402
895.863100	0.989543
896.171256	0.989412
896.479371	0.991520
896.787446	0.992948
897.095480	0.994429
897.403473	0.994443
897.711425	0.994969
898.019336	0.995662
898.327207	0.996461
898.635038	0.995170
898.942827	0.996279
899.250576	0.995468
899.558284	0.996129
899.865952	0.996360
900.173579	0.996002
900.481165	0.996481
900.788711	0.996524
901.096216	0.996780
901.403681	0.997349
901.711105	0.997447
902.018489	0.997495
902.325832	0.997514
902.633135	0.997492
902.940397	0.997718
903.247619	0.995515
903.554800	0.993407
903.861941	0.990047
904.169041	0.984944
904.476101	0.982722
904.783121	0.982832
905.090100	0.985144
905.397039	0.986192
905.703938	0.989028
906.010796	0.990461
906.317614	0.992478
906.624391	0.993912
906.931129	0.995098
907.237826	0.995646
907.544483	0.997343
907.851099	0.996869
908.157675	0.996529
908.464211	0.998450
908.770707	0.996376
909.077163	0.997951
909.383578	0.998548
909.689954	0.998404
909.996289	0.998069
910.302584	0.999090
910.608839	1.000161
910.915054	0.998101
911.221229	0.999667
911.527363	0.997858
911.833458	0.997272
912.139513	0.999081
912.445527	0.998357
912.751502	0.999208
913.057436	0.997865
913.363331	0.997986
913.669186	0.999082
913.975000	0.997249
914.280775	0.996676
914.586510	0.995130
914.892205	0.992876
915.197859	0.990246
915.503475	0.989155
915.809050	0.986652
916.114585	0.983049
916.420081	0.983663
916.725536	0.984796
917.030952	0.985748
917.336328	0.986336
917.641665	0.987204
917.946961	0.989868
918.252218	0.990299
918.557435	0.991235
918.862612	0.992512
919.167750	0.994476
919.472848	0.994585
919.777906	0.996312
920.082925	0.996931
920.387904	0.996616
920.692843	0.996380
920.997743	0.996258
921.302603	0.997564
921.607423	0.996028
921.912204	0.997739
922.216946	0.998070
922.521647	0.997253
922.826310	0.998509
923.130932	0.998578
923.435516	0.999058
923.740059	0.998897
924.044564	0.998418
924.349028	0.998297
924.653454	1.000427
924.957840	0.999160
925.262186	0.998585
925.566493	0.999349
925.870761	0.999196
926.174989	0.999293
926.479178	0.999943
926.783328	0.999354
927.087438	0.999626
927.391509	0.999222
927.695541	0.999159
927.999533	0.999694
928.303486	1.000498
928.607400	1.001190
928.911275	1.001198
929.215110	1.000762
929.518906	1.000544
929.822663	1.000391
930.126381	1.001192
930.430060	0.999941
930.733699	1.000290
931.037299	1.000616
931.340861	1.001233
931.644383	0.998893
931.947866	0.999873
932.251309	1.000331
932.554714	1.000124
932.858080	1.000856
933.161407	0.999712
933.464694	1.000197
933.767943	0.999711
934.071153	1.000198
934.374323	1.001243
934.677455	1.000021
934.980548	0.999236
935.283602	1.000254
935.586617	0.999556
935.889593	1.000926
936.192530	1.000091
936.495428	1.000208
936.798287	1.000357
937.101108	0.999847
937.403890	0.999874
937.706632	1.000159
938.009336	0.999534
938.312002	0.999066
938.614628	0.999871
938.917216	0.999092
939.219765	0.997088
939.522275	0.999643
939.824747	0.998666
940.127179	0.999624
940.429573	0.999632
940.731929	0.998717
941.034246	0.998383
941.336524	0.999076
941.638763	0.999092
941.940964	0.998693
942.243126	0.999054
942.545250	1.000064
942.847335	0.998126
943.149381	1.000324
943.451389	1.000597
943.753359	0.999916
944.055290	1.001001
944.357182	0.999305
944.659036	1.000520
944.960851	1.000931
945.262628	1.000800
945.564367	0.999491
945.866067	1.000077
946.167729	1.000340
946.469352	1.000349
946.770937	0.998123
947.072484	1.000695
947.373992	1.000291
947.675462	0.999585
947.976893	0.999985
948.278286	1.001869
948.579641	1.001757
948.880958	0.999586
949.182236	1.000651
949.483476	1.001180
949.784678	1.000346
950.085841	1.000790
950.386967	1.000189
950.688054	1.000373
950.989103	0.998382
951.290114	0.999050
951.591087	1.000740
951.892021	1.000156
952.192917	0.999834
952.493776	1.000715
952.794596	0.999829
953.095378	0.998837
953.396122	0.999095
953.696828	1.000403
953.997496	1.001215
954.298126	1.001156
954.598718	1.000165
954.899272	0.998649
955.199788	0.999268
955.500266	1.001593
955.800706	1.000945
956.101108	0.998925
956.401472	1.002993
956.701798	1.000769
957.002087	0.999565
957.302337	0.999945
957.602550	1.001407
957.902724	1.000414
958.202861	1.000621
958.502960	1.001096
958.803022	1.001636
959.103045	1.001554
959.403031	1.001419
959.702979	1.001961
960.002889	1.000811
960.302762	1.000342
960.602596	1.001760
960.902393	1.001129
961.202153	1.001775
961.501875	1.001349
961.801559	1.002986
962.101205	1.000039
962.400814	1.002658
962.700385	1.000787
962.999918	1.000587
963.299414	1.001114
963.598873	1.001416
963.898293	1.001090
964.197677	1.001408
964.497022	1.001177
964.796331	1.001940
965.095601	1.002175
965.394835	1.001754
965.694030	1.002665
965.993189	1.001332
966.292309	1.003076
966.591393	1.000537
966.890439	1.001900
967.189447	0.999760
967.488419	1.001752
967.787353	1.000557
968.086249	1.001386
968.385108	1.003601
968.683930	1.003030
968.982714	1.002498
969.281462	1.001438
969.580172	1.001478
969.878844	1.002544
970.177480	1.002495
970.476078	1.001871
970.774639	1.001883
971.073162	1.002018
971.371649	1.002375
971.670098	1.001616
971.968510	1.001569
972.266885	1.000721
972.565223	1.001497
972.863524	1.000451
973.161788	1.001095
973.460014	1.002259
973.758204	1.000185
974.056356	1.001198
974.354471	1.000423
974.652550	1.002855
974.950591	1.000255
975.248595	1.001187
975.546563	1.002872
975.844493	1.002456
976.142386	1.001347
976.440243	1.002352
976.738062	1.002088
977.035845	1.001662
977.333590	1.001922
977.631299	1.000839
977.928971	1.000914
978.226606	1.000674
978.524204	1.001122
978.821765	1.002974
979.119290	1.002346
979.416777	1.001104
979.714228	1.000942
980.011642	1.001795
980.309020	1.002063
980.606360	1.001805
980.903664	1.002602
981.200931	0.999892
981.498162	1.001143
981.795356	1.002381
982.092513	1.001979
982.389633	1.002166
982.686717	0.999284
982.983764	1.001790
983.280775	1.001600
983.577749	1.001525
983.874686	0.999681
984.171587	0.999519
984.468451	1.001475
984.765279	1.001738
985.062070	1.001352
985.358824	1.002127
985.655543	1.002506
985.952224	1.003303
986.248869	1.001566
986.545478	1.002831
986.842050	1.001513
987.138586	1.001883
987.435086	1.001186
987.731549	1.003742
988.027975	1.003391
988.324366	1.001708
988.620719	1.003620
988.917037	1.001716
989.213318	1.003423
989.509563	1.002081
989.805772	1.002248
990.101944	1.003513
990.398080	1.002256
990.694180	1.002036
990.990244	1.001256
991.286271	1.001735
991.582262	1.002369
991.878217	1.001748
992.174136	1.003165
992.470019	1.001284
992.765865	1.004202
993.061676	1.002488
993.357450	1.002407
993.653188	1.002936
993.948890	1.002205
994.244556	1.001400
994.540186	1.002475
994.835780	1.001914
995.131337	1.002203
995.426859	1.002131
995.722345	1.002985
996.017795	1.001741
996.313208	1.002272
996.608586	1.001340
996.903928	1.000660
997.199234	1.001587
997.494504	1.002982
997.789738	1.000595
998.084936	1.001766
998.380099	1.001477
998.675225	1.002377
998.970316	1.003206
999.265371	1.001753
999.560390	1.001757
999.855373	1.001809
1000.150320	1.002474
1000.445232	1.002637
1000.740108	1.002784
1001.034948	1.001931
1001.329752	1.003049
1001.624521	1.001889
1001.919254	1.001343
1002.213951	1.003718
1002.508613	1.001898
1002.803239	1.001471
1003.097829	1.002472
1003.392384	1.002824
1003.686903	1.002280
1003.981386	1.002434
1004.275834	1.003689
1004.570246	1.001729
1004.864623	1.003662
1005.158964	1.003502
1005.453270	1.002139
1005.747540	1.001743
1006.041775	1.003621
1006.335974	1.002441
1006.630138	1.002324
1006.924266	1.002007
1007.218359	1.000774
1007.512416	1.003270
1007.806438	1.002852
1008.100425	1.002511
1008.394376	1.002865
1008.688292	1.001518
1008.982172	1.001391
1009.276017	1.003171
1009.569827	1.003908
1009.863602	1.000987
1010.157341	1.003147
1010.451045	1.001586
1010.744714	1.003317
1011.038347	1.003549
1011.331945	1.002094
1011.625508	1.001530
1011.919036	1.001887
1012.212528	1.002621
1012.505986	1.002999
1012.799408	1.002785
1013.092795	1.001768
1013.386147	1.002652
1013.679464	1.002958
1013.972745	1.001890
1014.265992	1.001805
1014.559204	1.001476
1014.852380	1.004306
1015.145521	1.002304
1015.438628	1.002280
1015.731699	1.001653
1016.024736	1.002362
1016.317737	1.003684
1016.610703	1.003691
1016.903635	1.003423
1017.196531	1.002862
1017.489393	1.002823
1017.782219	1.001815
1018.075011	1.001776
1018.367768	1.002239
1018.660490	1.003257
1018.953177	1.003257
1019.245829	1.003257
