Dividing Wavelength (nm)	Counts (n)	Blue Motor Position (mm): 8.300000	Red Motor Position (mm): 0.000000	
326.493990	1.004274
326.888308	1.004274
327.282561	1.004274
327.676750	1.004457
328.070874	1.004872
328.464933	1.006380
328.858929	1.005175
329.252859	1.004966
329.646726	1.004590
330.040528	1.005109
330.434265	1.004181
330.827938	1.003126
331.221547	1.004893
331.615091	1.004618
332.008571	1.005853
332.401986	1.003170
332.795338	1.004263
333.188625	1.005415
333.581847	1.003379
333.975006	1.005143
334.368100	1.004858
334.761129	1.003573
335.154095	1.004572
335.546996	1.002323
335.939833	0.998200
336.332606	0.998592
336.725315	0.997736
337.117960	0.999250
337.510540	0.997159
337.903056	0.998156
338.295508	1.000347
338.687896	0.998818
339.080220	0.998435
339.472480	0.998559
339.864676	0.998848
340.256807	0.997476
340.648875	0.998781
341.040879	0.997736
341.432818	0.999385
341.824694	0.998667
342.216506	0.998798
342.608253	0.998302
342.999937	0.999369
343.391557	0.998542
343.783113	0.999195
344.174605	0.999810
344.566033	0.998080
344.957397	0.999130
345.348697	0.998187
345.739934	0.998795
346.131106	0.997815
346.522215	0.997297
346.913260	0.998177
347.304241	0.997753
347.695159	0.999054
348.086012	0.998177
348.476802	0.998457
348.867528	0.997687
349.258191	0.999633
349.648789	0.998829
350.039324	0.997691
350.429796	0.997128
350.820203	0.997323
351.210548	0.999164
351.600828	0.997651
351.991045	0.997029
352.381198	0.998505
352.771288	0.997247
353.161314	0.999110
353.551276	0.997721
353.941175	0.996597
354.331010	0.998827
354.720782	0.996739
355.110490	0.997097
355.500135	0.997724
355.889717	0.997878
356.279235	0.997392
356.668689	0.997869
357.058080	0.998574
357.447408	0.996514
357.836672	0.998007
358.225873	0.997202
358.615010	0.997768
359.004084	0.995883
359.393095	0.997181
359.782043	0.997087
360.170927	0.998723
360.559748	0.997966
360.948505	0.996976
361.337199	0.996047
361.725830	0.997512
362.114398	0.996931
362.502903	0.995179
362.891344	0.995267
363.279722	0.996662
363.668037	0.997944
364.056289	0.995721
364.444478	0.998110
364.832603	0.996718
365.220665	0.996566
365.608665	0.996555
365.996601	0.997115
366.384474	0.995516
366.772284	0.996066
367.160031	0.995418
367.547715	0.994680
367.935336	0.993427
368.322893	0.993011
368.710388	0.992093
369.097820	0.990928
369.485189	0.987849
369.872495	0.986793
370.259738	0.984179
370.646918	0.980861
371.034035	0.978720
371.421090	0.976922
371.808081	0.969756
372.195010	0.967983
372.581875	0.962961
372.968678	0.958471
373.355418	0.954802
373.742096	0.947290
374.128710	0.943251
374.515262	0.938698
374.901751	0.933574
375.288177	0.928439
375.674540	0.921879
376.060841	0.914640
376.447079	0.908646
376.833254	0.901901
377.219367	0.896962
377.605417	0.885893
377.991404	0.881210
378.377329	0.876440
378.763191	0.870396
379.148991	0.860651
379.534727	0.853085
379.920402	0.844845
380.306013	0.841442
380.691563	0.829181
381.077049	0.821839
381.462474	0.817167
381.847835	0.806206
382.233134	0.801590
382.618371	0.801868
383.003545	0.785057
383.388657	0.782652
383.773706	0.774941
384.158693	0.770884
384.543618	0.765716
384.928480	0.756630
385.313280	0.747027
385.698017	0.746403
386.082692	0.734839
386.467305	0.732950
386.851856	0.728961
387.236344	0.722847
387.620770	0.717432
388.005133	0.711168
388.389435	0.705934
388.773674	0.702889
389.157851	0.694349
389.541965	0.693266
389.926018	0.699575
390.310008	0.685846
390.693936	0.683379
391.077802	0.675111
391.461606	0.676219
391.845348	0.666129
392.229027	0.664830
392.612645	0.663332
392.996200	0.650447
393.379694	0.643698
393.763125	0.634107
394.146494	0.638271
394.529801	0.629236
394.913047	0.620805
395.296230	0.627218
395.679351	0.618321
396.062410	0.615211
396.445408	0.617941
396.828343	0.612947
397.211217	0.608464
397.594028	0.620419
397.976778	0.610631
398.359466	0.607809
398.742092	0.602370
399.124656	0.614271
399.507158	0.602581
399.889598	0.600606
400.271977	0.591066
400.654294	0.595562
401.036549	0.594452
401.418742	0.598190
401.800874	0.583923
402.182944	0.581448
402.564952	0.572487
402.946898	0.574728
403.328783	0.574883
403.710606	0.587166
404.092367	0.561093
404.474067	0.566624
404.855705	0.565127
405.237282	0.574666
405.618797	0.560015
406.000250	0.556133
406.381642	0.546258
406.762972	0.551201
407.144240	0.550068
407.525447	0.549725
407.906593	0.542401
408.287677	0.538183
408.668700	0.546233
409.049661	0.540732
409.430560	0.535453
409.811399	0.544271
410.192176	0.525707
410.572891	0.533445
410.953545	0.520650
411.334138	0.535007
411.714669	0.527014
412.095139	0.539111
412.475547	0.523732
412.855894	0.525491
413.236180	0.524592
413.616405	0.529426
413.996568	0.520382
414.376670	0.526050
414.756711	0.531388
415.136691	0.527721
415.516609	0.518731
415.896466	0.516241
416.276262	0.511791
416.655997	0.513511
417.035670	0.495307
417.415283	0.486427
417.794834	0.492133
418.174324	0.496967
418.553753	0.506329
418.933121	0.488006
419.312428	0.482741
419.691674	0.488007
420.070859	0.476003
420.449983	0.484130
420.829045	0.473571
421.208047	0.482290
421.586988	0.475671
421.965867	0.473898
422.344686	0.463465
422.723444	0.475657
423.102141	0.492884
423.480777	0.465809
423.859352	0.485993
424.237866	0.463107
424.616319	0.463890
424.994712	0.455205
425.373044	0.465375
425.751314	0.453849
426.129524	0.469997
426.507673	0.453505
426.885762	0.446962
427.263789	0.452658
427.641756	0.462297
428.019662	0.452126
428.397508	0.451914
428.775292	0.456006
429.153016	0.448189
429.530679	0.454640
429.908282	0.447149
430.285824	0.457531
430.663305	0.435965
431.040726	0.456899
431.418086	0.456983
431.795385	0.448862
432.172624	0.447764
432.549802	0.448018
432.926920	0.447466
433.303977	0.446504
433.680974	0.443529
434.057910	0.441814
434.434786	0.441421
434.811601	0.444060
435.188355	0.426489
435.565050	0.436233
435.941683	0.436954
436.318257	0.420825
436.694770	0.421794
437.071222	0.420220
437.447614	0.424147
437.823946	0.431147
438.200218	0.420666
438.576429	0.430033
438.952580	0.423430
439.328670	0.419592
439.704700	0.426148
440.080670	0.427888
440.456580	0.408902
440.832429	0.417266
441.208218	0.427538
441.583947	0.417072
441.959616	0.416377
442.335224	0.421886
442.710773	0.413125
443.086261	0.410788
443.461689	0.424264
443.837057	0.413906
444.212365	0.404414
444.587612	0.411039
444.962800	0.401602
445.337927	0.402918
445.712995	0.429032
446.088002	0.390794
446.462949	0.401117
446.837837	0.406401
447.212664	0.394096
447.587431	0.386061
447.962139	0.357002
448.336786	0.315917
448.711374	0.326357
449.085901	0.370556
449.460369	0.374879
449.834776	0.378325
450.209124	0.357529
450.583412	0.350313
450.957640	0.343495
451.331808	0.354936
451.705917	0.378045
452.079965	0.382545
452.453954	0.371057
452.827883	0.377580
453.201752	0.372351
453.575562	0.383572
453.949311	0.372313
454.323001	0.378323
454.696632	0.374679
455.070202	0.366717
455.443713	0.358729
455.817164	0.353776
456.190556	0.349341
456.563888	0.345770
456.937160	0.343519
457.310373	0.361007
457.683526	0.359908
458.056619	0.365203
458.429653	0.366108
458.802628	0.369313
459.175542	0.363911
459.548398	0.345921
459.921194	0.338913
460.293930	0.338876
460.666607	0.316395
461.039224	0.304659
461.411782	0.300061
461.784280	0.299449
462.156719	0.303580
462.529099	0.308251
462.901419	0.323989
463.273680	0.328729
463.645882	0.327992
464.018024	0.333985
464.390106	0.326472
464.762130	0.311555
465.134094	0.294119
465.505999	0.263298
465.877845	0.233500
466.249631	0.220532
466.621358	0.227859
466.993026	0.242080
467.364634	0.248104
467.736184	0.256935
468.107674	0.265934
468.479105	0.265196
468.850477	0.271668
469.221790	0.278506
469.593043	0.288673
469.964238	0.293404
470.335373	0.292733
470.706449	0.291152
471.077467	0.291520
471.448425	0.253800
471.819324	0.229230
472.190164	0.228659
472.560945	0.257708
472.931667	0.279862
473.302330	0.284160
473.672934	0.296027
474.043479	0.283690
474.413965	0.286099
474.784393	0.289400
475.154761	0.284451
475.525070	0.281307
475.895321	0.287103
476.265513	0.281291
476.635645	0.276726
477.005719	0.276648
477.375734	0.273151
477.745691	0.266453
478.115588	0.262723
478.485427	0.256424
478.855207	0.243466
479.224928	0.225621
479.594591	0.213500
479.964194	0.217186
480.333739	0.218316
480.703226	0.219768
481.072653	0.218055
481.442022	0.213804
481.811333	0.210686
482.180584	0.213979
482.549777	0.219498
482.918912	0.222698
483.287988	0.222352
483.657005	0.222195
484.025964	0.228439
484.394864	0.225734
484.763706	0.226441
485.132489	0.231240
485.501213	0.232360
485.869879	0.230450
486.238487	0.233769
486.607036	0.231509
486.975527	0.236600
487.343959	0.232093
487.712333	0.231101
488.080648	0.232397
488.448905	0.231865
488.817104	0.232724
489.185244	0.227472
489.553326	0.224205
489.921350	0.214266
490.289315	0.196543
490.657222	0.191458
491.025070	0.193026
491.392861	0.194835
491.760593	0.200817
492.128267	0.206470
492.495883	0.211830
492.863440	0.217974
493.230939	0.224615
493.598380	0.226053
493.965763	0.227976
494.333088	0.230233
494.700354	0.231916
495.067563	0.230919
495.434713	0.234274
495.801805	0.231838
496.168839	0.233268
496.535815	0.234798
496.902733	0.234893
497.269593	0.236345
497.636395	0.233800
498.003139	0.234571
498.369825	0.237359
498.736453	0.234053
499.103023	0.235328
499.469535	0.235194
499.835989	0.235242
500.202385	0.236192
500.568723	0.239071
500.935003	0.234440
501.301226	0.238634
501.667390	0.232690
502.033497	0.231144
502.399546	0.234067
502.765537	0.235810
503.131470	0.234699
503.497345	0.230892
503.863163	0.239176
504.228923	0.232477
504.594625	0.230990
504.960269	0.236283
505.325856	0.231937
505.691385	0.236180
506.056856	0.232875
506.422270	0.232294
506.787625	0.234597
507.152924	0.232110
507.518164	0.232507
507.883347	0.234514
508.248472	0.236146
508.613540	0.230931
508.978550	0.233120
509.343503	0.234014
509.708398	0.231715
510.073236	0.229166
510.438016	0.228896
510.802738	0.229967
511.167403	0.228953
511.532010	0.231144
511.896561	0.226310
512.261053	0.224998
512.625488	0.227295
512.989866	0.227417
513.354186	0.227440
513.718449	0.229830
514.082655	0.226121
514.446803	0.228425
514.810894	0.225912
515.174927	0.228748
515.538904	0.228479
515.902822	0.225156
516.266684	0.227350
516.630488	0.228604
516.994235	0.227544
517.357925	0.226339
517.721558	0.224281
518.085133	0.224287
518.448651	0.224092
518.812112	0.226191
519.175516	0.226084
519.538863	0.223666
519.902152	0.225326
520.265385	0.222105
520.628560	0.223742
520.991678	0.224124
521.354739	0.223315
521.717743	0.224209
522.080690	0.224777
522.443580	0.222005
522.806413	0.222976
523.169189	0.222593
523.531908	0.220840
523.894569	0.224782
524.257174	0.224538
524.619722	0.222160
524.982213	0.223493
525.344647	0.222410
525.707025	0.223281
526.069345	0.221382
526.431608	0.223309
526.793815	0.221211
527.155964	0.225377
527.518057	0.224066
527.880093	0.225194
528.242072	0.223834
528.603995	0.225760
528.965860	0.227258
529.327669	0.226291
529.689421	0.227214
530.051117	0.227963
530.412755	0.225675
530.774337	0.227866
531.135862	0.228390
531.497331	0.227741
531.858743	0.230604
532.220098	0.227488
532.581396	0.230077
532.942638	0.230179
533.303824	0.231265
533.664953	0.230992
534.026025	0.233026
534.387040	0.230570
534.747999	0.230860
535.108902	0.229623
535.469748	0.234780
535.830537	0.232769
536.191270	0.232867
536.551947	0.232347
536.912567	0.232453
537.273131	0.234329
537.633638	0.234570
537.994089	0.235090
538.354483	0.235935
538.714821	0.233071
539.075103	0.232779
539.435328	0.233567
539.795497	0.237258
540.155609	0.233813
540.515665	0.231934
540.875665	0.237641
541.235609	0.236292
541.595496	0.236216
541.955328	0.233078
542.315102	0.235649
542.674821	0.236778
543.034483	0.236705
543.394090	0.236476
543.753640	0.238242
544.113134	0.233431
544.472571	0.236462
544.831953	0.233498
545.191278	0.237771
545.550548	0.236894
545.909761	0.233719
546.268918	0.234588
546.628019	0.233191
546.987064	0.235467
547.346053	0.237237
547.704986	0.235229
548.063863	0.235635
548.422684	0.235769
548.781449	0.237413
549.140158	0.235347
549.498811	0.238101
549.857408	0.241069
550.215949	0.235917
550.574434	0.239126
550.932864	0.237350
551.291237	0.235444
551.649555	0.237288
552.007817	0.236674
552.366022	0.237795
552.724173	0.237837
553.082267	0.237936
553.440305	0.235103
553.798288	0.239479
554.156215	0.236075
554.514086	0.236553
554.871902	0.239906
555.229661	0.239193
555.587365	0.239749
555.945014	0.242320
556.302606	0.239030
556.660143	0.241970
557.017625	0.238267
557.375050	0.240473
557.732421	0.237386
558.089735	0.239382
558.446994	0.239215
558.804197	0.238729
559.161345	0.238670
559.518437	0.242099
559.875474	0.240025
560.232455	0.239381
560.589381	0.240508
560.946251	0.240879
561.303065	0.238189
561.659825	0.239403
562.016528	0.241355
562.373177	0.243698
562.729770	0.240861
563.086307	0.243070
563.442789	0.241154
563.799216	0.243963
564.155587	0.242685
564.511904	0.244245
564.868164	0.244036
565.224370	0.243519
565.580520	0.245391
565.936615	0.245400
566.292654	0.248354
566.648638	0.245534
567.004567	0.246238
567.360441	0.246870
567.716260	0.248913
568.072023	0.246454
568.427732	0.247334
568.783385	0.249883
569.138982	0.247811
569.494525	0.247609
569.850013	0.250301
570.205445	0.248803
570.560823	0.251463
570.916145	0.253328
571.271412	0.251728
571.626625	0.253396
571.981782	0.253766
572.336884	0.254240
572.691931	0.254276
573.046923	0.255895
573.401860	0.256432
573.756743	0.258439
574.111570	0.257095
574.466342	0.257906
574.821059	0.257060
575.175722	0.259907
575.530330	0.259415
575.884882	0.259600
576.239380	0.261565
576.593823	0.262449
576.948211	0.261643
577.302544	0.264776
577.656823	0.264592
578.011047	0.264385
578.365216	0.265327
578.719330	0.267283
579.073389	0.266970
579.427394	0.268562
579.781344	0.268796
580.135239	0.270391
580.489080	0.270081
580.842866	0.273327
581.196597	0.273205
581.550273	0.271599
581.903895	0.272959
582.257463	0.270826
582.610975	0.274093
582.964434	0.273372
583.317837	0.276094
583.671186	0.276513
584.024481	0.276754
584.377721	0.279030
584.730906	0.280042
585.084037	0.278972
585.437113	0.281080
585.790135	0.280078
586.143103	0.283103
586.496016	0.284347
586.848874	0.281824
587.201679	0.282231
587.554428	0.285728
587.907124	0.284556
588.259765	0.285240
588.612352	0.285664
588.964884	0.289646
589.317362	0.289222
589.669786	0.289058
590.022155	0.287702
590.374470	0.286832
590.726731	0.288830
591.078937	0.294042
591.431090	0.289962
591.783188	0.294250
592.135232	0.294889
592.487222	0.294797
592.839157	0.292919
593.191038	0.295150
593.542866	0.297156
593.894639	0.300404
594.246358	0.298644
594.598022	0.298012
594.949633	0.301884
595.301190	0.302330
595.652692	0.301521
596.004141	0.297806
596.355535	0.305812
596.706876	0.306258
597.058162	0.308809
597.409395	0.305980
597.760573	0.303869
598.111698	0.306993
598.462768	0.307318
598.813785	0.308518
599.164748	0.310190
599.515657	0.310030
599.866511	0.313759
600.217312	0.309181
600.568060	0.314487
600.918753	0.310578
601.269392	0.311361
601.619978	0.315000
601.970510	0.312257
602.320988	0.312673
602.671412	0.310673
603.021783	0.313231
603.372100	0.314389
603.722363	0.314136
604.072572	0.314740
604.422728	0.314347
604.772830	0.316391
605.122878	0.316457
605.472872	0.316963
605.822813	0.315156
606.172701	0.318102
606.522534	0.315337
606.872314	0.315251
607.222041	0.316485
607.571714	0.314578
607.921333	0.316108
608.270899	0.315612
608.620411	0.312159
608.969870	0.316426
609.319276	0.316252
609.668627	0.316338
610.017926	0.314841
610.367171	0.313350
610.716362	0.314046
611.065500	0.314465
611.414585	0.313002
611.763616	0.313296
612.112594	0.313965
612.461518	0.313185
612.810389	0.311259
613.159207	0.313351
613.507971	0.315043
613.856682	0.311018
614.205340	0.312139
614.553945	0.309228
614.902496	0.313051
615.250994	0.311386
615.599439	0.311805
615.947830	0.311288
616.296169	0.312510
616.644454	0.311840
616.992686	0.312080
617.340864	0.310012
617.688990	0.313393
618.037063	0.310289
618.385082	0.311720
618.733048	0.308415
619.080961	0.311011
619.428821	0.310545
619.776628	0.309791
620.124382	0.312540
620.472083	0.312955
620.819731	0.312127
621.167326	0.315640
621.514868	0.315462
621.862357	0.319960
622.209793	0.319114
622.557176	0.322200
622.904506	0.322960
623.251783	0.325221
623.599007	0.327676
623.946179	0.326710
624.293297	0.329505
624.640363	0.332918
624.987376	0.333505
625.334336	0.336074
625.681243	0.338488
626.028097	0.338822
626.374899	0.340228
626.721647	0.340517
627.068343	0.343219
627.414987	0.344542
627.761577	0.346243
628.108115	0.344605
628.454600	0.350082
628.801032	0.347949
629.147412	0.349785
629.493739	0.350085
629.840014	0.353672
630.186236	0.350001
630.532405	0.355932
630.878521	0.353270
631.224585	0.355446
631.570597	0.359048
631.916556	0.358144
632.262462	0.357694
632.608316	0.360116
632.954117	0.360912
633.299866	0.361908
633.645562	0.362217
633.991206	0.366425
634.336797	0.369300
634.682336	0.372041
635.027823	0.373552
635.373257	0.374142
635.718639	0.377998
636.063968	0.377040
636.409245	0.382316
636.754470	0.383225
637.099642	0.385087
637.444762	0.389337
637.789829	0.387708
638.134845	0.391514
638.479808	0.392369
638.824719	0.392331
639.169577	0.396766
639.514383	0.395315
639.859137	0.400019
640.203839	0.399490
640.548489	0.400230
640.893086	0.401283
641.237632	0.402923
641.582125	0.401880
641.926566	0.403850
642.270955	0.403639
642.615292	0.403438
642.959576	0.402720
643.303809	0.403578
643.647990	0.403044
643.992118	0.403639
644.336195	0.406763
644.680219	0.405759
645.024192	0.405761
645.368112	0.399617
645.711981	0.398742
646.055797	0.394307
646.399562	0.396395
646.743274	0.389809
647.086935	0.386426
647.430544	0.386035
647.774101	0.385612
648.117606	0.385346
648.461059	0.385967
648.804460	0.387730
649.147810	0.392982
649.491108	0.394883
649.834354	0.396487
650.177548	0.401710
650.520690	0.407763
650.863781	0.408580
651.206820	0.407736
651.549807	0.411901
651.892742	0.416883
652.235626	0.416251
652.578458	0.417107
652.921238	0.424087
653.263967	0.420664
653.606644	0.424726
653.949269	0.425350
654.291843	0.429057
654.634365	0.426342
654.976836	0.428834
655.319255	0.429757
655.661622	0.430688
656.003938	0.431062
656.346203	0.433624
656.688416	0.432757
657.030577	0.435571
657.372687	0.437758
657.714746	0.438323
658.056753	0.435551
658.398708	0.438887
658.740612	0.440605
659.082465	0.436392
659.424266	0.437487
659.766016	0.437165
660.107715	0.439859
660.449362	0.438537
660.790958	0.439441
661.132503	0.440613
661.473996	0.437766
661.815438	0.439252
662.156829	0.439359
662.498168	0.440164
662.839456	0.441353
663.180693	0.439257
663.521879	0.439423
663.863013	0.440311
664.204097	0.439474
664.545129	0.436238
664.886110	0.436556
665.227040	0.434085
665.567918	0.436618
665.908746	0.434897
666.249522	0.434950
666.590248	0.436244
666.930922	0.434191
667.271545	0.433926
667.612118	0.432849
667.952639	0.435432
668.293109	0.434246
668.633528	0.437295
668.973896	0.437029
669.314213	0.437641
669.654480	0.439443
669.994695	0.439333
670.334859	0.440635
670.674973	0.441116
671.015035	0.441679
671.355047	0.441518
671.695008	0.442965
672.034918	0.444938
672.374777	0.444772
672.714585	0.446035
673.054342	0.446039
673.394049	0.446652
673.733705	0.444531
674.073310	0.446218
674.412864	0.448687
674.752368	0.449456
675.091820	0.449998
675.431223	0.454098
675.770574	0.454466
676.109875	0.457776
676.449125	0.458268
676.788324	0.460089
677.127473	0.466040
677.466571	0.465605
677.805619	0.467879
678.144616	0.469389
678.483562	0.470750
678.822458	0.473411
679.161303	0.473967
679.500098	0.475463
679.838842	0.477275
680.177535	0.476845
680.516179	0.475809
680.854771	0.475099
681.193314	0.468780
681.531805	0.460854
681.870247	0.450629
682.208638	0.443251
682.546978	0.442507
682.885268	0.444508
683.223508	0.451273
683.561697	0.455178
683.899836	0.457765
684.237925	0.461111
684.575963	0.464418
684.913951	0.467685
685.251889	0.464260
685.589776	0.466632
685.927614	0.468865
686.265401	0.464324
686.603137	0.465665
686.940824	0.460649
687.278460	0.459865
687.616046	0.459201
687.953582	0.455173
688.291068	0.457058
688.628504	0.453472
688.965889	0.455530
689.303224	0.459606
689.640510	0.464305
689.977745	0.469699
690.314930	0.477517
690.652065	0.481766
690.989150	0.488893
691.326185	0.496354
691.663170	0.500622
692.000105	0.507213
692.336990	0.514375
692.673825	0.516906
693.010610	0.523613
693.347345	0.529226
693.684030	0.531680
694.020665	0.535880
694.357251	0.544519
694.693786	0.544629
695.030272	0.548187
695.366707	0.553268
695.703093	0.555841
696.039429	0.554322
696.375716	0.557139
696.711952	0.558784
697.048139	0.560258
697.384276	0.563431
697.720363	0.563115
698.056400	0.562341
698.392388	0.568149
698.728326	0.570153
699.064214	0.572908
699.400053	0.573483
699.735842	0.579393
700.071581	0.581067
700.407270	0.584138
700.742910	0.586737
701.078501	0.592686
701.414042	0.594131
701.749533	0.597783
702.084974	0.605566
702.420366	0.599502
702.755709	0.607006
703.091002	0.613992
703.426246	0.609648
703.761440	0.612880
704.096584	0.617455
704.431679	0.615863
704.766725	0.618887
705.101721	0.620911
705.436668	0.617597
705.771565	0.622562
706.106413	0.620171
706.441212	0.618561
706.775961	0.617905
707.110661	0.618576
707.445311	0.615626
707.779913	0.615438
708.114465	0.614075
708.448967	0.610854
708.783421	0.604948
709.117825	0.600357
709.452180	0.599615
709.786485	0.595157
710.120742	0.585791
710.454949	0.587140
710.789107	0.580647
711.123216	0.573198
711.457275	0.574991
711.791286	0.568870
712.125247	0.569238
712.459159	0.576781
712.793023	0.569210
713.126837	0.577266
713.460602	0.577312
713.794318	0.583413
714.127985	0.583822
714.461602	0.594577
714.795171	0.595738
715.128691	0.603831
715.462162	0.611772
715.795584	0.618047
716.128957	0.621179
716.462281	0.624982
716.795556	0.628089
717.128782	0.635564
717.461960	0.643925
717.795088	0.643341
718.128167	0.648348
718.461198	0.655429
718.794180	0.655919
719.127113	0.660254
719.459997	0.663492
719.792833	0.669669
720.125619	0.669937
720.458357	0.676013
720.791046	0.676835
721.123686	0.680069
721.456278	0.686058
721.788821	0.685019
722.121315	0.689160
722.453761	0.691905
722.786158	0.691957
723.118506	0.689433
723.450805	0.693669
723.783056	0.691135
724.115259	0.691329
724.447412	0.691879
724.779518	0.691658
725.111574	0.691455
725.443582	0.687682
725.775542	0.691090
726.107453	0.684864
726.439315	0.686127
726.771129	0.683256
727.102895	0.677561
727.434612	0.673243
727.766281	0.671322
728.097901	0.669859
728.429473	0.670098
728.760996	0.669343
729.092471	0.669249
729.423897	0.674206
729.755276	0.673562
730.086606	0.673555
730.417887	0.667474
730.749120	0.660634
731.080305	0.655345
731.411442	0.651300
731.742530	0.653703
732.073570	0.654079
732.404562	0.649823
732.735506	0.650888
733.066401	0.655356
733.397249	0.662191
733.728048	0.672024
734.058798	0.685507
734.389501	0.695376
734.720156	0.700887
735.050762	0.709391
735.381320	0.711779
735.711831	0.717537
736.042293	0.722502
736.372707	0.721833
736.703073	0.724499
737.033391	0.724494
737.363661	0.723254
737.693883	0.721309
738.024056	0.719832
738.354182	0.719195
738.684260	0.711393
739.014290	0.708414
739.344272	0.707703
739.674207	0.704376
740.004093	0.703759
740.333931	0.703759
740.663722	0.705188
740.993464	0.706124
741.323159	0.709180
741.652806	0.713861
741.982405	0.717147
742.311956	0.723785
742.641460	0.724717
742.970915	0.728222
743.300323	0.733856
743.629683	0.739366
743.958996	0.742201
744.288260	0.746040
744.617477	0.751592
744.946647	0.752498
745.275768	0.758806
745.604842	0.760076
745.933869	0.764943
746.262847	0.767148
746.591778	0.764484
746.920662	0.769197
747.249498	0.773378
747.578286	0.768214
747.907027	0.764437
748.235720	0.762069
748.564365	0.761340
748.892963	0.762655
749.221514	0.764948
749.550017	0.767064
749.878473	0.768359
750.206881	0.774434
750.535242	0.774898
750.863555	0.774693
751.191821	0.775706
751.520039	0.777755
751.848210	0.779859
752.176334	0.778032
752.504411	0.777917
752.832440	0.783686
753.160421	0.784935
753.488356	0.785928
753.816243	0.785355
754.144082	0.790369
754.471875	0.792726
754.799620	0.790246
755.127318	0.791853
755.454969	0.792029
755.782572	0.793562
756.110129	0.795250
756.437638	0.797251
756.765100	0.796110
757.092515	0.796390
757.419882	0.795901
757.747203	0.798195
758.074477	0.797926
758.401703	0.796120
758.728882	0.792951
759.056014	0.792937
759.383099	0.791509
759.710138	0.790524
760.037129	0.787348
760.364073	0.786083
760.690970	0.787993
761.017820	0.790281
761.344623	0.787879
761.671379	0.781757
761.998088	0.773744
762.324751	0.756946
762.651366	0.721700
762.977935	0.666735
763.304456	0.628921
763.630931	0.625815
763.957359	0.654777
764.283740	0.689297
764.610074	0.714170
764.936362	0.739969
765.262602	0.760096
765.588796	0.777059
765.914943	0.789443
766.241044	0.801990
766.567097	0.808270
766.893104	0.817107
767.219064	0.821457
767.544978	0.826545
767.870845	0.834912
768.196665	0.838213
768.522438	0.838909
768.848165	0.841448
769.173846	0.847447
769.499479	0.850683
769.825066	0.853387
770.150607	0.856727
770.476101	0.855410
770.801548	0.857293
771.126949	0.864246
771.452303	0.866194
771.777611	0.867495
772.102872	0.866991
772.428087	0.870706
772.753256	0.874567
773.078378	0.875537
773.403453	0.880645
773.728482	0.884611
774.053465	0.881087
774.378401	0.883789
774.703291	0.889183
775.028135	0.889303
775.352932	0.889208
775.677683	0.892980
776.002388	0.893950
776.327046	0.893486
776.651658	0.897073
776.976224	0.897890
777.300743	0.898857
777.625216	0.899117
777.949643	0.901385
778.274024	0.900504
778.598359	0.903263
778.922647	0.902396
779.246889	0.903759
779.571086	0.905428
779.895236	0.906438
780.219339	0.905931
780.543397	0.903406
780.867409	0.903487
781.191374	0.904662
781.515294	0.905211
781.839167	0.904985
782.162995	0.906208
782.486776	0.904993
782.810511	0.906224
783.134201	0.909522
783.457844	0.907611
783.781441	0.910198
784.104993	0.912525
784.428498	0.913531
784.751958	0.912730
785.075372	0.913294
785.398739	0.914428
785.722061	0.912470
786.045337	0.912705
786.368568	0.912885
786.691752	0.914408
787.014891	0.906367
787.337983	0.899268
787.661030	0.892107
787.984031	0.879683
788.306987	0.871980
788.629897	0.872265
788.952760	0.877934
789.275579	0.882630
789.598351	0.891917
789.921078	0.901430
790.243759	0.903873
790.566395	0.907361
790.888984	0.913001
791.211529	0.915417
791.534027	0.918115
791.856480	0.920440
792.178888	0.922733
792.501249	0.923788
792.823566	0.926190
793.145836	0.926016
793.468062	0.927261
793.790241	0.929169
794.112375	0.926358
794.434464	0.923470
794.756507	0.923516
795.078505	0.921880
795.400457	0.918643
795.722364	0.910653
796.044226	0.905780
796.366042	0.903630
796.687812	0.906224
797.009538	0.904840
797.331218	0.908792
797.652852	0.911045
797.974442	0.913569
798.295986	0.914754
798.617484	0.915958
798.938938	0.920369
799.260346	0.921822
799.581709	0.924217
799.903026	0.925678
800.224299	0.926183
800.545526	0.930326
800.866708	0.931439
801.187845	0.933301
801.508936	0.933298
801.829983	0.933354
802.150984	0.934867
802.471940	0.937971
802.792851	0.937701
803.113717	0.939293
803.434538	0.937713
803.755314	0.939744
804.076045	0.939181
804.396731	0.939549
804.717372	0.938769
805.037967	0.940665
805.358518	0.939043
805.679024	0.937639
805.999485	0.938299
806.319901	0.937961
806.640272	0.939407
806.960598	0.937419
807.280879	0.936686
807.601115	0.935862
807.921306	0.937869
808.241453	0.936626
808.561554	0.936982
808.881611	0.937485
809.201623	0.937510
809.521590	0.938641
809.841513	0.939129
810.161390	0.938446
810.481223	0.940139
810.801011	0.941421
811.120755	0.943209
811.440453	0.942355
811.760107	0.942983
812.079716	0.943301
812.399281	0.944651
812.718801	0.946171
813.038276	0.945839
813.357707	0.947346
813.677093	0.947363
813.996434	0.947918
814.315731	0.949882
814.634983	0.949578
814.954191	0.949829
815.273354	0.946586
815.592473	0.945691
815.911547	0.946827
816.230577	0.944438
816.549562	0.941590
816.868502	0.942017
817.187399	0.940959
817.506250	0.938921
817.825058	0.939020
818.143821	0.937353
818.462539	0.934496
818.781213	0.930767
819.099843	0.924744
819.418429	0.912233
819.736970	0.902166
820.055466	0.889696
820.373919	0.876994
820.692327	0.859848
821.010691	0.835390
821.329011	0.777650
821.647286	0.685085
821.965517	0.598988
822.283704	0.566808
822.601847	0.571182
822.919945	0.606040
823.237999	0.646421
823.556010	0.686545
823.873976	0.726405
824.191897	0.761308
824.509775	0.791188
824.827609	0.817019
825.145398	0.830391
825.463144	0.830673
825.780845	0.821514
826.098502	0.808782
826.416116	0.777095
826.733685	0.744366
827.051210	0.737674
827.368692	0.753449
827.686129	0.784259
828.003522	0.818445
828.320872	0.847199
828.638177	0.872206
828.955439	0.891199
829.272656	0.903794
829.589830	0.913167
829.906960	0.923707
830.224046	0.930124
830.541088	0.935475
830.858086	0.939179
831.175041	0.942196
831.491952	0.942412
831.808819	0.941027
832.125642	0.937893
832.442421	0.930564
832.759157	0.914902
833.075849	0.885508
833.392497	0.848159
833.709101	0.825601
834.025662	0.832265
834.342179	0.852166
834.658653	0.877186
834.975083	0.897687
835.291469	0.914528
835.607811	0.927192
835.924110	0.936063
836.240366	0.945775
836.556578	0.951306
836.872746	0.955960
837.188871	0.960135
837.504952	0.962077
837.820990	0.963993
838.136984	0.965024
838.452935	0.967884
838.768842	0.966791
839.084706	0.965374
839.400526	0.950257
839.716303	0.924752
840.032037	0.912809
840.347727	0.915335
840.663373	0.927790
840.978977	0.941366
841.294537	0.954138
841.610054	0.961631
841.925527	0.966439
842.240957	0.969743
842.556344	0.973111
842.871687	0.976131
843.186987	0.977039
843.502244	0.979366
843.817458	0.979626
844.132629	0.980504
844.447756	0.982629
844.762840	0.983274
845.077881	0.984962
845.392879	0.982847
845.707833	0.985398
846.022745	0.985799
846.337613	0.986060
846.652438	0.985402
846.967221	0.985986
847.281960	0.985368
847.596656	0.988133
847.911309	0.986892
848.225919	0.986377
848.540485	0.986965
848.855009	0.988368
849.169490	0.987222
849.483928	0.987654
849.798323	0.986111
850.112675	0.988102
850.426984	0.989172
850.741251	0.988751
851.055474	0.989588
851.369654	0.988094
851.683792	0.988115
851.997887	0.988674
852.311938	0.989031
852.625947	0.987171
852.939914	0.986337
853.253837	0.989423
853.567718	0.990096
853.881555	0.989051
854.195350	0.988683
854.509103	0.988759
854.822812	0.989111
855.136479	0.988929
855.450103	0.988184
855.763685	0.988746
856.077224	0.989546
856.390720	0.989188
856.704173	0.990005
857.017584	0.989252
857.330953	0.988790
857.644278	0.987130
857.957561	0.988273
858.270802	0.989811
858.584000	0.988260
858.897155	0.988424
859.210268	0.988123
859.523339	0.988914
859.836367	0.989059
860.149352	0.988047
860.462295	0.988846
860.775195	0.989849
861.088054	0.988484
861.400869	0.989442
861.713642	0.988952
862.026373	0.989896
862.339062	0.990174
862.651708	0.989561
862.964312	0.988412
863.276873	0.988759
863.589392	0.988381
863.901869	0.987515
864.214303	0.987399
864.526696	0.987270
864.839045	0.986347
865.151353	0.985308
865.463619	0.984970
865.775842	0.986768
866.088023	0.987108
866.400162	0.986688
866.712258	0.987485
867.024313	0.987153
867.336325	0.986418
867.648296	0.987217
867.960224	0.986530
868.272110	0.987534
868.583954	0.987489
868.895755	0.986788
869.207515	0.985864
869.519233	0.986833
869.830909	0.986104
870.142542	0.986199
870.454134	0.986976
870.765684	0.985698
871.077191	0.984845
871.388657	0.984693
871.700081	0.985470
872.011463	0.985465
872.322803	0.983931
872.634101	0.983375
872.945357	0.982740
873.256571	0.982117
873.567744	0.982704
873.878874	0.982546
874.189963	0.981984
874.501010	0.983097
874.812015	0.982342
875.122979	0.981548
875.433900	0.981886
875.744780	0.982600
876.055618	0.982161
876.366415	0.981134
876.677169	0.980883
876.987882	0.982958
877.298554	0.983104
877.609183	0.981889
877.919771	0.981538
878.230317	0.980336
878.540822	0.978204
878.851285	0.977313
879.161707	0.973656
879.472087	0.970428
879.782425	0.960145
880.092722	0.945059
880.402977	0.917178
880.713191	0.876019
881.023363	0.830990
881.333494	0.804069
881.643583	0.794934
881.953631	0.802535
882.263637	0.822344
882.573602	0.847612
882.883526	0.865900
883.193408	0.882495
883.503248	0.896688
883.813048	0.910927
884.122806	0.924156
884.432522	0.937292
884.742197	0.946616
885.051831	0.951046
885.361424	0.957074
885.670975	0.963460
885.980485	0.966622
886.289954	0.969518
886.599382	0.971024
886.908768	0.974338
887.218113	0.974359
887.527417	0.977685
887.836680	0.979086
888.145901	0.979920
888.455082	0.982185
888.764221	0.983301
889.073319	0.984378
889.382376	0.983910
889.691392	0.982739
890.000366	0.984145
890.309300	0.983416
890.618193	0.984464
890.927044	0.983675
891.235855	0.982792
891.544625	0.981483
891.853353	0.982978
892.162041	0.980683
892.470687	0.980412
892.779293	0.977168
893.087858	0.974027
893.396381	0.971223
893.704864	0.964766
894.013306	0.954021
894.321707	0.942180
894.630068	0.934546
894.938387	0.931779
895.246665	0.934531
895.554903	0.940950
895.863100	0.948989
896.171256	0.956659
896.479371	0.963341
896.787446	0.968191
897.095480	0.972527
897.403473	0.974275
897.711425	0.976733
898.019336	0.978880
898.327207	0.980594
898.635038	0.980978
898.942827	0.981733
899.250576	0.981848
899.558284	0.984072
899.865952	0.983678
900.173579	0.983431
900.481165	0.985771
900.788711	0.985983
901.096216	0.987099
901.403681	0.987744
901.711105	0.987657
902.018489	0.987001
902.325832	0.986888
902.633135	0.986600
902.940397	0.985147
903.247619	0.980144
903.554800	0.968961
903.861941	0.948734
904.169041	0.929903
904.476101	0.921497
904.783121	0.922652
905.090100	0.932781
905.397039	0.944000
905.703938	0.953933
906.010796	0.962614
906.317614	0.970726
906.624391	0.976864
906.931129	0.980062
907.237826	0.983373
907.544483	0.986283
907.851099	0.987615
908.157675	0.989226
908.464211	0.990169
908.770707	0.990777
909.077163	0.990642
909.383578	0.992185
909.689954	0.992143
909.996289	0.992593
910.302584	0.993904
910.608839	0.995764
910.915054	0.993372
911.221229	0.993886
911.527363	0.992381
911.833458	0.992953
912.139513	0.992688
912.445527	0.994170
912.751502	0.992246
913.057436	0.990419
913.363331	0.991511
913.669186	0.989566
913.975000	0.987299
914.280775	0.984153
914.586510	0.980151
914.892205	0.974160
915.197859	0.964868
915.503475	0.954010
915.809050	0.943843
916.114585	0.938578
916.420081	0.937155
916.725536	0.938017
917.030952	0.943392
917.336328	0.949367
917.641665	0.955924
917.946961	0.962231
918.252218	0.967102
918.557435	0.971181
918.862612	0.975785
919.167750	0.976903
919.472848	0.981398
919.777906	0.982557
920.082925	0.985865
920.387904	0.986714
920.692843	0.987642
920.997743	0.987901
921.302603	0.989548
921.607423	0.988705
921.912204	0.990175
922.216946	0.991995
922.521647	0.991123
922.826310	0.991710
923.130932	0.993341
923.435516	0.993977
923.740059	0.992926
924.044564	0.993982
924.349028	0.993494
924.653454	0.994873
924.957840	0.995727
925.262186	0.994676
925.566493	0.995203
925.870761	0.996222
926.174989	0.996779
926.479178	0.997870
926.783328	0.997070
927.087438	0.997291
927.391509	0.996923
927.695541	0.998841
927.999533	0.998710
928.303486	0.996895
928.607400	0.998072
928.911275	0.999450
929.215110	0.999290
929.518906	0.999578
929.822663	1.000362
930.126381	0.998373
930.430060	0.999426
930.733699	0.999205
931.037299	0.999084
931.340861	0.998620
931.644383	0.997104
931.947866	0.998987
932.251309	0.999110
932.554714	0.997507
932.858080	0.997881
933.161407	0.998363
933.464694	0.998888
933.767943	0.997950
934.071153	0.998226
934.374323	0.999788
934.677455	0.998479
934.980548	0.998647
935.283602	0.999238
935.586617	0.999065
935.889593	0.999009
936.192530	0.999903
936.495428	0.999713
936.798287	0.998033
937.101108	0.998615
937.403890	0.997866
937.706632	0.999061
938.009336	0.997536
938.312002	0.997172
938.614628	0.995917
938.917216	0.994590
939.219765	0.994628
939.522275	0.995977
939.824747	0.996053
940.127179	0.996787
940.429573	0.997840
940.731929	0.996695
941.034246	0.995604
941.336524	0.997021
941.638763	0.996256
941.940964	0.995980
942.243126	0.995949
942.545250	0.997711
942.847335	0.998203
943.149381	0.998480
943.451389	0.996162
943.753359	0.998523
944.055290	0.998907
944.357182	0.997860
944.659036	0.998203
944.960851	0.997850
945.262628	0.998902
945.564367	0.998743
945.866067	0.998799
946.167729	0.999021
946.469352	0.998006
946.770937	0.997628
947.072484	0.999611
947.373992	0.998571
947.675462	0.998013
947.976893	0.998479
948.278286	1.001367
948.579641	1.000018
948.880958	0.999329
949.182236	1.000248
949.483476	0.999491
949.784678	0.998774
950.085841	0.998982
950.386967	0.998208
950.688054	0.999437
950.989103	0.998435
951.290114	0.998188
951.591087	0.998104
951.892021	0.998655
952.192917	0.997705
952.493776	0.997255
952.794596	0.997658
953.095378	0.997462
953.396122	0.996027
953.696828	0.998278
953.997496	0.998060
954.298126	0.999249
954.598718	0.997973
954.899272	0.999512
955.199788	0.998852
955.500266	1.000881
955.800706	0.998885
956.101108	1.000181
956.401472	1.001709
956.701798	0.999257
957.002087	0.998969
957.302337	0.999998
957.602550	0.999916
957.902724	1.000872
958.202861	1.000223
958.502960	1.000894
958.803022	1.001441
959.103045	1.001104
959.403031	1.002057
959.702979	1.002463
960.002889	1.000932
960.302762	1.001475
960.602596	1.000755
960.902393	1.001242
961.202153	1.001124
961.501875	1.001198
961.801559	1.001532
962.101205	1.001052
962.400814	1.001951
962.700385	1.001416
962.999918	1.002696
963.299414	1.000735
963.598873	1.001859
963.898293	1.002215
964.197677	1.002314
964.497022	1.001218
964.796331	1.002289
965.095601	1.003127
965.394835	1.001754
965.694030	1.003504
965.993189	1.001221
966.292309	1.002147
966.591393	1.001287
966.890439	1.002976
967.189447	1.001983
967.488419	1.002938
967.787353	1.002091
968.086249	1.001841
968.385108	1.001198
968.683930	1.001265
968.982714	1.001540
969.281462	1.001991
969.580172	1.001632
969.878844	1.003445
970.177480	1.001510
970.476078	1.004014
970.774639	1.001720
971.073162	1.002539
971.371649	1.001329
971.670098	1.000777
971.968510	1.001178
972.266885	1.001262
972.565223	1.002193
972.863524	1.001652
973.161788	1.001140
973.460014	1.003114
973.758204	1.000644
974.056356	1.001128
974.354471	1.001088
974.652550	1.002511
974.950591	1.002522
975.248595	1.000866
975.546563	1.002671
975.844493	1.001839
976.142386	1.000924
976.440243	1.002516
976.738062	1.002313
977.035845	1.001561
977.333590	1.002447
977.631299	1.002091
977.928971	1.001005
978.226606	1.002641
978.524204	1.001462
978.821765	1.002544
979.119290	1.004251
979.416777	1.001646
979.714228	1.001685
980.011642	1.002830
980.309020	1.002313
980.606360	1.001996
980.903664	1.001964
981.200931	1.001962
981.498162	1.001770
981.795356	1.001531
982.092513	1.001154
982.389633	1.002207
982.686717	0.999682
982.983764	0.998972
983.280775	0.999795
983.577749	1.000029
983.874686	0.998713
984.171587	1.000301
984.468451	0.999735
984.765279	1.002162
985.062070	1.000267
985.358824	1.001474
985.655543	1.001963
985.952224	1.002204
986.248869	1.001403
986.545478	1.003461
986.842050	1.001130
987.138586	1.002047
987.435086	1.001724
987.731549	1.003429
988.027975	1.004098
988.324366	1.002512
988.620719	1.003021
988.917037	1.002236
989.213318	1.003178
989.509563	1.002219
989.805772	1.003188
990.101944	1.003359
990.398080	1.002895
990.694180	1.003758
990.990244	1.002175
991.286271	1.002059
991.582262	1.003584
991.878217	1.002592
992.174136	1.003477
992.470019	1.002965
992.765865	1.004459
993.061676	1.002383
993.357450	1.003483
993.653188	1.003674
993.948890	1.002521
994.244556	1.002520
994.540186	1.002149
994.835780	1.001661
995.131337	1.003201
995.426859	1.002867
995.722345	1.002731
996.017795	1.001461
996.313208	1.001415
996.608586	1.002024
996.903928	1.002898
997.199234	1.001216
997.494504	1.003882
997.789738	1.000975
998.084936	1.002640
998.380099	1.002336
998.675225	1.003004
998.970316	1.003016
999.265371	1.002864
999.560390	1.002234
999.855373	1.002792
1000.150320	1.003122
1000.445232	1.002719
1000.740108	1.002080
1001.034948	1.003237
1001.329752	1.004020
1001.624521	1.003516
1001.919254	1.002313
1002.213951	1.003562
1002.508613	1.002742
1002.803239	1.001698
1003.097829	1.003721
1003.392384	1.002610
1003.686903	1.003331
1003.981386	1.003348
1004.275834	1.003755
1004.570246	1.002057
1004.864623	1.002745
1005.158964	1.003467
1005.453270	1.002475
1005.747540	1.002925
1006.041775	1.003846
1006.335974	1.002717
1006.630138	1.003984
1006.924266	1.001550
1007.218359	1.001045
1007.512416	1.004031
1007.806438	1.003356
1008.100425	1.002463
1008.394376	1.002471
1008.688292	1.002908
1008.982172	1.002044
1009.276017	1.002939
1009.569827	1.004347
1009.863602	1.002558
1010.157341	1.003861
1010.451045	1.002992
1010.744714	1.005086
1011.038347	1.004416
1011.331945	1.002524
1011.625508	1.002929
1011.919036	1.003429
1012.212528	1.003844
1012.505986	1.002880
1012.799408	1.004278
1013.092795	1.003591
1013.386147	1.003826
1013.679464	1.003939
1013.972745	1.002996
1014.265992	1.003457
1014.559204	1.002676
1014.852380	1.003032
1015.145521	1.002896
1015.438628	1.002961
1015.731699	1.003428
1016.024736	1.004418
1016.317737	1.003270
1016.610703	1.003491
1016.903635	1.005028
1017.196531	1.002235
1017.489393	1.002841
1017.782219	1.003106
1018.075011	1.002374
1018.367768	1.003331
1018.660490	1.004030
1018.953177	1.004030
1019.245829	1.004030
