Dividing Wavelength (nm)	Counts (n)	Blue Motor Position (mm): 5.800000	Red Motor Position (mm): 0.000000	
326.493990	1.005659
326.888308	1.005659
327.282561	1.005659
327.676750	1.006027
328.070874	1.006857
328.464933	1.006807
328.858929	1.007389
329.252859	1.005109
329.646726	1.005311
330.040528	1.006609
330.434265	1.005336
330.827938	1.005210
331.221547	1.006044
331.615091	1.007322
332.008571	1.006142
332.401986	1.005544
332.795338	1.004852
333.188625	1.005491
333.581847	1.005366
333.975006	1.006930
334.368100	1.005761
334.761129	1.004046
335.154095	1.005584
335.546996	1.003393
335.939833	0.998238
336.332606	0.998663
336.725315	0.998532
337.117960	0.999320
337.510540	0.997669
337.903056	0.998532
338.295508	0.999158
338.687896	0.999742
339.080220	0.998672
339.472480	0.999639
339.864676	0.998840
340.256807	0.997332
340.648875	0.999078
341.040879	0.999151
341.432818	0.999032
341.824694	0.998372
342.216506	0.999016
342.608253	0.998619
342.999937	0.997827
343.391557	0.998648
343.783113	1.000562
344.174605	0.998821
344.566033	0.998968
344.957397	0.999053
345.348697	0.998817
345.739934	0.998872
346.131106	0.998536
346.522215	0.998333
346.913260	0.998780
347.304241	0.998685
347.695159	0.998584
348.086012	0.998214
348.476802	0.998179
348.867528	0.997007
349.258191	0.998214
349.648789	0.998846
350.039324	0.998209
350.429796	0.998085
350.820203	0.997383
351.210548	0.998685
351.600828	0.998080
351.991045	0.999121
352.381198	0.998387
352.771288	0.997499
353.161314	0.998625
353.551276	0.997460
353.941175	0.997272
354.331010	0.999238
354.720782	0.997260
355.110490	0.997881
355.500135	0.998613
355.889717	0.997372
356.279235	0.998038
356.668689	0.998189
357.058080	0.997556
357.447408	0.995822
357.836672	0.997074
358.225873	0.997196
358.615010	0.996914
359.004084	0.996812
359.393095	0.997778
359.782043	0.996979
360.170927	0.998081
360.559748	0.998025
360.948505	0.996769
361.337199	0.996882
361.725830	0.997503
362.114398	0.996721
362.502903	0.995575
362.891344	0.995740
363.279722	0.996211
363.668037	0.997622
364.056289	0.996857
364.444478	0.997935
364.832603	0.995315
365.220665	0.997276
365.608665	0.996655
365.996601	0.996707
366.384474	0.994526
366.772284	0.995290
367.160031	0.995202
367.547715	0.994724
367.935336	0.993958
368.322893	0.993262
368.710388	0.991291
369.097820	0.990807
369.485189	0.988433
369.872495	0.987251
370.259738	0.984078
370.646918	0.981705
371.034035	0.979326
371.421090	0.976487
371.808081	0.971393
372.195010	0.969654
372.581875	0.963538
372.968678	0.959133
373.355418	0.956771
373.742096	0.948843
374.128710	0.944697
374.515262	0.939550
374.901751	0.933030
375.288177	0.928741
375.674540	0.922058
376.060841	0.916039
376.447079	0.908211
376.833254	0.902388
377.219367	0.897651
377.605417	0.886410
377.991404	0.882480
378.377329	0.875519
378.763191	0.870251
379.148991	0.860854
379.534727	0.853450
379.920402	0.845511
380.306013	0.841738
380.691563	0.829053
381.077049	0.822686
381.462474	0.817393
381.847835	0.806433
382.233134	0.801820
382.618371	0.801970
383.003545	0.784188
383.388657	0.783454
383.773706	0.775570
384.158693	0.771536
384.543618	0.766278
384.928480	0.757372
385.313280	0.746675
385.698017	0.746903
386.082692	0.735422
386.467305	0.733299
386.851856	0.727450
387.236344	0.722354
387.620770	0.717130
388.005133	0.712144
388.389435	0.706607
388.773674	0.703536
389.157851	0.695514
389.541965	0.693965
389.926018	0.699047
390.310008	0.685602
390.693936	0.683500
391.077802	0.675749
391.461606	0.676307
391.845348	0.666349
392.229027	0.665909
392.612645	0.664121
392.996200	0.650882
393.379694	0.643950
393.763125	0.634141
394.146494	0.638823
394.529801	0.628529
394.913047	0.621325
395.296230	0.627546
395.679351	0.617910
396.062410	0.615160
396.445408	0.617597
396.828343	0.613931
397.211217	0.608024
397.594028	0.620399
397.976778	0.610920
398.359466	0.606968
398.742092	0.603529
399.124656	0.615234
399.507158	0.603143
399.889598	0.600313
400.271977	0.591395
400.654294	0.594592
401.036549	0.594194
401.418742	0.598780
401.800874	0.584951
402.182944	0.580811
402.564952	0.573727
402.946898	0.575210
403.328783	0.575045
403.710606	0.586350
404.092367	0.561617
404.474067	0.567216
404.855705	0.564957
405.237282	0.574492
405.618797	0.560662
406.000250	0.556121
406.381642	0.545705
406.762972	0.551357
407.144240	0.550641
407.525447	0.549857
407.906593	0.542991
408.287677	0.538335
408.668700	0.546511
409.049661	0.540136
409.430560	0.536097
409.811399	0.544533
410.192176	0.526631
410.572891	0.533355
410.953545	0.521460
411.334138	0.534622
411.714669	0.527877
412.095139	0.539575
412.475547	0.523898
412.855894	0.525458
413.236180	0.524542
413.616405	0.530204
413.996568	0.519499
414.376670	0.526640
414.756711	0.531103
415.136691	0.528288
415.516609	0.519437
415.896466	0.515934
416.276262	0.511969
416.655997	0.513822
417.035670	0.495356
417.415283	0.487246
417.794834	0.491718
418.174324	0.497499
418.553753	0.506399
418.933121	0.488824
419.312428	0.482268
419.691674	0.488133
420.070859	0.476784
420.449983	0.484583
420.829045	0.473523
421.208047	0.482478
421.586988	0.475871
421.965867	0.474513
422.344686	0.463072
422.723444	0.475634
423.102141	0.492728
423.480777	0.465805
423.859352	0.486756
424.237866	0.463723
424.616319	0.464447
424.994712	0.455315
425.373044	0.466448
425.751314	0.453496
426.129524	0.470312
426.507673	0.453574
426.885762	0.446876
427.263789	0.452461
427.641756	0.461786
428.019662	0.452815
428.397508	0.452154
428.775292	0.456518
429.153016	0.448119
429.530679	0.454812
429.908282	0.447895
430.285824	0.458130
430.663305	0.436146
431.040726	0.456870
431.418086	0.457343
431.795385	0.449449
432.172624	0.448452
432.549802	0.448249
432.926920	0.447318
433.303977	0.447106
433.680974	0.443762
434.057910	0.442709
434.434786	0.441567
434.811601	0.444616
435.188355	0.426848
435.565050	0.436233
435.941683	0.437329
436.318257	0.421371
436.694770	0.422273
437.071222	0.420726
437.447614	0.424442
437.823946	0.431428
438.200218	0.420577
438.576429	0.430117
438.952580	0.423289
439.328670	0.420081
439.704700	0.426609
440.080670	0.427816
440.456580	0.409377
440.832429	0.416904
441.208218	0.427862
441.583947	0.417332
441.959616	0.416250
442.335224	0.421940
442.710773	0.412596
443.086261	0.411109
443.461689	0.424529
443.837057	0.414556
444.212365	0.404611
444.587612	0.411724
444.962800	0.401826
445.337927	0.402693
445.712995	0.429240
446.088002	0.390996
446.462949	0.401266
446.837837	0.406792
447.212664	0.394831
447.587431	0.386657
447.962139	0.356734
448.336786	0.315777
448.711374	0.326290
449.085901	0.370851
449.460369	0.374681
449.834776	0.378545
450.209124	0.357570
450.583412	0.350195
450.957640	0.343283
451.331808	0.355257
451.705917	0.378155
452.079965	0.382918
452.453954	0.371417
452.827883	0.377838
453.201752	0.372596
453.575562	0.383705
453.949311	0.372383
454.323001	0.378085
454.696632	0.374448
455.070202	0.366989
455.443713	0.358996
455.817164	0.353120
456.190556	0.349390
456.563888	0.346336
456.937160	0.343697
457.310373	0.360931
457.683526	0.359733
458.056619	0.365378
458.429653	0.366618
458.802628	0.369177
459.175542	0.364129
459.548398	0.346496
459.921194	0.339019
460.293930	0.339222
460.666607	0.316821
461.039224	0.305298
461.411782	0.300528
461.784280	0.299998
462.156719	0.303616
462.529099	0.308360
462.901419	0.324630
463.273680	0.328546
463.645882	0.327969
464.018024	0.334170
464.390106	0.326806
464.762130	0.311291
465.134094	0.294338
465.505999	0.263422
465.877845	0.233743
466.249631	0.220501
466.621358	0.228186
466.993026	0.242032
467.364634	0.248406
467.736184	0.257026
468.107674	0.265897
468.479105	0.264926
468.850477	0.271704
469.221790	0.278695
469.593043	0.288607
469.964238	0.293472
470.335373	0.292852
470.706449	0.291211
471.077467	0.291678
471.448425	0.253919
471.819324	0.228970
472.190164	0.228575
472.560945	0.257666
472.931667	0.280174
473.302330	0.284144
473.672934	0.296107
474.043479	0.283956
474.413965	0.286125
474.784393	0.289376
475.154761	0.284410
475.525070	0.281645
475.895321	0.287508
476.265513	0.281624
476.635645	0.277110
477.005719	0.276728
477.375734	0.273270
477.745691	0.266687
478.115588	0.262693
478.485427	0.256492
478.855207	0.243304
479.224928	0.225768
479.594591	0.213920
479.964194	0.217039
480.333739	0.218344
480.703226	0.220036
481.072653	0.218221
481.442022	0.213932
481.811333	0.210669
482.180584	0.214140
482.549777	0.219124
482.918912	0.222870
483.287988	0.222573
483.657005	0.222033
484.025964	0.228452
484.394864	0.225824
484.763706	0.226470
485.132489	0.231481
485.501213	0.232237
485.869879	0.230594
486.238487	0.233644
486.607036	0.231677
486.975527	0.236477
487.343959	0.232011
487.712333	0.231268
488.080648	0.232455
488.448905	0.231486
488.817104	0.233077
489.185244	0.227557
489.553326	0.224435
489.921350	0.214485
490.289315	0.196620
490.657222	0.191600
491.025070	0.192858
491.392861	0.194822
491.760593	0.200557
492.128267	0.206328
492.495883	0.211679
492.863440	0.218222
493.230939	0.224598
493.598380	0.225984
493.965763	0.228542
494.333088	0.230484
494.700354	0.231874
495.067563	0.230987
495.434713	0.234517
495.801805	0.232083
496.168839	0.233464
496.535815	0.234932
496.902733	0.234924
497.269593	0.236279
497.636395	0.234207
498.003139	0.234458
498.369825	0.237470
498.736453	0.233983
499.103023	0.235634
499.469535	0.234851
499.835989	0.235285
500.202385	0.236138
500.568723	0.239524
500.935003	0.234502
501.301226	0.238931
501.667390	0.232964
502.033497	0.231034
502.399546	0.233925
502.765537	0.235797
503.131470	0.234569
503.497345	0.230771
503.863163	0.239119
504.228923	0.232212
504.594625	0.230940
504.960269	0.236576
505.325856	0.231814
505.691385	0.236246
506.056856	0.232635
506.422270	0.232454
506.787625	0.234667
507.152924	0.232309
507.518164	0.232677
507.883347	0.234237
508.248472	0.236101
508.613540	0.230890
508.978550	0.233491
509.343503	0.234048
509.708398	0.231640
510.073236	0.229192
510.438016	0.228883
510.802738	0.230085
511.167403	0.228848
511.532010	0.231223
511.896561	0.226589
512.261053	0.225106
512.625488	0.227090
512.989866	0.227747
513.354186	0.228157
513.718449	0.229792
514.082655	0.225844
514.446803	0.228456
514.810894	0.225846
515.174927	0.228876
515.538904	0.228050
515.902822	0.224973
516.266684	0.227389
516.630488	0.228462
516.994235	0.227761
517.357925	0.226163
517.721558	0.224495
518.085133	0.224215
518.448651	0.223938
518.812112	0.226494
519.175516	0.225704
519.538863	0.223557
519.902152	0.225351
520.265385	0.222184
520.628560	0.223894
520.991678	0.224144
521.354739	0.223303
521.717743	0.224319
522.080690	0.224399
522.443580	0.222039
522.806413	0.223127
523.169189	0.222450
523.531908	0.221094
523.894569	0.224941
524.257174	0.224710
524.619722	0.222370
524.982213	0.223431
525.344647	0.222397
525.707025	0.223164
526.069345	0.221316
526.431608	0.223198
526.793815	0.221069
527.155964	0.225245
527.518057	0.224225
527.880093	0.224980
528.242072	0.223795
528.603995	0.225613
528.965860	0.227218
529.327669	0.226409
529.689421	0.227138
530.051117	0.228123
530.412755	0.225793
530.774337	0.228012
531.135862	0.228584
531.497331	0.227864
531.858743	0.230688
532.220098	0.227284
532.581396	0.229831
532.942638	0.230303
533.303824	0.231382
533.664953	0.231023
534.026025	0.233153
534.387040	0.230679
534.747999	0.230727
535.108902	0.229597
535.469748	0.234458
535.830537	0.232514
536.191270	0.232819
536.551947	0.232252
536.912567	0.232381
537.273131	0.234412
537.633638	0.234332
537.994089	0.234809
538.354483	0.235784
538.714821	0.232555
539.075103	0.232485
539.435328	0.233343
539.795497	0.236948
540.155609	0.233385
540.515665	0.231769
540.875665	0.237408
541.235609	0.235895
541.595496	0.236107
541.955328	0.232755
542.315102	0.235222
542.674821	0.236289
543.034483	0.236395
543.394090	0.236001
543.753640	0.238007
544.113134	0.232913
544.472571	0.236524
544.831953	0.233152
545.191278	0.237323
545.550548	0.236495
545.909761	0.233262
546.268918	0.234225
546.628019	0.232490
546.987064	0.235092
547.346053	0.236873
547.704986	0.234871
548.063863	0.234910
548.422684	0.235471
548.781449	0.236951
549.140158	0.235112
549.498811	0.237494
549.857408	0.240548
550.215949	0.235447
550.574434	0.238585
550.932864	0.236877
551.291237	0.235123
551.649555	0.236809
552.007817	0.236532
552.366022	0.237053
552.724173	0.237283
553.082267	0.237775
553.440305	0.234387
553.798288	0.238873
554.156215	0.235542
554.514086	0.236136
554.871902	0.239431
555.229661	0.238530
555.587365	0.239391
555.945014	0.241363
556.302606	0.238868
556.660143	0.241175
557.017625	0.237777
557.375050	0.239825
557.732421	0.237309
558.089735	0.239081
558.446994	0.238894
558.804197	0.238185
559.161345	0.237894
559.518437	0.241320
559.875474	0.239435
560.232455	0.238931
560.589381	0.240057
560.946251	0.240104
561.303065	0.237594
561.659825	0.238997
562.016528	0.240478
562.373177	0.243358
562.729770	0.240487
563.086307	0.242668
563.442789	0.240736
563.799216	0.243321
564.155587	0.242072
564.511904	0.243440
564.868164	0.243282
565.224370	0.243332
565.580520	0.244978
565.936615	0.244665
566.292654	0.247969
566.648638	0.244875
567.004567	0.245674
567.360441	0.246436
567.716260	0.248335
568.072023	0.245680
568.427732	0.247077
568.783385	0.248975
569.138982	0.247387
569.494525	0.247135
569.850013	0.250030
570.205445	0.248507
570.560823	0.250875
570.916145	0.252935
571.271412	0.251325
571.626625	0.252794
571.981782	0.253241
572.336884	0.254087
572.691931	0.253596
573.046923	0.255410
573.401860	0.255969
573.756743	0.258002
574.111570	0.256690
574.466342	0.257318
574.821059	0.256212
575.175722	0.259303
575.530330	0.258915
575.884882	0.259114
576.239380	0.260894
576.593823	0.261828
576.948211	0.261442
577.302544	0.264678
577.656823	0.264019
578.011047	0.264141
578.365216	0.265169
578.719330	0.266972
579.073389	0.266411
579.427394	0.268000
579.781344	0.268739
580.135239	0.270097
580.489080	0.269964
580.842866	0.272827
581.196597	0.273172
581.550273	0.271442
581.903895	0.272601
582.257463	0.270447
582.610975	0.274120
582.964434	0.273500
583.317837	0.275605
583.671186	0.276140
584.024481	0.276166
584.377721	0.278917
584.730906	0.279487
585.084037	0.278823
585.437113	0.280893
585.790135	0.279812
586.143103	0.282870
586.496016	0.283742
586.848874	0.281545
587.201679	0.282029
587.554428	0.285492
587.907124	0.284535
588.259765	0.285312
588.612352	0.285358
588.964884	0.289572
589.317362	0.288751
589.669786	0.288718
590.022155	0.287475
590.374470	0.286727
590.726731	0.288790
591.078937	0.293900
591.431090	0.290292
591.783188	0.294015
592.135232	0.294748
592.487222	0.294233
592.839157	0.292486
593.191038	0.295248
593.542866	0.297017
593.894639	0.300426
594.246358	0.298707
594.598022	0.297935
594.949633	0.301485
595.301190	0.302274
595.652692	0.301465
596.004141	0.297246
596.355535	0.305423
596.706876	0.306307
597.058162	0.308874
597.409395	0.306127
597.760573	0.303215
598.111698	0.306786
598.462768	0.307152
598.813785	0.308529
599.164748	0.309698
599.515657	0.310006
599.866511	0.313722
600.217312	0.309257
600.568060	0.314283
600.918753	0.310720
601.269392	0.311662
601.619978	0.314658
601.970510	0.312440
602.320988	0.312385
602.671412	0.310218
603.021783	0.312677
603.372100	0.314225
603.722363	0.313678
604.072572	0.314753
604.422728	0.313969
604.772830	0.316618
605.122878	0.316312
605.472872	0.316806
605.822813	0.315207
606.172701	0.317684
606.522534	0.315010
606.872314	0.315252
607.222041	0.316172
607.571714	0.314104
607.921333	0.315689
608.270899	0.315285
608.620411	0.312155
608.969870	0.316308
609.319276	0.316063
609.668627	0.316265
610.017926	0.314377
610.367171	0.313071
610.716362	0.313979
611.065500	0.314074
611.414585	0.312855
611.763616	0.313096
612.112594	0.313853
612.461518	0.312971
612.810389	0.310784
613.159207	0.313308
613.507971	0.314746
613.856682	0.310940
614.205340	0.312014
614.553945	0.309045
614.902496	0.313097
615.250994	0.311033
615.599439	0.311699
615.947830	0.310988
616.296169	0.312060
616.644454	0.311990
616.992686	0.311594
617.340864	0.309571
617.688990	0.312700
618.037063	0.309535
618.385082	0.311104
618.733048	0.308492
619.080961	0.310516
619.428821	0.310378
619.776628	0.309852
620.124382	0.312284
620.472083	0.312454
620.819731	0.311572
621.167326	0.315661
621.514868	0.315369
621.862357	0.319594
622.209793	0.318657
622.557176	0.321504
622.904506	0.322464
623.251783	0.324812
623.599007	0.327282
623.946179	0.326693
624.293297	0.328569
624.640363	0.332542
624.987376	0.332907
625.334336	0.335324
625.681243	0.337695
626.028097	0.338503
626.374899	0.339791
626.721647	0.339706
627.068343	0.343174
627.414987	0.344067
627.761577	0.346116
628.108115	0.344456
628.454600	0.349595
628.801032	0.346952
629.147412	0.348803
629.493739	0.350090
629.840014	0.352678
630.186236	0.349828
630.532405	0.355448
630.878521	0.352876
631.224585	0.355068
631.570597	0.358866
631.916556	0.357290
632.262462	0.356607
632.608316	0.359567
632.954117	0.359863
633.299866	0.361307
633.645562	0.361043
633.991206	0.365653
634.336797	0.368588
634.682336	0.371461
635.027823	0.372328
635.373257	0.373035
635.718639	0.377138
636.063968	0.375907
636.409245	0.382100
636.754470	0.382421
637.099642	0.384495
637.444762	0.388606
637.789829	0.387301
638.134845	0.390983
638.479808	0.391949
638.824719	0.391640
639.169577	0.396209
639.514383	0.394554
639.859137	0.399074
640.203839	0.398607
640.548489	0.398988
640.893086	0.400626
641.237632	0.402086
641.582125	0.401053
641.926566	0.402718
642.270955	0.402903
642.615292	0.402448
642.959576	0.402017
643.303809	0.402891
643.647990	0.401978
643.992118	0.402714
644.336195	0.405549
644.680219	0.404278
645.024192	0.405186
645.368112	0.398951
645.711981	0.397500
646.055797	0.393108
646.399562	0.395358
646.743274	0.387809
647.086935	0.384723
647.430544	0.384916
647.774101	0.383676
648.117606	0.383804
648.461059	0.384314
648.804460	0.386464
649.147810	0.391349
649.491108	0.392974
649.834354	0.395021
650.177548	0.400339
650.520690	0.405158
650.863781	0.406713
651.206820	0.406041
651.549807	0.410781
651.892742	0.415084
652.235626	0.414293
652.578458	0.415532
652.921238	0.421750
653.263967	0.418884
653.606644	0.422511
653.949269	0.423053
654.291843	0.426721
654.634365	0.423927
654.976836	0.426330
655.319255	0.427289
655.661622	0.428515
656.003938	0.428857
656.346203	0.431248
656.688416	0.429213
657.030577	0.432815
657.372687	0.435189
657.714746	0.436193
658.056753	0.432468
658.398708	0.436537
658.740612	0.437865
659.082465	0.433472
659.424266	0.434408
659.766016	0.433964
660.107715	0.437003
660.449362	0.435502
660.790958	0.435822
661.132503	0.437477
661.473996	0.434218
661.815438	0.434927
662.156829	0.435472
662.498168	0.436032
662.839456	0.437238
663.180693	0.435391
663.521879	0.435323
663.863013	0.436319
664.204097	0.434143
664.545129	0.431281
664.886110	0.431546
665.227040	0.428687
665.567918	0.431669
665.908746	0.429360
666.249522	0.429175
666.590248	0.430198
666.930922	0.428281
667.271545	0.427529
667.612118	0.427452
667.952639	0.429086
668.293109	0.427694
668.633528	0.430481
668.973896	0.430140
669.314213	0.430755
669.654480	0.432268
669.994695	0.433062
670.334859	0.433571
670.674973	0.433899
671.015035	0.433635
671.355047	0.433741
671.695008	0.435328
672.034918	0.436810
672.374777	0.436098
672.714585	0.436972
673.054342	0.437151
673.394049	0.436899
673.733705	0.434855
674.073310	0.436499
674.412864	0.439360
674.752368	0.439803
675.091820	0.439784
675.431223	0.444657
675.770574	0.444620
676.109875	0.447192
676.449125	0.446913
676.788324	0.449824
677.127473	0.454657
677.466571	0.454623
677.805619	0.456670
678.144616	0.457366
678.483562	0.459906
678.822458	0.461704
679.161303	0.462408
679.500098	0.463307
679.838842	0.464742
680.177535	0.464419
680.516179	0.463097
680.854771	0.461200
681.193314	0.455132
681.531805	0.446440
681.870247	0.435298
682.208638	0.427266
682.546978	0.426791
682.885268	0.428445
683.223508	0.434230
683.561697	0.438426
683.899836	0.440770
684.237925	0.443784
684.575963	0.447147
684.913951	0.450269
685.251889	0.445769
685.589776	0.447972
685.927614	0.450595
686.265401	0.444369
686.603137	0.446066
686.940824	0.439843
687.278460	0.438443
687.616046	0.437258
687.953582	0.432514
688.291068	0.433932
688.628504	0.428988
688.965889	0.431432
689.303224	0.435455
689.640510	0.439271
689.977745	0.444882
690.314930	0.452926
690.652065	0.457522
690.989150	0.465334
691.326185	0.472182
691.663170	0.476949
692.000105	0.483750
692.336990	0.490689
692.673825	0.493435
693.010610	0.499929
693.347345	0.506320
693.684030	0.507287
694.020665	0.511656
694.357251	0.520552
694.693786	0.520477
695.030272	0.523765
695.366707	0.528279
695.703093	0.531868
696.039429	0.529776
696.375716	0.531466
696.711952	0.533529
697.048139	0.535790
697.384276	0.537972
697.720363	0.536476
698.056400	0.534921
698.392388	0.541107
698.728326	0.543438
699.064214	0.546105
699.400053	0.546926
699.735842	0.550894
700.071581	0.553387
700.407270	0.556449
700.742910	0.559597
701.078501	0.565884
701.414042	0.566366
701.749533	0.569390
702.084974	0.578232
702.420366	0.570843
702.755709	0.578156
703.091002	0.585961
703.426246	0.579638
703.761440	0.584735
704.096584	0.589617
704.431679	0.587253
704.766725	0.589250
705.101721	0.590298
705.436668	0.587152
705.771565	0.593550
706.106413	0.590301
706.441212	0.586073
706.775961	0.585481
707.110661	0.587602
707.445311	0.584187
707.779913	0.581650
708.114465	0.579834
708.448967	0.576345
708.783421	0.568854
709.117825	0.562522
709.452180	0.562637
709.786485	0.556994
710.120742	0.545936
710.454949	0.548480
710.789107	0.539555
711.123216	0.530913
711.457275	0.532211
711.791286	0.524295
712.125247	0.523297
712.459159	0.533493
712.793023	0.525330
713.126837	0.529649
713.460602	0.529987
713.794318	0.539627
714.127985	0.538242
714.461602	0.548551
714.795171	0.551779
715.128691	0.559791
715.462162	0.567534
715.795584	0.573327
716.128957	0.576178
716.462281	0.582927
716.795556	0.585693
717.128782	0.591682
717.461960	0.601611
717.795088	0.599575
718.128167	0.606109
718.461198	0.613806
718.794180	0.615031
719.127113	0.617825
719.459997	0.621060
719.792833	0.627158
720.125619	0.628601
720.458357	0.634569
720.791046	0.634557
721.123686	0.637861
721.456278	0.645227
721.788821	0.641483
722.121315	0.646933
722.453761	0.651170
722.786158	0.648257
723.118506	0.644741
723.450805	0.652207
723.783056	0.649884
724.115259	0.645868
724.447412	0.646325
724.779518	0.647688
725.111574	0.646266
725.443582	0.641679
725.775542	0.643923
726.107453	0.635815
726.439315	0.635714
726.771129	0.634399
727.102895	0.627591
727.434612	0.621363
727.766281	0.618210
728.097901	0.617559
728.429473	0.617634
728.760996	0.615413
729.092471	0.615874
729.423897	0.619927
729.755276	0.618957
730.086606	0.618541
730.417887	0.612624
730.749120	0.604422
731.080305	0.594484
731.411442	0.590683
731.742530	0.594765
732.073570	0.594380
732.404562	0.587295
732.735506	0.588250
733.066401	0.593129
733.397249	0.602621
733.728048	0.613696
734.058798	0.626456
734.389501	0.637570
734.720156	0.647328
735.050762	0.654452
735.381320	0.655875
735.711831	0.664013
736.042293	0.669762
736.372707	0.666655
736.703073	0.669945
737.033391	0.672407
737.363661	0.669458
737.693883	0.664817
738.024056	0.663738
738.354182	0.664390
738.684260	0.653663
739.014290	0.649478
739.344272	0.651387
739.674207	0.644185
740.004093	0.643825
740.333931	0.644363
740.663722	0.643945
740.993464	0.644486
741.323159	0.648405
741.652806	0.652907
741.982405	0.656587
742.311956	0.662907
742.641460	0.664797
742.970915	0.667775
743.300323	0.675133
743.629683	0.682198
743.958996	0.684379
744.288260	0.688255
744.617477	0.694865
744.946647	0.696226
745.275768	0.701377
745.604842	0.701960
745.933869	0.711575
746.262847	0.712668
746.591778	0.705630
746.920662	0.712558
747.249498	0.718322
747.578286	0.709451
747.907027	0.706138
748.235720	0.707311
748.564365	0.701547
748.892963	0.700880
749.221514	0.705412
749.550017	0.708182
749.878473	0.709375
750.206881	0.716381
750.535242	0.716613
750.863555	0.715614
751.191821	0.716825
751.520039	0.720461
751.848210	0.724649
752.176334	0.717832
752.504411	0.717490
752.832440	0.724703
753.160421	0.729074
753.488356	0.726526
753.816243	0.724452
754.144082	0.733297
754.471875	0.737047
754.799620	0.732223
755.127318	0.733853
755.454969	0.734194
755.782572	0.733764
756.110129	0.737770
756.437638	0.741079
756.765100	0.737963
757.092515	0.735326
757.419882	0.734052
757.747203	0.740060
758.074477	0.740661
758.401703	0.735803
758.728882	0.731198
759.056014	0.730578
759.383099	0.729494
759.710138	0.729929
760.037129	0.726038
760.364073	0.720220
760.690970	0.722493
761.017820	0.727685
761.344623	0.724231
761.671379	0.715146
761.998088	0.703912
762.324751	0.680809
762.651366	0.637680
762.977935	0.569579
763.304456	0.518021
763.630931	0.508439
763.957359	0.548075
764.283740	0.591650
764.610074	0.619806
764.936362	0.651658
765.262602	0.678404
765.588796	0.700072
765.914943	0.717679
766.241044	0.735673
766.567097	0.742191
766.893104	0.752414
767.219064	0.759376
767.544978	0.764941
767.870845	0.779124
768.196665	0.782872
768.522438	0.780483
768.848165	0.783104
769.173846	0.792256
769.499479	0.796474
769.825066	0.800736
770.150607	0.804899
770.476101	0.799916
770.801548	0.802152
771.126949	0.814183
771.452303	0.817292
771.777611	0.815907
772.102872	0.814484
772.428087	0.819819
772.753256	0.823165
773.078378	0.824505
773.403453	0.833585
773.728482	0.838867
774.053465	0.831294
774.378401	0.835409
774.703291	0.844032
775.028135	0.844534
775.352932	0.843752
775.677683	0.849545
776.002388	0.849615
776.327046	0.848529
776.651658	0.853684
776.976224	0.855545
777.300743	0.854870
777.625216	0.857292
777.949643	0.859641
778.274024	0.858695
778.598359	0.861362
778.922647	0.860131
779.246889	0.859472
779.571086	0.863930
779.895236	0.867725
780.219339	0.864063
780.543397	0.859676
780.867409	0.859981
781.191374	0.861413
781.515294	0.862029
781.839167	0.862408
782.162995	0.864346
782.486776	0.861524
782.810511	0.862710
783.134201	0.867036
783.457844	0.865104
783.781441	0.867775
784.104993	0.872774
784.428498	0.873673
784.751958	0.869844
785.075372	0.872265
785.398739	0.875503
785.722061	0.870477
786.045337	0.866713
786.368568	0.871035
786.691752	0.873412
787.014891	0.859865
787.337983	0.850735
787.661030	0.843744
787.984031	0.825972
788.306987	0.813716
788.629897	0.812611
788.952760	0.818688
789.275579	0.823585
789.598351	0.839175
789.921078	0.852421
790.243759	0.854039
790.566395	0.859106
790.888984	0.865458
791.211529	0.871262
791.534027	0.874450
791.856480	0.877912
792.178888	0.881279
792.501249	0.883882
792.823566	0.886485
793.145836	0.886115
793.468062	0.887380
793.790241	0.888417
794.112375	0.885770
794.434464	0.883185
794.756507	0.881217
795.078505	0.880049
795.400457	0.875537
795.722364	0.862663
796.044226	0.856565
796.366042	0.853786
796.687812	0.857032
797.009538	0.853517
797.331218	0.858396
797.652852	0.861580
797.974442	0.867003
798.295986	0.868314
798.617484	0.868885
798.938938	0.874349
799.260346	0.877462
799.581709	0.879661
799.903026	0.883256
800.224299	0.883523
800.545526	0.886932
800.866708	0.891289
801.187845	0.895067
801.508936	0.894620
801.829983	0.891614
802.150984	0.897038
802.471940	0.900447
802.792851	0.900465
803.113717	0.901773
803.434538	0.898115
803.755314	0.902074
804.076045	0.903199
804.396731	0.902931
804.717372	0.901596
805.037967	0.904981
805.358518	0.903258
805.679024	0.897964
805.999485	0.900296
806.319901	0.898865
806.640272	0.901566
806.960598	0.900888
807.280879	0.895545
807.601115	0.894759
807.921306	0.899136
808.241453	0.898860
808.561554	0.897745
808.881611	0.897712
809.201623	0.898928
809.521590	0.898778
809.841513	0.901349
810.161390	0.897851
810.481223	0.901300
810.801011	0.904122
811.120755	0.907135
811.440453	0.905395
811.760107	0.905817
812.079716	0.903528
812.399281	0.907244
812.718801	0.908953
813.038276	0.909683
813.357707	0.909271
813.677093	0.908251
813.996434	0.909964
814.315731	0.913276
814.634983	0.912527
814.954191	0.913287
815.273354	0.906621
815.592473	0.904909
815.911547	0.904815
816.230577	0.902132
816.549562	0.899153
816.868502	0.898202
817.187399	0.896695
817.506250	0.891389
817.825058	0.892261
818.143821	0.888780
818.462539	0.884127
818.781213	0.875636
819.099843	0.865043
819.418429	0.848337
819.736970	0.831425
820.055466	0.810261
820.373919	0.784802
820.692327	0.751466
821.010691	0.716787
821.329011	0.636226
821.647286	0.518881
821.965517	0.404636
822.283704	0.361542
822.601847	0.362686
822.919945	0.398593
823.237999	0.432885
823.556010	0.480892
823.873976	0.537242
824.191897	0.589107
824.509775	0.632694
824.827609	0.678761
825.145398	0.700578
825.463144	0.704018
825.780845	0.685456
826.098502	0.668035
826.416116	0.621692
826.733685	0.576399
827.051210	0.567129
827.368692	0.582806
827.686129	0.620146
828.003522	0.675585
828.320872	0.723684
828.638177	0.766933
828.955439	0.800335
829.272656	0.822722
829.589830	0.839225
829.906960	0.855656
830.224046	0.868495
830.541088	0.879381
830.858086	0.884235
831.175041	0.890708
831.491952	0.889205
831.808819	0.885430
832.125642	0.878227
832.442421	0.865642
832.759157	0.842189
833.075849	0.793241
833.392497	0.729377
833.709101	0.688951
834.025662	0.698448
834.342179	0.730820
834.658653	0.770748
834.975083	0.807185
835.291469	0.834836
835.607811	0.857223
835.924110	0.873416
836.240366	0.891274
836.556578	0.904285
836.872746	0.911439
837.188871	0.917570
837.504952	0.924396
837.820990	0.926960
838.136984	0.930190
838.452935	0.934223
838.768842	0.935545
839.084706	0.927852
839.400526	0.902181
839.716303	0.860506
840.032037	0.838762
840.347727	0.841833
840.663373	0.859453
840.978977	0.881946
841.294537	0.906774
841.610054	0.921042
841.925527	0.928505
842.240957	0.936429
842.556344	0.943601
842.871687	0.949582
843.186987	0.953031
843.502244	0.953904
843.817458	0.955909
844.132629	0.959693
844.447756	0.964229
844.762840	0.964484
845.077881	0.965176
845.392879	0.962468
845.707833	0.966116
846.022745	0.967812
846.337613	0.968310
846.652438	0.968590
846.967221	0.969145
847.281960	0.970723
847.596656	0.971034
847.911309	0.971869
848.225919	0.971008
848.540485	0.973647
848.855009	0.974977
849.169490	0.973393
849.483928	0.972642
849.798323	0.973311
850.112675	0.974929
850.426984	0.974185
850.741251	0.973767
851.055474	0.974081
851.369654	0.973292
851.683792	0.973432
851.997887	0.974307
852.311938	0.974097
852.625947	0.973882
852.939914	0.972017
853.253837	0.973652
853.567718	0.975540
853.881555	0.974563
854.195350	0.973294
854.509103	0.974738
854.822812	0.973544
855.136479	0.974614
855.450103	0.973024
855.763685	0.973513
856.077224	0.974127
856.390720	0.975269
856.704173	0.974815
857.017584	0.973665
857.330953	0.971824
857.644278	0.971006
857.957561	0.971378
858.270802	0.973653
858.584000	0.972580
858.897155	0.970621
859.210268	0.970125
859.523339	0.974290
859.836367	0.974711
860.149352	0.974583
860.462295	0.974820
860.775195	0.973593
861.088054	0.973054
861.400869	0.975062
861.713642	0.974477
862.026373	0.975847
862.339062	0.975746
862.651708	0.972568
862.964312	0.973971
863.276873	0.973448
863.589392	0.972489
863.901869	0.970768
864.214303	0.968735
864.526696	0.968168
864.839045	0.967302
865.151353	0.966554
865.463619	0.966209
865.775842	0.966295
866.088023	0.967783
866.400162	0.966986
866.712258	0.967066
867.024313	0.967522
867.336325	0.969039
867.648296	0.968610
867.960224	0.965747
868.272110	0.965844
868.583954	0.968848
868.895755	0.969149
869.207515	0.965671
869.519233	0.963695
869.830909	0.964913
870.142542	0.966173
870.454134	0.966537
870.765684	0.964711
871.077191	0.964470
871.388657	0.963247
871.700081	0.961844
872.011463	0.963798
872.322803	0.962008
872.634101	0.960365
872.945357	0.957790
873.256571	0.956467
873.567744	0.957112
873.878874	0.958761
874.189963	0.955916
874.501010	0.957722
874.812015	0.952894
875.122979	0.954075
875.433900	0.956634
875.744780	0.957999
876.055618	0.955021
876.366415	0.954003
876.677169	0.953313
876.987882	0.954747
877.298554	0.955074
877.609183	0.951628
877.919771	0.948234
878.230317	0.947490
878.540822	0.942916
878.851285	0.939559
879.161707	0.930876
879.472087	0.918834
879.782425	0.901554
880.092722	0.865689
880.402977	0.813176
880.713191	0.748941
881.023363	0.688150
881.333494	0.654415
881.643583	0.625645
881.953631	0.626198
882.263637	0.655460
882.573602	0.695388
882.883526	0.721630
883.193408	0.746325
883.503248	0.770451
883.813048	0.797003
884.122806	0.828345
884.432522	0.851528
884.742197	0.871532
885.051831	0.884121
885.361424	0.894561
885.670975	0.906137
885.980485	0.915247
886.289954	0.922465
886.599382	0.926535
886.908768	0.931333
887.218113	0.937378
887.527417	0.943189
887.836680	0.945867
888.145901	0.946516
888.455082	0.950772
888.764221	0.955738
889.073319	0.956777
889.382376	0.957576
889.691392	0.956362
890.000366	0.956182
890.309300	0.956495
890.618193	0.957585
890.927044	0.955226
891.235855	0.955781
891.544625	0.955372
891.853353	0.954894
892.162041	0.952801
892.470687	0.946982
892.779293	0.940913
893.087858	0.936063
893.396381	0.928768
893.704864	0.915365
894.013306	0.891316
894.321707	0.864483
894.630068	0.849827
894.938387	0.842795
895.246665	0.844464
895.554903	0.856602
895.863100	0.870350
896.171256	0.889014
896.479371	0.908113
896.787446	0.921048
897.095480	0.928484
897.403473	0.930865
897.711425	0.935548
898.019336	0.943411
898.327207	0.947232
898.635038	0.947438
898.942827	0.949134
899.250576	0.951735
899.558284	0.956844
899.865952	0.957970
900.173579	0.958888
900.481165	0.959711
900.788711	0.962208
901.096216	0.963712
901.403681	0.966145
901.711105	0.966382
902.018489	0.965832
902.325832	0.965796
902.633135	0.964162
902.940397	0.959763
903.247619	0.944952
903.554800	0.921132
903.861941	0.879499
904.169041	0.841682
904.476101	0.824306
904.783121	0.826268
905.090100	0.841157
905.397039	0.864909
905.703938	0.887037
906.010796	0.908746
906.317614	0.925330
906.624391	0.938485
906.931129	0.947716
907.237826	0.955660
907.544483	0.961924
907.851099	0.967074
908.157675	0.970043
908.464211	0.974179
908.770707	0.974891
909.077163	0.979443
909.383578	0.979934
909.689954	0.979119
909.996289	0.980279
910.302584	0.982936
910.608839	0.983776
910.915054	0.983614
911.221229	0.982760
911.527363	0.980853
911.833458	0.982665
912.139513	0.982103
912.445527	0.981640
912.751502	0.978990
913.057436	0.975955
913.363331	0.975639
913.669186	0.971437
913.975000	0.965504
914.280775	0.959142
914.586510	0.950817
914.892205	0.937963
915.197859	0.914542
915.503475	0.888053
915.809050	0.867629
916.114585	0.860754
916.420081	0.858599
916.725536	0.855781
917.030952	0.864153
917.336328	0.877692
917.641665	0.892121
917.946961	0.909107
918.252218	0.920025
918.557435	0.929313
918.862612	0.938541
919.167750	0.944638
919.472848	0.949917
919.777906	0.957415
920.082925	0.962123
920.387904	0.965692
920.692843	0.967120
920.997743	0.967863
921.302603	0.971855
921.607423	0.972989
921.912204	0.976199
922.216946	0.977712
922.521647	0.977534
922.826310	0.978683
923.130932	0.980769
923.435516	0.982524
923.740059	0.984152
924.044564	0.982825
924.349028	0.984608
924.653454	0.988049
924.957840	0.987648
925.262186	0.988943
925.566493	0.989123
925.870761	0.988938
926.174989	0.988658
926.479178	0.992082
926.783328	0.992610
927.087438	0.991909
927.391509	0.991563
927.695541	0.993747
927.999533	0.993853
928.303486	0.993767
928.607400	0.993561
928.911275	0.993661
929.215110	0.995694
929.518906	0.995628
929.822663	0.996001
930.126381	0.995686
930.430060	0.994754
930.733699	0.997031
931.037299	0.994593
931.340861	0.994540
931.644383	0.993031
931.947866	0.994732
932.251309	0.994566
932.554714	0.994652
932.858080	0.995982
933.161407	0.994946
933.464694	0.993619
933.767943	0.995176
934.071153	0.995574
934.374323	0.996856
934.677455	0.996048
934.980548	0.994467
935.283602	0.997571
935.586617	0.995839
935.889593	0.997807
936.192530	0.995831
936.495428	0.996089
936.798287	0.995131
937.101108	0.994480
937.403890	0.994199
937.706632	0.994661
938.009336	0.989414
938.312002	0.988578
938.614628	0.988772
938.917216	0.986179
939.219765	0.986463
939.522275	0.986863
939.824747	0.986657
940.127179	0.987118
940.429573	0.989293
940.731929	0.988138
941.034246	0.989022
941.336524	0.988160
941.638763	0.989565
941.940964	0.990532
942.243126	0.989992
942.545250	0.992529
942.847335	0.991478
943.149381	0.993140
943.451389	0.991631
943.753359	0.992692
944.055290	0.995399
944.357182	0.994941
944.659036	0.994882
944.960851	0.994632
945.262628	0.995437
945.564367	0.994710
945.866067	0.995110
946.167729	0.995234
946.469352	0.995296
946.770937	0.993020
947.072484	0.995306
947.373992	0.995024
947.675462	0.994709
947.976893	0.994378
948.278286	0.997583
948.579641	0.995921
948.880958	0.995886
949.182236	0.995627
949.483476	0.996892
949.784678	0.995138
950.085841	0.995342
950.386967	0.994883
950.688054	0.996295
950.989103	0.994155
951.290114	0.993141
951.591087	0.996063
951.892021	0.992789
952.192917	0.993372
952.493776	0.992962
952.794596	0.992394
953.095378	0.992207
953.396122	0.991805
953.696828	0.993235
953.997496	0.994195
954.298126	0.994725
954.598718	0.994278
954.899272	0.994453
955.199788	0.994593
955.500266	0.996443
955.800706	0.995759
956.101108	0.997449
956.401472	0.998161
956.701798	0.997006
957.002087	0.998917
957.302337	0.998461
957.602550	0.999134
957.902724	0.999675
958.202861	0.999842
958.502960	0.999530
958.803022	1.000956
959.103045	1.000045
959.403031	1.001288
959.702979	1.001273
960.002889	1.000287
960.302762	1.000413
960.602596	1.001042
960.902393	1.000371
961.202153	1.000858
961.501875	1.002293
961.801559	1.000338
962.101205	1.000590
962.400814	1.002219
962.700385	1.001903
962.999918	1.002312
963.299414	1.001358
963.598873	1.000652
963.898293	1.001954
964.197677	1.001775
964.497022	1.001722
964.796331	1.001344
965.095601	1.002231
965.394835	1.002395
965.694030	1.002627
965.993189	1.001853
966.292309	1.002378
966.591393	1.001245
966.890439	1.002295
967.189447	1.001373
967.488419	1.001994
967.787353	1.001985
968.086249	1.001639
968.385108	1.001577
968.683930	1.003153
968.982714	1.001830
969.281462	1.001855
969.580172	1.001481
969.878844	1.003129
970.177480	1.003083
970.476078	1.003471
970.774639	1.001834
971.073162	1.001324
971.371649	1.001620
971.670098	1.001537
971.968510	1.001095
972.266885	1.000701
972.565223	1.001184
972.863524	0.999260
973.161788	1.000075
973.460014	1.002340
973.758204	1.000663
974.056356	1.002152
974.354471	1.001296
974.652550	1.002531
974.950591	1.000698
975.248595	1.000257
975.546563	1.002837
975.844493	1.002949
976.142386	1.001328
976.440243	1.001317
976.738062	1.001969
977.035845	1.000784
977.333590	1.002755
977.631299	1.002648
977.928971	1.001762
978.226606	1.001890
978.524204	1.001372
978.821765	1.003004
979.119290	1.004059
979.416777	1.001979
979.714228	1.002066
980.011642	1.002546
980.309020	1.002098
980.606360	1.000724
980.903664	1.002617
981.200931	1.001345
981.498162	1.001515
981.795356	1.000569
982.092513	0.999455
982.389633	0.999443
982.686717	0.995961
982.983764	0.996088
983.280775	0.994982
983.577749	0.995897
983.874686	0.996435
984.171587	0.997086
984.468451	0.998223
984.765279	0.999983
985.062070	0.999972
985.358824	0.999671
985.655543	1.001354
985.952224	1.000837
986.248869	1.000719
986.545478	1.003306
986.842050	1.001437
987.138586	1.000866
987.435086	1.001341
987.731549	1.003871
988.027975	1.002190
988.324366	1.001296
988.620719	1.004407
988.917037	1.002785
989.213318	1.003814
989.509563	1.002804
989.805772	1.002939
990.101944	1.003902
990.398080	1.002357
990.694180	1.004281
990.990244	1.002887
991.286271	1.002552
991.582262	1.003870
991.878217	1.002703
992.174136	1.003868
992.470019	1.002710
992.765865	1.004369
993.061676	1.004249
993.357450	1.004920
993.653188	1.004709
993.948890	1.003507
994.244556	1.002705
994.540186	1.003401
994.835780	1.003155
995.131337	1.003079
995.426859	1.002827
995.722345	1.002795
996.017795	1.002496
996.313208	1.001004
996.608586	1.000692
996.903928	1.001864
997.199234	1.002126
997.494504	1.002002
997.789738	1.000676
998.084936	1.002652
998.380099	1.001357
998.675225	1.003172
998.970316	1.003392
999.265371	1.002969
999.560390	1.003260
999.855373	1.002493
1000.150320	1.002846
1000.445232	1.003700
1000.740108	1.003115
1001.034948	1.003385
1001.329752	1.002980
1001.624521	1.002356
1001.919254	1.003568
1002.213951	1.004195
1002.508613	1.003104
1002.803239	1.002906
1003.097829	1.004718
1003.392384	1.003426
1003.686903	1.003128
1003.981386	1.004438
1004.275834	1.005448
1004.570246	1.002578
1004.864623	1.003115
1005.158964	1.003507
1005.453270	1.004363
1005.747540	1.003272
1006.041775	1.004454
1006.335974	1.003984
1006.630138	1.005371
1006.924266	1.003230
1007.218359	1.002851
1007.512416	1.005124
1007.806438	1.003552
1008.100425	1.004420
1008.394376	1.005062
1008.688292	1.003728
1008.982172	1.003714
1009.276017	1.004296
1009.569827	1.004542
1009.863602	1.003391
1010.157341	1.004881
1010.451045	1.002940
1010.744714	1.005837
1011.038347	1.003960
1011.331945	1.002201
1011.625508	1.003487
1011.919036	1.004413
1012.212528	1.005160
1012.505986	1.003787
1012.799408	1.003832
1013.092795	1.004482
1013.386147	1.004699
1013.679464	1.004946
1013.972745	1.004006
1014.265992	1.004175
1014.559204	1.003391
1014.852380	1.004864
1015.145521	1.003970
1015.438628	1.003366
1015.731699	1.004006
1016.024736	1.004128
1016.317737	1.004438
1016.610703	1.004552
1016.903635	1.004177
1017.196531	1.004432
1017.489393	1.002832
1017.782219	1.003186
1018.075011	1.003391
1018.367768	1.003687
1018.660490	1.004549
1018.953177	1.004549
1019.245829	1.004549
