Dividing Wavelength (nm)	Counts (n)	Blue Motor Position (mm): 4.400000	Red Motor Position (mm): 0.000000	
326.493990	1.005518
326.888308	1.005518
327.282561	1.005518
327.676750	1.007464
328.070874	1.006344
328.464933	1.007682
328.858929	1.007187
329.252859	1.006010
329.646726	1.005809
330.040528	1.007109
330.434265	1.005636
330.827938	1.006688
331.221547	1.005415
331.615091	1.007239
332.008571	1.007483
332.401986	1.005617
332.795338	1.005573
333.188625	1.007169
333.581847	1.006338
333.975006	1.006297
334.368100	1.005631
334.761129	1.006148
335.154095	1.005658
335.546996	1.005419
335.939833	0.998385
336.332606	1.000029
336.725315	0.998182
337.117960	1.001285
337.510540	0.999245
337.903056	1.000045
338.295508	0.999976
338.687896	0.999284
339.080220	0.999246
339.472480	0.999417
339.864676	1.000028
340.256807	0.998480
340.648875	1.000097
341.040879	0.999480
341.432818	1.000357
341.824694	0.999031
342.216506	0.999890
342.608253	0.999193
342.999937	0.999370
343.391557	0.999727
343.783113	1.000941
344.174605	1.000026
344.566033	1.000001
344.957397	1.000499
345.348697	0.999744
345.739934	1.000383
346.131106	0.998274
346.522215	0.999257
346.913260	0.998886
347.304241	0.997693
347.695159	1.000104
348.086012	0.999146
348.476802	0.999185
348.867528	0.997471
349.258191	1.000034
349.648789	0.999404
350.039324	0.998961
350.429796	0.999167
350.820203	0.997853
351.210548	0.998200
351.600828	0.998361
351.991045	0.998369
352.381198	0.998320
352.771288	0.998884
353.161314	0.998931
353.551276	0.998608
353.941175	0.996960
354.331010	0.999061
354.720782	0.998912
355.110490	0.997981
355.500135	0.999113
355.889717	0.996719
356.279235	0.997602
356.668689	0.997730
357.058080	0.997832
357.447408	0.998248
357.836672	0.998317
358.225873	0.998487
358.615010	0.997935
359.004084	0.997788
359.393095	0.999381
359.782043	0.998205
360.170927	0.997984
360.559748	0.998067
360.948505	0.997461
361.337199	0.997751
361.725830	0.997589
362.114398	0.997817
362.502903	0.996277
362.891344	0.997576
363.279722	0.997748
363.668037	0.997889
364.056289	0.996116
364.444478	0.998880
364.832603	0.997138
365.220665	0.997680
365.608665	0.996218
365.996601	0.997306
366.384474	0.995295
366.772284	0.996813
367.160031	0.994561
367.547715	0.995675
367.935336	0.994265
368.322893	0.993270
368.710388	0.992990
369.097820	0.991300
369.485189	0.987915
369.872495	0.986237
370.259738	0.984982
370.646918	0.981980
371.034035	0.978817
371.421090	0.977653
371.808081	0.971394
372.195010	0.968916
372.581875	0.965083
372.968678	0.959289
373.355418	0.956229
373.742096	0.949365
374.128710	0.944974
374.515262	0.940249
374.901751	0.934036
375.288177	0.929291
375.674540	0.922157
376.060841	0.916049
376.447079	0.908788
376.833254	0.903629
377.219367	0.898040
377.605417	0.886550
377.991404	0.882571
378.377329	0.876699
378.763191	0.870611
379.148991	0.860772
379.534727	0.854007
379.920402	0.845934
380.306013	0.842267
380.691563	0.828836
381.077049	0.822335
381.462474	0.818832
381.847835	0.807159
382.233134	0.802664
382.618371	0.803159
383.003545	0.785371
383.388657	0.783948
383.773706	0.776640
384.158693	0.771857
384.543618	0.767889
384.928480	0.757655
385.313280	0.746870
385.698017	0.747112
386.082692	0.735938
386.467305	0.734489
386.851856	0.728487
387.236344	0.723700
387.620770	0.718035
388.005133	0.711962
388.389435	0.706967
388.773674	0.703776
389.157851	0.695771
389.541965	0.693010
389.926018	0.699536
390.310008	0.686167
390.693936	0.683723
391.077802	0.675641
391.461606	0.676998
391.845348	0.666255
392.229027	0.665932
392.612645	0.664417
392.996200	0.650678
393.379694	0.644247
393.763125	0.633955
394.146494	0.638901
394.529801	0.629609
394.913047	0.621758
395.296230	0.627548
395.679351	0.619011
396.062410	0.615308
396.445408	0.618528
396.828343	0.614176
397.211217	0.608990
397.594028	0.620881
397.976778	0.611478
398.359466	0.607689
398.742092	0.603067
399.124656	0.615364
399.507158	0.603053
399.889598	0.600739
400.271977	0.591389
400.654294	0.595901
401.036549	0.595099
401.418742	0.599551
401.800874	0.584256
402.182944	0.581595
402.564952	0.573498
402.946898	0.575487
403.328783	0.575471
403.710606	0.587450
404.092367	0.562332
404.474067	0.567267
404.855705	0.565801
405.237282	0.574470
405.618797	0.560753
406.000250	0.557333
406.381642	0.546728
406.762972	0.552047
407.144240	0.550215
407.525447	0.550391
407.906593	0.543133
408.287677	0.538965
408.668700	0.546996
409.049661	0.540534
409.430560	0.536052
409.811399	0.544367
410.192176	0.526471
410.572891	0.533309
410.953545	0.521299
411.334138	0.535630
411.714669	0.527793
412.095139	0.539531
412.475547	0.523752
412.855894	0.525710
413.236180	0.525307
413.616405	0.529916
413.996568	0.520618
414.376670	0.526835
414.756711	0.531449
415.136691	0.528736
415.516609	0.519350
415.896466	0.515976
416.276262	0.512421
416.655997	0.514459
417.035670	0.496271
417.415283	0.487274
417.794834	0.492029
418.174324	0.497963
418.553753	0.506518
418.933121	0.488816
419.312428	0.483210
419.691674	0.488343
420.070859	0.476462
420.449983	0.484976
420.829045	0.474091
421.208047	0.482456
421.586988	0.475798
421.965867	0.474609
422.344686	0.463513
422.723444	0.476431
423.102141	0.493246
423.480777	0.465205
423.859352	0.486741
424.237866	0.463464
424.616319	0.464946
424.994712	0.455790
425.373044	0.465890
425.751314	0.453293
426.129524	0.470447
426.507673	0.453646
426.885762	0.447708
427.263789	0.453109
427.641756	0.462771
428.019662	0.452634
428.397508	0.452277
428.775292	0.456529
429.153016	0.448497
429.530679	0.454667
429.908282	0.447830
430.285824	0.458205
430.663305	0.436482
431.040726	0.457809
431.418086	0.457123
431.795385	0.449210
432.172624	0.448084
432.549802	0.449027
432.926920	0.447760
433.303977	0.447297
433.680974	0.444055
434.057910	0.442854
434.434786	0.441957
434.811601	0.444856
435.188355	0.427581
435.565050	0.436791
435.941683	0.437590
436.318257	0.421281
436.694770	0.422512
437.071222	0.421227
437.447614	0.425207
437.823946	0.432378
438.200218	0.420969
438.576429	0.430412
438.952580	0.423585
439.328670	0.420537
439.704700	0.426723
440.080670	0.428392
440.456580	0.409236
440.832429	0.417235
441.208218	0.428761
441.583947	0.417112
441.959616	0.416749
442.335224	0.421880
442.710773	0.413070
443.086261	0.410883
443.461689	0.425109
443.837057	0.414492
444.212365	0.405049
444.587612	0.411770
444.962800	0.401788
445.337927	0.403131
445.712995	0.429550
446.088002	0.391282
446.462949	0.401647
446.837837	0.406080
447.212664	0.395717
447.587431	0.386911
447.962139	0.357124
448.336786	0.315963
448.711374	0.326590
449.085901	0.370918
449.460369	0.374935
449.834776	0.378913
450.209124	0.357981
450.583412	0.350754
450.957640	0.343511
451.331808	0.354948
451.705917	0.378448
452.079965	0.383149
452.453954	0.371569
452.827883	0.378259
453.201752	0.372726
453.575562	0.383522
453.949311	0.372827
454.323001	0.379075
454.696632	0.374538
455.070202	0.367173
455.443713	0.359224
455.817164	0.353580
456.190556	0.349511
456.563888	0.346450
456.937160	0.343818
457.310373	0.361263
457.683526	0.360218
458.056619	0.365832
458.429653	0.366355
458.802628	0.369792
459.175542	0.364097
459.548398	0.346437
459.921194	0.339840
460.293930	0.339078
460.666607	0.317060
461.039224	0.304952
461.411782	0.300737
461.784280	0.299793
462.156719	0.304011
462.529099	0.308670
462.901419	0.324952
463.273680	0.328907
463.645882	0.328378
464.018024	0.334231
464.390106	0.326669
464.762130	0.311600
465.134094	0.294569
465.505999	0.263761
465.877845	0.234049
466.249631	0.220545
466.621358	0.228214
466.993026	0.242171
467.364634	0.248399
467.736184	0.257549
468.107674	0.266074
468.479105	0.265063
468.850477	0.271852
469.221790	0.278736
469.593043	0.289163
469.964238	0.293641
470.335373	0.293055
470.706449	0.291259
471.077467	0.292048
471.448425	0.253935
471.819324	0.229462
472.190164	0.228780
472.560945	0.257743
472.931667	0.280374
473.302330	0.284825
473.672934	0.296414
474.043479	0.284248
474.413965	0.286338
474.784393	0.289325
475.154761	0.284641
475.525070	0.281577
475.895321	0.287405
476.265513	0.281555
476.635645	0.277059
477.005719	0.276777
477.375734	0.273556
477.745691	0.266558
478.115588	0.262970
478.485427	0.256678
478.855207	0.243509
479.224928	0.225764
479.594591	0.214046
479.964194	0.217263
480.333739	0.218668
480.703226	0.219785
481.072653	0.218514
481.442022	0.213935
481.811333	0.210799
482.180584	0.214412
482.549777	0.219470
482.918912	0.222855
483.287988	0.222634
483.657005	0.222233
484.025964	0.228604
484.394864	0.225984
484.763706	0.226679
485.132489	0.231636
485.501213	0.232292
485.869879	0.230677
486.238487	0.233913
486.607036	0.231849
486.975527	0.236546
487.343959	0.232396
487.712333	0.231564
488.080648	0.232782
488.448905	0.231937
488.817104	0.233145
489.185244	0.227613
489.553326	0.224601
489.921350	0.214400
490.289315	0.196852
490.657222	0.191834
491.025070	0.193325
491.392861	0.195157
491.760593	0.201002
492.128267	0.206453
492.495883	0.211938
492.863440	0.218294
493.230939	0.224838
493.598380	0.225988
493.965763	0.228313
494.333088	0.230486
494.700354	0.231966
495.067563	0.231210
495.434713	0.234358
495.801805	0.232416
496.168839	0.233723
496.535815	0.235194
496.902733	0.235314
497.269593	0.236493
497.636395	0.234068
498.003139	0.234420
498.369825	0.237738
498.736453	0.234129
499.103023	0.235648
499.469535	0.235083
499.835989	0.235185
500.202385	0.236162
500.568723	0.239140
500.935003	0.234513
501.301226	0.238877
501.667390	0.232813
502.033497	0.231219
502.399546	0.234085
502.765537	0.235722
503.131470	0.234614
503.497345	0.231060
503.863163	0.239457
504.228923	0.232526
504.594625	0.230993
504.960269	0.237011
505.325856	0.232126
505.691385	0.236397
506.056856	0.232566
506.422270	0.232234
506.787625	0.234882
507.152924	0.232458
507.518164	0.232606
507.883347	0.234551
508.248472	0.236555
508.613540	0.231249
508.978550	0.233707
509.343503	0.234011
509.708398	0.231861
510.073236	0.229353
510.438016	0.228984
510.802738	0.230325
511.167403	0.228898
511.532010	0.231204
511.896561	0.226612
512.261053	0.225126
512.625488	0.227367
512.989866	0.227549
513.354186	0.228073
513.718449	0.230051
514.082655	0.226513
514.446803	0.228314
514.810894	0.226356
515.174927	0.229140
515.538904	0.228191
515.902822	0.225223
516.266684	0.227651
516.630488	0.228712
516.994235	0.227613
517.357925	0.226583
517.721558	0.224788
518.085133	0.224505
518.448651	0.224179
518.812112	0.226341
519.175516	0.226194
519.538863	0.223741
519.902152	0.225415
520.265385	0.222138
520.628560	0.224038
520.991678	0.224286
521.354739	0.223325
521.717743	0.224229
522.080690	0.224853
522.443580	0.222360
522.806413	0.223286
523.169189	0.222716
523.531908	0.221155
523.894569	0.224901
524.257174	0.225081
524.619722	0.222367
524.982213	0.223888
525.344647	0.222454
525.707025	0.223317
526.069345	0.221552
526.431608	0.223399
526.793815	0.221267
527.155964	0.225537
527.518057	0.224439
527.880093	0.225363
528.242072	0.224030
528.603995	0.225927
528.965860	0.227430
529.327669	0.226424
529.689421	0.227344
530.051117	0.228203
530.412755	0.225920
530.774337	0.228018
531.135862	0.228706
531.497331	0.227845
531.858743	0.230920
532.220098	0.227233
532.581396	0.230109
532.942638	0.230657
533.303824	0.231376
533.664953	0.231103
534.026025	0.233340
534.387040	0.230909
534.747999	0.230749
535.108902	0.229469
535.469748	0.234678
535.830537	0.232602
536.191270	0.232963
536.551947	0.232407
536.912567	0.232583
537.273131	0.234384
537.633638	0.234537
537.994089	0.234912
538.354483	0.236093
538.714821	0.232799
539.075103	0.232519
539.435328	0.233586
539.795497	0.237313
540.155609	0.233610
540.515665	0.231779
540.875665	0.237230
541.235609	0.236045
541.595496	0.236104
541.955328	0.232861
542.315102	0.235310
542.674821	0.236633
543.034483	0.236814
543.394090	0.236057
543.753640	0.237978
544.113134	0.232953
544.472571	0.236436
544.831953	0.233488
545.191278	0.237413
545.550548	0.236654
545.909761	0.233809
546.268918	0.234617
546.628019	0.232675
546.987064	0.235527
547.346053	0.237227
547.704986	0.234843
548.063863	0.235209
548.422684	0.235627
548.781449	0.237390
549.140158	0.234989
549.498811	0.237739
549.857408	0.240822
550.215949	0.235698
550.574434	0.238708
550.932864	0.236754
551.291237	0.235272
551.649555	0.236755
552.007817	0.236511
552.366022	0.237465
552.724173	0.237529
553.082267	0.237798
553.440305	0.235017
553.798288	0.239141
554.156215	0.236050
554.514086	0.236532
554.871902	0.239720
555.229661	0.238786
555.587365	0.239366
555.945014	0.242101
556.302606	0.239090
556.660143	0.241593
557.017625	0.237960
557.375050	0.240237
557.732421	0.236996
558.089735	0.239070
558.446994	0.239184
558.804197	0.238523
559.161345	0.238194
559.518437	0.241706
559.875474	0.239802
560.232455	0.239029
560.589381	0.240075
560.946251	0.240396
561.303065	0.237659
561.659825	0.239151
562.016528	0.240715
562.373177	0.243439
562.729770	0.241074
563.086307	0.242714
563.442789	0.240647
563.799216	0.243476
564.155587	0.242303
564.511904	0.243531
564.868164	0.243370
565.224370	0.243282
565.580520	0.245024
565.936615	0.244878
566.292654	0.247857
566.648638	0.245056
567.004567	0.245814
567.360441	0.246614
567.716260	0.248480
568.072023	0.246295
568.427732	0.247366
568.783385	0.249456
569.138982	0.247527
569.494525	0.247261
569.850013	0.250194
570.205445	0.248820
570.560823	0.251066
570.916145	0.253101
571.271412	0.251712
571.626625	0.253058
571.981782	0.253524
572.336884	0.254159
572.691931	0.253878
573.046923	0.255489
573.401860	0.256198
573.756743	0.258082
574.111570	0.257127
574.466342	0.257781
574.821059	0.256621
575.175722	0.259751
575.530330	0.259202
575.884882	0.259204
576.239380	0.261248
576.593823	0.262189
576.948211	0.261740
577.302544	0.264609
577.656823	0.264694
578.011047	0.264193
578.365216	0.265156
578.719330	0.267187
579.073389	0.266333
579.427394	0.267995
579.781344	0.268792
580.135239	0.270051
580.489080	0.270316
580.842866	0.273059
581.196597	0.273261
581.550273	0.271480
581.903895	0.272626
582.257463	0.270697
582.610975	0.273883
582.964434	0.273511
583.317837	0.275691
583.671186	0.276323
584.024481	0.276423
584.377721	0.278907
584.730906	0.279627
585.084037	0.279172
585.437113	0.280985
585.790135	0.279838
586.143103	0.283031
586.496016	0.284299
586.848874	0.282145
587.201679	0.282176
587.554428	0.285526
587.907124	0.284567
588.259765	0.285163
588.612352	0.285902
588.964884	0.289738
589.317362	0.289229
589.669786	0.289013
590.022155	0.287599
590.374470	0.286816
590.726731	0.288785
591.078937	0.293804
591.431090	0.290049
591.783188	0.294278
592.135232	0.294995
592.487222	0.294788
592.839157	0.292938
593.191038	0.295238
593.542866	0.297079
593.894639	0.300320
594.246358	0.298654
594.598022	0.298265
594.949633	0.301774
595.301190	0.302386
595.652692	0.301477
596.004141	0.297741
596.355535	0.305679
596.706876	0.306387
597.058162	0.308794
597.409395	0.305935
597.760573	0.303853
598.111698	0.306914
598.462768	0.307534
598.813785	0.308907
599.164748	0.309860
599.515657	0.310083
599.866511	0.313877
600.217312	0.309109
600.568060	0.314673
600.918753	0.310595
601.269392	0.311810
601.619978	0.315149
601.970510	0.312439
602.320988	0.312371
602.671412	0.310697
603.021783	0.313147
603.372100	0.314176
603.722363	0.313754
604.072572	0.314875
604.422728	0.314513
604.772830	0.316782
605.122878	0.316724
605.472872	0.316889
605.822813	0.315179
606.172701	0.317716
606.522534	0.315465
606.872314	0.315323
607.222041	0.316325
607.571714	0.314059
607.921333	0.315802
608.270899	0.315395
608.620411	0.312589
608.969870	0.316413
609.319276	0.316274
609.668627	0.316393
610.017926	0.314483
610.367171	0.313148
610.716362	0.314060
611.065500	0.314055
611.414585	0.313062
611.763616	0.313102
612.112594	0.313780
612.461518	0.313018
612.810389	0.311208
613.159207	0.313235
613.507971	0.315012
613.856682	0.311100
614.205340	0.311822
614.553945	0.309725
614.902496	0.312975
615.250994	0.311084
615.599439	0.311852
615.947830	0.311155
616.296169	0.312373
616.644454	0.311880
616.992686	0.311915
617.340864	0.309658
617.688990	0.313237
618.037063	0.309894
618.385082	0.311593
618.733048	0.308538
619.080961	0.310943
619.428821	0.310314
619.776628	0.309854
620.124382	0.312211
620.472083	0.312532
620.819731	0.312122
621.167326	0.315409
621.514868	0.315323
621.862357	0.319534
622.209793	0.318964
622.557176	0.321655
622.904506	0.322607
623.251783	0.325337
623.599007	0.327396
623.946179	0.326543
624.293297	0.328912
624.640363	0.332842
624.987376	0.333180
625.334336	0.335222
625.681243	0.338026
626.028097	0.338628
626.374899	0.339249
626.721647	0.340273
627.068343	0.343134
627.414987	0.344309
627.761577	0.346276
628.108115	0.344312
628.454600	0.350010
628.801032	0.347113
629.147412	0.349095
629.493739	0.349635
629.840014	0.352808
630.186236	0.350158
630.532405	0.355337
630.878521	0.352913
631.224585	0.355110
631.570597	0.358550
631.916556	0.357332
632.262462	0.357213
632.608316	0.359915
632.954117	0.360594
633.299866	0.361221
633.645562	0.362017
633.991206	0.365590
634.336797	0.368608
634.682336	0.371564
635.027823	0.372853
635.373257	0.373459
635.718639	0.377555
636.063968	0.376377
636.409245	0.381953
636.754470	0.382542
637.099642	0.385015
637.444762	0.388473
637.789829	0.387731
638.134845	0.390418
638.479808	0.392181
638.824719	0.391868
639.169577	0.396157
639.514383	0.395097
639.859137	0.399557
640.203839	0.398965
640.548489	0.399636
640.893086	0.400417
641.237632	0.402673
641.582125	0.401281
641.926566	0.402805
642.270955	0.402711
642.615292	0.402802
642.959576	0.402038
643.303809	0.402596
643.647990	0.402341
643.992118	0.402935
644.336195	0.405934
644.680219	0.404847
645.024192	0.405676
645.368112	0.399019
645.711981	0.397980
646.055797	0.393157
646.399562	0.395231
646.743274	0.388278
647.086935	0.385284
647.430544	0.384999
647.774101	0.384183
648.117606	0.383713
648.461059	0.384576
648.804460	0.386415
649.147810	0.392005
649.491108	0.393641
649.834354	0.395031
650.177548	0.400553
650.520690	0.405778
650.863781	0.406855
651.206820	0.406221
651.549807	0.410887
651.892742	0.415152
652.235626	0.414564
652.578458	0.415221
652.921238	0.421765
653.263967	0.419534
653.606644	0.422733
653.949269	0.423284
654.291843	0.427156
654.634365	0.423792
654.976836	0.426736
655.319255	0.427463
655.661622	0.428324
656.003938	0.428764
656.346203	0.431242
656.688416	0.429868
657.030577	0.432194
657.372687	0.435078
657.714746	0.436214
658.056753	0.432654
658.398708	0.436505
658.740612	0.438000
659.082465	0.433661
659.424266	0.434622
659.766016	0.433991
660.107715	0.437073
660.449362	0.435391
660.790958	0.436112
661.132503	0.436752
661.473996	0.434329
661.815438	0.435400
662.156829	0.435616
662.498168	0.436672
662.839456	0.437354
663.180693	0.435188
663.521879	0.435195
663.863013	0.436059
664.204097	0.434512
664.545129	0.431501
664.886110	0.432150
665.227040	0.429133
665.567918	0.431642
665.908746	0.430164
666.249522	0.429489
666.590248	0.430679
666.930922	0.428495
667.271545	0.427677
667.612118	0.427660
667.952639	0.429700
668.293109	0.428056
668.633528	0.430105
668.973896	0.430577
669.314213	0.431067
669.654480	0.432848
669.994695	0.433125
670.334859	0.433983
670.674973	0.434456
671.015035	0.434050
671.355047	0.433911
671.695008	0.435067
672.034918	0.436762
672.374777	0.436340
672.714585	0.437384
673.054342	0.437435
673.394049	0.437510
673.733705	0.435253
674.073310	0.436603
674.412864	0.439910
674.752368	0.439662
675.091820	0.440969
675.431223	0.444493
675.770574	0.444086
676.109875	0.447739
676.449125	0.447269
676.788324	0.450285
677.127473	0.454793
677.466571	0.455287
677.805619	0.456706
678.144616	0.458019
678.483562	0.459515
678.822458	0.462324
679.161303	0.462611
679.500098	0.463436
679.838842	0.464855
680.177535	0.463936
680.516179	0.463485
680.854771	0.461537
681.193314	0.455401
681.531805	0.447029
681.870247	0.434844
682.208638	0.427970
682.546978	0.426593
682.885268	0.428489
683.223508	0.434523
683.561697	0.438770
683.899836	0.441361
684.237925	0.444077
684.575963	0.447794
684.913951	0.450260
685.251889	0.445383
685.589776	0.447959
685.927614	0.450607
686.265401	0.444128
686.603137	0.445829
686.940824	0.440390
687.278460	0.438812
687.616046	0.437554
687.953582	0.432240
688.291068	0.434074
688.628504	0.428963
688.965889	0.431995
689.303224	0.434877
689.640510	0.439474
689.977745	0.445021
690.314930	0.453376
690.652065	0.457996
690.989150	0.465419
691.326185	0.472588
691.663170	0.477018
692.000105	0.484459
692.336990	0.491257
692.673825	0.493726
693.010610	0.500221
693.347345	0.506372
693.684030	0.507603
694.020665	0.512035
694.357251	0.521295
694.693786	0.520746
695.030272	0.524013
695.366707	0.528212
695.703093	0.531887
696.039429	0.529802
696.375716	0.531879
696.711952	0.534087
697.048139	0.536033
697.384276	0.538133
697.720363	0.536464
698.056400	0.535298
698.392388	0.540509
698.728326	0.544349
699.064214	0.546851
699.400053	0.547188
699.735842	0.551062
700.071581	0.554403
700.407270	0.556525
700.742910	0.559922
701.078501	0.565660
701.414042	0.566579
701.749533	0.569275
702.084974	0.578391
702.420366	0.571233
702.755709	0.578590
703.091002	0.586421
703.426246	0.579965
703.761440	0.584966
704.096584	0.590402
704.431679	0.586951
704.766725	0.590024
705.101721	0.591605
705.436668	0.587584
705.771565	0.593973
706.106413	0.590306
706.441212	0.586461
706.775961	0.585631
707.110661	0.587022
707.445311	0.583851
707.779913	0.581554
708.114465	0.579812
708.448967	0.576208
708.783421	0.568455
709.117825	0.563216
709.452180	0.562763
709.786485	0.557134
710.120742	0.546934
710.454949	0.549206
710.789107	0.540506
711.123216	0.530847
711.457275	0.532691
711.791286	0.524150
712.125247	0.524053
712.459159	0.533848
712.793023	0.525637
713.126837	0.530343
713.460602	0.531090
713.794318	0.539354
714.127985	0.538656
714.461602	0.549041
714.795171	0.552133
715.128691	0.560070
715.462162	0.567626
715.795584	0.574118
716.128957	0.576280
716.462281	0.583322
716.795556	0.586650
717.128782	0.592882
717.461960	0.601438
717.795088	0.600478
718.128167	0.605990
718.461198	0.615414
718.794180	0.615804
719.127113	0.618233
719.459997	0.620802
719.792833	0.627662
720.125619	0.629221
720.458357	0.634948
720.791046	0.634931
721.123686	0.638744
721.456278	0.645444
721.788821	0.642597
722.121315	0.647370
722.453761	0.650548
722.786158	0.648891
723.118506	0.645377
723.450805	0.652127
723.783056	0.649958
724.115259	0.646077
724.447412	0.646422
724.779518	0.647331
725.111574	0.645891
725.443582	0.641689
725.775542	0.644475
726.107453	0.635634
726.439315	0.635977
726.771129	0.634717
727.102895	0.627101
727.434612	0.620332
727.766281	0.618333
728.097901	0.617831
728.429473	0.616930
728.760996	0.616527
729.092471	0.616106
729.423897	0.620435
729.755276	0.618790
730.086606	0.619101
730.417887	0.613216
730.749120	0.604218
731.080305	0.594561
731.411442	0.590526
731.742530	0.594456
732.073570	0.594786
732.404562	0.587089
732.735506	0.588070
733.066401	0.592677
733.397249	0.602146
733.728048	0.613262
734.058798	0.627313
734.389501	0.637495
734.720156	0.647423
735.050762	0.655768
735.381320	0.655884
735.711831	0.664362
736.042293	0.670219
736.372707	0.665789
736.703073	0.670289
737.033391	0.672537
737.363661	0.669602
737.693883	0.665767
738.024056	0.664202
738.354182	0.663948
738.684260	0.653095
739.014290	0.649893
739.344272	0.650227
739.674207	0.643432
740.004093	0.643279
740.333931	0.643901
740.663722	0.643787
740.993464	0.644292
741.323159	0.648207
741.652806	0.653030
741.982405	0.657965
742.311956	0.662733
742.641460	0.665234
742.970915	0.668421
743.300323	0.675326
743.629683	0.682281
743.958996	0.684956
744.288260	0.688483
744.617477	0.695832
744.946647	0.696270
745.275768	0.703013
745.604842	0.701769
745.933869	0.711189
746.262847	0.713650
746.591778	0.705487
746.920662	0.712652
747.249498	0.719922
747.578286	0.710556
747.907027	0.706033
748.235720	0.707261
748.564365	0.701663
748.892963	0.701356
749.221514	0.705038
749.550017	0.708956
749.878473	0.710005
750.206881	0.716348
750.535242	0.716969
750.863555	0.715771
751.191821	0.717223
751.520039	0.720478
751.848210	0.724488
752.176334	0.718795
752.504411	0.718051
752.832440	0.725075
753.160421	0.729064
753.488356	0.727291
753.816243	0.724655
754.144082	0.733969
754.471875	0.737128
754.799620	0.733405
755.127318	0.734166
755.454969	0.734411
755.782572	0.734370
756.110129	0.738524
756.437638	0.741144
756.765100	0.737999
757.092515	0.735522
757.419882	0.734579
757.747203	0.739313
758.074477	0.740511
758.401703	0.735734
758.728882	0.731504
759.056014	0.729322
759.383099	0.729011
759.710138	0.730170
760.037129	0.726352
760.364073	0.719776
760.690970	0.722726
761.017820	0.728009
761.344623	0.723957
761.671379	0.714606
761.998088	0.703542
762.324751	0.678880
762.651366	0.637395
762.977935	0.569546
763.304456	0.517360
763.630931	0.508284
763.957359	0.547129
764.283740	0.591137
764.610074	0.619429
764.936362	0.651370
765.262602	0.678679
765.588796	0.699716
765.914943	0.717082
766.241044	0.736277
766.567097	0.741932
766.893104	0.752685
767.219064	0.759125
767.544978	0.765967
767.870845	0.778896
768.196665	0.783892
768.522438	0.781855
768.848165	0.782284
769.173846	0.791539
769.499479	0.796313
769.825066	0.799191
770.150607	0.804621
770.476101	0.799503
770.801548	0.801837
771.126949	0.813640
771.452303	0.818304
771.777611	0.815137
772.102872	0.814593
772.428087	0.819513
772.753256	0.823793
773.078378	0.825548
773.403453	0.835035
773.728482	0.838623
774.053465	0.831533
774.378401	0.835860
774.703291	0.844779
775.028135	0.843894
775.352932	0.844112
775.677683	0.850170
776.002388	0.850116
776.327046	0.848058
776.651658	0.853690
776.976224	0.856041
777.300743	0.855706
777.625216	0.858126
777.949643	0.859778
778.274024	0.859220
778.598359	0.861432
778.922647	0.859854
779.246889	0.861010
779.571086	0.863970
779.895236	0.866785
780.219339	0.865019
780.543397	0.860178
780.867409	0.859498
781.191374	0.861535
781.515294	0.863362
781.839167	0.863252
782.162995	0.864923
782.486776	0.862540
782.810511	0.863088
783.134201	0.867203
783.457844	0.865647
783.781441	0.866981
784.104993	0.873569
784.428498	0.874397
784.751958	0.869066
785.075372	0.872058
785.398739	0.875692
785.722061	0.870008
786.045337	0.868080
786.368568	0.872824
786.691752	0.874405
787.014891	0.860367
787.337983	0.850950
787.661030	0.843232
787.984031	0.825656
788.306987	0.813426
788.629897	0.813777
788.952760	0.818997
789.275579	0.823117
789.598351	0.839729
789.921078	0.851844
790.243759	0.854310
790.566395	0.859525
790.888984	0.866608
791.211529	0.871363
791.534027	0.874958
791.856480	0.877000
792.178888	0.881850
792.501249	0.884436
792.823566	0.886719
793.145836	0.885371
793.468062	0.887921
793.790241	0.887772
794.112375	0.885330
794.434464	0.881744
794.756507	0.882120
795.078505	0.879787
795.400457	0.874855
795.722364	0.863110
796.044226	0.857373
796.366042	0.855120
796.687812	0.858366
797.009538	0.853252
797.331218	0.857960
797.652852	0.861673
797.974442	0.866024
798.295986	0.867757
798.617484	0.869466
798.938938	0.873720
799.260346	0.878033
799.581709	0.880577
799.903026	0.883181
800.224299	0.884014
800.545526	0.886593
800.866708	0.891277
801.187845	0.894594
801.508936	0.894969
801.829983	0.892185
802.150984	0.896167
802.471940	0.901994
802.792851	0.900921
803.113717	0.902201
803.434538	0.899457
803.755314	0.902151
804.076045	0.903438
804.396731	0.903875
804.717372	0.901512
805.037967	0.905436
805.358518	0.902674
805.679024	0.897932
805.999485	0.900205
806.319901	0.898890
806.640272	0.902400
806.960598	0.899623
807.280879	0.895388
807.601115	0.895916
807.921306	0.900352
808.241453	0.899750
808.561554	0.897150
808.881611	0.897742
809.201623	0.898794
809.521590	0.899523
809.841513	0.900675
810.161390	0.898507
810.481223	0.900945
810.801011	0.903814
811.120755	0.905910
811.440453	0.904497
811.760107	0.905969
812.079716	0.904236
812.399281	0.906735
812.718801	0.908786
813.038276	0.910549
813.357707	0.910608
813.677093	0.908231
813.996434	0.910890
814.315731	0.911993
814.634983	0.913618
814.954191	0.913090
815.273354	0.907446
815.592473	0.904147
815.911547	0.905407
816.230577	0.901825
816.549562	0.898730
816.868502	0.897967
817.187399	0.896727
817.506250	0.890949
817.825058	0.891896
818.143821	0.888561
818.462539	0.883175
818.781213	0.875838
819.099843	0.864258
819.418429	0.848271
819.736970	0.830460
820.055466	0.809485
820.373919	0.783078
820.692327	0.752102
821.010691	0.715448
821.329011	0.634612
821.647286	0.517612
821.965517	0.402605
822.283704	0.359615
822.601847	0.360204
822.919945	0.395810
823.237999	0.430907
823.556010	0.478471
823.873976	0.535655
824.191897	0.587289
824.509775	0.630840
824.827609	0.676246
825.145398	0.700523
825.463144	0.701316
825.780845	0.685186
826.098502	0.665798
826.416116	0.620251
826.733685	0.575210
827.051210	0.565713
827.368692	0.580719
827.686129	0.619165
828.003522	0.674054
828.320872	0.722632
828.638177	0.766067
828.955439	0.800919
829.272656	0.821535
829.589830	0.839266
829.906960	0.855487
830.224046	0.868534
830.541088	0.879800
830.858086	0.883965
831.175041	0.890515
831.491952	0.889079
831.808819	0.884894
832.125642	0.878289
832.442421	0.865303
832.759157	0.841544
833.075849	0.793650
833.392497	0.728741
833.709101	0.687720
834.025662	0.696841
834.342179	0.729347
834.658653	0.770199
834.975083	0.806690
835.291469	0.833223
835.607811	0.855566
835.924110	0.873497
836.240366	0.890194
836.556578	0.902960
836.872746	0.911790
837.188871	0.918256
837.504952	0.922368
837.820990	0.927196
838.136984	0.930378
838.452935	0.933767
838.768842	0.935511
839.084706	0.927627
839.400526	0.902925
839.716303	0.858661
840.032037	0.837584
840.347727	0.842231
840.663373	0.859738
840.978977	0.880942
841.294537	0.905597
841.610054	0.922009
841.925527	0.929021
842.240957	0.936555
842.556344	0.945071
842.871687	0.950040
843.186987	0.953864
843.502244	0.953277
843.817458	0.955919
844.132629	0.959215
844.447756	0.963892
844.762840	0.965031
845.077881	0.965219
845.392879	0.963576
845.707833	0.966606
846.022745	0.969866
846.337613	0.969412
846.652438	0.969385
846.967221	0.970373
847.281960	0.970422
847.596656	0.971542
847.911309	0.971281
848.225919	0.970901
848.540485	0.974023
848.855009	0.973958
849.169490	0.973699
849.483928	0.973680
849.798323	0.973215
850.112675	0.975025
850.426984	0.974421
850.741251	0.974630
851.055474	0.974363
851.369654	0.972903
851.683792	0.972374
851.997887	0.974153
852.311938	0.976039
852.625947	0.973502
852.939914	0.973526
853.253837	0.973434
853.567718	0.974688
853.881555	0.975019
854.195350	0.973254
854.509103	0.974331
854.822812	0.975214
855.136479	0.975361
855.450103	0.973280
855.763685	0.973661
856.077224	0.974756
856.390720	0.974594
856.704173	0.974470
857.017584	0.974198
857.330953	0.972671
857.644278	0.970818
857.957561	0.972145
858.270802	0.973834
858.584000	0.972312
858.897155	0.971559
859.210268	0.971154
859.523339	0.974262
859.836367	0.974936
860.149352	0.974984
860.462295	0.974700
860.775195	0.973024
861.088054	0.974298
861.400869	0.974048
861.713642	0.974664
862.026373	0.976012
862.339062	0.976973
862.651708	0.973738
862.964312	0.972940
863.276873	0.973863
863.589392	0.972385
863.901869	0.969996
864.214303	0.969853
864.526696	0.968328
864.839045	0.968252
865.151353	0.966165
865.463619	0.965950
865.775842	0.966857
866.088023	0.966889
866.400162	0.966191
866.712258	0.967306
867.024313	0.966767
867.336325	0.969017
867.648296	0.968399
867.960224	0.964439
868.272110	0.967571
868.583954	0.969099
868.895755	0.969151
869.207515	0.966137
869.519233	0.964500
869.830909	0.964027
870.142542	0.965262
870.454134	0.965263
870.765684	0.964552
871.077191	0.964165
871.388657	0.962638
871.700081	0.962136
872.011463	0.964687
872.322803	0.962397
872.634101	0.960760
872.945357	0.957995
873.256571	0.956120
873.567744	0.957232
873.878874	0.958402
874.189963	0.956406
874.501010	0.956594
874.812015	0.954176
875.122979	0.954561
875.433900	0.957446
875.744780	0.958901
876.055618	0.954397
876.366415	0.954198
876.677169	0.954312
876.987882	0.955077
877.298554	0.955063
877.609183	0.951153
877.919771	0.948681
878.230317	0.946547
878.540822	0.943830
878.851285	0.938257
879.161707	0.930489
879.472087	0.918561
879.782425	0.900224
880.092722	0.865279
880.402977	0.811474
880.713191	0.746904
881.023363	0.686257
881.333494	0.651847
881.643583	0.623788
881.953631	0.623907
882.263637	0.652186
882.573602	0.692758
882.883526	0.719315
883.193408	0.744564
883.503248	0.767624
883.813048	0.795913
884.122806	0.826615
884.432522	0.850542
884.742197	0.870386
885.051831	0.882406
885.361424	0.893575
885.670975	0.905441
885.980485	0.914857
886.289954	0.920600
886.599382	0.925074
886.908768	0.932167
887.218113	0.936304
887.527417	0.942652
887.836680	0.945652
888.145901	0.947281
888.455082	0.951175
888.764221	0.955594
889.073319	0.956109
889.382376	0.957834
889.691392	0.955949
890.000366	0.957821
890.309300	0.957541
890.618193	0.956115
890.927044	0.956303
891.235855	0.954508
891.544625	0.955173
891.853353	0.955352
892.162041	0.952555
892.470687	0.946634
892.779293	0.940944
893.087858	0.935856
893.396381	0.929150
893.704864	0.914078
894.013306	0.889760
894.321707	0.862278
894.630068	0.846874
894.938387	0.843040
895.246665	0.844109
895.554903	0.856685
895.863100	0.870222
896.171256	0.888292
896.479371	0.907641
896.787446	0.920196
897.095480	0.927937
897.403473	0.931061
897.711425	0.935094
898.019336	0.942942
898.327207	0.948049
898.635038	0.947030
898.942827	0.949207
899.250576	0.952495
899.558284	0.956239
899.865952	0.957830
900.173579	0.957999
900.481165	0.959120
900.788711	0.962552
901.096216	0.965808
901.403681	0.966539
901.711105	0.965393
902.018489	0.966192
902.325832	0.966595
902.633135	0.964943
902.940397	0.960747
903.247619	0.945432
903.554800	0.920165
903.861941	0.879077
904.169041	0.840770
904.476101	0.822539
904.783121	0.824055
905.090100	0.840174
905.397039	0.863040
905.703938	0.886053
906.010796	0.906820
906.317614	0.923900
906.624391	0.938144
906.931129	0.946768
907.237826	0.955864
907.544483	0.962396
907.851099	0.967064
908.157675	0.971128
908.464211	0.973789
908.770707	0.975110
909.077163	0.979438
909.383578	0.978847
909.689954	0.979108
909.996289	0.980252
910.302584	0.982397
910.608839	0.984314
910.915054	0.983550
911.221229	0.983169
911.527363	0.981662
911.833458	0.983021
912.139513	0.981548
912.445527	0.981119
912.751502	0.979139
913.057436	0.976566
913.363331	0.974332
913.669186	0.971027
913.975000	0.964342
914.280775	0.958515
914.586510	0.951347
914.892205	0.937873
915.197859	0.914571
915.503475	0.886726
915.809050	0.865638
916.114585	0.860218
916.420081	0.857023
916.725536	0.854981
917.030952	0.861665
917.336328	0.876142
917.641665	0.893008
917.946961	0.908614
918.252218	0.919791
918.557435	0.928849
918.862612	0.938563
919.167750	0.943755
919.472848	0.950138
919.777906	0.956045
920.082925	0.961826
920.387904	0.964098
920.692843	0.966613
920.997743	0.967221
921.302603	0.970847
921.607423	0.972628
921.912204	0.975481
922.216946	0.977385
922.521647	0.978223
922.826310	0.979921
923.130932	0.981558
923.435516	0.983404
923.740059	0.983699
924.044564	0.982277
924.349028	0.984367
924.653454	0.987530
924.957840	0.987749
925.262186	0.989213
925.566493	0.989614
925.870761	0.989556
926.174989	0.990044
926.479178	0.991631
926.783328	0.993537
927.087438	0.992221
927.391509	0.992794
927.695541	0.993162
927.999533	0.994588
928.303486	0.994602
928.607400	0.994615
928.911275	0.994654
929.215110	0.995683
929.518906	0.995145
929.822663	0.996692
930.126381	0.996125
930.430060	0.994848
930.733699	0.996859
931.037299	0.995330
931.340861	0.995915
931.644383	0.993386
931.947866	0.994796
932.251309	0.995368
932.554714	0.995278
932.858080	0.995240
933.161407	0.995439
933.464694	0.996090
933.767943	0.995119
934.071153	0.996090
934.374323	0.996448
934.677455	0.995821
934.980548	0.996616
935.283602	0.996218
935.586617	0.995845
935.889593	0.996596
936.192530	0.997417
936.495428	0.996752
936.798287	0.995528
937.101108	0.995556
937.403890	0.993675
937.706632	0.994763
938.009336	0.992237
938.312002	0.990850
938.614628	0.989096
938.917216	0.987483
939.219765	0.987214
939.522275	0.987256
939.824747	0.987619
940.127179	0.986992
940.429573	0.989787
940.731929	0.987992
941.034246	0.988360
941.336524	0.989689
941.638763	0.991118
941.940964	0.990352
942.243126	0.992223
942.545250	0.993197
942.847335	0.992689
943.149381	0.993935
943.451389	0.992157
943.753359	0.993265
944.055290	0.995518
944.357182	0.994336
944.659036	0.994947
944.960851	0.996244
945.262628	0.995936
945.564367	0.994475
945.866067	0.994403
946.167729	0.994568
946.469352	0.994566
946.770937	0.993154
947.072484	0.995548
947.373992	0.995044
947.675462	0.994348
947.976893	0.995343
948.278286	0.996491
948.579641	0.996539
948.880958	0.995482
949.182236	0.995711
949.483476	0.996568
949.784678	0.996342
950.085841	0.996041
950.386967	0.996752
950.688054	0.995866
950.989103	0.994774
951.290114	0.994751
951.591087	0.994360
951.892021	0.993351
952.192917	0.993436
952.493776	0.993167
952.794596	0.993377
953.095378	0.993458
953.396122	0.992209
953.696828	0.993796
953.997496	0.993827
954.298126	0.996088
954.598718	0.995149
954.899272	0.996493
955.199788	0.995726
955.500266	0.997207
955.800706	0.998081
956.101108	0.997351
956.401472	1.000569
956.701798	0.997626
957.002087	0.999602
957.302337	0.998585
957.602550	1.000081
957.902724	0.999672
958.202861	1.000130
958.502960	1.000153
958.803022	1.001013
959.103045	1.000586
959.403031	1.001177
959.702979	1.001604
960.002889	1.000512
960.302762	1.001209
960.602596	1.001665
960.902393	1.002870
961.202153	1.000975
961.501875	1.002692
961.801559	1.002210
962.101205	1.000663
962.400814	1.002987
962.700385	1.003214
962.999918	1.003182
963.299414	1.001767
963.598873	1.001977
963.898293	1.003046
964.197677	1.001104
964.497022	1.002196
964.796331	1.002674
965.095601	1.003738
965.394835	1.001567
965.694030	1.004163
965.993189	1.002903
966.292309	1.003901
966.591393	1.000535
966.890439	1.003119
967.189447	1.001380
967.488419	1.002131
967.787353	1.002475
968.086249	1.003315
968.385108	1.001456
968.683930	1.003560
968.982714	1.002574
969.281462	1.002341
969.580172	1.001840
969.878844	1.003032
970.177480	1.001895
970.476078	1.001996
970.774639	1.002433
971.073162	1.002118
971.371649	1.001814
971.670098	1.001372
971.968510	1.002643
972.266885	1.002100
972.565223	1.001485
972.863524	1.001020
973.161788	1.001510
973.460014	1.002442
973.758204	1.002282
974.056356	1.001656
974.354471	1.002682
974.652550	1.002623
974.950591	1.002048
975.248595	1.001482
975.546563	1.001919
975.844493	1.002316
976.142386	1.001608
976.440243	1.002866
976.738062	1.002322
977.035845	1.001288
977.333590	1.002720
977.631299	1.003099
977.928971	1.003231
978.226606	1.002852
978.524204	1.003323
978.821765	1.003139
979.119290	1.003655
979.416777	1.002770
979.714228	1.002445
980.011642	1.002817
980.309020	1.002823
980.606360	1.002459
980.903664	1.001791
981.200931	1.000534
981.498162	1.001703
981.795356	1.001015
982.092513	0.999862
982.389633	0.999373
982.686717	0.995494
982.983764	0.995559
983.280775	0.995786
983.577749	0.997453
983.874686	0.996246
984.171587	0.997304
984.468451	0.999201
984.765279	1.000857
985.062070	0.999869
985.358824	1.000646
985.655543	1.000763
985.952224	1.003327
986.248869	1.002122
986.545478	1.004444
986.842050	1.002358
987.138586	1.003003
987.435086	1.002543
987.731549	1.004117
988.027975	1.004468
988.324366	1.003003
988.620719	1.004602
988.917037	1.003223
989.213318	1.004136
989.509563	1.004167
989.805772	1.003973
990.101944	1.004760
990.398080	1.003797
990.694180	1.004886
990.990244	1.003437
991.286271	1.002946
991.582262	1.004719
991.878217	1.003472
992.174136	1.004548
992.470019	1.004629
992.765865	1.005815
993.061676	1.004174
993.357450	1.003807
993.653188	1.003787
993.948890	1.003556
994.244556	1.002937
994.540186	1.004093
994.835780	1.002267
995.131337	1.004628
995.426859	1.003138
995.722345	1.002213
996.017795	1.002072
996.313208	1.001738
996.608586	1.001462
996.903928	1.001633
997.199234	1.002178
997.494504	1.003192
997.789738	1.000685
998.084936	1.003626
998.380099	1.002267
998.675225	1.004578
998.970316	1.003896
999.265371	1.003247
999.560390	1.003610
999.855373	1.003400
1000.150320	1.003860
1000.445232	1.004355
1000.740108	1.003669
1001.034948	1.002811
1001.329752	1.005034
1001.624521	1.003994
1001.919254	1.003743
1002.213951	1.004136
1002.508613	1.003562
1002.803239	1.004438
1003.097829	1.004796
1003.392384	1.004404
1003.686903	1.003637
1003.981386	1.003676
1004.275834	1.005716
1004.570246	1.004128
1004.864623	1.004928
1005.158964	1.004297
1005.453270	1.003627
1005.747540	1.003600
1006.041775	1.004778
1006.335974	1.004465
1006.630138	1.004729
1006.924266	1.002790
1007.218359	1.002343
1007.512416	1.005136
1007.806438	1.004125
1008.100425	1.005170
1008.394376	1.004688
1008.688292	1.004200
1008.982172	1.002962
1009.276017	1.004969
1009.569827	1.006492
1009.863602	1.003543
1010.157341	1.005296
1010.451045	1.003706
1010.744714	1.006210
1011.038347	1.005372
1011.331945	1.003817
1011.625508	1.003990
1011.919036	1.004153
1012.212528	1.005555
1012.505986	1.005083
1012.799408	1.004073
1013.092795	1.004742
1013.386147	1.004396
1013.679464	1.005494
1013.972745	1.004045
1014.265992	1.004450
1014.559204	1.003995
1014.852380	1.004833
1015.145521	1.004279
1015.438628	1.004788
1015.731699	1.004630
1016.024736	1.005444
1016.317737	1.004518
1016.610703	1.005471
1016.903635	1.005070
1017.196531	1.004431
1017.489393	1.004516
1017.782219	1.004149
1018.075011	1.004986
1018.367768	1.004817
1018.660490	1.005506
1018.953177	1.005506
1019.245829	1.005506
