Dividing Wavelength (nm)	Counts (n)	Blue Motor Position (mm): 28.800000	Red Motor Position (mm): 0.000000	
326.493990	1.000946
326.888308	1.000946
327.282561	1.000946
327.676750	1.001826
328.070874	1.000617
328.464933	1.002908
328.858929	1.001922
329.252859	1.001317
329.646726	1.001035
330.040528	1.000885
330.434265	1.000289
330.827938	1.000599
331.221547	1.001300
331.615091	1.001900
332.008571	1.002600
332.401986	1.000503
332.795338	1.000464
333.188625	1.001966
333.581847	1.000742
333.975006	1.001526
334.368100	1.001403
334.761129	1.000587
335.154095	1.001188
335.546996	1.000536
335.939833	0.999973
336.332606	1.000673
336.725315	0.999343
337.117960	1.000903
337.510540	0.999185
337.903056	1.000012
338.295508	1.001278
338.687896	1.000344
339.080220	0.999246
339.472480	0.999979
339.864676	1.000676
340.256807	0.997880
340.648875	1.000415
341.040879	1.000985
341.432818	0.999600
341.824694	0.999685
342.216506	1.000546
342.608253	0.999680
342.999937	0.998922
343.391557	0.999776
343.783113	1.001360
344.174605	1.000405
344.566033	0.999456
344.957397	1.000355
345.348697	0.999884
345.739934	1.000179
346.131106	1.000050
346.522215	0.999068
346.913260	0.998621
347.304241	0.998287
347.695159	1.000618
348.086012	1.000261
348.476802	0.998381
348.867528	0.998622
349.258191	0.999905
349.648789	0.999227
350.039324	1.000035
350.429796	0.999295
350.820203	0.998528
351.210548	0.999413
351.600828	0.999103
351.991045	0.999455
352.381198	0.999832
352.771288	0.999141
353.161314	0.999490
353.551276	0.999119
353.941175	0.996986
354.331010	1.000033
354.720782	0.998062
355.110490	0.999879
355.500135	1.000576
355.889717	0.998791
356.279235	0.998546
356.668689	0.999984
357.058080	0.998425
357.447408	0.997889
357.836672	0.999132
358.225873	0.999530
358.615010	0.998477
359.004084	0.997992
359.393095	0.999445
359.782043	0.998614
360.170927	0.999600
360.559748	0.998585
360.948505	0.997448
361.337199	0.996930
361.725830	0.998718
362.114398	0.998537
362.502903	0.997724
362.891344	0.997746
363.279722	0.997027
363.668037	0.997942
364.056289	0.997731
364.444478	0.997821
364.832603	0.998425
365.220665	0.998853
365.608665	0.997695
365.996601	0.997664
366.384474	0.996024
366.772284	0.997162
367.160031	0.996782
367.547715	0.996121
367.935336	0.995200
368.322893	0.994513
368.710388	0.992510
369.097820	0.991483
369.485189	0.988588
369.872495	0.987988
370.259738	0.985481
370.646918	0.983295
371.034035	0.979911
371.421090	0.977949
371.808081	0.971428
372.195010	0.970053
372.581875	0.963726
372.968678	0.961110
373.355418	0.957207
373.742096	0.949220
374.128710	0.944340
374.515262	0.940418
374.901751	0.934651
375.288177	0.929551
375.674540	0.923435
376.060841	0.917815
376.447079	0.909982
376.833254	0.903733
377.219367	0.896907
377.605417	0.887412
377.991404	0.883124
378.377329	0.877118
378.763191	0.870291
379.148991	0.861936
379.534727	0.854248
379.920402	0.846545
380.306013	0.843741
380.691563	0.830686
381.077049	0.823061
381.462474	0.819431
381.847835	0.808037
382.233134	0.803245
382.618371	0.803819
383.003545	0.786621
383.388657	0.784174
383.773706	0.776878
384.158693	0.772958
384.543618	0.767023
384.928480	0.758962
385.313280	0.748490
385.698017	0.747145
386.082692	0.736503
386.467305	0.735010
386.851856	0.729663
387.236344	0.723827
387.620770	0.718490
388.005133	0.712714
388.389435	0.707563
388.773674	0.705261
389.157851	0.696210
389.541965	0.694697
389.926018	0.701186
390.310008	0.687884
390.693936	0.685485
391.077802	0.676514
391.461606	0.676960
391.845348	0.667119
392.229027	0.667096
392.612645	0.665400
392.996200	0.651912
393.379694	0.645131
393.763125	0.636215
394.146494	0.640483
394.529801	0.630399
394.913047	0.621824
395.296230	0.627868
395.679351	0.619942
396.062410	0.616125
396.445408	0.619572
396.828343	0.614604
397.211217	0.609941
397.594028	0.622094
397.976778	0.612326
398.359466	0.608471
398.742092	0.604652
399.124656	0.616312
399.507158	0.603931
399.889598	0.600919
400.271977	0.592596
400.654294	0.597018
401.036549	0.595788
401.418742	0.599710
401.800874	0.586105
402.182944	0.583196
402.564952	0.575355
402.946898	0.576335
403.328783	0.577138
403.710606	0.588020
404.092367	0.562862
404.474067	0.568392
404.855705	0.566800
405.237282	0.575998
405.618797	0.562539
406.000250	0.558047
406.381642	0.547920
406.762972	0.553082
407.144240	0.551700
407.525447	0.551719
407.906593	0.545194
408.287677	0.539972
408.668700	0.547535
409.049661	0.542702
409.430560	0.537102
409.811399	0.546300
410.192176	0.527671
410.572891	0.534588
410.953545	0.523174
411.334138	0.536614
411.714669	0.528397
412.095139	0.540939
412.475547	0.525535
412.855894	0.527338
413.236180	0.525932
413.616405	0.531248
413.996568	0.521716
414.376670	0.528621
414.756711	0.533419
415.136691	0.530139
415.516609	0.520928
415.896466	0.517671
416.276262	0.513288
416.655997	0.515261
417.035670	0.497601
417.415283	0.488287
417.794834	0.494052
418.174324	0.499495
418.553753	0.508117
418.933121	0.490603
419.312428	0.483921
419.691674	0.490509
420.070859	0.478926
420.449983	0.486666
420.829045	0.475225
421.208047	0.484230
421.586988	0.477807
421.965867	0.476408
422.344686	0.465276
422.723444	0.478523
423.102141	0.495238
423.480777	0.467983
423.859352	0.489040
424.237866	0.466013
424.616319	0.467308
424.994712	0.457610
425.373044	0.468023
425.751314	0.456558
426.129524	0.473093
426.507673	0.456890
426.885762	0.450287
427.263789	0.455665
427.641756	0.465813
428.019662	0.455809
428.397508	0.455808
428.775292	0.460100
429.153016	0.452023
429.530679	0.458800
429.908282	0.452655
430.285824	0.463066
430.663305	0.442176
431.040726	0.463725
431.418086	0.464185
431.795385	0.456868
432.172624	0.457092
432.549802	0.458316
432.926920	0.457951
433.303977	0.458448
433.680974	0.457099
434.057910	0.456725
434.434786	0.457792
434.811601	0.462576
435.188355	0.446537
435.565050	0.457389
435.941683	0.459973
436.318257	0.447037
436.694770	0.449932
437.071222	0.450463
437.447614	0.457373
437.823946	0.465588
438.200218	0.457898
438.576429	0.469925
438.952580	0.465986
439.328670	0.466039
439.704700	0.475431
440.080670	0.479360
440.456580	0.465917
440.832429	0.477054
441.208218	0.490434
441.583947	0.484456
441.959616	0.487768
442.335224	0.497368
442.710773	0.493315
443.086261	0.496915
443.461689	0.512833
443.837057	0.509469
444.212365	0.506169
444.587612	0.517000
444.962800	0.513923
445.337927	0.520973
445.712995	0.548215
446.088002	0.522940
446.462949	0.537241
446.837837	0.548068
447.212664	0.543803
447.587431	0.545954
447.962139	0.531904
448.336786	0.507577
448.711374	0.521932
449.085901	0.562278
449.460369	0.572614
449.834776	0.582271
450.209124	0.576273
450.583412	0.581206
450.957640	0.581046
451.331808	0.598200
451.705917	0.621560
452.079965	0.631847
452.453954	0.633824
452.827883	0.645390
453.201752	0.650500
453.575562	0.664952
453.949311	0.667596
454.323001	0.678263
454.696632	0.683935
455.070202	0.689027
455.443713	0.692483
455.817164	0.697456
456.190556	0.704866
456.563888	0.711823
456.937160	0.718122
457.310373	0.734493
457.683526	0.742809
458.056619	0.754068
458.429653	0.761629
458.802628	0.770321
459.175542	0.775571
459.548398	0.777350
459.921194	0.781604
460.293930	0.787953
460.666607	0.787821
461.039224	0.789485
461.411782	0.795427
461.784280	0.803377
462.156719	0.813641
462.529099	0.823129
462.901419	0.835624
463.273680	0.843362
463.645882	0.850386
464.018024	0.860512
464.390106	0.863494
464.762130	0.866083
465.134094	0.866415
465.505999	0.862334
465.877845	0.860401
466.249631	0.864208
466.621358	0.874800
466.993026	0.885979
467.364634	0.894240
467.736184	0.901368
468.107674	0.907900
468.479105	0.912107
468.850477	0.918145
469.221790	0.924039
469.593043	0.928976
469.964238	0.933985
470.335373	0.937747
470.706449	0.941085
471.077467	0.944880
471.448425	0.944238
471.819324	0.944513
472.190164	0.947343
472.560945	0.953496
472.931667	0.958192
473.302330	0.961449
473.672934	0.964794
474.043479	0.965934
474.413965	0.968589
474.784393	0.969889
475.154761	0.972287
475.525070	0.973282
475.895321	0.976049
476.265513	0.976787
476.635645	0.979186
477.005719	0.979706
477.375734	0.980924
477.745691	0.981582
478.115588	0.982786
478.485427	0.984326
478.855207	0.984757
479.224928	0.985083
479.594591	0.985585
479.964194	0.986103
480.333739	0.987640
480.703226	0.987794
481.072653	0.988465
481.442022	0.989001
481.811333	0.989247
482.180584	0.990324
482.549777	0.991102
482.918912	0.991167
483.287988	0.991239
483.657005	0.991762
484.025964	0.992797
484.394864	0.992197
484.763706	0.992159
485.132489	0.992358
485.501213	0.993425
485.869879	0.993957
486.238487	0.992797
486.607036	0.994102
486.975527	0.994179
487.343959	0.993266
487.712333	0.994109
488.080648	0.993575
488.448905	0.994791
488.817104	0.994659
489.185244	0.994626
489.553326	0.995167
489.921350	0.995192
490.289315	0.994680
490.657222	0.994141
491.025070	0.995082
491.392861	0.994670
491.760593	0.994643
492.128267	0.995101
492.495883	0.994442
492.863440	0.995113
493.230939	0.995713
493.598380	0.995960
493.965763	0.994980
494.333088	0.995305
494.700354	0.995559
495.067563	0.995446
495.434713	0.995850
495.801805	0.995957
496.168839	0.996449
496.535815	0.996269
496.902733	0.995521
497.269593	0.996014
497.636395	0.995102
498.003139	0.995645
498.369825	0.996890
498.736453	0.995982
499.103023	0.996407
499.469535	0.996105
499.835989	0.996771
500.202385	0.995877
500.568723	0.996095
500.935003	0.996552
501.301226	0.996669
501.667390	0.996489
502.033497	0.996003
502.399546	0.996374
502.765537	0.995780
503.131470	0.996677
503.497345	0.997219
503.863163	0.996553
504.228923	0.996274
504.594625	0.996234
504.960269	0.996996
505.325856	0.997390
505.691385	0.996906
506.056856	0.996780
506.422270	0.996232
506.787625	0.997123
507.152924	0.996832
507.518164	0.996334
507.883347	0.996433
508.248472	0.996691
508.613540	0.996639
508.978550	0.997153
509.343503	0.996356
509.708398	0.997456
510.073236	0.996533
510.438016	0.997078
510.802738	0.996615
511.167403	0.996462
511.532010	0.997322
511.896561	0.996508
512.261053	0.996747
512.625488	0.996515
512.989866	0.996155
513.354186	0.995953
513.718449	0.996931
514.082655	0.995867
514.446803	0.996979
514.810894	0.996621
515.174927	0.997018
515.538904	0.997446
515.902822	0.996793
516.266684	0.996747
516.630488	0.996969
516.994235	0.997293
517.357925	0.997490
517.721558	0.996985
518.085133	0.996362
518.448651	0.996928
518.812112	0.997728
519.175516	0.996868
519.538863	0.996439
519.902152	0.997433
520.265385	0.997089
520.628560	0.996292
520.991678	0.996729
521.354739	0.996907
521.717743	0.997031
522.080690	0.996758
522.443580	0.996782
522.806413	0.996644
523.169189	0.997862
523.531908	0.996163
523.894569	0.996849
524.257174	0.996462
524.619722	0.996195
524.982213	0.996209
525.344647	0.996491
525.707025	0.996569
526.069345	0.996024
526.431608	0.997084
526.793815	0.996750
527.155964	0.996958
527.518057	0.996905
527.880093	0.996711
528.242072	0.996533
528.603995	0.996271
528.965860	0.997236
529.327669	0.996943
529.689421	0.996021
530.051117	0.997096
530.412755	0.997437
530.774337	0.996731
531.135862	0.997169
531.497331	0.997047
531.858743	0.997458
532.220098	0.996222
532.581396	0.997345
532.942638	0.997086
533.303824	0.997709
533.664953	0.996797
534.026025	0.997649
534.387040	0.996310
534.747999	0.996447
535.108902	0.997201
535.469748	0.997381
535.830537	0.997254
536.191270	0.997051
536.551947	0.996510
536.912567	0.996905
537.273131	0.997109
537.633638	0.996715
537.994089	0.996483
538.354483	0.996564
538.714821	0.996639
539.075103	0.997488
539.435328	0.997015
539.795497	0.997184
540.155609	0.997313
540.515665	0.997227
540.875665	0.996935
541.235609	0.997455
541.595496	0.996088
541.955328	0.996717
542.315102	0.997131
542.674821	0.997196
543.034483	0.997230
543.394090	0.996222
543.753640	0.997178
544.113134	0.996656
544.472571	0.996882
544.831953	0.996742
545.191278	0.996965
545.550548	0.996427
545.909761	0.996404
546.268918	0.997104
546.628019	0.997117
546.987064	0.996562
547.346053	0.996165
547.704986	0.995970
548.063863	0.996109
548.422684	0.996712
548.781449	0.997073
549.140158	0.996826
549.498811	0.996545
549.857408	0.996439
550.215949	0.996078
550.574434	0.996388
550.932864	0.996937
551.291237	0.996415
551.649555	0.997109
552.007817	0.996449
552.366022	0.996639
552.724173	0.997498
553.082267	0.996586
553.440305	0.996115
553.798288	0.995491
554.156215	0.996021
554.514086	0.996486
554.871902	0.996681
555.229661	0.996330
555.587365	0.997068
555.945014	0.997048
556.302606	0.996144
556.660143	0.996929
557.017625	0.997125
557.375050	0.996057
557.732421	0.996444
558.089735	0.995751
558.446994	0.996048
558.804197	0.996631
559.161345	0.996318
559.518437	0.996522
559.875474	0.996541
560.232455	0.996868
560.589381	0.996950
560.946251	0.996435
561.303065	0.996858
561.659825	0.996096
562.016528	0.996730
562.373177	0.996456
562.729770	0.996748
563.086307	0.995730
563.442789	0.996703
563.799216	0.996029
564.155587	0.996857
564.511904	0.997106
564.868164	0.995642
565.224370	0.997143
565.580520	0.996263
565.936615	0.996460
566.292654	0.996504
566.648638	0.996780
567.004567	0.996154
567.360441	0.996611
567.716260	0.996377
568.072023	0.996361
568.427732	0.996599
568.783385	0.995804
569.138982	0.997300
569.494525	0.996021
569.850013	0.997070
570.205445	0.996923
570.560823	0.997006
570.916145	0.996355
571.271412	0.996108
571.626625	0.996666
571.981782	0.995911
572.336884	0.996596
572.691931	0.996966
573.046923	0.996795
573.401860	0.995938
573.756743	0.996705
574.111570	0.996342
574.466342	0.996313
574.821059	0.995984
575.175722	0.996582
575.530330	0.996335
575.884882	0.995670
576.239380	0.996818
576.593823	0.995230
576.948211	0.996636
577.302544	0.996704
577.656823	0.997141
578.011047	0.995476
578.365216	0.996629
578.719330	0.996213
579.073389	0.995394
579.427394	0.996840
579.781344	0.996605
580.135239	0.995686
580.489080	0.995621
580.842866	0.996151
581.196597	0.996042
581.550273	0.995648
581.903895	0.996368
582.257463	0.996427
582.610975	0.995574
582.964434	0.996715
583.317837	0.996985
583.671186	0.996933
584.024481	0.996408
584.377721	0.995720
584.730906	0.996228
585.084037	0.997421
585.437113	0.997336
585.790135	0.996565
586.143103	0.996014
586.496016	0.996203
586.848874	0.996947
587.201679	0.996370
587.554428	0.995306
587.907124	0.996865
588.259765	0.996910
588.612352	0.996610
588.964884	0.996675
589.317362	0.996214
589.669786	0.996270
590.022155	0.996018
590.374470	0.996363
590.726731	0.995624
591.078937	0.995906
591.431090	0.996252
591.783188	0.995781
592.135232	0.996383
592.487222	0.996381
592.839157	0.995606
593.191038	0.996414
593.542866	0.995940
593.894639	0.995924
594.246358	0.996685
594.598022	0.996209
594.949633	0.995969
595.301190	0.996417
595.652692	0.995921
596.004141	0.995675
596.355535	0.995973
596.706876	0.996211
597.058162	0.995964
597.409395	0.996277
597.760573	0.996287
598.111698	0.996199
598.462768	0.995228
598.813785	0.995412
599.164748	0.995635
599.515657	0.995798
599.866511	0.996334
600.217312	0.996853
600.568060	0.995759
600.918753	0.995848
601.269392	0.996454
601.619978	0.996958
601.970510	0.995838
602.320988	0.996255
602.671412	0.995519
603.021783	0.996909
603.372100	0.996349
603.722363	0.996663
604.072572	0.996433
604.422728	0.995814
604.772830	0.996663
605.122878	0.996530
605.472872	0.996115
605.822813	0.996280
606.172701	0.995873
606.522534	0.996466
606.872314	0.997099
607.222041	0.996492
607.571714	0.996653
607.921333	0.995976
608.270899	0.996288
608.620411	0.996031
608.969870	0.996787
609.319276	0.996262
609.668627	0.996714
610.017926	0.996219
610.367171	0.995987
610.716362	0.996679
611.065500	0.995871
611.414585	0.996363
611.763616	0.995443
612.112594	0.995927
612.461518	0.995326
612.810389	0.996323
613.159207	0.996127
613.507971	0.994957
613.856682	0.996645
614.205340	0.994763
614.553945	0.996079
614.902496	0.995321
615.250994	0.996017
615.599439	0.996360
615.947830	0.995160
616.296169	0.996211
616.644454	0.996707
616.992686	0.995391
617.340864	0.996630
617.688990	0.995775
618.037063	0.996399
618.385082	0.995286
618.733048	0.995048
619.080961	0.995705
619.428821	0.996429
619.776628	0.995493
620.124382	0.996369
620.472083	0.996019
620.819731	0.996180
621.167326	0.996952
621.514868	0.996823
621.862357	0.996061
622.209793	0.995349
622.557176	0.995551
622.904506	0.995433
623.251783	0.996100
623.599007	0.996684
623.946179	0.995399
624.293297	0.996612
624.640363	0.996314
624.987376	0.995589
625.334336	0.995923
625.681243	0.995969
626.028097	0.997211
626.374899	0.995912
626.721647	0.996641
627.068343	0.995751
627.414987	0.996087
627.761577	0.995423
628.108115	0.995837
628.454600	0.996191
628.801032	0.996672
629.147412	0.996196
629.493739	0.997303
629.840014	0.996348
630.186236	0.996293
630.532405	0.995705
630.878521	0.995588
631.224585	0.996144
631.570597	0.995095
631.916556	0.995987
632.262462	0.995512
632.608316	0.996350
632.954117	0.995074
633.299866	0.995917
633.645562	0.996060
633.991206	0.996019
634.336797	0.995757
634.682336	0.996206
635.027823	0.996509
635.373257	0.995886
635.718639	0.996890
636.063968	0.995537
636.409245	0.996481
636.754470	0.996238
637.099642	0.996832
637.444762	0.996736
637.789829	0.996291
638.134845	0.996344
638.479808	0.996461
638.824719	0.996709
639.169577	0.996195
639.514383	0.996525
639.859137	0.996351
640.203839	0.996309
640.548489	0.996044
640.893086	0.995680
641.237632	0.996580
641.582125	0.996288
641.926566	0.996723
642.270955	0.996598
642.615292	0.996126
642.959576	0.997281
643.303809	0.996847
643.647990	0.996106
643.992118	0.996455
644.336195	0.996215
644.680219	0.996929
645.024192	0.995868
645.368112	0.995605
645.711981	0.995946
646.055797	0.995992
646.399562	0.995771
646.743274	0.997242
647.086935	0.995957
647.430544	0.994833
647.774101	0.995667
648.117606	0.996356
648.461059	0.996337
648.804460	0.996009
649.147810	0.995590
649.491108	0.995803
649.834354	0.996582
650.177548	0.995526
650.520690	0.996648
650.863781	0.995279
651.206820	0.996069
651.549807	0.997139
651.892742	0.996510
652.235626	0.995343
652.578458	0.996447
652.921238	0.996959
653.263967	0.996511
653.606644	0.995921
653.949269	0.996863
654.291843	0.995653
654.634365	0.996649
654.976836	0.995318
655.319255	0.997334
655.661622	0.996221
656.003938	0.995488
656.346203	0.996034
656.688416	0.996391
657.030577	0.995931
657.372687	0.996035
657.714746	0.996241
658.056753	0.996067
658.398708	0.995798
658.740612	0.996561
659.082465	0.996256
659.424266	0.996189
659.766016	0.995364
660.107715	0.996535
660.449362	0.996116
660.790958	0.995653
661.132503	0.996883
661.473996	0.995609
661.815438	0.996764
662.156829	0.996176
662.498168	0.997060
662.839456	0.995640
663.180693	0.996302
663.521879	0.995729
663.863013	0.996436
664.204097	0.996415
664.545129	0.995651
664.886110	0.995472
665.227040	0.995890
665.567918	0.996831
665.908746	0.995638
666.249522	0.995909
666.590248	0.996735
666.930922	0.995830
667.271545	0.996304
667.612118	0.996594
667.952639	0.995877
668.293109	0.995634
668.633528	0.996411
668.973896	0.996942
669.314213	0.995644
669.654480	0.996303
669.994695	0.995109
670.334859	0.996435
670.674973	0.996638
671.015035	0.996605
671.355047	0.996189
671.695008	0.996762
672.034918	0.996570
672.374777	0.996097
672.714585	0.996647
673.054342	0.996380
673.394049	0.996002
673.733705	0.995852
674.073310	0.995613
674.412864	0.996627
674.752368	0.995903
675.091820	0.997122
675.431223	0.996406
675.770574	0.995783
676.109875	0.995985
676.449125	0.995811
676.788324	0.996010
677.127473	0.996498
677.466571	0.996394
677.805619	0.996060
678.144616	0.997087
678.483562	0.997404
678.822458	0.996909
679.161303	0.996442
679.500098	0.996108
679.838842	0.996746
680.177535	0.996137
680.516179	0.995654
680.854771	0.996014
681.193314	0.995726
681.531805	0.996587
681.870247	0.996358
682.208638	0.996687
682.546978	0.996154
682.885268	0.995470
683.223508	0.995718
683.561697	0.996085
683.899836	0.996320
684.237925	0.996721
684.575963	0.996231
684.913951	0.996648
685.251889	0.996541
685.589776	0.995749
685.927614	0.996598
686.265401	0.995954
686.603137	0.995472
686.940824	0.995971
687.278460	0.996497
687.616046	0.996290
687.953582	0.995822
688.291068	0.996506
688.628504	0.996141
688.965889	0.996011
689.303224	0.994811
689.640510	0.996230
689.977745	0.995935
690.314930	0.995550
690.652065	0.996616
690.989150	0.995963
691.326185	0.996173
691.663170	0.996295
692.000105	0.996298
692.336990	0.996794
692.673825	0.996035
693.010610	0.995798
693.347345	0.996845
693.684030	0.996178
694.020665	0.996567
694.357251	0.995757
694.693786	0.996593
695.030272	0.995866
695.366707	0.996413
695.703093	0.996064
696.039429	0.996633
696.375716	0.996437
696.711952	0.996160
697.048139	0.996811
697.384276	0.996567
697.720363	0.997278
698.056400	0.995667
698.392388	0.995990
698.728326	0.996797
699.064214	0.997718
699.400053	0.996999
699.735842	0.996947
700.071581	0.996168
700.407270	0.996906
700.742910	0.997538
701.078501	0.996793
701.414042	0.997934
701.749533	0.996156
702.084974	0.997855
702.420366	0.996984
702.755709	0.996574
703.091002	0.997755
703.426246	0.998371
703.761440	0.997007
704.096584	0.996439
704.431679	0.996056
704.766725	0.996319
705.101721	0.996551
705.436668	0.997367
705.771565	0.997594
706.106413	0.996157
706.441212	0.996742
706.775961	0.997521
707.110661	0.996641
707.445311	0.997574
707.779913	0.998070
708.114465	0.997843
708.448967	0.997097
708.783421	0.997593
709.117825	0.997171
709.452180	0.997586
709.786485	0.996541
710.120742	0.995830
710.454949	0.995746
710.789107	0.997778
711.123216	0.995603
711.457275	0.996230
711.791286	0.996378
712.125247	0.997807
712.459159	0.996089
712.793023	0.997018
713.126837	0.996583
713.460602	0.996278
713.794318	0.995566
714.127985	0.995307
714.461602	0.997312
714.795171	0.995611
715.128691	0.995929
715.462162	0.997263
715.795584	0.996553
716.128957	0.996711
716.462281	0.997088
716.795556	0.996293
717.128782	0.998250
717.461960	0.997110
717.795088	0.997301
718.128167	0.998138
718.461198	0.996817
718.794180	0.998376
719.127113	0.997183
719.459997	0.997192
719.792833	0.997663
720.125619	0.996231
720.458357	0.997650
720.791046	0.997065
721.123686	0.997271
721.456278	0.996677
721.788821	0.997624
722.121315	0.998550
722.453761	0.996595
722.786158	0.997168
723.118506	0.996455
723.450805	0.996585
723.783056	0.998714
724.115259	0.996354
724.447412	0.997499
724.779518	0.998109
725.111574	0.996710
725.443582	0.997947
725.775542	0.997499
726.107453	0.997607
726.439315	0.997757
726.771129	0.997922
727.102895	0.997990
727.434612	0.997389
727.766281	0.996398
728.097901	0.996291
728.429473	0.998137
728.760996	0.996293
729.092471	0.997180
729.423897	0.996987
729.755276	0.996944
730.086606	0.996663
730.417887	0.997661
730.749120	0.996869
731.080305	0.996462
731.411442	0.996102
731.742530	0.996054
732.073570	0.996718
732.404562	0.997204
732.735506	0.996914
733.066401	0.997047
733.397249	0.997246
733.728048	0.996605
734.058798	0.997197
734.389501	0.997551
734.720156	0.998108
735.050762	0.998298
735.381320	0.997447
735.711831	0.997398
736.042293	0.997345
736.372707	0.998684
736.703073	0.996257
737.033391	0.996867
737.363661	0.997914
737.693883	0.997940
738.024056	0.996758
738.354182	0.998032
738.684260	0.997722
739.014290	0.997050
739.344272	0.996481
739.674207	0.997496
740.004093	0.998023
740.333931	0.997265
740.663722	0.997262
740.993464	0.997787
741.323159	0.997629
741.652806	0.997979
741.982405	0.998291
742.311956	0.997485
742.641460	0.997424
742.970915	0.997183
743.300323	0.997301
743.629683	0.997134
743.958996	0.998568
744.288260	0.996162
744.617477	0.997379
744.946647	0.997068
745.275768	0.998184
745.604842	0.997078
745.933869	0.997259
746.262847	0.998205
746.591778	0.996711
746.920662	0.997467
747.249498	0.998635
747.578286	0.998768
747.907027	0.997855
748.235720	0.998208
748.564365	0.998696
748.892963	0.997676
749.221514	0.998434
749.550017	0.996207
749.878473	0.997854
750.206881	0.999754
750.535242	0.998721
750.863555	0.998332
751.191821	0.996984
751.520039	0.997851
751.848210	0.995237
752.176334	0.997281
752.504411	0.997490
752.832440	0.996468
753.160421	0.997122
753.488356	0.998065
753.816243	0.997215
754.144082	0.997347
754.471875	0.998007
754.799620	0.997832
755.127318	0.997263
755.454969	0.997793
755.782572	0.998193
756.110129	0.997825
756.437638	0.998846
756.765100	0.997943
757.092515	0.997350
757.419882	0.997816
757.747203	0.998053
758.074477	0.998519
758.401703	0.998231
758.728882	0.997613
759.056014	0.997591
759.383099	0.997551
759.710138	0.997961
760.037129	0.998452
760.364073	0.998120
760.690970	0.997214
761.017820	0.997556
761.344623	0.998458
761.671379	0.997727
761.998088	0.997372
762.324751	0.998686
762.651366	0.997295
762.977935	0.996871
763.304456	0.996887
763.630931	0.994988
763.957359	0.994101
764.283740	0.995249
764.610074	0.996400
764.936362	0.996753
765.262602	0.997710
765.588796	0.997582
765.914943	0.996872
766.241044	0.997759
766.567097	0.997518
766.893104	0.997681
767.219064	0.997465
767.544978	0.997293
767.870845	0.997511
768.196665	0.998493
768.522438	0.998947
768.848165	0.998220
769.173846	0.999340
769.499479	0.998919
769.825066	0.999099
770.150607	1.000566
770.476101	0.999127
770.801548	0.998688
771.126949	0.999953
771.452303	0.998620
771.777611	0.999802
772.102872	0.998143
772.428087	0.997447
772.753256	0.998790
773.078378	0.999207
773.403453	0.998836
773.728482	0.999949
774.053465	0.999618
774.378401	0.999563
774.703291	0.999262
775.028135	1.000052
775.352932	0.997857
775.677683	0.999537
776.002388	0.998965
776.327046	0.997929
776.651658	0.999610
776.976224	0.998680
777.300743	0.999399
777.625216	0.999431
777.949643	0.999422
778.274024	0.998222
778.598359	0.998968
778.922647	0.999935
779.246889	0.999089
779.571086	0.998471
779.895236	0.998547
780.219339	0.999973
780.543397	0.998170
780.867409	0.999555
781.191374	0.999576
781.515294	0.999102
781.839167	0.999756
782.162995	0.998598
782.486776	0.998574
782.810511	0.998292
783.134201	0.999290
783.457844	0.999404
783.781441	0.999220
784.104993	0.998436
784.428498	0.999606
784.751958	0.999836
785.075372	0.999272
785.398739	0.998945
785.722061	0.999025
786.045337	0.998521
786.368568	0.999604
786.691752	0.999390
787.014891	0.999710
787.337983	0.997716
787.661030	0.998002
787.984031	0.999142
788.306987	0.998881
788.629897	0.997041
788.952760	0.999478
789.275579	0.999034
789.598351	0.999254
789.921078	0.999578
790.243759	0.998425
790.566395	0.998498
790.888984	0.999199
791.211529	0.999816
791.534027	0.999147
791.856480	0.999282
792.178888	0.998143
792.501249	0.998637
792.823566	0.999911
793.145836	0.998999
793.468062	0.998362
793.790241	1.000408
794.112375	0.999004
794.434464	0.998917
794.756507	0.998818
795.078505	0.998807
795.400457	0.999242
795.722364	0.999442
796.044226	0.998709
796.366042	0.998841
796.687812	0.997700
797.009538	0.998117
797.331218	0.999425
797.652852	0.999377
797.974442	0.998073
798.295986	0.999341
798.617484	0.997752
798.938938	0.998847
799.260346	0.998081
799.581709	0.998039
799.903026	0.998298
800.224299	0.997905
800.545526	0.997661
800.866708	0.998835
801.187845	0.999101
801.508936	0.999466
801.829983	0.998987
802.150984	0.999222
802.471940	0.999579
802.792851	0.998640
803.113717	0.999776
803.434538	0.999166
803.755314	0.999964
804.076045	0.999378
804.396731	0.997916
804.717372	0.998164
805.037967	1.000179
805.358518	0.999336
805.679024	0.998694
805.999485	0.998998
806.319901	0.999591
806.640272	1.000115
806.960598	0.999339
807.280879	0.999257
807.601115	1.000130
807.921306	1.000648
808.241453	0.999271
808.561554	0.999258
808.881611	0.998642
809.201623	0.999204
809.521590	0.998464
809.841513	0.999628
810.161390	0.998109
810.481223	0.998387
810.801011	1.000166
811.120755	1.000914
811.440453	0.998779
811.760107	0.999420
812.079716	0.999363
812.399281	0.998732
812.718801	0.999591
813.038276	0.998819
813.357707	0.999033
813.677093	0.999895
813.996434	1.000354
814.315731	1.000415
814.634983	0.998392
814.954191	0.999861
815.273354	0.998586
815.592473	0.999167
815.911547	0.999470
816.230577	0.998867
816.549562	0.998893
816.868502	0.997878
817.187399	0.998779
817.506250	0.999668
817.825058	0.997877
818.143821	0.999060
818.462539	0.998376
818.781213	0.998873
819.099843	0.998751
819.418429	0.998267
819.736970	0.998075
820.055466	0.997164
820.373919	0.997790
820.692327	0.996747
821.010691	0.996367
821.329011	0.995157
821.647286	0.993122
821.965517	0.991282
822.283704	0.988683
822.601847	0.987837
822.919945	0.988148
823.237999	0.989754
823.556010	0.991157
823.873976	0.991917
824.191897	0.993113
824.509775	0.993849
824.827609	0.994467
825.145398	0.995204
825.463144	0.994426
825.780845	0.994609
826.098502	0.994764
826.416116	0.995198
826.733685	0.994113
827.051210	0.991931
827.368692	0.991742
827.686129	0.993356
828.003522	0.994963
828.320872	0.994699
828.638177	0.995682
828.955439	0.996233
829.272656	0.997571
829.589830	0.997120
829.906960	0.997755
830.224046	0.998337
830.541088	0.998301
830.858086	0.998308
831.175041	0.999268
831.491952	0.998541
831.808819	0.998401
832.125642	0.998403
832.442421	0.999868
832.759157	0.998381
833.075849	0.996692
833.392497	0.997228
833.709101	0.995084
834.025662	0.994908
834.342179	0.995701
834.658653	0.997196
834.975083	0.996802
835.291469	0.996552
835.607811	0.997604
835.924110	0.998698
836.240366	0.999864
836.556578	0.998394
836.872746	0.998832
837.188871	0.999017
837.504952	0.998350
837.820990	0.999248
838.136984	0.999221
838.452935	0.999258
838.768842	0.999712
839.084706	1.000183
839.400526	0.999520
839.716303	0.998376
840.032037	0.997879
840.347727	0.998117
840.663373	0.997571
840.978977	0.999296
841.294537	0.998830
841.610054	0.998489
841.925527	0.999387
842.240957	0.999136
842.556344	0.998850
842.871687	0.999317
843.186987	0.999662
843.502244	0.999850
843.817458	0.998742
844.132629	0.999386
844.447756	0.999522
844.762840	0.999807
845.077881	1.000556
845.392879	0.998663
845.707833	0.999247
846.022745	0.999580
846.337613	1.000014
846.652438	0.999406
846.967221	1.000528
847.281960	1.000333
847.596656	1.000788
847.911309	1.000571
848.225919	0.999029
848.540485	1.000971
848.855009	1.001176
849.169490	1.000090
849.483928	1.000249
849.798323	0.998284
850.112675	1.001642
850.426984	0.998760
850.741251	0.999949
851.055474	0.999053
851.369654	0.999931
851.683792	0.999055
851.997887	1.000546
852.311938	1.001489
852.625947	0.999022
852.939914	0.998825
853.253837	1.000651
853.567718	0.999986
853.881555	1.000155
854.195350	1.000540
854.509103	1.000007
854.822812	1.000251
855.136479	0.999354
855.450103	1.000330
855.763685	1.000478
856.077224	0.999760
856.390720	1.000184
856.704173	1.000365
857.017584	1.000348
857.330953	0.999048
857.644278	1.000193
857.957561	1.001012
858.270802	1.000281
858.584000	1.000111
858.897155	0.999421
859.210268	0.999851
859.523339	0.999627
859.836367	1.000198
860.149352	0.999296
860.462295	0.999745
860.775195	1.000122
861.088054	0.998450
861.400869	1.000061
861.713642	0.999599
862.026373	1.000341
862.339062	1.000625
862.651708	0.999987
862.964312	1.000628
863.276873	0.999764
863.589392	1.000015
863.901869	0.999875
864.214303	1.000449
864.526696	0.999903
864.839045	0.999656
865.151353	1.000303
865.463619	1.000208
865.775842	1.000094
866.088023	1.001407
866.400162	0.999669
866.712258	1.000727
867.024313	0.999957
867.336325	1.001031
867.648296	1.000513
867.960224	1.000601
868.272110	1.000327
868.583954	1.000020
868.895755	1.000455
869.207515	0.999361
869.519233	1.000308
869.830909	0.998509
870.142542	0.998254
870.454134	0.999055
870.765684	0.999664
871.077191	1.000457
871.388657	0.999601
871.700081	0.999694
872.011463	0.999318
872.322803	1.000548
872.634101	0.999389
872.945357	1.000137
873.256571	0.999661
873.567744	1.000346
873.878874	1.000051
874.189963	0.998901
874.501010	1.001146
874.812015	0.999622
875.122979	0.999605
875.433900	1.000095
875.744780	0.999614
876.055618	0.998866
876.366415	0.997988
876.677169	0.999014
876.987882	0.998717
877.298554	1.000895
877.609183	0.998386
877.919771	0.999760
878.230317	0.999211
878.540822	0.998401
878.851285	0.998917
879.161707	0.998560
879.472087	0.999876
879.782425	0.997224
880.092722	0.996482
880.402977	0.994329
880.713191	0.992722
881.023363	0.990131
881.333494	0.988324
881.643583	0.989509
881.953631	0.989831
882.263637	0.988838
882.573602	0.989753
882.883526	0.990293
883.193408	0.993217
883.503248	0.993285
883.813048	0.993360
884.122806	0.994981
884.432522	0.995283
884.742197	0.997743
885.051831	0.996352
885.361424	0.997755
885.670975	0.998499
885.980485	0.998439
886.289954	0.998007
886.599382	0.998428
886.908768	0.999295
887.218113	0.997390
887.527417	0.998068
887.836680	0.999460
888.145901	0.999847
888.455082	1.000322
888.764221	1.000221
889.073319	0.998994
889.382376	0.999210
889.691392	0.997621
890.000366	1.000038
890.309300	0.999017
890.618193	0.998683
890.927044	0.999223
891.235855	0.998591
891.544625	0.999971
891.853353	0.998941
892.162041	0.999345
892.470687	0.999858
892.779293	0.998736
893.087858	0.997938
893.396381	0.998154
893.704864	0.998023
894.013306	0.996313
894.321707	0.996012
894.630068	0.994766
894.938387	0.993923
895.246665	0.994139
895.554903	0.994823
895.863100	0.996971
896.171256	0.996104
896.479371	0.997271
896.787446	0.995936
897.095480	0.997338
897.403473	0.998301
897.711425	0.998522
898.019336	0.999497
898.327207	0.999443
898.635038	0.998072
898.942827	0.999094
899.250576	0.999799
899.558284	0.999430
899.865952	0.998494
900.173579	0.998982
900.481165	0.999744
900.788711	0.998746
901.096216	0.999390
901.403681	1.000205
901.711105	0.999430
902.018489	0.999015
902.325832	0.999429
902.633135	0.998902
902.940397	0.999023
903.247619	0.999102
903.554800	0.997884
903.861941	0.996428
904.169041	0.993862
904.476101	0.993692
904.783121	0.992703
905.090100	0.994144
905.397039	0.995373
905.703938	0.995819
906.010796	0.996553
906.317614	0.997000
906.624391	0.998191
906.931129	0.998215
907.237826	0.999973
907.544483	0.998918
907.851099	0.998237
908.157675	0.997359
908.464211	0.999099
908.770707	0.998665
909.077163	0.998912
909.383578	1.000197
909.689954	0.998781
909.996289	1.000088
910.302584	0.999371
910.608839	1.000738
910.915054	0.999253
911.221229	1.002056
911.527363	0.999384
911.833458	0.999199
912.139513	1.000170
912.445527	1.000601
912.751502	0.998865
913.057436	0.998680
913.363331	0.999593
913.669186	1.000188
913.975000	0.998737
914.280775	0.999033
914.586510	0.996237
914.892205	0.998341
915.197859	0.996556
915.503475	0.996637
915.809050	0.994562
916.114585	0.992008
916.420081	0.993604
916.725536	0.994179
917.030952	0.994955
917.336328	0.994828
917.641665	0.995426
917.946961	0.993825
918.252218	0.996271
918.557435	0.996477
918.862612	0.997029
919.167750	0.997903
919.472848	0.998870
919.777906	0.999179
920.082925	0.999575
920.387904	0.999614
920.692843	0.999071
920.997743	0.998188
921.302603	0.998768
921.607423	0.998804
921.912204	1.000453
922.216946	0.999649
922.521647	0.998675
922.826310	0.999403
923.130932	0.999818
923.435516	1.000814
923.740059	0.999885
924.044564	0.999548
924.349028	0.998914
924.653454	1.000827
924.957840	0.998590
925.262186	0.999775
925.566493	1.000781
925.870761	0.999378
926.174989	0.999288
926.479178	1.000757
926.783328	0.998954
927.087438	0.999738
927.391509	0.999617
927.695541	1.000451
927.999533	1.000112
928.303486	0.999853
928.607400	1.000549
928.911275	1.000633
929.215110	1.001136
929.518906	1.000557
929.822663	1.001548
930.126381	1.001257
930.430060	1.000657
930.733699	1.000021
931.037299	1.000094
931.340861	1.000793
931.644383	0.999463
931.947866	1.000598
932.251309	0.999938
932.554714	0.999917
932.858080	1.000673
933.161407	0.999648
933.464694	1.000224
933.767943	1.000162
934.071153	1.001186
934.374323	1.000741
934.677455	0.998530
934.980548	0.999667
935.283602	1.000726
935.586617	1.000245
935.889593	1.000907
936.192530	1.000043
936.495428	1.000534
936.798287	0.999605
937.101108	1.000918
937.403890	1.000622
937.706632	1.001229
938.009336	0.999397
938.312002	0.999520
938.614628	0.999980
938.917216	0.998374
939.219765	0.999850
939.522275	1.000745
939.824747	1.000196
940.127179	0.999172
940.429573	1.001183
940.731929	0.999360
941.034246	0.998691
941.336524	0.998965
941.638763	1.000007
941.940964	0.999133
942.243126	1.000371
942.545250	1.000300
942.847335	0.999623
943.149381	0.999977
943.451389	0.998749
943.753359	0.999662
944.055290	1.001031
944.357182	0.999706
944.659036	1.000938
944.960851	1.000609
945.262628	0.999856
945.564367	1.000456
945.866067	0.999660
946.167729	1.000990
946.469352	0.999991
946.770937	0.998623
947.072484	1.001828
947.373992	1.000427
947.675462	0.999543
947.976893	1.001223
948.278286	1.001405
948.579641	1.001458
948.880958	1.000488
949.182236	1.000120
949.483476	1.000954
949.784678	1.001067
950.085841	0.999946
950.386967	1.000071
950.688054	1.000823
950.989103	0.998890
951.290114	0.999462
951.591087	1.001168
951.892021	0.999965
952.192917	1.000741
952.493776	1.000200
952.794596	0.999880
953.095378	0.999089
953.396122	1.000825
953.696828	1.000982
953.997496	1.000439
954.298126	1.000892
954.598718	1.000329
954.899272	1.000198
955.199788	0.999840
955.500266	1.001347
955.800706	1.000368
956.101108	0.999317
956.401472	1.001659
956.701798	1.000663
957.002087	1.000787
957.302337	0.999530
957.602550	1.000387
957.902724	1.000688
958.202861	1.000774
958.502960	0.999945
958.803022	1.000978
959.103045	1.001460
959.403031	1.000814
959.702979	1.001376
960.002889	1.000543
960.302762	0.999957
960.602596	1.001039
960.902393	1.001216
961.202153	1.001609
961.501875	1.001912
961.801559	1.001893
962.101205	0.999920
962.400814	1.002199
962.700385	1.001636
962.999918	1.002376
963.299414	0.999896
963.598873	1.000807
963.898293	1.000542
964.197677	0.998805
964.497022	1.001321
964.796331	1.001281
965.095601	1.001303
965.394835	1.001247
965.694030	1.000886
965.993189	1.000758
966.292309	1.001378
966.591393	0.999430
966.890439	1.001045
967.189447	1.000957
967.488419	1.000846
967.787353	1.001113
968.086249	1.001826
968.385108	1.000799
968.683930	1.001201
968.982714	1.000868
969.281462	1.000173
969.580172	1.000635
969.878844	1.002122
970.177480	1.000640
970.476078	1.001267
970.774639	1.001447
971.073162	1.001233
971.371649	0.999968
971.670098	0.999631
971.968510	1.001613
972.266885	1.000456
972.565223	1.000924
972.863524	0.999516
973.161788	1.001117
973.460014	1.001828
973.758204	0.999881
974.056356	0.999741
974.354471	1.000652
974.652550	1.001176
974.950591	1.000393
975.248595	1.000109
975.546563	1.001547
975.844493	1.000850
976.142386	1.000053
976.440243	1.000851
976.738062	1.001852
977.035845	1.000462
977.333590	1.001164
977.631299	0.999567
977.928971	1.000523
978.226606	1.001397
978.524204	0.999460
978.821765	1.001361
979.119290	1.002489
979.416777	1.000270
979.714228	1.000942
980.011642	1.001406
980.309020	1.000613
980.606360	1.000787
980.903664	1.000372
981.200931	1.000599
981.498162	1.000992
981.795356	0.999773
982.092513	1.000168
982.389633	1.001404
982.686717	1.000493
982.983764	1.000368
983.280775	1.001622
983.577749	1.000464
983.874686	1.000556
984.171587	0.999407
984.468451	1.000345
984.765279	1.001095
985.062070	1.000676
985.358824	1.000767
985.655543	1.001281
985.952224	1.000711
986.248869	1.001185
986.545478	1.002009
986.842050	1.000994
987.138586	0.999741
987.435086	0.999698
987.731549	1.001264
988.027975	1.002686
988.324366	1.000144
988.620719	1.001433
988.917037	1.000655
989.213318	1.001097
989.509563	1.001806
989.805772	1.000930
990.101944	1.002383
990.398080	1.001358
990.694180	1.002959
990.990244	1.000258
991.286271	1.000712
991.582262	1.002335
991.878217	1.000762
992.174136	1.001811
992.470019	1.001292
992.765865	1.001797
993.061676	1.001350
993.357450	1.002378
993.653188	1.001521
993.948890	1.000977
994.244556	0.999796
994.540186	1.000421
994.835780	1.001025
995.131337	1.001292
995.426859	1.000522
995.722345	1.000542
996.017795	1.000630
996.313208	1.000836
996.608586	0.999838
996.903928	1.000595
997.199234	1.001217
997.494504	1.001501
997.789738	0.999232
998.084936	1.000864
998.380099	1.000180
998.675225	1.001460
998.970316	0.999801
999.265371	0.999895
999.560390	1.000170
999.855373	1.000378
1000.150320	1.000809
1000.445232	1.001513
1000.740108	1.000674
1001.034948	1.000551
1001.329752	1.002432
1001.624521	1.000210
1001.919254	1.001738
1002.213951	1.000624
1002.508613	1.001100
1002.803239	1.001005
1003.097829	1.002177
1003.392384	1.000266
1003.686903	1.001210
1003.981386	1.000747
1004.275834	1.002104
1004.570246	0.998683
1004.864623	1.002615
1005.158964	1.000852
1005.453270	1.001148
1005.747540	1.001510
1006.041775	1.001209
1006.335974	1.000888
1006.630138	1.002036
1006.924266	1.000640
1007.218359	0.999365
1007.512416	1.001398
1007.806438	1.001182
1008.100425	0.999988
1008.394376	1.002404
1008.688292	1.000103
1008.982172	0.999864
1009.276017	1.001252
1009.569827	1.001954
1009.863602	0.999816
1010.157341	1.001326
1010.451045	0.999356
1010.744714	1.002611
1011.038347	1.001864
1011.331945	1.000080
1011.625508	1.000631
1011.919036	0.999477
1012.212528	1.001132
1012.505986	1.000511
1012.799408	1.001007
1013.092795	1.001475
1013.386147	1.000593
1013.679464	1.001722
1013.972745	1.001416
1014.265992	1.001592
1014.559204	1.000702
1014.852380	1.001462
1015.145521	1.000378
1015.438628	1.000461
1015.731699	1.000244
1016.024736	1.000946
1016.317737	1.000552
1016.610703	1.001436
1016.903635	1.000567
1017.196531	1.001186
1017.489393	1.001534
1017.782219	0.999476
1018.075011	1.001020
1018.367768	1.000335
1018.660490	1.002279
1018.953177	1.002279
1019.245829	1.002279
