Dividing Wavelength (nm)	Counts (n)	Blue Motor Position (mm): 35.100000	Red Motor Position (mm): 0.000000	
326.493990	0.999161
326.888308	0.999161
327.282561	0.999161
327.676750	1.000971
328.070874	1.001025
328.464933	1.001573
328.858929	1.001612
329.252859	0.999675
329.646726	1.000748
330.040528	0.999802
330.434265	1.000082
330.827938	0.998519
331.221547	1.000697
331.615091	1.000039
332.008571	1.000892
332.401986	0.998736
332.795338	0.999409
333.188625	1.000228
333.581847	0.999881
333.975006	1.000860
334.368100	0.999855
334.761129	0.999142
335.154095	1.000315
335.546996	0.999695
335.939833	0.999706
336.332606	0.999383
336.725315	0.998525
337.117960	1.001375
337.510540	0.999161
337.903056	0.999495
338.295508	1.001125
338.687896	1.000821
339.080220	1.000098
339.472480	0.999546
339.864676	0.999832
340.256807	0.999481
340.648875	0.999640
341.040879	1.000971
341.432818	1.000313
341.824694	0.999196
342.216506	1.000842
342.608253	0.999461
342.999937	0.999275
343.391557	0.999965
343.783113	1.002451
344.174605	1.000474
344.566033	0.999457
344.957397	1.000701
345.348697	1.000547
345.739934	1.000079
346.131106	0.999966
346.522215	0.999490
346.913260	1.000032
347.304241	0.998890
347.695159	0.999282
348.086012	0.999662
348.476802	0.999561
348.867528	0.998348
349.258191	1.000367
349.648789	1.001045
350.039324	0.999174
350.429796	0.999657
350.820203	0.997676
351.210548	0.999882
351.600828	0.999227
351.991045	0.999106
352.381198	0.999285
352.771288	0.999118
353.161314	0.998353
353.551276	0.998282
353.941175	0.997032
354.331010	1.000083
354.720782	0.998553
355.110490	0.999598
355.500135	0.999452
355.889717	0.998944
356.279235	0.999353
356.668689	0.998851
357.058080	0.998021
357.447408	0.998085
357.836672	0.998815
358.225873	0.998350
358.615010	0.998384
359.004084	0.997826
359.393095	0.999333
359.782043	0.997813
360.170927	0.998932
360.559748	0.998255
360.948505	0.998111
361.337199	0.998687
361.725830	0.997933
362.114398	0.997876
362.502903	0.996295
362.891344	0.997465
363.279722	0.997652
363.668037	0.997240
364.056289	0.997523
364.444478	0.999998
364.832603	0.997615
365.220665	0.998340
365.608665	0.997085
365.996601	0.997613
366.384474	0.996946
366.772284	0.997187
367.160031	0.995012
367.547715	0.996182
367.935336	0.995528
368.322893	0.994093
368.710388	0.992494
369.097820	0.991999
369.485189	0.989780
369.872495	0.988602
370.259738	0.985585
370.646918	0.983241
371.034035	0.980398
371.421090	0.978507
371.808081	0.972856
372.195010	0.970716
372.581875	0.964304
372.968678	0.960420
373.355418	0.957109
373.742096	0.949540
374.128710	0.944825
374.515262	0.940460
374.901751	0.934550
375.288177	0.929844
375.674540	0.922514
376.060841	0.917760
376.447079	0.911329
376.833254	0.903694
377.219367	0.898294
377.605417	0.887914
377.991404	0.883596
378.377329	0.878464
378.763191	0.871580
379.148991	0.862724
379.534727	0.855192
379.920402	0.846457
380.306013	0.843489
380.691563	0.831130
381.077049	0.823613
381.462474	0.819864
381.847835	0.808216
382.233134	0.803363
382.618371	0.804682
383.003545	0.787049
383.388657	0.784425
383.773706	0.777483
384.158693	0.772651
384.543618	0.766978
384.928480	0.759540
385.313280	0.748630
385.698017	0.748435
386.082692	0.737029
386.467305	0.736276
386.851856	0.730184
387.236344	0.724946
387.620770	0.718976
388.005133	0.713882
388.389435	0.707692
388.773674	0.705052
389.157851	0.696680
389.541965	0.694631
389.926018	0.701212
390.310008	0.688081
390.693936	0.685201
391.077802	0.677028
391.461606	0.678780
391.845348	0.668004
392.229027	0.667927
392.612645	0.665665
392.996200	0.653198
393.379694	0.646080
393.763125	0.636171
394.146494	0.641079
394.529801	0.631846
394.913047	0.623908
395.296230	0.629310
395.679351	0.620513
396.062410	0.618614
396.445408	0.620829
396.828343	0.616072
397.211217	0.610941
397.594028	0.623991
397.976778	0.614288
398.359466	0.610329
398.742092	0.606138
399.124656	0.618026
399.507158	0.605922
399.889598	0.603633
400.271977	0.594464
400.654294	0.599062
401.036549	0.597868
401.418742	0.601938
401.800874	0.588677
402.182944	0.585524
402.564952	0.577628
402.946898	0.579625
403.328783	0.581670
403.710606	0.593277
404.092367	0.568528
404.474067	0.575288
404.855705	0.575566
405.237282	0.585423
405.618797	0.574155
406.000250	0.571300
406.381642	0.563722
406.762972	0.571876
407.144240	0.572340
407.525447	0.573755
407.906593	0.570550
408.287677	0.568790
408.668700	0.579876
409.049661	0.577911
409.430560	0.577273
409.811399	0.589256
410.192176	0.576446
410.572891	0.587550
410.953545	0.581396
411.334138	0.598561
411.714669	0.596062
412.095139	0.612393
412.475547	0.603911
412.855894	0.612024
413.236180	0.616291
413.616405	0.627174
413.996568	0.625405
414.376670	0.636917
414.756711	0.646861
415.136691	0.651644
415.516609	0.652218
415.896466	0.656487
416.276262	0.661344
416.655997	0.670612
417.035670	0.666219
417.415283	0.668104
417.794834	0.680274
418.174324	0.690904
418.553753	0.705200
418.933121	0.702424
419.312428	0.708751
419.691674	0.720901
420.070859	0.723009
420.449983	0.736982
420.829045	0.739026
421.208047	0.753717
421.586988	0.758402
421.965867	0.766576
422.344686	0.772461
422.723444	0.786209
423.102141	0.800657
423.480777	0.798061
423.859352	0.815838
424.237866	0.815673
424.616319	0.824132
424.994712	0.829034
425.373044	0.840711
425.751314	0.845659
426.129524	0.858424
426.507673	0.861406
426.885762	0.865876
427.263789	0.876108
427.641756	0.884912
428.019662	0.888901
428.397508	0.895229
428.775292	0.902951
429.153016	0.907715
429.530679	0.914869
429.908282	0.918698
430.285824	0.925053
430.663305	0.927952
431.040726	0.935707
431.418086	0.939759
431.795385	0.944660
432.172624	0.949236
432.549802	0.951641
432.926920	0.955837
433.303977	0.959384
433.680974	0.962372
434.057910	0.965486
434.434786	0.968113
434.811601	0.971145
435.188355	0.972151
435.565050	0.976362
435.941683	0.977655
436.318257	0.978314
436.694770	0.981393
437.071222	0.983173
437.447614	0.984572
437.823946	0.986156
438.200218	0.987071
438.576429	0.988091
438.952580	0.990250
439.328670	0.989432
439.704700	0.990791
440.080670	0.992356
440.456580	0.992906
440.832429	0.993548
441.208218	0.994456
441.583947	0.994153
441.959616	0.994721
442.335224	0.995725
442.710773	0.995479
443.086261	0.995395
443.461689	0.995575
443.837057	0.996423
444.212365	0.997491
444.587612	0.997049
444.962800	0.997531
445.337927	0.997015
445.712995	0.996753
446.088002	0.997031
446.462949	0.997129
446.837837	0.998973
447.212664	0.997044
447.587431	0.997698
447.962139	0.997260
448.336786	0.997086
448.711374	0.997474
449.085901	0.997928
449.460369	0.997526
449.834776	0.997286
450.209124	0.997518
450.583412	0.998115
450.957640	0.997932
451.331808	0.998246
451.705917	0.997651
452.079965	0.998644
452.453954	0.998075
452.827883	0.998251
453.201752	0.998793
453.575562	0.997929
453.949311	0.998670
454.323001	0.998858
454.696632	0.998372
455.070202	0.997993
455.443713	0.998742
455.817164	0.998013
456.190556	0.998461
456.563888	0.998808
456.937160	0.999128
457.310373	0.998130
457.683526	0.998599
458.056619	0.998829
458.429653	0.998256
458.802628	0.998966
459.175542	0.998094
459.548398	0.998403
459.921194	0.998578
460.293930	0.999287
460.666607	0.998105
461.039224	0.998135
461.411782	0.998128
461.784280	0.998286
462.156719	0.999299
462.529099	0.998909
462.901419	0.998559
463.273680	0.998543
463.645882	0.997804
464.018024	0.998548
464.390106	0.997660
464.762130	0.998049
465.134094	0.997954
465.505999	0.997937
465.877845	0.996907
466.249631	0.997163
466.621358	0.997474
466.993026	0.997566
467.364634	0.998092
467.736184	0.998111
468.107674	0.997836
468.479105	0.997371
468.850477	0.997969
469.221790	0.998146
469.593043	0.998207
469.964238	0.997502
470.335373	0.997691
470.706449	0.998064
471.077467	0.998031
471.448425	0.998067
471.819324	0.997786
472.190164	0.997094
472.560945	0.997891
472.931667	0.997943
473.302330	0.998065
473.672934	0.998002
474.043479	0.997701
474.413965	0.997578
474.784393	0.997913
475.154761	0.997264
475.525070	0.997294
475.895321	0.997459
476.265513	0.997475
476.635645	0.998325
477.005719	0.997258
477.375734	0.997916
477.745691	0.997126
478.115588	0.997371
478.485427	0.997415
478.855207	0.996658
479.224928	0.997170
479.594591	0.997140
479.964194	0.997060
480.333739	0.997387
480.703226	0.996511
481.072653	0.996483
481.442022	0.997883
481.811333	0.997230
482.180584	0.997289
482.549777	0.997581
482.918912	0.996953
483.287988	0.997512
483.657005	0.996966
484.025964	0.997121
484.394864	0.996626
484.763706	0.996733
485.132489	0.997317
485.501213	0.997167
485.869879	0.997054
486.238487	0.996419
486.607036	0.997965
486.975527	0.997319
487.343959	0.996965
487.712333	0.997374
488.080648	0.996701
488.448905	0.997443
488.817104	0.997033
489.185244	0.997323
489.553326	0.997224
489.921350	0.997918
490.289315	0.996826
490.657222	0.996995
491.025070	0.997508
491.392861	0.996602
491.760593	0.996950
492.128267	0.997009
492.495883	0.996483
492.863440	0.997262
493.230939	0.997217
493.598380	0.997909
493.965763	0.997281
494.333088	0.997082
494.700354	0.997414
495.067563	0.997222
495.434713	0.998217
495.801805	0.996739
496.168839	0.997225
496.535815	0.997495
496.902733	0.996866
497.269593	0.997525
497.636395	0.996540
498.003139	0.996590
498.369825	0.997752
498.736453	0.997528
499.103023	0.997535
499.469535	0.996943
499.835989	0.997494
500.202385	0.996846
500.568723	0.996951
500.935003	0.997872
501.301226	0.998030
501.667390	0.997156
502.033497	0.997508
502.399546	0.996806
502.765537	0.997492
503.131470	0.997653
503.497345	0.997556
503.863163	0.997264
504.228923	0.997458
504.594625	0.997233
504.960269	0.997055
505.325856	0.997498
505.691385	0.997951
506.056856	0.997484
506.422270	0.997587
506.787625	0.997744
507.152924	0.997416
507.518164	0.997830
507.883347	0.997772
508.248472	0.997021
508.613540	0.997094
508.978550	0.997259
509.343503	0.996994
509.708398	0.997302
510.073236	0.997483
510.438016	0.996737
510.802738	0.996780
511.167403	0.997299
511.532010	0.997146
511.896561	0.997055
512.261053	0.997147
512.625488	0.997355
512.989866	0.997357
513.354186	0.996950
513.718449	0.997477
514.082655	0.997158
514.446803	0.997027
514.810894	0.997641
515.174927	0.997298
515.538904	0.997376
515.902822	0.996984
516.266684	0.997487
516.630488	0.997611
516.994235	0.997320
517.357925	0.997237
517.721558	0.997345
518.085133	0.997180
518.448651	0.997183
518.812112	0.998210
519.175516	0.997054
519.538863	0.996889
519.902152	0.997363
520.265385	0.997548
520.628560	0.996898
520.991678	0.996835
521.354739	0.997627
521.717743	0.997006
522.080690	0.996945
522.443580	0.997557
522.806413	0.997051
523.169189	0.997883
523.531908	0.996226
523.894569	0.996716
524.257174	0.996765
524.619722	0.997410
524.982213	0.997155
525.344647	0.997149
525.707025	0.997427
526.069345	0.996460
526.431608	0.997903
526.793815	0.997156
527.155964	0.997521
527.518057	0.997648
527.880093	0.997317
528.242072	0.997265
528.603995	0.997009
528.965860	0.997518
529.327669	0.997886
529.689421	0.997387
530.051117	0.997767
530.412755	0.997493
530.774337	0.997356
531.135862	0.997986
531.497331	0.996982
531.858743	0.997944
532.220098	0.997125
532.581396	0.997640
532.942638	0.997126
533.303824	0.997950
533.664953	0.997523
534.026025	0.997570
534.387040	0.998081
534.747999	0.997631
535.108902	0.997177
535.469748	0.998102
535.830537	0.997638
536.191270	0.997501
536.551947	0.997563
536.912567	0.997170
537.273131	0.997619
537.633638	0.997152
537.994089	0.997705
538.354483	0.997702
538.714821	0.997829
539.075103	0.997264
539.435328	0.997808
539.795497	0.997372
540.155609	0.997878
540.515665	0.998097
540.875665	0.997023
541.235609	0.998005
541.595496	0.996939
541.955328	0.997215
542.315102	0.998321
542.674821	0.997656
543.034483	0.998183
543.394090	0.996784
543.753640	0.997113
544.113134	0.997522
544.472571	0.998054
544.831953	0.998090
545.191278	0.997808
545.550548	0.998006
545.909761	0.996553
546.268918	0.998322
546.628019	0.998296
546.987064	0.997712
547.346053	0.996899
547.704986	0.997596
548.063863	0.997299
548.422684	0.997538
548.781449	0.997703
549.140158	0.997501
549.498811	0.997188
549.857408	0.996834
550.215949	0.997250
550.574434	0.998177
550.932864	0.997795
551.291237	0.997483
551.649555	0.998554
552.007817	0.997270
552.366022	0.998175
552.724173	0.997670
553.082267	0.997463
553.440305	0.997300
553.798288	0.997232
554.156215	0.998100
554.514086	0.998222
554.871902	0.997879
555.229661	0.997546
555.587365	0.997944
555.945014	0.998023
556.302606	0.997459
556.660143	0.998123
557.017625	0.997851
557.375050	0.997538
557.732421	0.997858
558.089735	0.997318
558.446994	0.997217
558.804197	0.997565
559.161345	0.997105
559.518437	0.997611
559.875474	0.998127
560.232455	0.997893
560.589381	0.998136
560.946251	0.997583
561.303065	0.998384
561.659825	0.997030
562.016528	0.998241
562.373177	0.997822
562.729770	0.997847
563.086307	0.996838
563.442789	0.997940
563.799216	0.997294
564.155587	0.997735
564.511904	0.998074
564.868164	0.996420
565.224370	0.997660
565.580520	0.997558
565.936615	0.997709
566.292654	0.997988
566.648638	0.998610
567.004567	0.997740
567.360441	0.998070
567.716260	0.997355
568.072023	0.997439
568.427732	0.997667
568.783385	0.998013
569.138982	0.997696
569.494525	0.997485
569.850013	0.997976
570.205445	0.998445
570.560823	0.997597
570.916145	0.997560
571.271412	0.998308
571.626625	0.998423
571.981782	0.998196
572.336884	0.997533
572.691931	0.997599
573.046923	0.998546
573.401860	0.998170
573.756743	0.997168
574.111570	0.997934
574.466342	0.998789
574.821059	0.997724
575.175722	0.998894
575.530330	0.998172
575.884882	0.998199
576.239380	0.997851
576.593823	0.997037
576.948211	0.998115
577.302544	0.998114
577.656823	0.998841
578.011047	0.997692
578.365216	0.998370
578.719330	0.998207
579.073389	0.997413
579.427394	0.998138
579.781344	0.998519
580.135239	0.997469
580.489080	0.998307
580.842866	0.998164
581.196597	0.997657
581.550273	0.997803
581.903895	0.998181
582.257463	0.997426
582.610975	0.997590
582.964434	0.998139
583.317837	0.998956
583.671186	0.998058
584.024481	0.997471
584.377721	0.997476
584.730906	0.998084
585.084037	0.999163
585.437113	0.998349
585.790135	0.998305
586.143103	0.997994
586.496016	0.998311
586.848874	0.997754
587.201679	0.997981
587.554428	0.997858
587.907124	0.998600
588.259765	0.998695
588.612352	0.998530
588.964884	0.998418
589.317362	0.997763
589.669786	0.998075
590.022155	0.997505
590.374470	0.997998
590.726731	0.997471
591.078937	0.998261
591.431090	0.997905
591.783188	0.998121
592.135232	0.999299
592.487222	0.997617
592.839157	0.998308
593.191038	0.998056
593.542866	0.998033
593.894639	0.997295
594.246358	0.998450
594.598022	0.997844
594.949633	0.997923
595.301190	0.998165
595.652692	0.997348
596.004141	0.998308
596.355535	0.997559
596.706876	0.998250
597.058162	0.998531
597.409395	0.998072
597.760573	0.998256
598.111698	0.998025
598.462768	0.997521
598.813785	0.997931
599.164748	0.998440
599.515657	0.997786
599.866511	0.998732
600.217312	0.999095
600.568060	0.997938
600.918753	0.998619
601.269392	0.998701
601.619978	0.998047
601.970510	0.998270
602.320988	0.998099
602.671412	0.997871
603.021783	0.998897
603.372100	0.998657
603.722363	0.999125
604.072572	0.998415
604.422728	0.997567
604.772830	0.998170
605.122878	0.998135
605.472872	0.999215
605.822813	0.997313
606.172701	0.998474
606.522534	0.998447
606.872314	0.998776
607.222041	0.997909
607.571714	0.998611
607.921333	0.998255
608.270899	0.998544
608.620411	0.998216
608.969870	0.999626
609.319276	0.998524
609.668627	0.999238
610.017926	0.998012
610.367171	0.998651
610.716362	0.998483
611.065500	0.997885
611.414585	0.998860
611.763616	0.997534
612.112594	0.998067
612.461518	0.997912
612.810389	0.998394
613.159207	0.998024
613.507971	0.997512
613.856682	0.999301
614.205340	0.997637
614.553945	0.998624
614.902496	0.998329
615.250994	0.998518
615.599439	0.998790
615.947830	0.997600
616.296169	0.998485
616.644454	0.998567
616.992686	0.998087
617.340864	0.999116
617.688990	0.997733
618.037063	0.998714
618.385082	0.998411
618.733048	0.998519
619.080961	0.997557
619.428821	0.998474
619.776628	0.997663
620.124382	0.998642
620.472083	0.998742
620.819731	0.998594
621.167326	0.997787
621.514868	0.998594
621.862357	0.998134
622.209793	0.998591
622.557176	0.998420
622.904506	0.997717
623.251783	0.998441
623.599007	0.998915
623.946179	0.997737
624.293297	0.998540
624.640363	0.998914
624.987376	0.997221
625.334336	0.998099
625.681243	0.998029
626.028097	0.998746
626.374899	0.999071
626.721647	0.998573
627.068343	0.998332
627.414987	0.998440
627.761577	0.997790
628.108115	0.997442
628.454600	0.998964
628.801032	0.999199
629.147412	0.998632
629.493739	0.998672
629.840014	0.998414
630.186236	0.997992
630.532405	0.999100
630.878521	0.997904
631.224585	0.998309
631.570597	0.997809
631.916556	0.998913
632.262462	0.998498
632.608316	0.999180
632.954117	0.997881
633.299866	0.998520
633.645562	0.998396
633.991206	0.998638
634.336797	0.997575
634.682336	0.999174
635.027823	0.998589
635.373257	0.998933
635.718639	0.998897
636.063968	0.998610
636.409245	0.997823
636.754470	0.998518
637.099642	0.998749
637.444762	0.999262
637.789829	0.998255
638.134845	0.998673
638.479808	0.998419
638.824719	0.998320
639.169577	0.999222
639.514383	0.999171
639.859137	0.998940
640.203839	0.998365
640.548489	0.998159
640.893086	0.998459
641.237632	0.998792
641.582125	0.998663
641.926566	0.999022
642.270955	0.999091
642.615292	0.998076
642.959576	0.998065
643.303809	0.998951
643.647990	0.998526
643.992118	0.998915
644.336195	0.998084
644.680219	0.998874
645.024192	0.998949
645.368112	0.998113
645.711981	0.998251
646.055797	0.998882
646.399562	0.997402
646.743274	0.999004
647.086935	0.998059
647.430544	0.997993
647.774101	0.998058
648.117606	0.999221
648.461059	0.998706
648.804460	0.998578
649.147810	0.998430
649.491108	0.997979
649.834354	0.998064
650.177548	0.998560
650.520690	0.997886
650.863781	0.998235
651.206820	0.998549
651.549807	0.997923
651.892742	0.999444
652.235626	0.998140
652.578458	0.998063
652.921238	0.999365
653.263967	0.998870
653.606644	0.998427
653.949269	0.999733
654.291843	0.998085
654.634365	0.998974
654.976836	0.998093
655.319255	0.999167
655.661622	0.998583
656.003938	0.997843
656.346203	0.998228
656.688416	0.998929
657.030577	0.998421
657.372687	0.998337
657.714746	0.998080
658.056753	0.998508
658.398708	0.997851
658.740612	0.999155
659.082465	0.998549
659.424266	0.998122
659.766016	0.997401
660.107715	0.999139
660.449362	0.998160
660.790958	0.997676
661.132503	0.998617
661.473996	0.997977
661.815438	0.998955
662.156829	0.999080
662.498168	0.998782
662.839456	0.997341
663.180693	0.998791
663.521879	0.998362
663.863013	0.999101
664.204097	0.997743
664.545129	0.998365
664.886110	0.998858
665.227040	0.998791
665.567918	0.997858
665.908746	0.998154
666.249522	0.998031
666.590248	0.997974
666.930922	0.997646
667.271545	0.998405
667.612118	0.997943
667.952639	0.998303
668.293109	0.998357
668.633528	0.998211
668.973896	0.998206
669.314213	0.998372
669.654480	0.998517
669.994695	0.997970
670.334859	0.998351
670.674973	0.997841
671.015035	0.998309
671.355047	0.998588
671.695008	0.997852
672.034918	0.997819
672.374777	0.997883
672.714585	0.997969
673.054342	0.998840
673.394049	0.997469
673.733705	0.997570
674.073310	0.998665
674.412864	0.997591
674.752368	0.998243
675.091820	0.999075
675.431223	0.998678
675.770574	0.997731
676.109875	0.997762
676.449125	0.997807
676.788324	0.997290
677.127473	0.998630
677.466571	0.998165
677.805619	0.998176
678.144616	0.999279
678.483562	0.999051
678.822458	0.998183
679.161303	0.997755
679.500098	0.997709
679.838842	0.997389
680.177535	0.996983
680.516179	0.997391
680.854771	0.997264
681.193314	0.997888
681.531805	0.997655
681.870247	0.996958
682.208638	0.997384
682.546978	0.997725
682.885268	0.997347
683.223508	0.997295
683.561697	0.997691
683.899836	0.998299
684.237925	0.997233
684.575963	0.997494
684.913951	0.997523
685.251889	0.997547
685.589776	0.997880
685.927614	0.997899
686.265401	0.997566
686.603137	0.997108
686.940824	0.997722
687.278460	0.998375
687.616046	0.997263
687.953582	0.997685
688.291068	0.997621
688.628504	0.997632
688.965889	0.997360
689.303224	0.995730
689.640510	0.998074
689.977745	0.997425
690.314930	0.997451
690.652065	0.997375
690.989150	0.996859
691.326185	0.997953
691.663170	0.997653
692.000105	0.997428
692.336990	0.997229
692.673825	0.997810
693.010610	0.998233
693.347345	0.997920
693.684030	0.997543
694.020665	0.997181
694.357251	0.996889
694.693786	0.997346
695.030272	0.996509
695.366707	0.997577
695.703093	0.997373
696.039429	0.997518
696.375716	0.997555
696.711952	0.997153
697.048139	0.997884
697.384276	0.997184
697.720363	0.996913
698.056400	0.996816
698.392388	0.997172
698.728326	0.998070
699.064214	0.998309
699.400053	0.997616
699.735842	0.998148
700.071581	0.997312
700.407270	0.997097
700.742910	0.998114
701.078501	0.997644
701.414042	0.998560
701.749533	0.997162
702.084974	0.998518
702.420366	0.997438
702.755709	0.997101
703.091002	0.997094
703.426246	0.997638
703.761440	0.997830
704.096584	0.997295
704.431679	0.996626
704.766725	0.997470
705.101721	0.997934
705.436668	0.998566
705.771565	0.997376
706.106413	0.996238
706.441212	0.997215
706.775961	0.997361
707.110661	0.997515
707.445311	0.997798
707.779913	0.998049
708.114465	0.998418
708.448967	0.997339
708.783421	0.998628
709.117825	0.997821
709.452180	0.996804
709.786485	0.997517
710.120742	0.997002
710.454949	0.997108
710.789107	0.996337
711.123216	0.996422
711.457275	0.996455
711.791286	0.997049
712.125247	0.998517
712.459159	0.996947
712.793023	0.996846
713.126837	0.997252
713.460602	0.996040
713.794318	0.996032
714.127985	0.996364
714.461602	0.996798
714.795171	0.996337
715.128691	0.996494
715.462162	0.997504
715.795584	0.996935
716.128957	0.997663
716.462281	0.997223
716.795556	0.996629
717.128782	0.998375
717.461960	0.996842
717.795088	0.996713
718.128167	0.997667
718.461198	0.997599
718.794180	0.997516
719.127113	0.997690
719.459997	0.996360
719.792833	0.996455
720.125619	0.996761
720.458357	0.996896
720.791046	0.998268
721.123686	0.997183
721.456278	0.997142
721.788821	0.996636
722.121315	0.998738
722.453761	0.998140
722.786158	0.996768
723.118506	0.996912
723.450805	0.996988
723.783056	0.996754
724.115259	0.997368
724.447412	0.997860
724.779518	0.997529
725.111574	0.996239
725.443582	0.996855
725.775542	0.997271
726.107453	0.996615
726.439315	0.997142
726.771129	0.997245
727.102895	0.997613
727.434612	0.997313
727.766281	0.996872
728.097901	0.996906
728.429473	0.997595
728.760996	0.996263
729.092471	0.996872
729.423897	0.995997
729.755276	0.996581
730.086606	0.996317
730.417887	0.997600
730.749120	0.996826
731.080305	0.996889
731.411442	0.995600
731.742530	0.995211
732.073570	0.995903
732.404562	0.996569
732.735506	0.995927
733.066401	0.996095
733.397249	0.996260
733.728048	0.997365
734.058798	0.997006
734.389501	0.997936
734.720156	0.996925
735.050762	0.997774
735.381320	0.996232
735.711831	0.996961
736.042293	0.996220
736.372707	0.998150
736.703073	0.997120
737.033391	0.997201
737.363661	0.997155
737.693883	0.997313
738.024056	0.997172
738.354182	0.997663
738.684260	0.996898
739.014290	0.997413
739.344272	0.997321
739.674207	0.997374
740.004093	0.996127
740.333931	0.996413
740.663722	0.996513
740.993464	0.997222
741.323159	0.996666
741.652806	0.996478
741.982405	0.997594
742.311956	0.996321
742.641460	0.997141
742.970915	0.996335
743.300323	0.996648
743.629683	0.997111
743.958996	0.996966
744.288260	0.996162
744.617477	0.996683
744.946647	0.996488
745.275768	0.997725
745.604842	0.996309
745.933869	0.997842
746.262847	0.998130
746.591778	0.995853
746.920662	0.998230
747.249498	0.997317
747.578286	0.998490
747.907027	0.997932
748.235720	0.996914
748.564365	0.997373
748.892963	0.996920
749.221514	0.997054
749.550017	0.997121
749.878473	0.997421
750.206881	0.998662
750.535242	0.996788
750.863555	0.996085
751.191821	0.997277
751.520039	0.997321
751.848210	0.995009
752.176334	0.996713
752.504411	0.996463
752.832440	0.996827
753.160421	0.997256
753.488356	0.997842
753.816243	0.995478
754.144082	0.996670
754.471875	0.997401
754.799620	0.997484
755.127318	0.997366
755.454969	0.997113
755.782572	0.998758
756.110129	0.996275
756.437638	0.998427
756.765100	0.996639
757.092515	0.996784
757.419882	0.996258
757.747203	0.996718
758.074477	0.997039
758.401703	0.996754
758.728882	0.996686
759.056014	0.997410
759.383099	0.997973
759.710138	0.995827
760.037129	0.997614
760.364073	0.997323
760.690970	0.996726
761.017820	0.996843
761.344623	0.996838
761.671379	0.998016
761.998088	0.996261
762.324751	0.996797
762.651366	0.995681
762.977935	0.994804
763.304456	0.995222
763.630931	0.993849
763.957359	0.993840
764.283740	0.994854
764.610074	0.995563
764.936362	0.995900
765.262602	0.996843
765.588796	0.996675
765.914943	0.996452
766.241044	0.996624
766.567097	0.996196
766.893104	0.997120
767.219064	0.995960
767.544978	0.996667
767.870845	0.997583
768.196665	0.997143
768.522438	0.997105
768.848165	0.997575
769.173846	0.998072
769.499479	0.998281
769.825066	0.998310
770.150607	0.999052
770.476101	0.997413
770.801548	0.997266
771.126949	0.998906
771.452303	0.997937
771.777611	0.998135
772.102872	0.998164
772.428087	0.997590
772.753256	0.997867
773.078378	0.997522
773.403453	0.997560
773.728482	0.999068
774.053465	0.997590
774.378401	0.997731
774.703291	0.999603
775.028135	0.999830
775.352932	0.997096
775.677683	0.999058
776.002388	0.998365
776.327046	0.997470
776.651658	0.999044
776.976224	0.998688
777.300743	0.997732
777.625216	0.997878
777.949643	0.997536
778.274024	0.997867
778.598359	0.999227
778.922647	0.998104
779.246889	0.999173
779.571086	0.998667
779.895236	0.998365
780.219339	0.999319
780.543397	0.997556
780.867409	0.999099
781.191374	0.997799
781.515294	0.999356
781.839167	0.999326
782.162995	0.997766
782.486776	0.997817
782.810511	0.998644
783.134201	0.998386
783.457844	0.998041
783.781441	0.997939
784.104993	0.997753
784.428498	0.998297
784.751958	0.999249
785.075372	0.999345
785.398739	0.998028
785.722061	0.996723
786.045337	0.998941
786.368568	0.997839
786.691752	0.997620
787.014891	0.998412
787.337983	0.997162
787.661030	0.997061
787.984031	0.998309
788.306987	0.998420
788.629897	0.995799
788.952760	0.997737
789.275579	0.997567
789.598351	0.998257
789.921078	0.998240
790.243759	0.997508
790.566395	0.997607
790.888984	0.997980
791.211529	0.998171
791.534027	0.997791
791.856480	0.998230
792.178888	0.998575
792.501249	0.997625
792.823566	0.999465
793.145836	0.998792
793.468062	0.998254
793.790241	0.998555
794.112375	0.996514
794.434464	0.997567
794.756507	0.998610
795.078505	0.998523
795.400457	0.998486
795.722364	0.997896
796.044226	0.998061
796.366042	0.997704
796.687812	0.996674
797.009538	0.997423
797.331218	0.998383
797.652852	0.998042
797.974442	0.997342
798.295986	0.998244
798.617484	0.996803
798.938938	0.997759
799.260346	0.997624
799.581709	0.997728
799.903026	0.998982
800.224299	0.997649
800.545526	0.998072
800.866708	0.997872
801.187845	0.998255
801.508936	0.997951
801.829983	0.998481
802.150984	0.999400
802.471940	0.999091
802.792851	0.998619
803.113717	1.000300
803.434538	0.999370
803.755314	0.999536
804.076045	0.998374
804.396731	0.997800
804.717372	0.997323
805.037967	0.999593
805.358518	0.998903
805.679024	0.998291
805.999485	0.998302
806.319901	0.998668
806.640272	0.999178
806.960598	0.998497
807.280879	0.998061
807.601115	0.999203
807.921306	0.998303
808.241453	0.998009
808.561554	0.997869
808.881611	0.997706
809.201623	0.997875
809.521590	0.998531
809.841513	0.998697
810.161390	0.998032
810.481223	0.997607
810.801011	0.998351
811.120755	0.999411
811.440453	0.998289
811.760107	0.998193
812.079716	0.997982
812.399281	0.998062
812.718801	0.998167
813.038276	0.998345
813.357707	0.998622
813.677093	0.998778
813.996434	0.998336
814.315731	1.000081
814.634983	0.998381
814.954191	0.998303
815.273354	0.998436
815.592473	0.998016
815.911547	0.998418
816.230577	0.997868
816.549562	0.998415
816.868502	0.996615
817.187399	0.998481
817.506250	0.998410
817.825058	0.996466
818.143821	0.998367
818.462539	0.997810
818.781213	0.998787
819.099843	0.998695
819.418429	0.997652
819.736970	0.996991
820.055466	0.997175
820.373919	0.995987
820.692327	0.994746
821.010691	0.994819
821.329011	0.992386
821.647286	0.991102
821.965517	0.989480
822.283704	0.988589
822.601847	0.987724
822.919945	0.988209
823.237999	0.988267
823.556010	0.989849
823.873976	0.989738
824.191897	0.990716
824.509775	0.993134
824.827609	0.993427
825.145398	0.993700
825.463144	0.992817
825.780845	0.992663
826.098502	0.993464
826.416116	0.992349
826.733685	0.991748
827.051210	0.990666
827.368692	0.991018
827.686129	0.991947
828.003522	0.993362
828.320872	0.993704
828.638177	0.994288
828.955439	0.996660
829.272656	0.996174
829.589830	0.996619
829.906960	0.996890
830.224046	0.995937
830.541088	0.996437
830.858086	0.996803
831.175041	0.998475
831.491952	0.997564
831.808819	0.997113
832.125642	0.996249
832.442421	0.996950
832.759157	0.997632
833.075849	0.995568
833.392497	0.994680
833.709101	0.993355
834.025662	0.993959
834.342179	0.993752
834.658653	0.995965
834.975083	0.995336
835.291469	0.996115
835.607811	0.996929
835.924110	0.997875
836.240366	0.999566
836.556578	0.998224
836.872746	0.997886
837.188871	0.997949
837.504952	0.997495
837.820990	0.997651
838.136984	0.997598
838.452935	0.998097
838.768842	0.998791
839.084706	0.998309
839.400526	0.997681
839.716303	0.996281
840.032037	0.997422
840.347727	0.996435
840.663373	0.997063
840.978977	0.996841
841.294537	0.999233
841.610054	0.997351
841.925527	0.998640
842.240957	0.998436
842.556344	0.998483
842.871687	0.998548
843.186987	0.998976
843.502244	0.998959
843.817458	0.998495
844.132629	0.999291
844.447756	0.999642
844.762840	0.998629
845.077881	1.000394
845.392879	0.999053
845.707833	0.999493
846.022745	0.998472
846.337613	0.999436
846.652438	0.998758
846.967221	0.998641
847.281960	1.000552
847.596656	0.999892
847.911309	0.999262
848.225919	0.998669
848.540485	0.999743
848.855009	0.999975
849.169490	0.999593
849.483928	0.999611
849.798323	0.998899
850.112675	1.000014
850.426984	1.000363
850.741251	1.000116
851.055474	0.998584
851.369654	0.999704
851.683792	0.999206
851.997887	0.999329
852.311938	0.999657
852.625947	0.999632
852.939914	0.998403
853.253837	1.000808
853.567718	0.999863
853.881555	0.998357
854.195350	0.999086
854.509103	0.999649
854.822812	0.999222
855.136479	1.000003
855.450103	0.998973
855.763685	0.999589
856.077224	0.999273
856.390720	0.998090
856.704173	0.999878
857.017584	0.999798
857.330953	0.999405
857.644278	0.999150
857.957561	0.999369
858.270802	0.999234
858.584000	0.999716
858.897155	0.998923
859.210268	0.999450
859.523339	0.998885
859.836367	0.999744
860.149352	0.998626
860.462295	0.999624
860.775195	0.998696
861.088054	0.997842
861.400869	0.998839
861.713642	0.998718
862.026373	0.999915
862.339062	0.999526
862.651708	1.000287
862.964312	0.999092
863.276873	0.999000
863.589392	0.999578
863.901869	0.999654
864.214303	0.999846
864.526696	0.998674
864.839045	0.999352
865.151353	0.998681
865.463619	0.998651
865.775842	0.998032
866.088023	0.999750
866.400162	0.999137
866.712258	1.000499
867.024313	1.000281
867.336325	0.999621
867.648296	0.999001
867.960224	1.000235
868.272110	0.999862
868.583954	1.000381
868.895755	0.999736
869.207515	0.999071
869.519233	0.999755
869.830909	0.998733
870.142542	0.997564
870.454134	0.999380
870.765684	0.998782
871.077191	0.999942
871.388657	0.999230
871.700081	0.998997
872.011463	0.999870
872.322803	0.999132
872.634101	0.998262
872.945357	0.997496
873.256571	0.998801
873.567744	0.999480
873.878874	0.999262
874.189963	0.998248
874.501010	1.000604
874.812015	0.998792
875.122979	1.000201
875.433900	0.998930
875.744780	0.999030
876.055618	0.998629
876.366415	0.998473
876.677169	0.998386
876.987882	0.998197
877.298554	0.999671
877.609183	0.998424
877.919771	0.999693
878.230317	0.998955
878.540822	0.997600
878.851285	0.998177
879.161707	0.997823
879.472087	0.999286
879.782425	0.996252
880.092722	0.995375
880.402977	0.994004
880.713191	0.992127
881.023363	0.990204
881.333494	0.989273
881.643583	0.990276
881.953631	0.989775
882.263637	0.989019
882.573602	0.990234
882.883526	0.990125
883.193408	0.991664
883.503248	0.992096
883.813048	0.992940
884.122806	0.993718
884.432522	0.994814
884.742197	0.996835
885.051831	0.995705
885.361424	0.996153
885.670975	0.997179
885.980485	0.996711
886.289954	0.997337
886.599382	0.997007
886.908768	0.998648
887.218113	0.997280
887.527417	0.997795
887.836680	0.998559
888.145901	0.998379
888.455082	0.999509
888.764221	0.999047
889.073319	0.997944
889.382376	0.999322
889.691392	0.997950
890.000366	0.999435
890.309300	0.998492
890.618193	0.998476
890.927044	0.998911
891.235855	0.997480
891.544625	0.998860
891.853353	0.998757
892.162041	0.997716
892.470687	0.998577
892.779293	0.998481
893.087858	0.996896
893.396381	0.997688
893.704864	0.996361
894.013306	0.995669
894.321707	0.996097
894.630068	0.995294
894.938387	0.993986
895.246665	0.994219
895.554903	0.993873
895.863100	0.996362
896.171256	0.995646
896.479371	0.996672
896.787446	0.996208
897.095480	0.995899
897.403473	0.997624
897.711425	0.997590
898.019336	0.998861
898.327207	0.998365
898.635038	0.997747
898.942827	0.998419
899.250576	0.997623
899.558284	0.999202
899.865952	0.997682
900.173579	0.998694
900.481165	0.998694
900.788711	0.998662
901.096216	0.997706
901.403681	0.998868
901.711105	0.997899
902.018489	0.997725
902.325832	0.999009
902.633135	0.997783
902.940397	0.998236
903.247619	0.997408
903.554800	0.996813
903.861941	0.995655
904.169041	0.994256
904.476101	0.994344
904.783121	0.993514
905.090100	0.993411
905.397039	0.995880
905.703938	0.996308
906.010796	0.996585
906.317614	0.996300
906.624391	0.997701
906.931129	0.997834
907.237826	0.998124
907.544483	0.997973
907.851099	0.997904
908.157675	0.998847
908.464211	0.999492
908.770707	0.997711
909.077163	0.999730
909.383578	0.999148
909.689954	0.998704
909.996289	0.998915
910.302584	0.999453
910.608839	1.000769
910.915054	0.999185
911.221229	1.000323
911.527363	0.998607
911.833458	0.998757
912.139513	0.998199
912.445527	1.000202
912.751502	0.999972
913.057436	0.998626
913.363331	0.999373
913.669186	1.000224
913.975000	0.998510
914.280775	0.998953
914.586510	0.998268
914.892205	0.996942
915.197859	0.996968
915.503475	0.995441
915.809050	0.994211
916.114585	0.993026
916.420081	0.993504
916.725536	0.993753
917.030952	0.994118
917.336328	0.994807
917.641665	0.993836
917.946961	0.995129
918.252218	0.995708
918.557435	0.996491
918.862612	0.997397
919.167750	0.997589
919.472848	0.998137
919.777906	0.998979
920.082925	0.998679
920.387904	0.998885
920.692843	0.998643
920.997743	0.996650
921.302603	0.999357
921.607423	0.997716
921.912204	0.998875
922.216946	0.999057
922.521647	0.998960
922.826310	0.998443
923.130932	0.998582
923.435516	0.999924
923.740059	0.998785
924.044564	0.999218
924.349028	0.997984
924.653454	0.999944
924.957840	0.998551
925.262186	0.998754
925.566493	0.999200
925.870761	0.998349
926.174989	0.997808
926.479178	0.999159
926.783328	0.999749
927.087438	0.999497
927.391509	0.997392
927.695541	0.998933
927.999533	1.000197
928.303486	0.999350
928.607400	1.000025
928.911275	1.000619
929.215110	1.000805
929.518906	1.000150
929.822663	1.001319
930.126381	1.001487
930.430060	1.000202
930.733699	1.000256
931.037299	0.999536
931.340861	0.999801
931.644383	0.998067
931.947866	0.999509
932.251309	1.000127
932.554714	1.000881
932.858080	1.000086
933.161407	0.999213
933.464694	0.999083
933.767943	0.999660
934.071153	1.001230
934.374323	1.000574
934.677455	0.998756
934.980548	1.000056
935.283602	1.000042
935.586617	0.999072
935.889593	1.000488
936.192530	1.000651
936.495428	1.000285
936.798287	0.998365
937.101108	0.999910
937.403890	0.999015
937.706632	1.001071
938.009336	1.000176
938.312002	0.999439
938.614628	0.999715
938.917216	0.998761
939.219765	0.999203
939.522275	0.999197
939.824747	0.998846
940.127179	0.999669
940.429573	1.000542
940.731929	0.999340
941.034246	0.998039
941.336524	0.998306
941.638763	0.998193
941.940964	0.999529
942.243126	0.998952
942.545250	1.000272
942.847335	0.999807
943.149381	1.000336
943.451389	0.999441
943.753359	0.998899
944.055290	1.001567
944.357182	1.000525
944.659036	0.999418
944.960851	1.000203
945.262628	0.999225
945.564367	1.000252
945.866067	0.999989
946.167729	1.000166
946.469352	0.999642
946.770937	0.998340
947.072484	1.000696
947.373992	1.000484
947.675462	0.999662
947.976893	0.997873
948.278286	1.001312
948.579641	1.000153
948.880958	0.998680
949.182236	0.999256
949.483476	0.999690
949.784678	1.000796
950.085841	0.999434
950.386967	0.999785
950.688054	0.999785
950.989103	0.998129
951.290114	0.998692
951.591087	0.999341
951.892021	1.000099
952.192917	0.999829
952.493776	0.998892
952.794596	0.999663
953.095378	1.000276
953.396122	0.999207
953.696828	1.000525
953.997496	0.998922
954.298126	1.000963
954.598718	0.999713
954.899272	0.999547
955.199788	0.999081
955.500266	1.000519
955.800706	0.998610
956.101108	1.000278
956.401472	1.001914
956.701798	0.999436
957.002087	0.999863
957.302337	1.000673
957.602550	1.000117
957.902724	0.999364
958.202861	0.997924
958.502960	0.998686
958.803022	1.000206
959.103045	1.001038
959.403031	1.000196
959.702979	1.001216
960.002889	0.999870
960.302762	0.998343
960.602596	0.999965
960.902393	1.000433
961.202153	0.999662
961.501875	0.999943
961.801559	1.001078
962.101205	0.999357
962.400814	1.000180
962.700385	1.001601
962.999918	0.999980
963.299414	0.999735
963.598873	0.999383
963.898293	1.000013
964.197677	0.999622
964.497022	0.999265
964.796331	1.000361
965.095601	1.000414
965.394835	0.999641
965.694030	1.001031
965.993189	1.000096
966.292309	1.000498
966.591393	0.999783
966.890439	1.000883
967.189447	0.999039
967.488419	0.999480
967.787353	1.000718
968.086249	1.000185
968.385108	1.000949
968.683930	1.000825
968.982714	1.000038
969.281462	1.000295
969.580172	0.999666
969.878844	1.001052
970.177480	1.001220
970.476078	1.000337
970.774639	0.999575
971.073162	0.998664
971.371649	1.000058
971.670098	1.000691
971.968510	1.000091
972.266885	0.999489
972.565223	1.000239
972.863524	0.998727
973.161788	1.000449
973.460014	1.001027
973.758204	0.998919
974.056356	0.999968
974.354471	1.000527
974.652550	1.000574
974.950591	1.000217
975.248595	0.999410
975.546563	1.000795
975.844493	1.001325
976.142386	0.999958
976.440243	1.000266
976.738062	1.000184
977.035845	0.999155
977.333590	1.001239
977.631299	0.999655
977.928971	1.000309
978.226606	1.000011
978.524204	0.999085
978.821765	1.000447
979.119290	1.002002
979.416777	1.000538
979.714228	0.999340
980.011642	1.000475
980.309020	0.999402
980.606360	1.000588
980.903664	0.998921
981.200931	1.000126
981.498162	0.999985
981.795356	1.000052
982.092513	0.999592
982.389633	1.000739
982.686717	0.999144
982.983764	1.000624
983.280775	0.999828
983.577749	1.001143
983.874686	0.999988
984.171587	0.999549
984.468451	1.000408
984.765279	1.000304
985.062070	1.001503
985.358824	1.000201
985.655543	1.000480
985.952224	1.000932
986.248869	0.999309
986.545478	1.000640
986.842050	1.000618
987.138586	0.999331
987.435086	1.000111
987.731549	1.001736
988.027975	1.001131
988.324366	1.000157
988.620719	1.001853
988.917037	0.998608
989.213318	1.001000
989.509563	0.998738
989.805772	0.999873
990.101944	1.000731
990.398080	1.000225
990.694180	1.001930
990.990244	0.999697
991.286271	1.000833
991.582262	1.000982
991.878217	0.999655
992.174136	1.001424
992.470019	1.000671
992.765865	1.002324
993.061676	1.000212
993.357450	1.000485
993.653188	1.001040
993.948890	1.000840
994.244556	0.999157
994.540186	1.000269
994.835780	1.000016
995.131337	1.000655
995.426859	1.000656
995.722345	1.000307
996.017795	1.000212
996.313208	0.999195
996.608586	0.999880
996.903928	1.000143
997.199234	0.999752
997.494504	1.000637
997.789738	1.000432
998.084936	1.000235
998.380099	0.999106
998.675225	1.001641
998.970316	1.001518
999.265371	1.000181
999.560390	1.000351
999.855373	0.999299
1000.150320	0.998869
1000.445232	1.000214
1000.740108	1.000608
1001.034948	0.998789
1001.329752	1.001748
1001.624521	0.999964
1001.919254	1.000017
1002.213951	1.000517
1002.508613	1.000655
1002.803239	1.000003
1003.097829	1.000796
1003.392384	1.000286
1003.686903	1.000776
1003.981386	0.999763
1004.275834	1.000763
1004.570246	0.999463
1004.864623	1.001567
1005.158964	1.000149
1005.453270	1.000247
1005.747540	1.000257
1006.041775	1.000283
1006.335974	0.999772
1006.630138	1.000607
1006.924266	0.999940
1007.218359	0.999270
1007.512416	1.001800
1007.806438	0.998774
1008.100425	0.999885
1008.394376	1.000660
1008.688292	0.999601
1008.982172	0.999487
1009.276017	1.001465
1009.569827	1.001807
1009.863602	0.999700
1010.157341	0.999809
1010.451045	0.999839
1010.744714	1.001771
1011.038347	1.000388
1011.331945	0.999244
1011.625508	0.999643
1011.919036	1.001321
1012.212528	1.001215
1012.505986	0.999163
1012.799408	0.999403
1013.092795	1.000976
1013.386147	0.999430
1013.679464	1.000998
1013.972745	0.999782
1014.265992	1.000742
1014.559204	1.000777
1014.852380	0.999910
1015.145521	0.999701
1015.438628	1.000715
1015.731699	0.999873
1016.024736	1.000999
1016.317737	1.001226
1016.610703	1.000395
1016.903635	1.000671
1017.196531	0.999912
1017.489393	0.999919
1017.782219	1.000007
1018.075011	1.000186
1018.367768	0.999967
1018.660490	1.000699
1018.953177	1.000699
1019.245829	1.000699
