Dividing Wavelength (nm)	Counts (n)	Blue Motor Position (mm): 14.100000	Red Motor Position (mm): 0.000000	
326.493990	1.001775
326.888308	1.001775
327.282561	1.001775
327.676750	1.003852
328.070874	1.004290
328.464933	1.002673
328.858929	1.003997
329.252859	1.002953
329.646726	1.003406
330.040528	1.002691
330.434265	1.002417
330.827938	1.002186
331.221547	1.003770
331.615091	1.002807
332.008571	1.004002
332.401986	1.002386
332.795338	1.002394
333.188625	1.002523
333.581847	1.002927
333.975006	1.002786
334.368100	1.004008
334.761129	1.001172
335.154095	1.001725
335.546996	1.001100
335.939833	0.998313
336.332606	0.997403
336.725315	0.997423
337.117960	0.998539
337.510540	0.997683
337.903056	0.998749
338.295508	1.000516
338.687896	0.998497
339.080220	0.998624
339.472480	0.998739
339.864676	0.998696
340.256807	0.997185
340.648875	0.999759
341.040879	0.998043
341.432818	0.999291
341.824694	0.998446
342.216506	0.999567
342.608253	0.998309
342.999937	0.998185
343.391557	0.998258
343.783113	0.999491
344.174605	0.997680
344.566033	0.997993
344.957397	0.998711
345.348697	0.998880
345.739934	0.997896
346.131106	0.998243
346.522215	0.998733
346.913260	0.998378
347.304241	0.997184
347.695159	0.999714
348.086012	0.998579
348.476802	0.999173
348.867528	0.996889
349.258191	0.998865
349.648789	0.998617
350.039324	0.998515
350.429796	0.997556
350.820203	0.997081
351.210548	0.997733
351.600828	0.998278
351.991045	0.998125
352.381198	0.998285
352.771288	0.997041
353.161314	0.998402
353.551276	0.996929
353.941175	0.997879
354.331010	0.998485
354.720782	0.997674
355.110490	0.997508
355.500135	0.998909
355.889717	0.996090
356.279235	0.996808
356.668689	0.998672
357.058080	0.997869
357.447408	0.996698
357.836672	0.997672
358.225873	0.996628
358.615010	0.997710
359.004084	0.996087
359.393095	0.998143
359.782043	0.997238
360.170927	0.997576
360.559748	0.998080
360.948505	0.996493
361.337199	0.996212
361.725830	0.997812
362.114398	0.997184
362.502903	0.996837
362.891344	0.995405
363.279722	0.996358
363.668037	0.995996
364.056289	0.997067
364.444478	0.997542
364.832603	0.995994
365.220665	0.997104
365.608665	0.996757
365.996601	0.995742
366.384474	0.995626
366.772284	0.996510
367.160031	0.995420
367.547715	0.995843
367.935336	0.994288
368.322893	0.994020
368.710388	0.992609
369.097820	0.991650
369.485189	0.988050
369.872495	0.986570
370.259738	0.984096
370.646918	0.981781
371.034035	0.979099
371.421090	0.976130
371.808081	0.970260
372.195010	0.968552
372.581875	0.963124
372.968678	0.958999
373.355418	0.956012
373.742096	0.947883
374.128710	0.943998
374.515262	0.939348
374.901751	0.932348
375.288177	0.928898
375.674540	0.921451
376.060841	0.915842
376.447079	0.909244
376.833254	0.901929
377.219367	0.897336
377.605417	0.885439
377.991404	0.882985
378.377329	0.876144
378.763191	0.870103
379.148991	0.860993
379.534727	0.853056
379.920402	0.845116
380.306013	0.840945
380.691563	0.828951
381.077049	0.821747
381.462474	0.818251
381.847835	0.806840
382.233134	0.801779
382.618371	0.802589
383.003545	0.784782
383.388657	0.782431
383.773706	0.774610
384.158693	0.771367
384.543618	0.766014
384.928480	0.757419
385.313280	0.747154
385.698017	0.746797
386.082692	0.735439
386.467305	0.733778
386.851856	0.728183
387.236344	0.724116
387.620770	0.716699
388.005133	0.711348
388.389435	0.705432
388.773674	0.703214
389.157851	0.695092
389.541965	0.692695
389.926018	0.699394
390.310008	0.686166
390.693936	0.683627
391.077802	0.674951
391.461606	0.677093
391.845348	0.666089
392.229027	0.665578
392.612645	0.663362
392.996200	0.650371
393.379694	0.642824
393.763125	0.633531
394.146494	0.638734
394.529801	0.629185
394.913047	0.621095
395.296230	0.627156
395.679351	0.618198
396.062410	0.615066
396.445408	0.617908
396.828343	0.613495
397.211217	0.608061
397.594028	0.620886
397.976778	0.610552
398.359466	0.607671
398.742092	0.602263
399.124656	0.615283
399.507158	0.602882
399.889598	0.599752
400.271977	0.590847
400.654294	0.595122
401.036549	0.594027
401.418742	0.598426
401.800874	0.583884
402.182944	0.581178
402.564952	0.572898
402.946898	0.574388
403.328783	0.575592
403.710606	0.586729
404.092367	0.561590
404.474067	0.566824
404.855705	0.565500
405.237282	0.574862
405.618797	0.559843
406.000250	0.556695
406.381642	0.546108
406.762972	0.551815
407.144240	0.550199
407.525447	0.549844
407.906593	0.543306
408.287677	0.538728
408.668700	0.546296
409.049661	0.541049
409.430560	0.535923
409.811399	0.544136
410.192176	0.526166
410.572891	0.533220
410.953545	0.520942
411.334138	0.535028
411.714669	0.527631
412.095139	0.538971
412.475547	0.523003
412.855894	0.525688
413.236180	0.523925
413.616405	0.529659
413.996568	0.519844
414.376670	0.527137
414.756711	0.531841
415.136691	0.528064
415.516609	0.518917
415.896466	0.515990
416.276262	0.511779
416.655997	0.513728
417.035670	0.495505
417.415283	0.487388
417.794834	0.491306
418.174324	0.496645
418.553753	0.505918
418.933121	0.488187
419.312428	0.482580
419.691674	0.487813
420.070859	0.476827
420.449983	0.484188
420.829045	0.473209
421.208047	0.482508
421.586988	0.475810
421.965867	0.474364
422.344686	0.463199
422.723444	0.475748
423.102141	0.492404
423.480777	0.465104
423.859352	0.486073
424.237866	0.463330
424.616319	0.464202
424.994712	0.454969
425.373044	0.465872
425.751314	0.453249
426.129524	0.470516
426.507673	0.453815
426.885762	0.447083
427.263789	0.452508
427.641756	0.462312
428.019662	0.452788
428.397508	0.451875
428.775292	0.456320
429.153016	0.448088
429.530679	0.454326
429.908282	0.447938
430.285824	0.457588
430.663305	0.436064
431.040726	0.457783
431.418086	0.456935
431.795385	0.448785
432.172624	0.448320
432.549802	0.447738
432.926920	0.447532
433.303977	0.446622
433.680974	0.444049
434.057910	0.442708
434.434786	0.441528
434.811601	0.444615
435.188355	0.426561
435.565050	0.436178
435.941683	0.437380
436.318257	0.421173
436.694770	0.422328
437.071222	0.420669
437.447614	0.425039
437.823946	0.431370
438.200218	0.420611
438.576429	0.430650
438.952580	0.423187
439.328670	0.419971
439.704700	0.426228
440.080670	0.427790
440.456580	0.408888
440.832429	0.417424
441.208218	0.427806
441.583947	0.416101
441.959616	0.416470
442.335224	0.421723
442.710773	0.412511
443.086261	0.410236
443.461689	0.424681
443.837057	0.414290
444.212365	0.404489
444.587612	0.411386
444.962800	0.401432
445.337927	0.403046
445.712995	0.429369
446.088002	0.390949
446.462949	0.401191
446.837837	0.406340
447.212664	0.394385
447.587431	0.386266
447.962139	0.356927
448.336786	0.315648
448.711374	0.326399
449.085901	0.370570
449.460369	0.374976
449.834776	0.378663
450.209124	0.357894
450.583412	0.350313
450.957640	0.343401
451.331808	0.355163
451.705917	0.378005
452.079965	0.382719
452.453954	0.371107
452.827883	0.377890
453.201752	0.372404
453.575562	0.383636
453.949311	0.372505
454.323001	0.378374
454.696632	0.374565
455.070202	0.367065
455.443713	0.358989
455.817164	0.353158
456.190556	0.349410
456.563888	0.345974
456.937160	0.343792
457.310373	0.361513
457.683526	0.359800
458.056619	0.365751
458.429653	0.366273
458.802628	0.369772
459.175542	0.363716
459.548398	0.346472
459.921194	0.339035
460.293930	0.338835
460.666607	0.316901
461.039224	0.304590
461.411782	0.300763
461.784280	0.299672
462.156719	0.303743
462.529099	0.308401
462.901419	0.324245
463.273680	0.328488
463.645882	0.328512
464.018024	0.334267
464.390106	0.326561
464.762130	0.311164
465.134094	0.294705
465.505999	0.263230
465.877845	0.233460
466.249631	0.220807
466.621358	0.228059
466.993026	0.242127
467.364634	0.248371
467.736184	0.257056
468.107674	0.265999
468.479105	0.264971
468.850477	0.271476
469.221790	0.278679
469.593043	0.288608
469.964238	0.293442
470.335373	0.293041
470.706449	0.291290
471.077467	0.291806
471.448425	0.253948
471.819324	0.229035
472.190164	0.228827
472.560945	0.257766
472.931667	0.279979
473.302330	0.284253
473.672934	0.296182
474.043479	0.284176
474.413965	0.286067
474.784393	0.289443
475.154761	0.284998
475.525070	0.281611
475.895321	0.287536
476.265513	0.281452
476.635645	0.276969
477.005719	0.276703
477.375734	0.273300
477.745691	0.266705
478.115588	0.263189
478.485427	0.256571
478.855207	0.243447
479.224928	0.225636
479.594591	0.214233
479.964194	0.217315
480.333739	0.218575
480.703226	0.220222
481.072653	0.218399
481.442022	0.214202
481.811333	0.210751
482.180584	0.214408
482.549777	0.219634
482.918912	0.222987
483.287988	0.222552
483.657005	0.222447
484.025964	0.228563
484.394864	0.225938
484.763706	0.226686
485.132489	0.231595
485.501213	0.232628
485.869879	0.230873
486.238487	0.233819
486.607036	0.231840
486.975527	0.236594
487.343959	0.232265
487.712333	0.231481
488.080648	0.232763
488.448905	0.231914
488.817104	0.233153
489.185244	0.227847
489.553326	0.224412
489.921350	0.214445
490.289315	0.197059
490.657222	0.191878
491.025070	0.193224
491.392861	0.195174
491.760593	0.200879
492.128267	0.206775
492.495883	0.212324
492.863440	0.218353
493.230939	0.224787
493.598380	0.226264
493.965763	0.228291
494.333088	0.230570
494.700354	0.232315
495.067563	0.231119
495.434713	0.234447
495.801805	0.232250
496.168839	0.233924
496.535815	0.235123
496.902733	0.235203
497.269593	0.236880
497.636395	0.234249
498.003139	0.234640
498.369825	0.237649
498.736453	0.234341
499.103023	0.235661
499.469535	0.235276
499.835989	0.235393
500.202385	0.236254
500.568723	0.239561
500.935003	0.234846
501.301226	0.238977
501.667390	0.233365
502.033497	0.231493
502.399546	0.234295
502.765537	0.236389
503.131470	0.234684
503.497345	0.231320
503.863163	0.239581
504.228923	0.232767
504.594625	0.231162
504.960269	0.236722
505.325856	0.232219
505.691385	0.236584
506.056856	0.233041
506.422270	0.232574
506.787625	0.235164
507.152924	0.232667
507.518164	0.232979
507.883347	0.234649
508.248472	0.236151
508.613540	0.231559
508.978550	0.234224
509.343503	0.234468
509.708398	0.232226
510.073236	0.229945
510.438016	0.229473
510.802738	0.230549
511.167403	0.229602
511.532010	0.231660
511.896561	0.227003
512.261053	0.225730
512.625488	0.227958
512.989866	0.228478
513.354186	0.228741
513.718449	0.230493
514.082655	0.226684
514.446803	0.228864
514.810894	0.226936
515.174927	0.229672
515.538904	0.229063
515.902822	0.226050
516.266684	0.228153
516.630488	0.229471
516.994235	0.228317
517.357925	0.227019
517.721558	0.225297
518.085133	0.225127
518.448651	0.225044
518.812112	0.227503
519.175516	0.226893
519.538863	0.224474
519.902152	0.226489
520.265385	0.223116
520.628560	0.224821
520.991678	0.225418
521.354739	0.224239
521.717743	0.225564
522.080690	0.226052
522.443580	0.223288
522.806413	0.224055
523.169189	0.223827
523.531908	0.222430
523.894569	0.226369
524.257174	0.225871
524.619722	0.223821
524.982213	0.224930
525.344647	0.223737
525.707025	0.224743
526.069345	0.222813
526.431608	0.224675
526.793815	0.222582
527.155964	0.227185
527.518057	0.225849
527.880093	0.226718
528.242072	0.225213
528.603995	0.227287
528.965860	0.229013
529.327669	0.227996
529.689421	0.228833
530.051117	0.229833
530.412755	0.227536
530.774337	0.229953
531.135862	0.230504
531.497331	0.229592
531.858743	0.232614
532.220098	0.229120
532.581396	0.231785
532.942638	0.232314
533.303824	0.233294
533.664953	0.233103
534.026025	0.235055
534.387040	0.232953
534.747999	0.232473
535.108902	0.231877
535.469748	0.236889
535.830537	0.234768
536.191270	0.235083
536.551947	0.234717
536.912567	0.234878
537.273131	0.236351
537.633638	0.236773
537.994089	0.237116
538.354483	0.238224
538.714821	0.235261
539.075103	0.234926
539.435328	0.235819
539.795497	0.239542
540.155609	0.235947
540.515665	0.234360
540.875665	0.239864
541.235609	0.238620
541.595496	0.239007
541.955328	0.235529
542.315102	0.238277
542.674821	0.239257
543.034483	0.239426
543.394090	0.238966
543.753640	0.240984
544.113134	0.236002
544.472571	0.239343
544.831953	0.236399
545.191278	0.240328
545.550548	0.239749
545.909761	0.236944
546.268918	0.237592
546.628019	0.236030
546.987064	0.238753
547.346053	0.240782
547.704986	0.238618
548.063863	0.239018
548.422684	0.239321
548.781449	0.241161
549.140158	0.238987
549.498811	0.241749
549.857408	0.244767
550.215949	0.239546
550.574434	0.242986
550.932864	0.241210
551.291237	0.239717
551.649555	0.241444
552.007817	0.241377
552.366022	0.242200
552.724173	0.242626
553.082267	0.242903
553.440305	0.240296
553.798288	0.244449
554.156215	0.241316
554.514086	0.242319
554.871902	0.245619
555.229661	0.245051
555.587365	0.245697
555.945014	0.248334
556.302606	0.245473
556.660143	0.248253
557.017625	0.244880
557.375050	0.247374
557.732421	0.244717
558.089735	0.246972
558.446994	0.246932
558.804197	0.246496
559.161345	0.246566
559.518437	0.250226
559.875474	0.248780
560.232455	0.248095
560.589381	0.249453
560.946251	0.250228
561.303065	0.247760
561.659825	0.249829
562.016528	0.251749
562.373177	0.254380
562.729770	0.252215
563.086307	0.254303
563.442789	0.252606
563.799216	0.255972
564.155587	0.255314
564.511904	0.256968
564.868164	0.257108
565.224370	0.257271
565.580520	0.259924
565.936615	0.260033
566.292654	0.263427
566.648638	0.260981
567.004567	0.262281
567.360441	0.263348
567.716260	0.265958
568.072023	0.264135
568.427732	0.265649
568.783385	0.268423
569.138982	0.267566
569.494525	0.267693
569.850013	0.270981
570.205445	0.270451
570.560823	0.273337
570.916145	0.276071
571.271412	0.275043
571.626625	0.277269
571.981782	0.278343
572.336884	0.280431
572.691931	0.280430
573.046923	0.283159
573.401860	0.284737
573.756743	0.287172
574.111570	0.287109
574.466342	0.288223
574.821059	0.288529
575.175722	0.292112
575.530330	0.292825
575.884882	0.294055
576.239380	0.297019
576.593823	0.298141
576.948211	0.299147
577.302544	0.302250
577.656823	0.303922
578.011047	0.304709
578.365216	0.306983
578.719330	0.309452
579.073389	0.310924
579.427394	0.313115
579.781344	0.314941
580.135239	0.317632
580.489080	0.318427
580.842866	0.322889
581.196597	0.324209
581.550273	0.323981
581.903895	0.327393
582.257463	0.326328
582.610975	0.331907
582.964434	0.332006
583.317837	0.336321
583.671186	0.338008
584.024481	0.339865
584.377721	0.342967
584.730906	0.345622
585.084037	0.346763
585.437113	0.349742
585.790135	0.350907
586.143103	0.355560
586.496016	0.357664
586.848874	0.357785
587.201679	0.359739
587.554428	0.365127
587.907124	0.366039
588.259765	0.368271
588.612352	0.371098
588.964884	0.375985
589.317362	0.377921
589.669786	0.379747
590.022155	0.379919
590.374470	0.382117
590.726731	0.384864
591.078937	0.391962
591.431090	0.391045
591.783188	0.395848
592.135232	0.399729
592.487222	0.399816
592.839157	0.401337
593.191038	0.405139
593.542866	0.408781
593.894639	0.414178
594.246358	0.414184
594.598022	0.416446
594.949633	0.421142
595.301190	0.423967
595.652692	0.424963
596.004141	0.424670
596.355535	0.432768
596.706876	0.436165
597.058162	0.440313
597.409395	0.440378
597.760573	0.440828
598.111698	0.445554
598.462768	0.448246
598.813785	0.451099
599.164748	0.455186
599.515657	0.457217
599.866511	0.464235
600.217312	0.461323
600.568060	0.468476
600.918753	0.468059
601.269392	0.471325
601.619978	0.476277
601.970510	0.477227
602.320988	0.479539
602.671412	0.480518
603.021783	0.485250
603.372100	0.488535
603.722363	0.491483
604.072572	0.494714
604.422728	0.496237
604.772830	0.501217
605.122878	0.503671
605.472872	0.506130
605.822813	0.507997
606.172701	0.512555
606.522534	0.513126
606.872314	0.515281
607.222041	0.519279
607.571714	0.519883
607.921333	0.523850
608.270899	0.526982
608.620411	0.526499
608.969870	0.532917
609.319276	0.534864
609.668627	0.538157
610.017926	0.539258
610.367171	0.542013
610.716362	0.544727
611.065500	0.548397
611.414585	0.550487
611.763616	0.552736
612.112594	0.556587
612.461518	0.558473
612.810389	0.559638
613.159207	0.564309
613.507971	0.567757
613.856682	0.569524
614.205340	0.572245
614.553945	0.573031
614.902496	0.578818
615.250994	0.580430
615.599439	0.583304
615.947830	0.585948
616.296169	0.590147
616.644454	0.592313
616.992686	0.594846
617.340864	0.597354
617.688990	0.601837
618.037063	0.602185
618.385082	0.606432
618.733048	0.607811
619.080961	0.610922
619.428821	0.613959
619.776628	0.617018
620.124382	0.621635
620.472083	0.624541
620.819731	0.626876
621.167326	0.631907
621.514868	0.633973
621.862357	0.638848
622.209793	0.640940
622.557176	0.645728
622.904506	0.648861
623.251783	0.652299
623.599007	0.656942
623.946179	0.658430
624.293297	0.663768
624.640363	0.667692
624.987376	0.671124
625.334336	0.674037
625.681243	0.679136
626.028097	0.682059
626.374899	0.684542
626.721647	0.688308
627.068343	0.691216
627.414987	0.694717
627.761577	0.697820
628.108115	0.700101
628.454600	0.705237
628.801032	0.707155
629.147412	0.709385
629.493739	0.713774
629.840014	0.716567
630.186236	0.717718
630.532405	0.723589
630.878521	0.723098
631.224585	0.727513
631.570597	0.730291
631.916556	0.733607
632.262462	0.734553
632.608316	0.738535
632.954117	0.740900
633.299866	0.743797
633.645562	0.747062
633.991206	0.751032
634.336797	0.754356
634.682336	0.758153
635.027823	0.761522
635.373257	0.763193
635.718639	0.768054
636.063968	0.768950
636.409245	0.772811
636.754470	0.776897
637.099642	0.780042
637.444762	0.784333
637.789829	0.785980
638.134845	0.788275
638.479808	0.792452
638.824719	0.793395
639.169577	0.797233
639.514383	0.799619
639.859137	0.802516
640.203839	0.803820
640.548489	0.806383
640.893086	0.808401
641.237632	0.811231
641.582125	0.812249
641.926566	0.815933
642.270955	0.816993
642.615292	0.819475
642.959576	0.821346
643.303809	0.823034
643.647990	0.825377
643.992118	0.827300
644.336195	0.828950
644.680219	0.831407
645.024192	0.833288
645.368112	0.832267
645.711981	0.834100
646.055797	0.833784
646.399562	0.834925
646.743274	0.835860
647.086935	0.835064
647.430544	0.837076
647.774101	0.839194
648.117606	0.840817
648.461059	0.842753
648.804460	0.846070
649.147810	0.847580
649.491108	0.850702
649.834354	0.853705
650.177548	0.856775
650.520690	0.859907
650.863781	0.862062
651.206820	0.863983
651.549807	0.865747
651.892742	0.870485
652.235626	0.871121
652.578458	0.873179
652.921238	0.876151
653.263967	0.877061
653.606644	0.878480
653.949269	0.880495
654.291843	0.880954
654.634365	0.883414
654.976836	0.884903
655.319255	0.886548
655.661622	0.888323
656.003938	0.889487
656.346203	0.890363
656.688416	0.893825
657.030577	0.894399
657.372687	0.896236
657.714746	0.897432
658.056753	0.898073
658.398708	0.900071
658.740612	0.902195
659.082465	0.902740
659.424266	0.903370
659.766016	0.903913
660.107715	0.906833
660.449362	0.906425
660.790958	0.907869
661.132503	0.910277
661.473996	0.909777
661.815438	0.911542
662.156829	0.912906
662.498168	0.914663
662.839456	0.914183
663.180693	0.915832
663.521879	0.916553
663.863013	0.917918
664.204097	0.919050
664.545129	0.919132
664.886110	0.920924
665.227040	0.920810
665.567918	0.921905
665.908746	0.922769
666.249522	0.923221
666.590248	0.924164
666.930922	0.925090
667.271545	0.925772
667.612118	0.926728
667.952639	0.928245
668.293109	0.928989
668.633528	0.930075
668.973896	0.931841
669.314213	0.931927
669.654480	0.933504
669.994695	0.934160
670.334859	0.936204
670.674973	0.935825
671.015035	0.937332
671.355047	0.938309
671.695008	0.939092
672.034918	0.939507
672.374777	0.940168
672.714585	0.940992
673.054342	0.942144
673.394049	0.942347
673.733705	0.941954
674.073310	0.944274
674.412864	0.944658
674.752368	0.946023
675.091820	0.946697
675.431223	0.948428
675.770574	0.948777
676.109875	0.949742
676.449125	0.949842
676.788324	0.950809
677.127473	0.952912
677.466571	0.953752
677.805619	0.953907
678.144616	0.955204
678.483562	0.956359
678.822458	0.956903
679.161303	0.956787
679.500098	0.957642
679.838842	0.958293
680.177535	0.959117
680.516179	0.958609
680.854771	0.959800
681.193314	0.959356
681.531805	0.959408
681.870247	0.958421
682.208638	0.957845
682.546978	0.958124
682.885268	0.959320
683.223508	0.959899
683.561697	0.961132
683.899836	0.961707
684.237925	0.960928
684.575963	0.962429
684.913951	0.963457
685.251889	0.963453
685.589776	0.963864
685.927614	0.963906
686.265401	0.963595
686.603137	0.964101
686.940824	0.964256
687.278460	0.964596
687.616046	0.964110
687.953582	0.963562
688.291068	0.964399
688.628504	0.963970
688.965889	0.964290
689.303224	0.964173
689.640510	0.965083
689.977745	0.966196
690.314930	0.966881
690.652065	0.969388
690.989150	0.968992
691.326185	0.970292
691.663170	0.971381
692.000105	0.972301
692.336990	0.972717
692.673825	0.973963
693.010610	0.974367
693.347345	0.975312
693.684030	0.975681
694.020665	0.975786
694.357251	0.976791
694.693786	0.977189
695.030272	0.976730
695.366707	0.976999
695.703093	0.978510
696.039429	0.978123
696.375716	0.978525
696.711952	0.978865
697.048139	0.979657
697.384276	0.979569
697.720363	0.979909
698.056400	0.978215
698.392388	0.978860
698.728326	0.979926
699.064214	0.981500
699.400053	0.980359
699.735842	0.981865
700.071581	0.981709
700.407270	0.981761
700.742910	0.983199
701.078501	0.982393
701.414042	0.983984
701.749533	0.982705
702.084974	0.983008
702.420366	0.984353
702.755709	0.983609
703.091002	0.984962
703.426246	0.984700
703.761440	0.984970
704.096584	0.984140
704.431679	0.983845
704.766725	0.985443
705.101721	0.986283
705.436668	0.986021
705.771565	0.985660
706.106413	0.984208
706.441212	0.986293
706.775961	0.986211
707.110661	0.985930
707.445311	0.986388
707.779913	0.987832
708.114465	0.986535
708.448967	0.986504
708.783421	0.986849
709.117825	0.986367
709.452180	0.986794
709.786485	0.986218
710.120742	0.985593
710.454949	0.985167
710.789107	0.985424
711.123216	0.984122
711.457275	0.984685
711.791286	0.984369
712.125247	0.985818
712.459159	0.984695
712.793023	0.985619
713.126837	0.985721
713.460602	0.984737
713.794318	0.984581
714.127985	0.985319
714.461602	0.986494
714.795171	0.986430
715.128691	0.986805
715.462162	0.987148
715.795584	0.987515
716.128957	0.988419
716.462281	0.988876
716.795556	0.986295
717.128782	0.988799
717.461960	0.988136
717.795088	0.989234
718.128167	0.989029
718.461198	0.989215
718.794180	0.989566
719.127113	0.989454
719.459997	0.988796
719.792833	0.989677
720.125619	0.988404
720.458357	0.989958
720.791046	0.990638
721.123686	0.989756
721.456278	0.990640
721.788821	0.989173
722.121315	0.990673
722.453761	0.990340
722.786158	0.990655
723.118506	0.990748
723.450805	0.989560
723.783056	0.990810
724.115259	0.990059
724.447412	0.990788
724.779518	0.989978
725.111574	0.989704
725.443582	0.990666
725.775542	0.990726
726.107453	0.991140
726.439315	0.991366
726.771129	0.990722
727.102895	0.990989
727.434612	0.991228
727.766281	0.989524
728.097901	0.990144
728.429473	0.990059
728.760996	0.989478
729.092471	0.989311
729.423897	0.990665
729.755276	0.989986
730.086606	0.989820
730.417887	0.990174
730.749120	0.990186
731.080305	0.989530
731.411442	0.988831
731.742530	0.988976
732.073570	0.989275
732.404562	0.988872
732.735506	0.989343
733.066401	0.989571
733.397249	0.989506
733.728048	0.990273
734.058798	0.991120
734.389501	0.991677
734.720156	0.990655
735.050762	0.992339
735.381320	0.991795
735.711831	0.990530
736.042293	0.991693
736.372707	0.991735
736.703073	0.990466
737.033391	0.991810
737.363661	0.992563
737.693883	0.991288
738.024056	0.991075
738.354182	0.992525
738.684260	0.991336
739.014290	0.991689
739.344272	0.991114
739.674207	0.991881
740.004093	0.991460
740.333931	0.990974
740.663722	0.990438
740.993464	0.991399
741.323159	0.990834
741.652806	0.991131
741.982405	0.991045
742.311956	0.991927
742.641460	0.992151
742.970915	0.992389
743.300323	0.990983
743.629683	0.992974
743.958996	0.993340
744.288260	0.990433
744.617477	0.991776
744.946647	0.991436
745.275768	0.992303
745.604842	0.991936
745.933869	0.992462
746.262847	0.993345
746.591778	0.991722
746.920662	0.992959
747.249498	0.993275
747.578286	0.994324
747.907027	0.992825
748.235720	0.992406
748.564365	0.993023
748.892963	0.991740
749.221514	0.993219
749.550017	0.992579
749.878473	0.992163
750.206881	0.993225
750.535242	0.992622
750.863555	0.992017
751.191821	0.991864
751.520039	0.992278
751.848210	0.991827
752.176334	0.992689
752.504411	0.992784
752.832440	0.992150
753.160421	0.992853
753.488356	0.992957
753.816243	0.991919
754.144082	0.992350
754.471875	0.993493
754.799620	0.992977
755.127318	0.993915
755.454969	0.992470
755.782572	0.994071
756.110129	0.992580
756.437638	0.993878
756.765100	0.993423
757.092515	0.993198
757.419882	0.994401
757.747203	0.992651
758.074477	0.995525
758.401703	0.993714
758.728882	0.994456
759.056014	0.992834
759.383099	0.993522
759.710138	0.992244
760.037129	0.991950
760.364073	0.993296
760.690970	0.993261
761.017820	0.992177
761.344623	0.993466
761.671379	0.992763
761.998088	0.992561
762.324751	0.993034
762.651366	0.991856
762.977935	0.990847
763.304456	0.989714
763.630931	0.986608
763.957359	0.986484
764.283740	0.988217
764.610074	0.989212
764.936362	0.989656
765.262602	0.990519
765.588796	0.991732
765.914943	0.991759
766.241044	0.992252
766.567097	0.993800
766.893104	0.993841
767.219064	0.993403
767.544978	0.993084
767.870845	0.994133
768.196665	0.992880
768.522438	0.994525
768.848165	0.993923
769.173846	0.994765
769.499479	0.995903
769.825066	0.994958
770.150607	0.995031
770.476101	0.995538
770.801548	0.995955
771.126949	0.995433
771.452303	0.995080
771.777611	0.994943
772.102872	0.994996
772.428087	0.995169
772.753256	0.995829
773.078378	0.995539
773.403453	0.994826
773.728482	0.996254
774.053465	0.995312
774.378401	0.996605
774.703291	0.996466
775.028135	0.996432
775.352932	0.995370
775.677683	0.996921
776.002388	0.995883
776.327046	0.995644
776.651658	0.997025
776.976224	0.995658
777.300743	0.996391
777.625216	0.995759
777.949643	0.996345
778.274024	0.995703
778.598359	0.995821
778.922647	0.996176
779.246889	0.996360
779.571086	0.995163
779.895236	0.996329
780.219339	0.997533
780.543397	0.995754
780.867409	0.997235
781.191374	0.996379
781.515294	0.996926
781.839167	0.996316
782.162995	0.996219
782.486776	0.995036
782.810511	0.997119
783.134201	0.997429
783.457844	0.997276
783.781441	0.996168
784.104993	0.995130
784.428498	0.996193
784.751958	0.996850
785.075372	0.996237
785.398739	0.995653
785.722061	0.996991
786.045337	0.996106
786.368568	0.995622
786.691752	0.996357
787.014891	0.996280
787.337983	0.994629
787.661030	0.995995
787.984031	0.995769
788.306987	0.995170
788.629897	0.992713
788.952760	0.995017
789.275579	0.995270
789.598351	0.994577
789.921078	0.995304
790.243759	0.995410
790.566395	0.993658
790.888984	0.997165
791.211529	0.996204
791.534027	0.996240
791.856480	0.996319
792.178888	0.996202
792.501249	0.996835
792.823566	0.997957
793.145836	0.996473
793.468062	0.997363
793.790241	0.997076
794.112375	0.995493
794.434464	0.996009
794.756507	0.997138
795.078505	0.996831
795.400457	0.997650
795.722364	0.996149
796.044226	0.995714
796.366042	0.994963
796.687812	0.994799
797.009538	0.995198
797.331218	0.997802
797.652852	0.996400
797.974442	0.995645
798.295986	0.996329
798.617484	0.995198
798.938938	0.996360
799.260346	0.995956
799.581709	0.996004
799.903026	0.996236
800.224299	0.995718
800.545526	0.995928
800.866708	0.996929
801.187845	0.996407
801.508936	0.996949
801.829983	0.996594
802.150984	0.998031
802.471940	0.996869
802.792851	0.997072
803.113717	0.998259
803.434538	0.997600
803.755314	0.997904
804.076045	0.998099
804.396731	0.996745
804.717372	0.995553
805.037967	0.997360
805.358518	0.997270
805.679024	0.996028
805.999485	0.996594
806.319901	0.996557
806.640272	0.998262
806.960598	0.998077
807.280879	0.996066
807.601115	0.997387
807.921306	0.998408
808.241453	0.996706
808.561554	0.996744
808.881611	0.996892
809.201623	0.996530
809.521590	0.996378
809.841513	0.996709
810.161390	0.995736
810.481223	0.995276
810.801011	0.996881
811.120755	0.997406
811.440453	0.995067
811.760107	0.996723
812.079716	0.997071
812.399281	0.997010
812.718801	0.995938
813.038276	0.996786
813.357707	0.996441
813.677093	0.996644
813.996434	0.997745
814.315731	0.998884
814.634983	0.996494
814.954191	0.997607
815.273354	0.995711
815.592473	0.997640
815.911547	0.997581
816.230577	0.996943
816.549562	0.996596
816.868502	0.995296
817.187399	0.997320
817.506250	0.997470
817.825058	0.995012
818.143821	0.996512
818.462539	0.995583
818.781213	0.995245
819.099843	0.995193
819.418429	0.993449
819.736970	0.994518
820.055466	0.992854
820.373919	0.992223
820.692327	0.990558
821.010691	0.988681
821.329011	0.985649
821.647286	0.982562
821.965517	0.977609
822.283704	0.973028
822.601847	0.970571
822.919945	0.971012
823.237999	0.973847
823.556010	0.975840
823.873976	0.977789
824.191897	0.980767
824.509775	0.983763
824.827609	0.985193
825.145398	0.986150
825.463144	0.985330
825.780845	0.987034
826.098502	0.986950
826.416116	0.985927
826.733685	0.981650
827.051210	0.979319
827.368692	0.980693
827.686129	0.982577
828.003522	0.985770
828.320872	0.986950
828.638177	0.988652
828.955439	0.990781
829.272656	0.992122
829.589830	0.991856
829.906960	0.994202
830.224046	0.994142
830.541088	0.994152
830.858086	0.994626
831.175041	0.995689
831.491952	0.994907
831.808819	0.993851
832.125642	0.995006
832.442421	0.994663
832.759157	0.994794
833.075849	0.991632
833.392497	0.988624
833.709101	0.987119
834.025662	0.987132
834.342179	0.987555
834.658653	0.989544
834.975083	0.990580
835.291469	0.991854
835.607811	0.993608
835.924110	0.994441
836.240366	0.996123
836.556578	0.994267
836.872746	0.996277
837.188871	0.996481
837.504952	0.996509
837.820990	0.997535
838.136984	0.996580
838.452935	0.996883
838.768842	0.996371
839.084706	0.996943
839.400526	0.996129
839.716303	0.992997
840.032037	0.993359
840.347727	0.992217
840.663373	0.993514
840.978977	0.994914
841.294537	0.995139
841.610054	0.995839
841.925527	0.996085
842.240957	0.997577
842.556344	0.996817
842.871687	0.997465
843.186987	0.997870
843.502244	0.998608
843.817458	0.998056
844.132629	0.998566
844.447756	0.998818
844.762840	0.997739
845.077881	0.999201
845.392879	0.997608
845.707833	0.997869
846.022745	0.998739
846.337613	0.998084
846.652438	0.997953
846.967221	0.999238
847.281960	0.998986
847.596656	0.999808
847.911309	0.998676
848.225919	0.997500
848.540485	0.999452
848.855009	1.000462
849.169490	0.998495
849.483928	0.999333
849.798323	0.998229
850.112675	0.999307
850.426984	0.998543
850.741251	0.998270
851.055474	0.997683
851.369654	0.999497
851.683792	0.998310
851.997887	0.997884
852.311938	0.999965
852.625947	0.999308
852.939914	0.998182
853.253837	1.000818
853.567718	0.999679
853.881555	0.998731
854.195350	0.999146
854.509103	0.999118
854.822812	0.999516
855.136479	0.999494
855.450103	0.999374
855.763685	0.998589
856.077224	0.998837
856.390720	0.998549
856.704173	0.998776
857.017584	0.999757
857.330953	0.999298
857.644278	0.998936
857.957561	0.999375
858.270802	0.999159
858.584000	0.998642
858.897155	0.998843
859.210268	0.999075
859.523339	0.999263
859.836367	0.998371
860.149352	0.997733
860.462295	0.999156
860.775195	0.997708
861.088054	0.997838
861.400869	0.999146
861.713642	0.997449
862.026373	0.999283
862.339062	0.998885
862.651708	0.998750
862.964312	0.999671
863.276873	0.998803
863.589392	0.999239
863.901869	0.998730
864.214303	0.999136
864.526696	0.998804
864.839045	0.999180
865.151353	0.998437
865.463619	0.997106
865.775842	0.998715
866.088023	0.999332
866.400162	0.998397
866.712258	0.999511
867.024313	0.998315
867.336325	0.999405
867.648296	0.998747
867.960224	0.999283
868.272110	0.999101
868.583954	0.998602
868.895755	0.999424
869.207515	0.998070
869.519233	0.998857
869.830909	0.996929
870.142542	0.997343
870.454134	0.997785
870.765684	0.998054
871.077191	0.999550
871.388657	0.997414
871.700081	0.998785
872.011463	0.998439
872.322803	0.997280
872.634101	0.996124
872.945357	0.997594
873.256571	0.996858
873.567744	0.998470
873.878874	0.997123
874.189963	0.996960
874.501010	0.999571
874.812015	0.997789
875.122979	0.997380
875.433900	0.996809
875.744780	0.997221
876.055618	0.996265
876.366415	0.997093
876.677169	0.997905
876.987882	0.997926
877.298554	0.998144
877.609183	0.997340
877.919771	0.996881
878.230317	0.996616
878.540822	0.995973
878.851285	0.995685
879.161707	0.995644
879.472087	0.995848
879.782425	0.992562
880.092722	0.991099
880.402977	0.987297
880.713191	0.982920
881.023363	0.977510
881.333494	0.974186
881.643583	0.974511
881.953631	0.974278
882.263637	0.974478
882.573602	0.975788
882.883526	0.978670
883.193408	0.981789
883.503248	0.981455
883.813048	0.984446
884.122806	0.987033
884.432522	0.988139
884.742197	0.990077
885.051831	0.990888
885.361424	0.992588
885.670975	0.993221
885.980485	0.993202
886.289954	0.993781
886.599382	0.994013
886.908768	0.995523
887.218113	0.993959
887.527417	0.995736
887.836680	0.995597
888.145901	0.996310
888.455082	0.998258
888.764221	0.997209
889.073319	0.997069
889.382376	0.997418
889.691392	0.994766
890.000366	0.997859
890.309300	0.996802
890.618193	0.996789
890.927044	0.996443
891.235855	0.996485
891.544625	0.996772
891.853353	0.996829
892.162041	0.995722
892.470687	0.997772
892.779293	0.995308
893.087858	0.994494
893.396381	0.993922
893.704864	0.992828
894.013306	0.991664
894.321707	0.989757
894.630068	0.986715
894.938387	0.986298
895.246665	0.987608
895.554903	0.987610
895.863100	0.989772
896.171256	0.991114
896.479371	0.992288
896.787446	0.992138
897.095480	0.993125
897.403473	0.993996
897.711425	0.995172
898.019336	0.995579
898.327207	0.995811
898.635038	0.995065
898.942827	0.995174
899.250576	0.995650
899.558284	0.996920
899.865952	0.995417
900.173579	0.996788
900.481165	0.997488
900.788711	0.996126
901.096216	0.996539
901.403681	0.996697
901.711105	0.997132
902.018489	0.996409
902.325832	0.997650
902.633135	0.997010
902.940397	0.997422
903.247619	0.996854
903.554800	0.994583
903.861941	0.989750
904.169041	0.986073
904.476101	0.983952
904.783121	0.982809
905.090100	0.985285
905.397039	0.987375
905.703938	0.990073
906.010796	0.991511
906.317614	0.992120
906.624391	0.994679
906.931129	0.995583
907.237826	0.995582
907.544483	0.996116
907.851099	0.997466
908.157675	0.995403
908.464211	0.998747
908.770707	0.996546
909.077163	0.998041
909.383578	0.998835
909.689954	0.996883
909.996289	0.998475
910.302584	0.998124
910.608839	0.999236
910.915054	0.998497
911.221229	0.999461
911.527363	0.997991
911.833458	0.997496
912.139513	0.998968
912.445527	0.998893
912.751502	0.997861
913.057436	0.996666
913.363331	0.997749
913.669186	0.998512
913.975000	0.997333
914.280775	0.996258
914.586510	0.995029
914.892205	0.993581
915.197859	0.992329
915.503475	0.990075
915.809050	0.986713
916.114585	0.984232
916.420081	0.983489
916.725536	0.984671
917.030952	0.985152
917.336328	0.986630
917.641665	0.987616
917.946961	0.989033
918.252218	0.990874
918.557435	0.991992
918.862612	0.993354
919.167750	0.993450
919.472848	0.995242
919.777906	0.994930
920.082925	0.996738
920.387904	0.996840
920.692843	0.996914
920.997743	0.996201
921.302603	0.998541
921.607423	0.996723
921.912204	0.997761
922.216946	0.998831
922.521647	0.997696
922.826310	0.996935
923.130932	0.997868
923.435516	0.997956
923.740059	0.999185
924.044564	0.998571
924.349028	0.999018
924.653454	0.999683
924.957840	0.998842
925.262186	0.998846
925.566493	0.998482
925.870761	0.998122
926.174989	0.998211
926.479178	0.999321
926.783328	0.999619
927.087438	1.000151
927.391509	0.998672
927.695541	0.999105
927.999533	0.999993
928.303486	0.999084
928.607400	0.999888
928.911275	0.999648
929.215110	1.000382
929.518906	0.999554
929.822663	0.999805
930.126381	1.000224
930.430060	0.999594
930.733699	1.000145
931.037299	1.000390
931.340861	1.001857
931.644383	0.998925
931.947866	1.001453
932.251309	1.000319
932.554714	0.999440
932.858080	0.999256
933.161407	0.998863
933.464694	0.999535
933.767943	0.999763
934.071153	0.999844
934.374323	0.999885
934.677455	0.999176
934.980548	0.998649
935.283602	1.000572
935.586617	0.998989
935.889593	1.000762
936.192530	1.000316
936.495428	0.998870
936.798287	0.999248
937.101108	1.000274
937.403890	0.999459
937.706632	1.001385
938.009336	0.998889
938.312002	0.999054
938.614628	0.999317
938.917216	0.998294
939.219765	0.999603
939.522275	0.998164
939.824747	0.997836
940.127179	0.999272
940.429573	0.998705
940.731929	0.998280
941.034246	0.998340
941.336524	0.999005
941.638763	0.998558
941.940964	0.997695
942.243126	0.999086
942.545250	0.999428
942.847335	0.999848
943.149381	1.000168
943.451389	0.999122
943.753359	0.999714
944.055290	1.000606
944.357182	0.999284
944.659036	0.999177
944.960851	0.999872
945.262628	0.999887
945.564367	0.998976
945.866067	0.999857
946.167729	0.999951
946.469352	0.999768
946.770937	0.998580
947.072484	1.001150
947.373992	0.999630
947.675462	0.999393
947.976893	0.998305
948.278286	1.001193
948.579641	1.000184
948.880958	0.999907
949.182236	0.999401
949.483476	1.000504
949.784678	1.000237
950.085841	0.998789
950.386967	0.999269
950.688054	0.999867
950.989103	0.998949
951.290114	0.998099
951.591087	1.000818
951.892021	0.999402
952.192917	0.999531
952.493776	0.999765
952.794596	0.999783
953.095378	0.999851
953.396122	0.999227
953.696828	0.999472
953.997496	0.999972
954.298126	0.999527
954.598718	1.000229
954.899272	0.999031
955.199788	0.999134
955.500266	1.000267
955.800706	0.999547
956.101108	0.999814
956.401472	1.001804
956.701798	0.999964
957.002087	0.999882
957.302337	0.998979
957.602550	1.000781
957.902724	0.999653
958.202861	1.000124
958.502960	1.000355
958.803022	1.001610
959.103045	1.000852
959.403031	1.001338
959.702979	1.001378
960.002889	1.000888
960.302762	1.000301
960.602596	1.001702
960.902393	1.000738
961.202153	1.000242
961.501875	1.002076
961.801559	1.001236
962.101205	1.000441
962.400814	1.001753
962.700385	1.001393
962.999918	1.001126
963.299414	0.998720
963.598873	1.001887
963.898293	1.000724
964.197677	1.002037
964.497022	1.001153
964.796331	1.001053
965.095601	1.001102
965.394835	1.000581
965.694030	1.001842
965.993189	1.000071
966.292309	1.001703
966.591393	1.000006
966.890439	1.001339
967.189447	1.000610
967.488419	1.001252
967.787353	1.000704
968.086249	1.001091
968.385108	1.001581
968.683930	1.002100
968.982714	1.001047
969.281462	1.000601
969.580172	1.001192
969.878844	1.001877
970.177480	1.001587
970.476078	1.001745
970.774639	1.001617
971.073162	1.001088
971.371649	1.000995
971.670098	1.000579
971.968510	1.000769
972.266885	1.000131
972.565223	1.000913
972.863524	1.000393
973.161788	1.000272
973.460014	1.002170
973.758204	1.001299
974.056356	1.000949
974.354471	1.001907
974.652550	1.001809
974.950591	1.000689
975.248595	0.999989
975.546563	1.001654
975.844493	1.001768
976.142386	1.001255
976.440243	1.001129
976.738062	1.001246
977.035845	1.000924
977.333590	1.001372
977.631299	0.999622
977.928971	1.000930
978.226606	1.000940
978.524204	1.000054
978.821765	1.002069
979.119290	1.002109
979.416777	1.000217
979.714228	1.000513
980.011642	1.001616
980.309020	1.000928
980.606360	1.000825
980.903664	1.000172
981.200931	1.000112
981.498162	1.001815
981.795356	1.001771
982.092513	1.000703
982.389633	1.002342
982.686717	0.999533
982.983764	0.999277
983.280775	1.000637
983.577749	1.001304
983.874686	0.999422
984.171587	0.999950
984.468451	1.000801
984.765279	1.002058
985.062070	1.001665
985.358824	0.999723
985.655543	1.000564
985.952224	1.001578
986.248869	1.001610
986.545478	1.002751
986.842050	1.001039
987.138586	1.000925
987.435086	1.001658
987.731549	1.002001
988.027975	1.002926
988.324366	1.001028
988.620719	1.002814
988.917037	1.001744
989.213318	1.002403
989.509563	1.001318
989.805772	1.001937
990.101944	1.003354
990.398080	1.001274
990.694180	1.002998
990.990244	1.000585
991.286271	1.000804
991.582262	1.002648
991.878217	1.001407
992.174136	1.001521
992.470019	1.001552
992.765865	1.002975
993.061676	1.001544
993.357450	1.002194
993.653188	1.002029
993.948890	1.001983
994.244556	1.001899
994.540186	1.001762
994.835780	1.002414
995.131337	1.002192
995.426859	1.001250
995.722345	1.001891
996.017795	1.001799
996.313208	1.001185
996.608586	1.000952
996.903928	1.002460
997.199234	1.001848
997.494504	1.001985
997.789738	1.000014
998.084936	1.001716
998.380099	1.001012
998.675225	1.002991
998.970316	1.002281
999.265371	1.001339
999.560390	1.001800
999.855373	1.001098
1000.150320	1.003032
1000.445232	1.001349
1000.740108	1.001244
1001.034948	1.001071
1001.329752	1.002729
1001.624521	1.001733
1001.919254	1.000635
1002.213951	1.002924
1002.508613	1.000076
1002.803239	1.001518
1003.097829	1.001439
1003.392384	1.002271
1003.686903	1.002415
1003.981386	1.001322
1004.275834	1.004291
1004.570246	1.001138
1004.864623	1.001811
1005.158964	1.003287
1005.453270	1.001954
1005.747540	1.001449
1006.041775	1.002005
1006.335974	1.002433
1006.630138	1.001639
1006.924266	1.000463
1007.218359	1.000290
1007.512416	1.002797
1007.806438	1.002297
1008.100425	1.001528
1008.394376	1.002701
1008.688292	1.001066
1008.982172	1.000792
1009.276017	1.002675
1009.569827	1.002955
1009.863602	1.001057
1010.157341	1.001871
1010.451045	1.001141
1010.744714	1.003139
1011.038347	1.002819
1011.331945	1.000552
1011.625508	1.001298
1011.919036	1.001919
1012.212528	1.003404
1012.505986	1.001095
1012.799408	1.001230
1013.092795	1.002554
1013.386147	1.001492
1013.679464	1.002727
1013.972745	1.001176
1014.265992	1.001663
1014.559204	1.001561
1014.852380	1.002587
1015.145521	1.001767
1015.438628	1.002459
1015.731699	1.001662
1016.024736	1.002017
1016.317737	1.002103
1016.610703	1.001887
1016.903635	1.002102
1017.196531	1.001689
1017.489393	1.000845
1017.782219	1.000630
1018.075011	1.001728
1018.367768	1.001496
1018.660490	1.003300
1018.953177	1.003300
1019.245829	1.003300
