Dividing Wavelength (nm)	Counts (n)	Blue Motor Position (mm): 5.400000	Red Motor Position (mm): 0.000000	
326.493990	1.004773
326.888308	1.004773
327.282561	1.004773
327.676750	1.005765
328.070874	1.005976
328.464933	1.006038
328.858929	1.006379
329.252859	1.005567
329.646726	1.004920
330.040528	1.006306
330.434265	1.006280
330.827938	1.005274
331.221547	1.005291
331.615091	1.005442
332.008571	1.005491
332.401986	1.005432
332.795338	1.004195
333.188625	1.004830
333.581847	1.005146
333.975006	1.006018
334.368100	1.004960
334.761129	1.005336
335.154095	1.006040
335.546996	1.003233
335.939833	0.997175
336.332606	0.999106
336.725315	0.998262
337.117960	0.999388
337.510540	0.998214
337.903056	0.998282
338.295508	0.999740
338.687896	0.999137
339.080220	0.999174
339.472480	0.998725
339.864676	0.997571
340.256807	0.997739
340.648875	0.999387
341.040879	0.998372
341.432818	0.999406
341.824694	0.997373
342.216506	0.999432
342.608253	0.999172
342.999937	0.997976
343.391557	0.998352
343.783113	0.999715
344.174605	0.998266
344.566033	0.997414
344.957397	0.998543
345.348697	0.998074
345.739934	0.998047
346.131106	0.997698
346.522215	0.997179
346.913260	0.998665
347.304241	0.998690
347.695159	0.999045
348.086012	0.998295
348.476802	0.998474
348.867528	0.997860
349.258191	0.998370
349.648789	0.997546
350.039324	0.997570
350.429796	0.998710
350.820203	0.997603
351.210548	0.998905
351.600828	0.997293
351.991045	0.996705
352.381198	0.998950
352.771288	0.998060
353.161314	0.998114
353.551276	0.997174
353.941175	0.996247
354.331010	0.998906
354.720782	0.997632
355.110490	0.997090
355.500135	0.998399
355.889717	0.996692
356.279235	0.996700
356.668689	0.997896
357.058080	0.997785
357.447408	0.996487
357.836672	0.996345
358.225873	0.997659
358.615010	0.997154
359.004084	0.996355
359.393095	0.997707
359.782043	0.997024
360.170927	0.997912
360.559748	0.996590
360.948505	0.996640
361.337199	0.997331
361.725830	0.997699
362.114398	0.996565
362.502903	0.996590
362.891344	0.996063
363.279722	0.995993
363.668037	0.998176
364.056289	0.996023
364.444478	0.997347
364.832603	0.996078
365.220665	0.996524
365.608665	0.995502
365.996601	0.995463
366.384474	0.994717
366.772284	0.995094
367.160031	0.994430
367.547715	0.995831
367.935336	0.994962
368.322893	0.993048
368.710388	0.991892
369.097820	0.990374
369.485189	0.988077
369.872495	0.985373
370.259738	0.983671
370.646918	0.981246
371.034035	0.978736
371.421090	0.975666
371.808081	0.971036
372.195010	0.969209
372.581875	0.963928
372.968678	0.958866
373.355418	0.954877
373.742096	0.947940
374.128710	0.942838
374.515262	0.939528
374.901751	0.932813
375.288177	0.928749
375.674540	0.921600
376.060841	0.915022
376.447079	0.908893
376.833254	0.901899
377.219367	0.896704
377.605417	0.886018
377.991404	0.882472
378.377329	0.875831
378.763191	0.869046
379.148991	0.860683
379.534727	0.853669
379.920402	0.845013
380.306013	0.841224
380.691563	0.828650
381.077049	0.821459
381.462474	0.818201
381.847835	0.807060
382.233134	0.801600
382.618371	0.802032
383.003545	0.784844
383.388657	0.782526
383.773706	0.774742
384.158693	0.771432
384.543618	0.765343
384.928480	0.758524
385.313280	0.746265
385.698017	0.745748
386.082692	0.734990
386.467305	0.733322
386.851856	0.728064
387.236344	0.722669
387.620770	0.717301
388.005133	0.711519
388.389435	0.705739
388.773674	0.703322
389.157851	0.695815
389.541965	0.693038
389.926018	0.699202
390.310008	0.685472
390.693936	0.682895
391.077802	0.675839
391.461606	0.676492
391.845348	0.665254
392.229027	0.665220
392.612645	0.663610
392.996200	0.650549
393.379694	0.642994
393.763125	0.634472
394.146494	0.638320
394.529801	0.629034
394.913047	0.621219
395.296230	0.626758
395.679351	0.618421
396.062410	0.615205
396.445408	0.617779
396.828343	0.613129
397.211217	0.607718
397.594028	0.620113
397.976778	0.610648
398.359466	0.607401
398.742092	0.602317
399.124656	0.614983
399.507158	0.602672
399.889598	0.599848
400.271977	0.591039
400.654294	0.594900
401.036549	0.593646
401.418742	0.598270
401.800874	0.583755
402.182944	0.580852
402.564952	0.572942
402.946898	0.574740
403.328783	0.575472
403.710606	0.586745
404.092367	0.560992
404.474067	0.566977
404.855705	0.565246
405.237282	0.574337
405.618797	0.560306
406.000250	0.556771
406.381642	0.546143
406.762972	0.550531
407.144240	0.549834
407.525447	0.549807
407.906593	0.542720
408.287677	0.538144
408.668700	0.546335
409.049661	0.540454
409.430560	0.535463
409.811399	0.544717
410.192176	0.526362
410.572891	0.533336
410.953545	0.521006
411.334138	0.535072
411.714669	0.526725
412.095139	0.539633
412.475547	0.523445
412.855894	0.525538
413.236180	0.524289
413.616405	0.529444
413.996568	0.520279
414.376670	0.526487
414.756711	0.531232
415.136691	0.528057
415.516609	0.519235
415.896466	0.515648
416.276262	0.511937
416.655997	0.513385
417.035670	0.494863
417.415283	0.486518
417.794834	0.491747
418.174324	0.496980
418.553753	0.506140
418.933121	0.488122
419.312428	0.482497
419.691674	0.488266
420.070859	0.476437
420.449983	0.484080
420.829045	0.473276
421.208047	0.482627
421.586988	0.475178
421.965867	0.474167
422.344686	0.462944
422.723444	0.476325
423.102141	0.492749
423.480777	0.465287
423.859352	0.486448
424.237866	0.463519
424.616319	0.464461
424.994712	0.455276
425.373044	0.465247
425.751314	0.453460
426.129524	0.470513
426.507673	0.453519
426.885762	0.447097
427.263789	0.453008
427.641756	0.462695
428.019662	0.452781
428.397508	0.451923
428.775292	0.455895
429.153016	0.448243
429.530679	0.453894
429.908282	0.447447
430.285824	0.457458
430.663305	0.436127
431.040726	0.456786
431.418086	0.456792
431.795385	0.449069
432.172624	0.448014
432.549802	0.448284
432.926920	0.447410
433.303977	0.446675
433.680974	0.443603
434.057910	0.442144
434.434786	0.441411
434.811601	0.444188
435.188355	0.427205
435.565050	0.435653
435.941683	0.437226
436.318257	0.421297
436.694770	0.422084
437.071222	0.420348
437.447614	0.424722
437.823946	0.431269
438.200218	0.420575
438.576429	0.429852
438.952580	0.422943
439.328670	0.419822
439.704700	0.426442
440.080670	0.427616
440.456580	0.408847
440.832429	0.417380
441.208218	0.427391
441.583947	0.417132
441.959616	0.416407
442.335224	0.421873
442.710773	0.412643
443.086261	0.410374
443.461689	0.424827
443.837057	0.413962
444.212365	0.404123
444.587612	0.411239
444.962800	0.401284
445.337927	0.402451
445.712995	0.429204
446.088002	0.391061
446.462949	0.400978
446.837837	0.405928
447.212664	0.394831
447.587431	0.386530
447.962139	0.356677
448.336786	0.316195
448.711374	0.326446
449.085901	0.370836
449.460369	0.375120
449.834776	0.378498
450.209124	0.357782
450.583412	0.350425
450.957640	0.343235
451.331808	0.354825
451.705917	0.377886
452.079965	0.382785
452.453954	0.370642
452.827883	0.377723
453.201752	0.372582
453.575562	0.383765
453.949311	0.372533
454.323001	0.378302
454.696632	0.374619
455.070202	0.366844
455.443713	0.358892
455.817164	0.353714
456.190556	0.349269
456.563888	0.346660
456.937160	0.343504
457.310373	0.360727
457.683526	0.360021
458.056619	0.365441
458.429653	0.365956
458.802628	0.369506
459.175542	0.364451
459.548398	0.345826
459.921194	0.339219
460.293930	0.339067
460.666607	0.316501
461.039224	0.305009
461.411782	0.300252
461.784280	0.299569
462.156719	0.303757
462.529099	0.308101
462.901419	0.324144
463.273680	0.328857
463.645882	0.328152
464.018024	0.333984
464.390106	0.327041
464.762130	0.311316
465.134094	0.294248
465.505999	0.263231
465.877845	0.233526
466.249631	0.220434
466.621358	0.228117
466.993026	0.242052
467.364634	0.248276
467.736184	0.256880
468.107674	0.265679
468.479105	0.264796
468.850477	0.271869
469.221790	0.278612
469.593043	0.288902
469.964238	0.293345
470.335373	0.292854
470.706449	0.291052
471.077467	0.291519
471.448425	0.253835
471.819324	0.229050
472.190164	0.228726
472.560945	0.257547
472.931667	0.280211
473.302330	0.283962
473.672934	0.295872
474.043479	0.283789
474.413965	0.286212
474.784393	0.289329
475.154761	0.284519
475.525070	0.281496
475.895321	0.287056
476.265513	0.281534
476.635645	0.276756
477.005719	0.276282
477.375734	0.273079
477.745691	0.266276
478.115588	0.263035
478.485427	0.256224
478.855207	0.243169
479.224928	0.225484
479.594591	0.213696
479.964194	0.217178
480.333739	0.218387
480.703226	0.219806
481.072653	0.218285
481.442022	0.213890
481.811333	0.210290
482.180584	0.214084
482.549777	0.219514
482.918912	0.222415
483.287988	0.222069
483.657005	0.221864
484.025964	0.228216
484.394864	0.225644
484.763706	0.226362
485.132489	0.231231
485.501213	0.232036
485.869879	0.230558
486.238487	0.233646
486.607036	0.231549
486.975527	0.236011
487.343959	0.232063
487.712333	0.231250
488.080648	0.232722
488.448905	0.231799
488.817104	0.232980
489.185244	0.227345
489.553326	0.224195
489.921350	0.214176
490.289315	0.196636
490.657222	0.191259
491.025070	0.192958
491.392861	0.194917
491.760593	0.200560
492.128267	0.206310
492.495883	0.211762
492.863440	0.218141
493.230939	0.224569
493.598380	0.226171
493.965763	0.228275
494.333088	0.230221
494.700354	0.231708
495.067563	0.230793
495.434713	0.234282
495.801805	0.231998
496.168839	0.233566
496.535815	0.234978
496.902733	0.234921
497.269593	0.236431
497.636395	0.234040
498.003139	0.234271
498.369825	0.237309
498.736453	0.234039
499.103023	0.235487
499.469535	0.235072
499.835989	0.234795
500.202385	0.235650
500.568723	0.239346
500.935003	0.234471
501.301226	0.238510
501.667390	0.232751
502.033497	0.231096
502.399546	0.234072
502.765537	0.235949
503.131470	0.234485
503.497345	0.230501
503.863163	0.239355
504.228923	0.232075
504.594625	0.231034
504.960269	0.236230
505.325856	0.231635
505.691385	0.235922
506.056856	0.232815
506.422270	0.232207
506.787625	0.234831
507.152924	0.232096
507.518164	0.232462
507.883347	0.234385
508.248472	0.235952
508.613540	0.230898
508.978550	0.233024
509.343503	0.233969
509.708398	0.231686
510.073236	0.229173
510.438016	0.228734
510.802738	0.229789
511.167403	0.228719
511.532010	0.231002
511.896561	0.226370
512.261053	0.224910
512.625488	0.227221
512.989866	0.227630
513.354186	0.227745
513.718449	0.229858
514.082655	0.225825
514.446803	0.228247
514.810894	0.225852
515.174927	0.228740
515.538904	0.228370
515.902822	0.225047
516.266684	0.227346
516.630488	0.228395
516.994235	0.227611
517.357925	0.226390
517.721558	0.224307
518.085133	0.223955
518.448651	0.223865
518.812112	0.226541
519.175516	0.226133
519.538863	0.223779
519.902152	0.225160
520.265385	0.221918
520.628560	0.223539
520.991678	0.224150
521.354739	0.223171
521.717743	0.224284
522.080690	0.224527
522.443580	0.222070
522.806413	0.222951
523.169189	0.222303
523.531908	0.221037
523.894569	0.224711
524.257174	0.224497
524.619722	0.222245
524.982213	0.223234
525.344647	0.222527
525.707025	0.223428
526.069345	0.221402
526.431608	0.223238
526.793815	0.221064
527.155964	0.225218
527.518057	0.224061
527.880093	0.225172
528.242072	0.223870
528.603995	0.225526
528.965860	0.227162
529.327669	0.226168
529.689421	0.227002
530.051117	0.227818
530.412755	0.225941
530.774337	0.227919
531.135862	0.228367
531.497331	0.227712
531.858743	0.230542
532.220098	0.227250
532.581396	0.229959
532.942638	0.230411
533.303824	0.231364
533.664953	0.230793
534.026025	0.232860
534.387040	0.230607
534.747999	0.230636
535.108902	0.229600
535.469748	0.234654
535.830537	0.232402
536.191270	0.232913
536.551947	0.232472
536.912567	0.232287
537.273131	0.234062
537.633638	0.234292
537.994089	0.234881
538.354483	0.235671
538.714821	0.232599
539.075103	0.232529
539.435328	0.233268
539.795497	0.236751
540.155609	0.233591
540.515665	0.231678
540.875665	0.237269
541.235609	0.235874
541.595496	0.236284
541.955328	0.232512
542.315102	0.235261
542.674821	0.236312
543.034483	0.236352
543.394090	0.236191
543.753640	0.237890
544.113134	0.233037
544.472571	0.236311
544.831953	0.232888
545.191278	0.237180
545.550548	0.236419
545.909761	0.233530
546.268918	0.234202
546.628019	0.232444
546.987064	0.235035
547.346053	0.236939
547.704986	0.234597
548.063863	0.235087
548.422684	0.235188
548.781449	0.237260
549.140158	0.234753
549.498811	0.237625
549.857408	0.240319
550.215949	0.235245
550.574434	0.238698
550.932864	0.236609
551.291237	0.234970
551.649555	0.236701
552.007817	0.236210
552.366022	0.237310
552.724173	0.237253
553.082267	0.237706
553.440305	0.234665
553.798288	0.238833
554.156215	0.235539
554.514086	0.236130
554.871902	0.239520
555.229661	0.238688
555.587365	0.239102
555.945014	0.241642
556.302606	0.238657
556.660143	0.240890
557.017625	0.237705
557.375050	0.240283
557.732421	0.236888
558.089735	0.239014
558.446994	0.238748
558.804197	0.237731
559.161345	0.237760
559.518437	0.241280
559.875474	0.239370
560.232455	0.238634
560.589381	0.239984
560.946251	0.240168
561.303065	0.237784
561.659825	0.238926
562.016528	0.240510
562.373177	0.243357
562.729770	0.240438
563.086307	0.242587
563.442789	0.240513
563.799216	0.243124
564.155587	0.242356
564.511904	0.243202
564.868164	0.243068
565.224370	0.243212
565.580520	0.245151
565.936615	0.244888
566.292654	0.247415
566.648638	0.244900
567.004567	0.245757
567.360441	0.245945
567.716260	0.248160
568.072023	0.245870
568.427732	0.246777
568.783385	0.249366
569.138982	0.247138
569.494525	0.246825
569.850013	0.249793
570.205445	0.248419
570.560823	0.251002
570.916145	0.252492
571.271412	0.251225
571.626625	0.252474
571.981782	0.253140
572.336884	0.253703
572.691931	0.253661
573.046923	0.255536
573.401860	0.256243
573.756743	0.258162
574.111570	0.256624
574.466342	0.257327
574.821059	0.256186
575.175722	0.259512
575.530330	0.258969
575.884882	0.259052
576.239380	0.261046
576.593823	0.261787
576.948211	0.261114
577.302544	0.264577
577.656823	0.263984
578.011047	0.263809
578.365216	0.265018
578.719330	0.267006
579.073389	0.266483
579.427394	0.267879
579.781344	0.268891
580.135239	0.270039
580.489080	0.269509
580.842866	0.272807
581.196597	0.272950
581.550273	0.271660
581.903895	0.272415
582.257463	0.270404
582.610975	0.274104
582.964434	0.273248
583.317837	0.275543
583.671186	0.276161
584.024481	0.276134
584.377721	0.278617
584.730906	0.279394
585.084037	0.278628
585.437113	0.280668
585.790135	0.280104
586.143103	0.282987
586.496016	0.283701
586.848874	0.281432
587.201679	0.281709
587.554428	0.285219
587.907124	0.284319
588.259765	0.285173
588.612352	0.285565
588.964884	0.289613
589.317362	0.288889
589.669786	0.288650
590.022155	0.287301
590.374470	0.286665
590.726731	0.288746
591.078937	0.293760
591.431090	0.289987
591.783188	0.293709
592.135232	0.294490
592.487222	0.294344
592.839157	0.292688
593.191038	0.294696
593.542866	0.296929
593.894639	0.300092
594.246358	0.298270
594.598022	0.297959
594.949633	0.301516
595.301190	0.302324
595.652692	0.301262
596.004141	0.297193
596.355535	0.305657
596.706876	0.305867
597.058162	0.308643
597.409395	0.305431
597.760573	0.303445
598.111698	0.306477
598.462768	0.307012
598.813785	0.308589
599.164748	0.309945
599.515657	0.310025
599.866511	0.313930
600.217312	0.308911
600.568060	0.313828
600.918753	0.310175
601.269392	0.311499
601.619978	0.314834
601.970510	0.311984
602.320988	0.312490
602.671412	0.310364
603.021783	0.312589
603.372100	0.313949
603.722363	0.313689
604.072572	0.314738
604.422728	0.314275
604.772830	0.316712
605.122878	0.316321
605.472872	0.316720
605.822813	0.314966
606.172701	0.317684
606.522534	0.314654
606.872314	0.315205
607.222041	0.316176
607.571714	0.314220
607.921333	0.315706
608.270899	0.315155
608.620411	0.312182
608.969870	0.315838
609.319276	0.316053
609.668627	0.315965
610.017926	0.314642
610.367171	0.312987
610.716362	0.313583
611.065500	0.313736
611.414585	0.312872
611.763616	0.312773
612.112594	0.313545
612.461518	0.312630
612.810389	0.310475
613.159207	0.312794
613.507971	0.315113
613.856682	0.310730
614.205340	0.311817
614.553945	0.309133
614.902496	0.312880
615.250994	0.310924
615.599439	0.311535
615.947830	0.310954
616.296169	0.312131
616.644454	0.311587
616.992686	0.311512
617.340864	0.309081
617.688990	0.312765
618.037063	0.309274
618.385082	0.311897
618.733048	0.308216
619.080961	0.310357
619.428821	0.310042
619.776628	0.309800
620.124382	0.311920
620.472083	0.312498
620.819731	0.311516
621.167326	0.315281
621.514868	0.315386
621.862357	0.319357
622.209793	0.319118
622.557176	0.321393
622.904506	0.322212
623.251783	0.324563
623.599007	0.327045
623.946179	0.326448
624.293297	0.328915
624.640363	0.332173
624.987376	0.333161
625.334336	0.335119
625.681243	0.337936
626.028097	0.338358
626.374899	0.339612
626.721647	0.339646
627.068343	0.342481
627.414987	0.343953
627.761577	0.345952
628.108115	0.344032
628.454600	0.350036
628.801032	0.347061
629.147412	0.349029
629.493739	0.349932
629.840014	0.352556
630.186236	0.349652
630.532405	0.355654
630.878521	0.352793
631.224585	0.354806
631.570597	0.358541
631.916556	0.357529
632.262462	0.356981
632.608316	0.359210
632.954117	0.360015
633.299866	0.360744
633.645562	0.361230
633.991206	0.365467
634.336797	0.368516
634.682336	0.371110
635.027823	0.372485
635.373257	0.373128
635.718639	0.377042
636.063968	0.375969
636.409245	0.381948
636.754470	0.382007
637.099642	0.384750
637.444762	0.387857
637.789829	0.387203
638.134845	0.390570
638.479808	0.391456
638.824719	0.391515
639.169577	0.395691
639.514383	0.394624
639.859137	0.398948
640.203839	0.398429
640.548489	0.398944
640.893086	0.400274
641.237632	0.402035
641.582125	0.401020
641.926566	0.403237
642.270955	0.402482
642.615292	0.402082
642.959576	0.401844
643.303809	0.402316
643.647990	0.401797
643.992118	0.402606
644.336195	0.405659
644.680219	0.404125
645.024192	0.404859
645.368112	0.398810
645.711981	0.397355
646.055797	0.392624
646.399562	0.395478
646.743274	0.387992
647.086935	0.384768
647.430544	0.384797
647.774101	0.383852
648.117606	0.383677
648.461059	0.384071
648.804460	0.386511
649.147810	0.391534
649.491108	0.393086
649.834354	0.394822
650.177548	0.400242
650.520690	0.405151
650.863781	0.406563
651.206820	0.406095
651.549807	0.410649
651.892742	0.414630
652.235626	0.414443
652.578458	0.415052
652.921238	0.421518
653.263967	0.418775
653.606644	0.422455
653.949269	0.422787
654.291843	0.426928
654.634365	0.423770
654.976836	0.426382
655.319255	0.427304
655.661622	0.428189
656.003938	0.428354
656.346203	0.431276
656.688416	0.429135
657.030577	0.432951
657.372687	0.434947
657.714746	0.435522
658.056753	0.432251
658.398708	0.435831
658.740612	0.437614
659.082465	0.433215
659.424266	0.434517
659.766016	0.434052
660.107715	0.436826
660.449362	0.435328
660.790958	0.435850
661.132503	0.436809
661.473996	0.433882
661.815438	0.435724
662.156829	0.435407
662.498168	0.435822
662.839456	0.437521
663.180693	0.435057
663.521879	0.435075
663.863013	0.435718
664.204097	0.433855
664.545129	0.431198
664.886110	0.431947
665.227040	0.429041
665.567918	0.431660
665.908746	0.428999
666.249522	0.429332
666.590248	0.429720
666.930922	0.428028
667.271545	0.427499
667.612118	0.427573
667.952639	0.428978
668.293109	0.427900
668.633528	0.429918
668.973896	0.430640
669.314213	0.430466
669.654480	0.432234
669.994695	0.432231
670.334859	0.433648
670.674973	0.434000
671.015035	0.433684
671.355047	0.433792
671.695008	0.434845
672.034918	0.436873
672.374777	0.436022
672.714585	0.437139
673.054342	0.437557
673.394049	0.437079
673.733705	0.434933
674.073310	0.436658
674.412864	0.439283
674.752368	0.439411
675.091820	0.440049
675.431223	0.444563
675.770574	0.444024
676.109875	0.447255
676.449125	0.447338
676.788324	0.449324
677.127473	0.454333
677.466571	0.454365
677.805619	0.456281
678.144616	0.457296
678.483562	0.459739
678.822458	0.461945
679.161303	0.462485
679.500098	0.462927
679.838842	0.464581
680.177535	0.463839
680.516179	0.462497
680.854771	0.461512
681.193314	0.454791
681.531805	0.446222
681.870247	0.435023
682.208638	0.427659
682.546978	0.426414
682.885268	0.427814
683.223508	0.434557
683.561697	0.437879
683.899836	0.440775
684.237925	0.444234
684.575963	0.446938
684.913951	0.449991
685.251889	0.445309
685.589776	0.447348
685.927614	0.449712
686.265401	0.444006
686.603137	0.445523
686.940824	0.440263
687.278460	0.438264
687.616046	0.437290
687.953582	0.431739
688.291068	0.433235
688.628504	0.429501
688.965889	0.431277
689.303224	0.435756
689.640510	0.438818
689.977745	0.444952
690.314930	0.452759
690.652065	0.457904
690.989150	0.465296
691.326185	0.472633
691.663170	0.476624
692.000105	0.483729
692.336990	0.490833
692.673825	0.492892
693.010610	0.499701
693.347345	0.506819
693.684030	0.507007
694.020665	0.511550
694.357251	0.520412
694.693786	0.520688
695.030272	0.523113
695.366707	0.527749
695.703093	0.531362
696.039429	0.528949
696.375716	0.531020
696.711952	0.533308
697.048139	0.535711
697.384276	0.537257
697.720363	0.536543
698.056400	0.534329
698.392388	0.540617
698.728326	0.543156
699.064214	0.546105
699.400053	0.546919
699.735842	0.551042
700.071581	0.553500
700.407270	0.556998
700.742910	0.559049
701.078501	0.564808
701.414042	0.566369
701.749533	0.568616
702.084974	0.577598
702.420366	0.570593
702.755709	0.577795
703.091002	0.585558
703.426246	0.579901
703.761440	0.584790
704.096584	0.589922
704.431679	0.586188
704.766725	0.589633
705.101721	0.591058
705.436668	0.586598
705.771565	0.593087
706.106413	0.590146
706.441212	0.585701
706.775961	0.584513
707.110661	0.587176
707.445311	0.583914
707.779913	0.581087
708.114465	0.579241
708.448967	0.575864
708.783421	0.568174
709.117825	0.562302
709.452180	0.562282
709.786485	0.556755
710.120742	0.546172
710.454949	0.548408
710.789107	0.539896
711.123216	0.530747
711.457275	0.532803
711.791286	0.523666
712.125247	0.523344
712.459159	0.533647
712.793023	0.525010
713.126837	0.530184
713.460602	0.530158
713.794318	0.539019
714.127985	0.538179
714.461602	0.548660
714.795171	0.551876
715.128691	0.559882
715.462162	0.567447
715.795584	0.573754
716.128957	0.576303
716.462281	0.582921
716.795556	0.585017
717.128782	0.591836
717.461960	0.600968
717.795088	0.598912
718.128167	0.605830
718.461198	0.613792
718.794180	0.615344
719.127113	0.617203
719.459997	0.620750
719.792833	0.626658
720.125619	0.629138
720.458357	0.633982
720.791046	0.634054
721.123686	0.637822
721.456278	0.643704
721.788821	0.641514
722.121315	0.646504
722.453761	0.650817
722.786158	0.648287
723.118506	0.644696
723.450805	0.652011
723.783056	0.648890
724.115259	0.646164
724.447412	0.645360
724.779518	0.646428
725.111574	0.645161
725.443582	0.641360
725.775542	0.643560
726.107453	0.635765
726.439315	0.635117
726.771129	0.633805
727.102895	0.627377
727.434612	0.620550
727.766281	0.618628
728.097901	0.617305
728.429473	0.616989
728.760996	0.614966
729.092471	0.615655
729.423897	0.619586
729.755276	0.618143
730.086606	0.618313
730.417887	0.613117
730.749120	0.603864
731.080305	0.594809
731.411442	0.590531
731.742530	0.594235
732.073570	0.594293
732.404562	0.586745
732.735506	0.588262
733.066401	0.592993
733.397249	0.601905
733.728048	0.613454
734.058798	0.626367
734.389501	0.636831
734.720156	0.647371
735.050762	0.655161
735.381320	0.654911
735.711831	0.663831
736.042293	0.669230
736.372707	0.666313
736.703073	0.670063
737.033391	0.671350
737.363661	0.669323
737.693883	0.664591
738.024056	0.663429
738.354182	0.663702
738.684260	0.653289
739.014290	0.649232
739.344272	0.650380
739.674207	0.643038
740.004093	0.643402
740.333931	0.643607
740.663722	0.642691
740.993464	0.643905
741.323159	0.646892
741.652806	0.652215
741.982405	0.657618
742.311956	0.662206
742.641460	0.664135
742.970915	0.667807
743.300323	0.675005
743.629683	0.681058
743.958996	0.684793
744.288260	0.688384
744.617477	0.694060
744.946647	0.695907
745.275768	0.702031
745.604842	0.701493
745.933869	0.711823
746.262847	0.712586
746.591778	0.705005
746.920662	0.712294
747.249498	0.719286
747.578286	0.709581
747.907027	0.705953
748.235720	0.705776
748.564365	0.700763
748.892963	0.700666
749.221514	0.704343
749.550017	0.708402
749.878473	0.709726
750.206881	0.716302
750.535242	0.716007
750.863555	0.715360
751.191821	0.716182
751.520039	0.720404
751.848210	0.722849
752.176334	0.718576
752.504411	0.716333
752.832440	0.723829
753.160421	0.729241
753.488356	0.727282
753.816243	0.724094
754.144082	0.733036
754.471875	0.736237
754.799620	0.732020
755.127318	0.732878
755.454969	0.734319
755.782572	0.733042
756.110129	0.738368
756.437638	0.740244
756.765100	0.737334
757.092515	0.735145
757.419882	0.733378
757.747203	0.739339
758.074477	0.740316
758.401703	0.735069
758.728882	0.731129
759.056014	0.729223
759.383099	0.728586
759.710138	0.729060
760.037129	0.726331
760.364073	0.719452
760.690970	0.721780
761.017820	0.726536
761.344623	0.723331
761.671379	0.715554
761.998088	0.702887
762.324751	0.679915
762.651366	0.636629
762.977935	0.569287
763.304456	0.517428
763.630931	0.507760
763.957359	0.546593
764.283740	0.591271
764.610074	0.618981
764.936362	0.650858
765.262602	0.678139
765.588796	0.699327
765.914943	0.717224
766.241044	0.735179
766.567097	0.740706
766.893104	0.752418
767.219064	0.758882
767.544978	0.764646
767.870845	0.778977
768.196665	0.782608
768.522438	0.781092
768.848165	0.783093
769.173846	0.790306
769.499479	0.794990
769.825066	0.799111
770.150607	0.803550
770.476101	0.799301
770.801548	0.802161
771.126949	0.812740
771.452303	0.817103
771.777611	0.815468
772.102872	0.813406
772.428087	0.820747
772.753256	0.822819
773.078378	0.824669
773.403453	0.834077
773.728482	0.838716
774.053465	0.831154
774.378401	0.834976
774.703291	0.844634
775.028135	0.843650
775.352932	0.843946
775.677683	0.848754
776.002388	0.849970
776.327046	0.847939
776.651658	0.853404
776.976224	0.855330
777.300743	0.854398
777.625216	0.856815
777.949643	0.859457
778.274024	0.858080
778.598359	0.860939
778.922647	0.858977
779.246889	0.859998
779.571086	0.863623
779.895236	0.865505
780.219339	0.863502
780.543397	0.859356
780.867409	0.858050
781.191374	0.860934
781.515294	0.862168
781.839167	0.861678
782.162995	0.863950
782.486776	0.861372
782.810511	0.862873
783.134201	0.867707
783.457844	0.864456
783.781441	0.866059
784.104993	0.871825
784.428498	0.872777
784.751958	0.870102
785.075372	0.870050
785.398739	0.875100
785.722061	0.870362
786.045337	0.867156
786.368568	0.870772
786.691752	0.873788
787.014891	0.860140
787.337983	0.850130
787.661030	0.842473
787.984031	0.825183
788.306987	0.812619
788.629897	0.813352
788.952760	0.818827
789.275579	0.822390
789.598351	0.839033
789.921078	0.852016
790.243759	0.853654
790.566395	0.857423
790.888984	0.866177
791.211529	0.870613
791.534027	0.873146
791.856480	0.876953
792.178888	0.881049
792.501249	0.884659
792.823566	0.885961
793.145836	0.885268
793.468062	0.887139
793.790241	0.887373
794.112375	0.883862
794.434464	0.881911
794.756507	0.880514
795.078505	0.879060
795.400457	0.873533
795.722364	0.862354
796.044226	0.855446
796.366042	0.854058
796.687812	0.856335
797.009538	0.852990
797.331218	0.856488
797.652852	0.860654
797.974442	0.865076
798.295986	0.867620
798.617484	0.868108
798.938938	0.872678
799.260346	0.877915
799.581709	0.878683
799.903026	0.881326
800.224299	0.883076
800.545526	0.886309
800.866708	0.890731
801.187845	0.894724
801.508936	0.894263
801.829983	0.891115
802.150984	0.895303
802.471940	0.900084
802.792851	0.899111
803.113717	0.900547
803.434538	0.898695
803.755314	0.900679
804.076045	0.902523
804.396731	0.902349
804.717372	0.901225
805.037967	0.903836
805.358518	0.902042
805.679024	0.897191
805.999485	0.899072
806.319901	0.898756
806.640272	0.901661
806.960598	0.898496
807.280879	0.895841
807.601115	0.894298
807.921306	0.899143
808.241453	0.898131
808.561554	0.898013
808.881611	0.896855
809.201623	0.898228
809.521590	0.898810
809.841513	0.900355
810.161390	0.897555
810.481223	0.900189
810.801011	0.903945
811.120755	0.904498
811.440453	0.903543
811.760107	0.903662
812.079716	0.903351
812.399281	0.906587
812.718801	0.908499
813.038276	0.909711
813.357707	0.909536
813.677093	0.907543
813.996434	0.908971
814.315731	0.911737
814.634983	0.912021
814.954191	0.911843
815.273354	0.906547
815.592473	0.902606
815.911547	0.904483
816.230577	0.900945
816.549562	0.898435
816.868502	0.897749
817.187399	0.895574
817.506250	0.889647
817.825058	0.891535
818.143821	0.887996
818.462539	0.884117
818.781213	0.874320
819.099843	0.864114
819.418429	0.847980
819.736970	0.830630
820.055466	0.809979
820.373919	0.783262
820.692327	0.750636
821.010691	0.715706
821.329011	0.634856
821.647286	0.517568
821.965517	0.402739
822.283704	0.360051
822.601847	0.360538
822.919945	0.395980
823.237999	0.431110
823.556010	0.479516
823.873976	0.535551
824.191897	0.586849
824.509775	0.630129
824.827609	0.677087
825.145398	0.700098
825.463144	0.700805
825.780845	0.684390
826.098502	0.665569
826.416116	0.619418
826.733685	0.575352
827.051210	0.565793
827.368692	0.581246
827.686129	0.619033
828.003522	0.673723
828.320872	0.722826
828.638177	0.766798
828.955439	0.800331
829.272656	0.822336
829.589830	0.839128
829.906960	0.856256
830.224046	0.869018
830.541088	0.878899
830.858086	0.883350
831.175041	0.890158
831.491952	0.888500
831.808819	0.885425
832.125642	0.877644
832.442421	0.864558
832.759157	0.841103
833.075849	0.793010
833.392497	0.728319
833.709101	0.687078
834.025662	0.696982
834.342179	0.729323
834.658653	0.769117
834.975083	0.806506
835.291469	0.833462
835.607811	0.855943
835.924110	0.872224
836.240366	0.890323
836.556578	0.902793
836.872746	0.911690
837.188871	0.917974
837.504952	0.923602
837.820990	0.927017
838.136984	0.930188
838.452935	0.932566
838.768842	0.934200
839.084706	0.927158
839.400526	0.902725
839.716303	0.859589
840.032037	0.837509
840.347727	0.840975
840.663373	0.859082
840.978977	0.881874
841.294537	0.906056
841.610054	0.921288
841.925527	0.928728
842.240957	0.935960
842.556344	0.943949
842.871687	0.948611
843.186987	0.951985
843.502244	0.954555
843.817458	0.955455
844.132629	0.960083
844.447756	0.963554
844.762840	0.964791
845.077881	0.964927
845.392879	0.962379
845.707833	0.965820
846.022745	0.966649
846.337613	0.968177
846.652438	0.968916
846.967221	0.969203
847.281960	0.970664
847.596656	0.971749
847.911309	0.970309
848.225919	0.970787
848.540485	0.973704
848.855009	0.974096
849.169490	0.973173
849.483928	0.972861
849.798323	0.971664
850.112675	0.976068
850.426984	0.973397
850.741251	0.974716
851.055474	0.974840
851.369654	0.973623
851.683792	0.972274
851.997887	0.972229
852.311938	0.974314
852.625947	0.971563
852.939914	0.971374
853.253837	0.973186
853.567718	0.974917
853.881555	0.974439
854.195350	0.972427
854.509103	0.971984
854.822812	0.973909
855.136479	0.974657
855.450103	0.973667
855.763685	0.972774
856.077224	0.974098
856.390720	0.974288
856.704173	0.973843
857.017584	0.973414
857.330953	0.971630
857.644278	0.970858
857.957561	0.969951
858.270802	0.973032
858.584000	0.971960
858.897155	0.970862
859.210268	0.970087
859.523339	0.973986
859.836367	0.974403
860.149352	0.975026
860.462295	0.974056
860.775195	0.974034
861.088054	0.972473
861.400869	0.973227
861.713642	0.973845
862.026373	0.975871
862.339062	0.974500
862.651708	0.973123
862.964312	0.973153
863.276873	0.972450
863.589392	0.972088
863.901869	0.969823
864.214303	0.969223
864.526696	0.966982
864.839045	0.967139
865.151353	0.966297
865.463619	0.964981
865.775842	0.966641
866.088023	0.966827
866.400162	0.966287
866.712258	0.966257
867.024313	0.966761
867.336325	0.967861
867.648296	0.968500
867.960224	0.965161
868.272110	0.965886
868.583954	0.967358
868.895755	0.969046
869.207515	0.965747
869.519233	0.963468
869.830909	0.964831
870.142542	0.965594
870.454134	0.964954
870.765684	0.962263
871.077191	0.963021
871.388657	0.962063
871.700081	0.962208
872.011463	0.962820
872.322803	0.961304
872.634101	0.958973
872.945357	0.956213
873.256571	0.955915
873.567744	0.956218
873.878874	0.957734
874.189963	0.957000
874.501010	0.957025
874.812015	0.953339
875.122979	0.954636
875.433900	0.956588
875.744780	0.958091
876.055618	0.953571
876.366415	0.952297
876.677169	0.951853
876.987882	0.954050
877.298554	0.954915
877.609183	0.950345
877.919771	0.947913
878.230317	0.946684
878.540822	0.941676
878.851285	0.937716
879.161707	0.929453
879.472087	0.917518
879.782425	0.899670
880.092722	0.863973
880.402977	0.811101
880.713191	0.747990
881.023363	0.685856
881.333494	0.651490
881.643583	0.623678
881.953631	0.624374
882.263637	0.652587
882.573602	0.692980
882.883526	0.718845
883.193408	0.744480
883.503248	0.767776
883.813048	0.796393
884.122806	0.826738
884.432522	0.850808
884.742197	0.870360
885.051831	0.882190
885.361424	0.893565
885.670975	0.906384
885.980485	0.914548
886.289954	0.921068
886.599382	0.924669
886.908768	0.931421
887.218113	0.936793
887.527417	0.941772
887.836680	0.944471
888.145901	0.946057
888.455082	0.950572
888.764221	0.954288
889.073319	0.955776
889.382376	0.956104
889.691392	0.954681
890.000366	0.955668
890.309300	0.955801
890.618193	0.957115
890.927044	0.954198
891.235855	0.953548
891.544625	0.953705
891.853353	0.954980
892.162041	0.951390
892.470687	0.946115
892.779293	0.940227
893.087858	0.936359
893.396381	0.928316
893.704864	0.914392
894.013306	0.889363
894.321707	0.862604
894.630068	0.847610
894.938387	0.841386
895.246665	0.843863
895.554903	0.854992
895.863100	0.870246
896.171256	0.887263
896.479371	0.908105
896.787446	0.920061
897.095480	0.926738
897.403473	0.929474
897.711425	0.934797
898.019336	0.943587
898.327207	0.947246
898.635038	0.946516
898.942827	0.948361
899.250576	0.951595
899.558284	0.955201
899.865952	0.956062
900.173579	0.958207
900.481165	0.958924
900.788711	0.960903
901.096216	0.963101
901.403681	0.965935
901.711105	0.965962
902.018489	0.965941
902.325832	0.966288
902.633135	0.964174
902.940397	0.957421
903.247619	0.945461
903.554800	0.920411
903.861941	0.878785
904.169041	0.840894
904.476101	0.822572
904.783121	0.823817
905.090100	0.840876
905.397039	0.863366
905.703938	0.885684
906.010796	0.906473
906.317614	0.923175
906.624391	0.938236
906.931129	0.947536
907.237826	0.955591
907.544483	0.961579
907.851099	0.967089
908.157675	0.971383
908.464211	0.972995
908.770707	0.974798
909.077163	0.977868
909.383578	0.978942
909.689954	0.978695
909.996289	0.979191
910.302584	0.982705
910.608839	0.983886
910.915054	0.983407
911.221229	0.982691
911.527363	0.980541
911.833458	0.982372
912.139513	0.981440
912.445527	0.980347
912.751502	0.977598
913.057436	0.974956
913.363331	0.975583
913.669186	0.969252
913.975000	0.965250
914.280775	0.957235
914.586510	0.951277
914.892205	0.937469
915.197859	0.914270
915.503475	0.887205
915.809050	0.865767
916.114585	0.860648
916.420081	0.856148
916.725536	0.854512
917.030952	0.862143
917.336328	0.875578
917.641665	0.891925
917.946961	0.907418
918.252218	0.919352
918.557435	0.928064
918.862612	0.937301
919.167750	0.943110
919.472848	0.949698
919.777906	0.956248
920.082925	0.960931
920.387904	0.964447
920.692843	0.965847
920.997743	0.966675
921.302603	0.970486
921.607423	0.972566
921.912204	0.974826
922.216946	0.976733
922.521647	0.978690
922.826310	0.977896
923.130932	0.981479
923.435516	0.982547
923.740059	0.982172
924.044564	0.983223
924.349028	0.983612
924.653454	0.985991
924.957840	0.987823
925.262186	0.988843
925.566493	0.988525
925.870761	0.989042
926.174989	0.989661
926.479178	0.991617
926.783328	0.991425
927.087438	0.991918
927.391509	0.991447
927.695541	0.992509
927.999533	0.994531
928.303486	0.994247
928.607400	0.994647
928.911275	0.994859
929.215110	0.996038
929.518906	0.994582
929.822663	0.996305
930.126381	0.995874
930.430060	0.995297
930.733699	0.995765
931.037299	0.994211
931.340861	0.995053
931.644383	0.994181
931.947866	0.994900
932.251309	0.995239
932.554714	0.993770
932.858080	0.994989
933.161407	0.993736
933.464694	0.994106
933.767943	0.995397
934.071153	0.995079
934.374323	0.996054
934.677455	0.996118
934.980548	0.995613
935.283602	0.995443
935.586617	0.994543
935.889593	0.997485
936.192530	0.996007
936.495428	0.994955
936.798287	0.994882
937.101108	0.994836
937.403890	0.993926
937.706632	0.993667
938.009336	0.990065
938.312002	0.989511
938.614628	0.988771
938.917216	0.987589
939.219765	0.986285
939.522275	0.986784
939.824747	0.986317
940.127179	0.988230
940.429573	0.988652
940.731929	0.987831
941.034246	0.987568
941.336524	0.989095
941.638763	0.990584
941.940964	0.989824
942.243126	0.989249
942.545250	0.992125
942.847335	0.990840
943.149381	0.993162
943.451389	0.992299
943.753359	0.993055
944.055290	0.994987
944.357182	0.995284
944.659036	0.994884
944.960851	0.994853
945.262628	0.994389
945.564367	0.993728
945.866067	0.993837
946.167729	0.993619
946.469352	0.993222
946.770937	0.991785
947.072484	0.995540
947.373992	0.994142
947.675462	0.993719
947.976893	0.995070
948.278286	0.995325
948.579641	0.995979
948.880958	0.995294
949.182236	0.994839
949.483476	0.996415
949.784678	0.995405
950.085841	0.995239
950.386967	0.994971
950.688054	0.995341
950.989103	0.994238
951.290114	0.993841
951.591087	0.993199
951.892021	0.992336
952.192917	0.993841
952.493776	0.992089
952.794596	0.992860
953.095378	0.991920
953.396122	0.991537
953.696828	0.993659
953.997496	0.992870
954.298126	0.995235
954.598718	0.994398
954.899272	0.994662
955.199788	0.995711
955.500266	0.996253
955.800706	0.995615
956.101108	0.997225
956.401472	0.998895
956.701798	0.997746
957.002087	0.998429
957.302337	0.998782
957.602550	0.999656
957.902724	0.998643
958.202861	0.999541
958.502960	0.999636
958.803022	1.000155
959.103045	1.000087
959.403031	1.001374
959.702979	1.000834
960.002889	1.000248
960.302762	0.998882
960.602596	1.001950
960.902393	1.001105
961.202153	1.001152
961.501875	1.001500
961.801559	1.001687
962.101205	1.001086
962.400814	1.001340
962.700385	1.002030
962.999918	1.001170
963.299414	1.000408
963.598873	1.002845
963.898293	1.001610
964.197677	1.000137
964.497022	1.001856
964.796331	1.002349
965.095601	1.002251
965.394835	1.000940
965.694030	1.002684
965.993189	1.000341
966.292309	1.002115
966.591393	1.000447
966.890439	1.002065
967.189447	1.001104
967.488419	1.001754
967.787353	1.001350
968.086249	1.002467
968.385108	1.001909
968.683930	1.002949
968.982714	1.001565
969.281462	1.002253
969.580172	1.001633
969.878844	1.001969
970.177480	1.002272
970.476078	1.001634
970.774639	1.000968
971.073162	1.001029
971.371649	1.001366
971.670098	1.001595
971.968510	1.002321
972.266885	1.000992
972.565223	1.000988
972.863524	0.999979
973.161788	1.000966
973.460014	1.002596
973.758204	0.999119
974.056356	1.001540
974.354471	1.000633
974.652550	1.002470
974.950591	1.000944
975.248595	1.001146
975.546563	1.001873
975.844493	1.002300
976.142386	1.000200
976.440243	1.002593
976.738062	1.001106
977.035845	1.001349
977.333590	1.002741
977.631299	1.000901
977.928971	1.000929
978.226606	1.002030
978.524204	1.001036
978.821765	1.001919
979.119290	1.002289
979.416777	1.002266
979.714228	1.001750
980.011642	1.002642
980.309020	1.001547
980.606360	1.000936
980.903664	1.000807
981.200931	1.000042
981.498162	1.000679
981.795356	0.998993
982.092513	0.999294
982.389633	0.998744
982.686717	0.996472
982.983764	0.995693
983.280775	0.995422
983.577749	0.997020
983.874686	0.994988
984.171587	0.995512
984.468451	0.996797
984.765279	1.000071
985.062070	0.999702
985.358824	1.000886
985.655543	1.000995
985.952224	1.000933
986.248869	1.000970
986.545478	1.002035
986.842050	1.001282
987.138586	1.001784
987.435086	1.002377
987.731549	1.003448
988.027975	1.002759
988.324366	1.002616
988.620719	1.003907
988.917037	1.002402
989.213318	1.004399
989.509563	1.002533
989.805772	1.002745
990.101944	1.003370
990.398080	1.002022
990.694180	1.003720
990.990244	1.001833
991.286271	1.001638
991.582262	1.003809
991.878217	1.002456
992.174136	1.003196
992.470019	1.003502
992.765865	1.003993
993.061676	1.003305
993.357450	1.003674
993.653188	1.003024
993.948890	1.002522
994.244556	1.003387
994.540186	1.002698
994.835780	1.002360
995.131337	1.002854
995.426859	1.003326
995.722345	1.002310
996.017795	1.001377
996.313208	1.001330
996.608586	1.001329
996.903928	1.002366
997.199234	1.001042
997.494504	1.002115
997.789738	1.000393
998.084936	1.002063
998.380099	1.000032
998.675225	1.002925
998.970316	1.002679
999.265371	1.001974
999.560390	1.001498
999.855373	1.002607
1000.150320	1.002327
1000.445232	1.002489
1000.740108	1.002649
1001.034948	1.002050
1001.329752	1.004215
1001.624521	1.002442
1001.919254	1.003171
1002.213951	1.003393
1002.508613	1.002784
1002.803239	1.002902
1003.097829	1.003593
1003.392384	1.003734
1003.686903	1.003271
1003.981386	1.003952
1004.275834	1.004046
1004.570246	1.002941
1004.864623	1.004630
1005.158964	1.004022
1005.453270	1.003076
1005.747540	1.002989
1006.041775	1.004090
1006.335974	1.003657
1006.630138	1.004624
1006.924266	1.002450
1007.218359	1.000818
1007.512416	1.003744
1007.806438	1.003228
1008.100425	1.004215
1008.394376	1.004404
1008.688292	1.003016
1008.982172	1.002572
1009.276017	1.004541
1009.569827	1.004346
1009.863602	1.002511
1010.157341	1.003785
1010.451045	1.003343
1010.744714	1.004792
1011.038347	1.003711
1011.331945	1.003494
1011.625508	1.003273
1011.919036	1.003109
1012.212528	1.004560
1012.505986	1.003219
1012.799408	1.003846
1013.092795	1.005130
1013.386147	1.003557
1013.679464	1.003773
1013.972745	1.003857
1014.265992	1.003620
1014.559204	1.003499
1014.852380	1.003620
1015.145521	1.003540
1015.438628	1.003850
1015.731699	1.002110
1016.024736	1.004729
1016.317737	1.003957
1016.610703	1.004704
1016.903635	1.002934
1017.196531	1.003151
1017.489393	1.002984
1017.782219	1.003908
1018.075011	1.003129
1018.367768	1.002535
1018.660490	1.003493
1018.953177	1.003493
1019.245829	1.003493
