Dividing Wavelength (nm)	Counts (n)	Blue Motor Position (mm): 8.400000	Red Motor Position (mm): 0.000000	
326.493990	1.004459
326.888308	1.004459
327.282561	1.004459
327.676750	1.006115
328.070874	1.006755
328.464933	1.006728
328.858929	1.007262
329.252859	1.005130
329.646726	1.004547
330.040528	1.005850
330.434265	1.004899
330.827938	1.003520
331.221547	1.005487
331.615091	1.006962
332.008571	1.006091
332.401986	1.004505
332.795338	1.004691
333.188625	1.004012
333.581847	1.004287
333.975006	1.005270
334.368100	1.006035
334.761129	1.004145
335.154095	1.004938
335.546996	1.003128
335.939833	0.998288
336.332606	0.998934
336.725315	0.998356
337.117960	1.001060
337.510540	0.997876
337.903056	0.999040
338.295508	1.000563
338.687896	0.999027
339.080220	0.999132
339.472480	0.998675
339.864676	0.999647
340.256807	0.997530
340.648875	0.998417
341.040879	0.999365
341.432818	0.998870
341.824694	0.999011
342.216506	0.999379
342.608253	0.999162
342.999937	0.998921
343.391557	0.999119
343.783113	0.999837
344.174605	0.998826
344.566033	0.997112
344.957397	1.000107
345.348697	0.999719
345.739934	0.999081
346.131106	0.998505
346.522215	0.998356
346.913260	0.998563
347.304241	0.997336
347.695159	0.998798
348.086012	0.998073
348.476802	0.998083
348.867528	0.998323
349.258191	0.998349
349.648789	0.998846
350.039324	0.997771
350.429796	0.998172
350.820203	0.998035
351.210548	0.999434
351.600828	0.998802
351.991045	0.998840
352.381198	0.998783
352.771288	0.998308
353.161314	0.998821
353.551276	0.998574
353.941175	0.996555
354.331010	0.999496
354.720782	0.997873
355.110490	0.998161
355.500135	0.998800
355.889717	0.997354
356.279235	0.996714
356.668689	0.999038
357.058080	0.998321
357.447408	0.996423
357.836672	0.997934
358.225873	0.997029
358.615010	0.996988
359.004084	0.997464
359.393095	0.997641
359.782043	0.997178
360.170927	0.998607
360.559748	0.997811
360.948505	0.997830
361.337199	0.996192
361.725830	0.997828
362.114398	0.996079
362.502903	0.997590
362.891344	0.996815
363.279722	0.996781
363.668037	0.998048
364.056289	0.996635
364.444478	0.998004
364.832603	0.996589
365.220665	0.996458
365.608665	0.995886
365.996601	0.996916
366.384474	0.994845
366.772284	0.996123
367.160031	0.994019
367.547715	0.995172
367.935336	0.994620
368.322893	0.992751
368.710388	0.991615
369.097820	0.990290
369.485189	0.988957
369.872495	0.986491
370.259738	0.984644
370.646918	0.980679
371.034035	0.978602
371.421090	0.977692
371.808081	0.970630
372.195010	0.969331
372.581875	0.963065
372.968678	0.958398
373.355418	0.955884
373.742096	0.948778
374.128710	0.943427
374.515262	0.938665
374.901751	0.932821
375.288177	0.927408
375.674540	0.921721
376.060841	0.915173
376.447079	0.908699
376.833254	0.901740
377.219367	0.897419
377.605417	0.885427
377.991404	0.882859
378.377329	0.876323
378.763191	0.869549
379.148991	0.860240
379.534727	0.853819
379.920402	0.845219
380.306013	0.841765
380.691563	0.828557
381.077049	0.821645
381.462474	0.818417
381.847835	0.807017
382.233134	0.801918
382.618371	0.802117
383.003545	0.784975
383.388657	0.783219
383.773706	0.775858
384.158693	0.770872
384.543618	0.766277
384.928480	0.756675
385.313280	0.747083
385.698017	0.745998
386.082692	0.735899
386.467305	0.733292
386.851856	0.728518
387.236344	0.722913
387.620770	0.718148
388.005133	0.712027
388.389435	0.705516
388.773674	0.704039
389.157851	0.695574
389.541965	0.692881
389.926018	0.700025
390.310008	0.686813
390.693936	0.682846
391.077802	0.675200
391.461606	0.677279
391.845348	0.666477
392.229027	0.665411
392.612645	0.663226
392.996200	0.650718
393.379694	0.644158
393.763125	0.634081
394.146494	0.638750
394.529801	0.628881
394.913047	0.621580
395.296230	0.627236
395.679351	0.618591
396.062410	0.615230
396.445408	0.617997
396.828343	0.612405
397.211217	0.608843
397.594028	0.620702
397.976778	0.611343
398.359466	0.607612
398.742092	0.603078
399.124656	0.614703
399.507158	0.602736
399.889598	0.600385
400.271977	0.590860
400.654294	0.595281
401.036549	0.594337
401.418742	0.598650
401.800874	0.584267
402.182944	0.581009
402.564952	0.572559
402.946898	0.575029
403.328783	0.574979
403.710606	0.586730
404.092367	0.561684
404.474067	0.566751
404.855705	0.565398
405.237282	0.574499
405.618797	0.560751
406.000250	0.556272
406.381642	0.546289
406.762972	0.551578
407.144240	0.550153
407.525447	0.549958
407.906593	0.542580
408.287677	0.537886
408.668700	0.546808
409.049661	0.540817
409.430560	0.535493
409.811399	0.544470
410.192176	0.526364
410.572891	0.533358
410.953545	0.521968
411.334138	0.535521
411.714669	0.526991
412.095139	0.539594
412.475547	0.523431
412.855894	0.525731
413.236180	0.524748
413.616405	0.529531
413.996568	0.520623
414.376670	0.526337
414.756711	0.531625
415.136691	0.528435
415.516609	0.520130
415.896466	0.516223
416.276262	0.512329
416.655997	0.513842
417.035670	0.495449
417.415283	0.486876
417.794834	0.491813
418.174324	0.497142
418.553753	0.506677
418.933121	0.489078
419.312428	0.482538
419.691674	0.487907
420.070859	0.476780
420.449983	0.484117
420.829045	0.474395
421.208047	0.482437
421.586988	0.475576
421.965867	0.474377
422.344686	0.463365
422.723444	0.475993
423.102141	0.493024
423.480777	0.465373
423.859352	0.486006
424.237866	0.463678
424.616319	0.464340
424.994712	0.455171
425.373044	0.465147
425.751314	0.453875
426.129524	0.470539
426.507673	0.453859
426.885762	0.447356
427.263789	0.452604
427.641756	0.462356
428.019662	0.452991
428.397508	0.451413
428.775292	0.456358
429.153016	0.448119
429.530679	0.454655
429.908282	0.447417
430.285824	0.457904
430.663305	0.436487
431.040726	0.457740
431.418086	0.457389
431.795385	0.449179
432.172624	0.448136
432.549802	0.448450
432.926920	0.447448
433.303977	0.446732
433.680974	0.443950
434.057910	0.442856
434.434786	0.441892
434.811601	0.444563
435.188355	0.426997
435.565050	0.436335
435.941683	0.437526
436.318257	0.421135
436.694770	0.422358
437.071222	0.420661
437.447614	0.425228
437.823946	0.431542
438.200218	0.421119
438.576429	0.430483
438.952580	0.423464
439.328670	0.419677
439.704700	0.426299
440.080670	0.428152
440.456580	0.409043
440.832429	0.417643
441.208218	0.427934
441.583947	0.416856
441.959616	0.416018
442.335224	0.422414
442.710773	0.412787
443.086261	0.410573
443.461689	0.424719
443.837057	0.414247
444.212365	0.404697
444.587612	0.411407
444.962800	0.401417
445.337927	0.403112
445.712995	0.428967
446.088002	0.391193
446.462949	0.401439
446.837837	0.406332
447.212664	0.394831
447.587431	0.386550
447.962139	0.356500
448.336786	0.316068
448.711374	0.326721
449.085901	0.370777
449.460369	0.374810
449.834776	0.378275
450.209124	0.357413
450.583412	0.350264
450.957640	0.343507
451.331808	0.354433
451.705917	0.378212
452.079965	0.383175
452.453954	0.371154
452.827883	0.377867
453.201752	0.372850
453.575562	0.383892
453.949311	0.372356
454.323001	0.378563
454.696632	0.374201
455.070202	0.367056
455.443713	0.358851
455.817164	0.353281
456.190556	0.349610
456.563888	0.346557
456.937160	0.343677
457.310373	0.361621
457.683526	0.359629
458.056619	0.365523
458.429653	0.366230
458.802628	0.370020
459.175542	0.364073
459.548398	0.346465
459.921194	0.338741
460.293930	0.339053
460.666607	0.316547
461.039224	0.304982
461.411782	0.300319
461.784280	0.299511
462.156719	0.303864
462.529099	0.308549
462.901419	0.324186
463.273680	0.328376
463.645882	0.328584
464.018024	0.334379
464.390106	0.326721
464.762130	0.311409
465.134094	0.294420
465.505999	0.263367
465.877845	0.233725
466.249631	0.220379
466.621358	0.227946
466.993026	0.241860
467.364634	0.248383
467.736184	0.257012
468.107674	0.265863
468.479105	0.265029
468.850477	0.271606
469.221790	0.278561
469.593043	0.288635
469.964238	0.293585
470.335373	0.292891
470.706449	0.291117
471.077467	0.291587
471.448425	0.253685
471.819324	0.229414
472.190164	0.228894
472.560945	0.257793
472.931667	0.280257
473.302330	0.283949
473.672934	0.296105
474.043479	0.283978
474.413965	0.285917
474.784393	0.289209
475.154761	0.284469
475.525070	0.281719
475.895321	0.287618
476.265513	0.281515
476.635645	0.276938
477.005719	0.276865
477.375734	0.273444
477.745691	0.266602
478.115588	0.262971
478.485427	0.256651
478.855207	0.243491
479.224928	0.225812
479.594591	0.213627
479.964194	0.217239
480.333739	0.218377
480.703226	0.219782
481.072653	0.218158
481.442022	0.213850
481.811333	0.210672
482.180584	0.213882
482.549777	0.219208
482.918912	0.222602
483.287988	0.222490
483.657005	0.221883
484.025964	0.228500
484.394864	0.226095
484.763706	0.226495
485.132489	0.231459
485.501213	0.232224
485.869879	0.230644
486.238487	0.233711
486.607036	0.231796
486.975527	0.236124
487.343959	0.232192
487.712333	0.231363
488.080648	0.232413
488.448905	0.231678
488.817104	0.232903
489.185244	0.227495
489.553326	0.224500
489.921350	0.214058
490.289315	0.196831
490.657222	0.191425
491.025070	0.192917
491.392861	0.194887
491.760593	0.200656
492.128267	0.206487
492.495883	0.211868
492.863440	0.218097
493.230939	0.224596
493.598380	0.226242
493.965763	0.228105
494.333088	0.230310
494.700354	0.231954
495.067563	0.231012
495.434713	0.234442
495.801805	0.232164
496.168839	0.233709
496.535815	0.235227
496.902733	0.235064
497.269593	0.236493
497.636395	0.234249
498.003139	0.234501
498.369825	0.237555
498.736453	0.234001
499.103023	0.235737
499.469535	0.234962
499.835989	0.235177
500.202385	0.236206
500.568723	0.239292
500.935003	0.234598
501.301226	0.238646
501.667390	0.233160
502.033497	0.231096
502.399546	0.234147
502.765537	0.235951
503.131470	0.234468
503.497345	0.230686
503.863163	0.239367
504.228923	0.232294
504.594625	0.231227
504.960269	0.236562
505.325856	0.231936
505.691385	0.236373
506.056856	0.232811
506.422270	0.232307
506.787625	0.234873
507.152924	0.232216
507.518164	0.232657
507.883347	0.234190
508.248472	0.236119
508.613540	0.230950
508.978550	0.233663
509.343503	0.233880
509.708398	0.231762
510.073236	0.229222
510.438016	0.229092
510.802738	0.230167
511.167403	0.228943
511.532010	0.231237
511.896561	0.226480
512.261053	0.224791
512.625488	0.227227
512.989866	0.227710
513.354186	0.227948
513.718449	0.229794
514.082655	0.226372
514.446803	0.228558
514.810894	0.225953
515.174927	0.228935
515.538904	0.228391
515.902822	0.225149
516.266684	0.227487
516.630488	0.228522
516.994235	0.227590
517.357925	0.226436
517.721558	0.224613
518.085133	0.224144
518.448651	0.223910
518.812112	0.226579
519.175516	0.226033
519.538863	0.223477
519.902152	0.225651
520.265385	0.221944
520.628560	0.223828
520.991678	0.224239
521.354739	0.223366
521.717743	0.224478
522.080690	0.224845
522.443580	0.222139
522.806413	0.222900
523.169189	0.222522
523.531908	0.221064
523.894569	0.224857
524.257174	0.225012
524.619722	0.222682
524.982213	0.223379
525.344647	0.222250
525.707025	0.223234
526.069345	0.221706
526.431608	0.223211
526.793815	0.221220
527.155964	0.225616
527.518057	0.224140
527.880093	0.225264
528.242072	0.223694
528.603995	0.225705
528.965860	0.227536
529.327669	0.226359
529.689421	0.227142
530.051117	0.228176
530.412755	0.225780
530.774337	0.228077
531.135862	0.228618
531.497331	0.227797
531.858743	0.230777
532.220098	0.227500
532.581396	0.229898
532.942638	0.230503
533.303824	0.231592
533.664953	0.231118
534.026025	0.232857
534.387040	0.231121
534.747999	0.230706
535.108902	0.229829
535.469748	0.234883
535.830537	0.232723
536.191270	0.232848
536.551947	0.232358
536.912567	0.232592
537.273131	0.234101
537.633638	0.234741
537.994089	0.234986
538.354483	0.235970
538.714821	0.232800
539.075103	0.232662
539.435328	0.233408
539.795497	0.237084
540.155609	0.234182
540.515665	0.232103
540.875665	0.237798
541.235609	0.236286
541.595496	0.236183
541.955328	0.233129
542.315102	0.235565
542.674821	0.236634
543.034483	0.236727
543.394090	0.236234
543.753640	0.238377
544.113134	0.233273
544.472571	0.236681
544.831953	0.233687
545.191278	0.237697
545.550548	0.237145
545.909761	0.234089
546.268918	0.234926
546.628019	0.233183
546.987064	0.236113
547.346053	0.237478
547.704986	0.235147
548.063863	0.235560
548.422684	0.235972
548.781449	0.237821
549.140158	0.235605
549.498811	0.238083
549.857408	0.241432
550.215949	0.236071
550.574434	0.239039
550.932864	0.237169
551.291237	0.235862
551.649555	0.237317
552.007817	0.236861
552.366022	0.238084
552.724173	0.238041
553.082267	0.238335
553.440305	0.235222
553.798288	0.239756
554.156215	0.236162
554.514086	0.236697
554.871902	0.240067
555.229661	0.239081
555.587365	0.239898
555.945014	0.242204
556.302606	0.239227
556.660143	0.242038
557.017625	0.238386
557.375050	0.240392
557.732421	0.237806
558.089735	0.239644
558.446994	0.239523
558.804197	0.238959
559.161345	0.238579
559.518437	0.242115
559.875474	0.240181
560.232455	0.239747
560.589381	0.240586
560.946251	0.240636
561.303065	0.238369
561.659825	0.239725
562.016528	0.241285
562.373177	0.244055
562.729770	0.241460
563.086307	0.243252
563.442789	0.241047
563.799216	0.243779
564.155587	0.243078
564.511904	0.244006
564.868164	0.243777
565.224370	0.243833
565.580520	0.245562
565.936615	0.244979
566.292654	0.248621
566.648638	0.245574
567.004567	0.246641
567.360441	0.246649
567.716260	0.249087
568.072023	0.246353
568.427732	0.247590
568.783385	0.249834
569.138982	0.248113
569.494525	0.247687
569.850013	0.250566
570.205445	0.249011
570.560823	0.251370
570.916145	0.253428
571.271412	0.251813
571.626625	0.253348
571.981782	0.254018
572.336884	0.254715
572.691931	0.254374
573.046923	0.255716
573.401860	0.256897
573.756743	0.258667
574.111570	0.257425
574.466342	0.257812
574.821059	0.256721
575.175722	0.260400
575.530330	0.259820
575.884882	0.259797
576.239380	0.261542
576.593823	0.262301
576.948211	0.261609
577.302544	0.265342
577.656823	0.265022
578.011047	0.264435
578.365216	0.265801
578.719330	0.267835
579.073389	0.266991
579.427394	0.268212
579.781344	0.269327
580.135239	0.270441
580.489080	0.270278
580.842866	0.273411
581.196597	0.273557
581.550273	0.271965
581.903895	0.273250
582.257463	0.270842
582.610975	0.274704
582.964434	0.273836
583.317837	0.276103
583.671186	0.276528
584.024481	0.276751
584.377721	0.278641
584.730906	0.279614
585.084037	0.279343
585.437113	0.281021
585.790135	0.280456
586.143103	0.283169
586.496016	0.284298
586.848874	0.281857
587.201679	0.282520
587.554428	0.285810
587.907124	0.284735
588.259765	0.285485
588.612352	0.285881
588.964884	0.289684
589.317362	0.288897
589.669786	0.289289
590.022155	0.287744
590.374470	0.287246
590.726731	0.288884
591.078937	0.294125
591.431090	0.290299
591.783188	0.294232
592.135232	0.294892
592.487222	0.295024
592.839157	0.292915
593.191038	0.295508
593.542866	0.297276
593.894639	0.300209
594.246358	0.298720
594.598022	0.298574
594.949633	0.301916
595.301190	0.302583
595.652692	0.301469
596.004141	0.297474
596.355535	0.305817
596.706876	0.306396
597.058162	0.308802
597.409395	0.305991
597.760573	0.303689
598.111698	0.307122
598.462768	0.307338
598.813785	0.308948
599.164748	0.310091
599.515657	0.310629
599.866511	0.314190
600.217312	0.309407
600.568060	0.314415
600.918753	0.310797
601.269392	0.311742
601.619978	0.315017
601.970510	0.312898
602.320988	0.312760
602.671412	0.310844
603.021783	0.313096
603.372100	0.314288
603.722363	0.313974
604.072572	0.314883
604.422728	0.314758
604.772830	0.317104
605.122878	0.316744
605.472872	0.317085
605.822813	0.315509
606.172701	0.318031
606.522534	0.315089
606.872314	0.315700
607.222041	0.316603
607.571714	0.314466
607.921333	0.316202
608.270899	0.315445
608.620411	0.312265
608.969870	0.316419
609.319276	0.316705
609.668627	0.316495
610.017926	0.314667
610.367171	0.313325
610.716362	0.314478
611.065500	0.314241
611.414585	0.313085
611.763616	0.313403
612.112594	0.314031
612.461518	0.313173
612.810389	0.311134
613.159207	0.313628
613.507971	0.315126
613.856682	0.310945
614.205340	0.312302
614.553945	0.309523
614.902496	0.313226
615.250994	0.311407
615.599439	0.312205
615.947830	0.311572
616.296169	0.312317
616.644454	0.312257
616.992686	0.312299
617.340864	0.309948
617.688990	0.313496
618.037063	0.310073
618.385082	0.312124
618.733048	0.308911
619.080961	0.311400
619.428821	0.310691
619.776628	0.310458
620.124382	0.312606
620.472083	0.313312
620.819731	0.312270
621.167326	0.316025
621.514868	0.316150
621.862357	0.320028
622.209793	0.319561
622.557176	0.321832
622.904506	0.323180
623.251783	0.325355
623.599007	0.327686
623.946179	0.327282
624.293297	0.329529
624.640363	0.333473
624.987376	0.333591
625.334336	0.336392
625.681243	0.338595
626.028097	0.339231
626.374899	0.340134
626.721647	0.340576
627.068343	0.343402
627.414987	0.344808
627.761577	0.346968
628.108115	0.344928
628.454600	0.350370
628.801032	0.347950
629.147412	0.349737
629.493739	0.350741
629.840014	0.353219
630.186236	0.350053
630.532405	0.356650
630.878521	0.353542
631.224585	0.355714
631.570597	0.359503
631.916556	0.357911
632.262462	0.357647
632.608316	0.360399
632.954117	0.361225
633.299866	0.361925
633.645562	0.362230
633.991206	0.366836
634.336797	0.369702
634.682336	0.372057
635.027823	0.373394
635.373257	0.374381
635.718639	0.378512
636.063968	0.377022
636.409245	0.383081
636.754470	0.383678
637.099642	0.385795
637.444762	0.389468
637.789829	0.388390
638.134845	0.391924
638.479808	0.392784
638.824719	0.392112
639.169577	0.396932
639.514383	0.395386
639.859137	0.400249
640.203839	0.399466
640.548489	0.400260
640.893086	0.400895
641.237632	0.402985
641.582125	0.402178
641.926566	0.404136
642.270955	0.403592
642.615292	0.403732
642.959576	0.402934
643.303809	0.403903
643.647990	0.403360
643.992118	0.404106
644.336195	0.406969
644.680219	0.405985
645.024192	0.406338
645.368112	0.400424
645.711981	0.399241
646.055797	0.394243
646.399562	0.396991
646.743274	0.389776
647.086935	0.386556
647.430544	0.386898
647.774101	0.385756
648.117606	0.385591
648.461059	0.386274
648.804460	0.388412
649.147810	0.393471
649.491108	0.395280
649.834354	0.397073
650.177548	0.402420
650.520690	0.407785
650.863781	0.409225
651.206820	0.408076
651.549807	0.413116
651.892742	0.417138
652.235626	0.416465
652.578458	0.417203
652.921238	0.424330
653.263967	0.421698
653.606644	0.425483
653.949269	0.425527
654.291843	0.429571
654.634365	0.426929
654.976836	0.429251
655.319255	0.430150
655.661622	0.431645
656.003938	0.432003
656.346203	0.434477
656.688416	0.432803
657.030577	0.435888
657.372687	0.438267
657.714746	0.439098
658.056753	0.436038
658.398708	0.439707
658.740612	0.441192
659.082465	0.437878
659.424266	0.438396
659.766016	0.437954
660.107715	0.441213
660.449362	0.439807
660.790958	0.440037
661.132503	0.441639
661.473996	0.439146
661.815438	0.440151
662.156829	0.439930
662.498168	0.441247
662.839456	0.442682
663.180693	0.440537
663.521879	0.440743
663.863013	0.441772
664.204097	0.439805
664.545129	0.437162
664.886110	0.437558
665.227040	0.435882
665.567918	0.437845
665.908746	0.436210
666.249522	0.435990
666.590248	0.437450
666.930922	0.435321
667.271545	0.434718
667.612118	0.435049
667.952639	0.436577
668.293109	0.435765
668.633528	0.438478
668.973896	0.438777
669.314213	0.439374
669.654480	0.441513
669.994695	0.441236
670.334859	0.442270
670.674973	0.443832
671.015035	0.443400
671.355047	0.443520
671.695008	0.444811
672.034918	0.446443
672.374777	0.446211
672.714585	0.448025
673.054342	0.447439
673.394049	0.447983
673.733705	0.446394
674.073310	0.448225
674.412864	0.450442
674.752368	0.451302
675.091820	0.452118
675.431223	0.456728
675.770574	0.456268
676.109875	0.459661
676.449125	0.459526
676.788324	0.462512
677.127473	0.467795
677.466571	0.467858
677.805619	0.469800
678.144616	0.471246
678.483562	0.473184
678.822458	0.475934
679.161303	0.476242
679.500098	0.477370
679.838842	0.479232
680.177535	0.478968
680.516179	0.477507
680.854771	0.477615
681.193314	0.471200
681.531805	0.463164
681.870247	0.453272
682.208638	0.445964
682.546978	0.445032
682.885268	0.446969
683.223508	0.454208
683.561697	0.458485
683.899836	0.460665
684.237925	0.463953
684.575963	0.467862
684.913951	0.470570
685.251889	0.467171
685.589776	0.469227
685.927614	0.471637
686.265401	0.467256
686.603137	0.469268
686.940824	0.464189
687.278460	0.462711
687.616046	0.463115
687.953582	0.458697
688.291068	0.459887
688.628504	0.456688
688.965889	0.459295
689.303224	0.462948
689.640510	0.467745
689.977745	0.473504
690.314930	0.480926
690.652065	0.485517
690.989150	0.492361
691.326185	0.499410
691.663170	0.503596
692.000105	0.510858
692.336990	0.517751
692.673825	0.520532
693.010610	0.526574
693.347345	0.531768
693.684030	0.535268
694.020665	0.539166
694.357251	0.547710
694.693786	0.548269
695.030272	0.550852
695.366707	0.556014
695.703093	0.558487
696.039429	0.557246
696.375716	0.561170
696.711952	0.562673
697.048139	0.564264
697.384276	0.567307
697.720363	0.566415
698.056400	0.565889
698.392388	0.571663
698.728326	0.573681
699.064214	0.576443
699.400053	0.577596
699.735842	0.582775
700.071581	0.584556
700.407270	0.587587
700.742910	0.590614
701.078501	0.596184
701.414042	0.598367
701.749533	0.600897
702.084974	0.609296
702.420366	0.603244
702.755709	0.610521
703.091002	0.617329
703.426246	0.613083
703.761440	0.616935
704.096584	0.620710
704.431679	0.619806
704.766725	0.622728
705.101721	0.625094
705.436668	0.621954
705.771565	0.626696
706.106413	0.623746
706.441212	0.621866
706.775961	0.622314
707.110661	0.622654
707.445311	0.619364
707.779913	0.619894
708.114465	0.618188
708.448967	0.614828
708.783421	0.608758
709.117825	0.604291
709.452180	0.604332
709.786485	0.599069
710.120742	0.590954
710.454949	0.591592
710.789107	0.586127
711.123216	0.578773
711.457275	0.579609
711.791286	0.574028
712.125247	0.574367
712.459159	0.581153
712.793023	0.573813
713.126837	0.581984
713.460602	0.582380
713.794318	0.587767
714.127985	0.588310
714.461602	0.599491
714.795171	0.600286
715.128691	0.607959
715.462162	0.616589
715.795584	0.622814
716.128957	0.625712
716.462281	0.629479
716.795556	0.633465
717.128782	0.640592
717.461960	0.648374
717.795088	0.647418
718.128167	0.653429
718.461198	0.659281
718.794180	0.660713
719.127113	0.665492
719.459997	0.668640
719.792833	0.673789
720.125619	0.674743
720.458357	0.680523
720.791046	0.681442
721.123686	0.684690
721.456278	0.690830
721.788821	0.689342
722.121315	0.693814
722.453761	0.696700
722.786158	0.697023
723.118506	0.694351
723.450805	0.698528
723.783056	0.696336
724.115259	0.696091
724.447412	0.696521
724.779518	0.696132
725.111574	0.696164
725.443582	0.692747
725.775542	0.695375
726.107453	0.689919
726.439315	0.690523
726.771129	0.687996
727.102895	0.682862
727.434612	0.678855
727.766281	0.676632
728.097901	0.674929
728.429473	0.675367
728.760996	0.674468
729.092471	0.674884
729.423897	0.679215
729.755276	0.679609
730.086606	0.678389
730.417887	0.672832
730.749120	0.666709
731.080305	0.661576
731.411442	0.656813
731.742530	0.659243
732.073570	0.659858
732.404562	0.654971
732.735506	0.657148
733.066401	0.660995
733.397249	0.667863
733.728048	0.677194
734.058798	0.690679
734.389501	0.701043
734.720156	0.706779
735.050762	0.714088
735.381320	0.717644
735.711831	0.722380
736.042293	0.727983
736.372707	0.727248
736.703073	0.729738
737.033391	0.730003
737.363661	0.728727
737.693883	0.725699
738.024056	0.724722
738.354182	0.724856
738.684260	0.716330
739.014290	0.714414
739.344272	0.713472
739.674207	0.709271
740.004093	0.709035
740.333931	0.709284
740.663722	0.711040
740.993464	0.712237
741.323159	0.714475
741.652806	0.718813
741.982405	0.723465
742.311956	0.728747
742.641460	0.730244
742.970915	0.733795
743.300323	0.740158
743.629683	0.743961
743.958996	0.747643
744.288260	0.751611
744.617477	0.757700
744.946647	0.757815
745.275768	0.764219
745.604842	0.765014
745.933869	0.770799
746.262847	0.772486
746.591778	0.768918
746.920662	0.774112
747.249498	0.778428
747.578286	0.773531
747.907027	0.770014
748.235720	0.767498
748.564365	0.766662
748.892963	0.768121
749.221514	0.770490
749.550017	0.772220
749.878473	0.773948
750.206881	0.779613
750.535242	0.780821
750.863555	0.780628
751.191821	0.781698
751.520039	0.782937
751.848210	0.785629
752.176334	0.783491
752.504411	0.784019
752.832440	0.788737
753.160421	0.790056
753.488356	0.790262
753.816243	0.790921
754.144082	0.796400
754.471875	0.798087
754.799620	0.796720
755.127318	0.796440
755.454969	0.797244
755.782572	0.799549
756.110129	0.799964
756.437638	0.802491
756.765100	0.801859
757.092515	0.801086
757.419882	0.801302
757.747203	0.802817
758.074477	0.803822
758.401703	0.801008
758.728882	0.799531
759.056014	0.797780
759.383099	0.797021
759.710138	0.796085
760.037129	0.792161
760.364073	0.791911
760.690970	0.793134
761.017820	0.794605
761.344623	0.792574
761.671379	0.787538
761.998088	0.779970
762.324751	0.762629
762.651366	0.727958
762.977935	0.674565
763.304456	0.637494
763.630931	0.634871
763.957359	0.663839
764.283740	0.697561
764.610074	0.722721
764.936362	0.747303
765.262602	0.765981
765.588796	0.783227
765.914943	0.795171
766.241044	0.807585
766.567097	0.814210
766.893104	0.821684
767.219064	0.826258
767.544978	0.831612
767.870845	0.839686
768.196665	0.842005
768.522438	0.843785
768.848165	0.846364
769.173846	0.852147
769.499479	0.854871
769.825066	0.857750
770.150607	0.860987
770.476101	0.859395
770.801548	0.862038
771.126949	0.868304
771.452303	0.870259
771.777611	0.871261
772.102872	0.871012
772.428087	0.874992
772.753256	0.877917
773.078378	0.879591
773.403453	0.884297
773.728482	0.888681
774.053465	0.884817
774.378401	0.887927
774.703291	0.892021
775.028135	0.893456
775.352932	0.893134
775.677683	0.896326
776.002388	0.897501
776.327046	0.897038
776.651658	0.900323
776.976224	0.901523
777.300743	0.901910
777.625216	0.903781
777.949643	0.905210
778.274024	0.904324
778.598359	0.904703
778.922647	0.906149
779.246889	0.906525
779.571086	0.908454
779.895236	0.909926
780.219339	0.909227
780.543397	0.906613
780.867409	0.906561
781.191374	0.908347
781.515294	0.909093
781.839167	0.908161
782.162995	0.908871
782.486776	0.908082
782.810511	0.909109
783.134201	0.913095
783.457844	0.912671
783.781441	0.912933
784.104993	0.915577
784.428498	0.916548
784.751958	0.915815
785.075372	0.916592
785.398739	0.918352
785.722061	0.916452
786.045337	0.915086
786.368568	0.916417
786.691752	0.917275
787.014891	0.909910
787.337983	0.903526
787.661030	0.895760
787.984031	0.884275
788.306987	0.876148
788.629897	0.876429
788.952760	0.882113
789.275579	0.886362
789.598351	0.895929
789.921078	0.904626
790.243759	0.908050
790.566395	0.910553
790.888984	0.916544
791.211529	0.919904
791.534027	0.922275
791.856480	0.924821
792.178888	0.925973
792.501249	0.926955
792.823566	0.929761
793.145836	0.928850
793.468062	0.930737
793.790241	0.931646
794.112375	0.929581
794.434464	0.928005
794.756507	0.926140
795.078505	0.924803
795.400457	0.921503
795.722364	0.915039
796.044226	0.909500
796.366042	0.908101
796.687812	0.909444
797.009538	0.908969
797.331218	0.912641
797.652852	0.914834
797.974442	0.916321
798.295986	0.919463
798.617484	0.919397
798.938938	0.922774
799.260346	0.925564
799.581709	0.926607
799.903026	0.929474
800.224299	0.930123
800.545526	0.931606
800.866708	0.934157
801.187845	0.935632
801.508936	0.936602
801.829983	0.936781
802.150984	0.939153
802.471940	0.940409
802.792851	0.939128
803.113717	0.942278
803.434538	0.941076
803.755314	0.941962
804.076045	0.942448
804.396731	0.941961
804.717372	0.941069
805.037967	0.943973
805.358518	0.942823
805.679024	0.939975
805.999485	0.941702
806.319901	0.939146
806.640272	0.941461
806.960598	0.939462
807.280879	0.938951
807.601115	0.938182
807.921306	0.940458
808.241453	0.940301
808.561554	0.940215
808.881611	0.940375
809.201623	0.940728
809.521590	0.941199
809.841513	0.943226
810.161390	0.940550
810.481223	0.942439
810.801011	0.945189
811.120755	0.946591
811.440453	0.945125
811.760107	0.947211
812.079716	0.946959
812.399281	0.947788
812.718801	0.948049
813.038276	0.949541
813.357707	0.950923
813.677093	0.950110
813.996434	0.950374
814.315731	0.952114
814.634983	0.951990
814.954191	0.952446
815.273354	0.949776
815.592473	0.948701
815.911547	0.949781
816.230577	0.947105
816.549562	0.944637
816.868502	0.944657
817.187399	0.944793
817.506250	0.942644
817.825058	0.941905
818.143821	0.941301
818.462539	0.938626
818.781213	0.934579
819.099843	0.927498
819.418429	0.916978
819.736970	0.907253
820.055466	0.894957
820.373919	0.882582
820.692327	0.866430
821.010691	0.843589
821.329011	0.787198
821.647286	0.696938
821.965517	0.612128
822.283704	0.581422
822.601847	0.585596
822.919945	0.619684
823.237999	0.659878
823.556010	0.699865
823.873976	0.739024
824.191897	0.772601
824.509775	0.800988
824.827609	0.826330
825.145398	0.838930
825.463144	0.840061
825.780845	0.830795
826.098502	0.818096
826.416116	0.787563
826.733685	0.755198
827.051210	0.749092
827.368692	0.764668
827.686129	0.793965
828.003522	0.827443
828.320872	0.854700
828.638177	0.878794
828.955439	0.897379
829.272656	0.909249
829.589830	0.918349
829.906960	0.927939
830.224046	0.934219
830.541088	0.938965
830.858086	0.942649
831.175041	0.946291
831.491952	0.945562
831.808819	0.945274
832.125642	0.941902
832.442421	0.934852
832.759157	0.920669
833.075849	0.892097
833.392497	0.855110
833.709101	0.834067
834.025662	0.840439
834.342179	0.860025
834.658653	0.883829
834.975083	0.903425
835.291469	0.919982
835.607811	0.931684
835.924110	0.939469
836.240366	0.949690
836.556578	0.955037
836.872746	0.959643
837.188871	0.962011
837.504952	0.965052
837.820990	0.966571
838.136984	0.967950
838.452935	0.969890
838.768842	0.970255
839.084706	0.966920
839.400526	0.953583
839.716303	0.928752
840.032037	0.917142
840.347727	0.920417
840.663373	0.932607
840.978977	0.945702
841.294537	0.956630
841.610054	0.964781
841.925527	0.968397
842.240957	0.971585
842.556344	0.975239
842.871687	0.977707
843.186987	0.979427
843.502244	0.981248
843.817458	0.980951
844.132629	0.982689
844.447756	0.983682
844.762840	0.984621
845.077881	0.986359
845.392879	0.983964
845.707833	0.986069
846.022745	0.985969
846.337613	0.986550
846.652438	0.986411
846.967221	0.987650
847.281960	0.987507
847.596656	0.988359
847.911309	0.988652
848.225919	0.988445
848.540485	0.988167
848.855009	0.991456
849.169490	0.989191
849.483928	0.988806
849.798323	0.988289
850.112675	0.989575
850.426984	0.990048
850.741251	0.989154
851.055474	0.988319
851.369654	0.989978
851.683792	0.988317
851.997887	0.989750
852.311938	0.990446
852.625947	0.989543
852.939914	0.988591
853.253837	0.990847
853.567718	0.989507
853.881555	0.989708
854.195350	0.990234
854.509103	0.990408
854.822812	0.989740
855.136479	0.989838
855.450103	0.990150
855.763685	0.990181
856.077224	0.989913
856.390720	0.989580
856.704173	0.990177
857.017584	0.989693
857.330953	0.990336
857.644278	0.988752
857.957561	0.987770
858.270802	0.989730
858.584000	0.988800
858.897155	0.988054
859.210268	0.988705
859.523339	0.990177
859.836367	0.990280
860.149352	0.989676
860.462295	0.990348
860.775195	0.990901
861.088054	0.989008
861.400869	0.989787
861.713642	0.990044
862.026373	0.990795
862.339062	0.989922
862.651708	0.989058
862.964312	0.989463
863.276873	0.989495
863.589392	0.989466
863.901869	0.988243
864.214303	0.989456
864.526696	0.987807
864.839045	0.987952
865.151353	0.986286
865.463619	0.985938
865.775842	0.987049
866.088023	0.989648
866.400162	0.988498
866.712258	0.987981
867.024313	0.989418
867.336325	0.988596
867.648296	0.988816
867.960224	0.987019
868.272110	0.988349
868.583954	0.988581
868.895755	0.988372
869.207515	0.988713
869.519233	0.987826
869.830909	0.987539
870.142542	0.986063
870.454134	0.986820
870.765684	0.986865
871.077191	0.986577
871.388657	0.986647
871.700081	0.985970
872.011463	0.986613
872.322803	0.985770
872.634101	0.983705
872.945357	0.984188
873.256571	0.983098
873.567744	0.984669
873.878874	0.983556
874.189963	0.982398
874.501010	0.983875
874.812015	0.983085
875.122979	0.983056
875.433900	0.983572
875.744780	0.984447
876.055618	0.982466
876.366415	0.982416
876.677169	0.982610
876.987882	0.983215
877.298554	0.984389
877.609183	0.983231
877.919771	0.982261
878.230317	0.981951
878.540822	0.980471
878.851285	0.978044
879.161707	0.975509
879.472087	0.971888
879.782425	0.963139
880.092722	0.948514
880.402977	0.923707
880.713191	0.884632
881.023363	0.840548
881.333494	0.815109
881.643583	0.807005
881.953631	0.814872
882.263637	0.832859
882.573602	0.856448
882.883526	0.873378
883.193408	0.889771
883.503248	0.902439
883.813048	0.916932
884.122806	0.929617
884.432522	0.940229
884.742197	0.950130
885.051831	0.954810
885.361424	0.961078
885.670975	0.966703
885.980485	0.969098
886.289954	0.970240
886.599382	0.972486
886.908768	0.975232
887.218113	0.976642
887.527417	0.978206
887.836680	0.981892
888.145901	0.982405
888.455082	0.983759
888.764221	0.984294
889.073319	0.984106
889.382376	0.986677
889.691392	0.984797
890.000366	0.986126
890.309300	0.986253
890.618193	0.985210
890.927044	0.985119
891.235855	0.984136
891.544625	0.984922
891.853353	0.984931
892.162041	0.984063
892.470687	0.982726
892.779293	0.979230
893.087858	0.975654
893.396381	0.973050
893.704864	0.967361
894.013306	0.958449
894.321707	0.945772
894.630068	0.937917
894.938387	0.936814
895.246665	0.938724
895.554903	0.945087
895.863100	0.953414
896.171256	0.958806
896.479371	0.965920
896.787446	0.970001
897.095480	0.975130
897.403473	0.976388
897.711425	0.978365
898.019336	0.980480
898.327207	0.982100
898.635038	0.982145
898.942827	0.983657
899.250576	0.983202
899.558284	0.986336
899.865952	0.984740
900.173579	0.986702
900.481165	0.987367
900.788711	0.986486
901.096216	0.987186
901.403681	0.988270
901.711105	0.988231
902.018489	0.988199
902.325832	0.988769
902.633135	0.988007
902.940397	0.986592
903.247619	0.981814
903.554800	0.971040
903.861941	0.952872
904.169041	0.935102
904.476101	0.926770
904.783121	0.927375
905.090100	0.937303
905.397039	0.948055
905.703938	0.957950
906.010796	0.966599
906.317614	0.972995
906.624391	0.978851
906.931129	0.981937
907.237826	0.984123
907.544483	0.987280
907.851099	0.988322
908.157675	0.990757
908.464211	0.990680
908.770707	0.991598
909.077163	0.992398
909.383578	0.993623
909.689954	0.992903
909.996289	0.994761
910.302584	0.994077
910.608839	0.995238
910.915054	0.995346
911.221229	0.995338
911.527363	0.993631
911.833458	0.994003
912.139513	0.994173
912.445527	0.995252
912.751502	0.993333
913.057436	0.990969
913.363331	0.991390
913.669186	0.990849
913.975000	0.988024
914.280775	0.986767
914.586510	0.982351
914.892205	0.976361
915.197859	0.967688
915.503475	0.957181
915.809050	0.947812
916.114585	0.942781
916.420081	0.941944
916.725536	0.942652
917.030952	0.947289
917.336328	0.953635
917.641665	0.960142
917.946961	0.965886
918.252218	0.970456
918.557435	0.974102
918.862612	0.977548
919.167750	0.980531
919.472848	0.982604
919.777906	0.984865
920.082925	0.987228
920.387904	0.987874
920.692843	0.989150
920.997743	0.989032
921.302603	0.991019
921.607423	0.990787
921.912204	0.991728
922.216946	0.993128
922.521647	0.992505
922.826310	0.992509
923.130932	0.993799
923.435516	0.994220
923.740059	0.994348
924.044564	0.995062
924.349028	0.994822
924.653454	0.996648
924.957840	0.995889
925.262186	0.996784
925.566493	0.996906
925.870761	0.998074
926.174989	0.996476
926.479178	0.999311
926.783328	0.999442
927.087438	0.997290
927.391509	0.997318
927.695541	0.997932
927.999533	0.999110
928.303486	0.998281
928.607400	0.999209
928.911275	0.998780
929.215110	0.999644
929.518906	0.999866
929.822663	0.999929
930.126381	1.000113
930.430060	0.999087
930.733699	0.999265
931.037299	0.999304
931.340861	0.999277
931.644383	0.998072
931.947866	0.999632
932.251309	0.998624
932.554714	0.997597
932.858080	0.999739
933.161407	0.998599
933.464694	0.999327
933.767943	0.999078
934.071153	1.000564
934.374323	0.999566
934.677455	0.998937
934.980548	0.999655
935.283602	0.999259
935.586617	1.000365
935.889593	0.999430
936.192530	0.999990
936.495428	0.998161
936.798287	0.999348
937.101108	0.999024
937.403890	0.998713
937.706632	1.001028
938.009336	0.998568
938.312002	0.997746
938.614628	0.997112
938.917216	0.996266
939.219765	0.996157
939.522275	0.996545
939.824747	0.997513
940.127179	0.995332
940.429573	0.997901
940.731929	0.996562
941.034246	0.997529
941.336524	0.996351
941.638763	0.997400
941.940964	0.996863
942.243126	0.998437
942.545250	0.998030
942.847335	0.999302
943.149381	0.999024
943.451389	0.997942
943.753359	0.999454
944.055290	1.000219
944.357182	0.998850
944.659036	0.998816
944.960851	0.999543
945.262628	1.000151
945.564367	0.999997
945.866067	0.997830
946.167729	0.999875
946.469352	0.998911
946.770937	0.997515
947.072484	0.999699
947.373992	0.999513
947.675462	0.998766
947.976893	0.999148
948.278286	1.000949
948.579641	0.999876
948.880958	0.998875
949.182236	0.999933
949.483476	1.000104
949.784678	0.999072
950.085841	0.999061
950.386967	0.998903
950.688054	0.999740
950.989103	0.998750
951.290114	0.998048
951.591087	0.998894
951.892021	0.998347
952.192917	0.998919
952.493776	0.999407
952.794596	0.999585
953.095378	0.998755
953.396122	0.998580
953.696828	0.999029
953.997496	0.999030
954.298126	0.999840
954.598718	0.998026
954.899272	0.999708
955.199788	0.999006
955.500266	0.999887
955.800706	1.000038
956.101108	1.000322
956.401472	1.001527
956.701798	0.999757
957.002087	0.999426
957.302337	1.000454
957.602550	1.000269
957.902724	1.001117
958.202861	1.001255
958.502960	1.001154
958.803022	1.002174
959.103045	1.001339
959.403031	1.001795
959.702979	1.002204
960.002889	1.001345
960.302762	1.001043
960.602596	1.001951
960.902393	1.002150
961.202153	1.002106
961.501875	1.001588
961.801559	1.002425
962.101205	1.000888
962.400814	1.001721
962.700385	1.003083
962.999918	1.001843
963.299414	1.000630
963.598873	1.001377
963.898293	1.001962
964.197677	1.002054
964.497022	1.002666
964.796331	1.002725
965.095601	1.002845
965.394835	1.001501
965.694030	1.002781
965.993189	1.001730
966.292309	1.002039
966.591393	1.001669
966.890439	1.002197
967.189447	1.001004
967.488419	1.002882
967.787353	1.002554
968.086249	1.002176
968.385108	1.001271
968.683930	1.002025
968.982714	1.002316
969.281462	1.001797
969.580172	1.001372
969.878844	1.003222
970.177480	1.002248
970.476078	1.003151
970.774639	1.003995
971.073162	1.001750
971.371649	1.001969
971.670098	1.001680
971.968510	1.002366
972.266885	1.002256
972.565223	1.001690
972.863524	1.000658
973.161788	1.001659
973.460014	1.002754
973.758204	1.001995
974.056356	1.001831
974.354471	1.002113
974.652550	1.001976
974.950591	1.001896
975.248595	1.001676
975.546563	1.001549
975.844493	1.003074
976.142386	1.001466
976.440243	1.002994
976.738062	1.002828
977.035845	1.001084
977.333590	1.003197
977.631299	1.001543
977.928971	1.002345
978.226606	1.002248
978.524204	1.001529
978.821765	1.003071
979.119290	1.003422
979.416777	1.002637
979.714228	1.001888
980.011642	1.003981
980.309020	1.001839
980.606360	1.002562
980.903664	1.002851
981.200931	1.001484
981.498162	1.002081
981.795356	1.002189
982.092513	1.000416
982.389633	1.001414
982.686717	1.000597
982.983764	1.000975
983.280775	1.000538
983.577749	1.001608
983.874686	0.999695
984.171587	0.999436
984.468451	1.001823
984.765279	1.002142
985.062070	1.001038
985.358824	1.001073
985.655543	1.002685
985.952224	1.001994
986.248869	1.002185
986.545478	1.003588
986.842050	1.001273
987.138586	1.001318
987.435086	1.003487
987.731549	1.003760
988.027975	1.003677
988.324366	1.003473
988.620719	1.003802
988.917037	1.003409
989.213318	1.003840
989.509563	1.002495
989.805772	1.003573
990.101944	1.003699
990.398080	1.002737
990.694180	1.003476
990.990244	1.002423
991.286271	1.002834
991.582262	1.003168
991.878217	1.003339
992.174136	1.003703
992.470019	1.003185
992.765865	1.004927
993.061676	1.003300
993.357450	1.003279
993.653188	1.004367
993.948890	1.003474
994.244556	1.002425
994.540186	1.003048
994.835780	1.002880
995.131337	1.003291
995.426859	1.002921
995.722345	1.002939
996.017795	1.002871
996.313208	1.002246
996.608586	1.001511
996.903928	1.003556
997.199234	1.002154
997.494504	1.003112
997.789738	1.001743
998.084936	1.002637
998.380099	1.002225
998.675225	1.003832
998.970316	1.001954
999.265371	1.002789
999.560390	1.002165
999.855373	1.003707
1000.150320	1.002883
1000.445232	1.003804
1000.740108	1.003072
1001.034948	1.003331
1001.329752	1.004150
1001.624521	1.001963
1001.919254	1.002856
1002.213951	1.005199
1002.508613	1.001458
1002.803239	1.002853
1003.097829	1.003292
1003.392384	1.002645
1003.686903	1.003796
1003.981386	1.003538
1004.275834	1.004088
1004.570246	1.002906
1004.864623	1.003881
1005.158964	1.003700
1005.453270	1.001396
1005.747540	1.002615
1006.041775	1.003049
1006.335974	1.002752
1006.630138	1.003331
1006.924266	1.001911
1007.218359	1.001158
1007.512416	1.003189
1007.806438	1.001858
1008.100425	1.003952
1008.394376	1.004346
1008.688292	1.003297
1008.982172	1.003289
1009.276017	1.004759
1009.569827	1.004396
1009.863602	1.001999
1010.157341	1.003650
1010.451045	1.003485
1010.744714	1.004646
1011.038347	1.004889
1011.331945	1.004080
1011.625508	1.003969
1011.919036	1.003866
1012.212528	1.003822
1012.505986	1.003249
1012.799408	1.003727
1013.092795	1.003854
1013.386147	1.003207
1013.679464	1.003911
1013.972745	1.003995
1014.265992	1.003840
1014.559204	1.001869
1014.852380	1.003687
1015.145521	1.003968
1015.438628	1.003529
1015.731699	1.003019
1016.024736	1.004494
1016.317737	1.003793
1016.610703	1.003564
1016.903635	1.003303
1017.196531	1.002118
1017.489393	1.003460
1017.782219	1.003060
1018.075011	1.002787
1018.367768	1.002901
1018.660490	1.004413
1018.953177	1.004413
1019.245829	1.004413
