Dividing Wavelength (nm)	Counts (n)	Blue Motor Position (mm): 13.900000	Red Motor Position (mm): 0.000000	
326.493990	1.002352
326.888308	1.002352
327.282561	1.002352
327.676750	1.003145
328.070874	1.003119
328.464933	1.003532
328.858929	1.003753
329.252859	1.002907
329.646726	1.002808
330.040528	1.003403
330.434265	1.003222
330.827938	1.003420
331.221547	1.003716
331.615091	1.002333
332.008571	1.004138
332.401986	1.002432
332.795338	1.003347
333.188625	1.002705
333.581847	1.001810
333.975006	1.002901
334.368100	1.002707
334.761129	1.002183
335.154095	1.002735
335.546996	1.002109
335.939833	0.997963
336.332606	0.999418
336.725315	0.996786
337.117960	0.999641
337.510540	0.998338
337.903056	0.998333
338.295508	1.000349
338.687896	0.999510
339.080220	0.998943
339.472480	0.998727
339.864676	0.998887
340.256807	0.998702
340.648875	0.998931
341.040879	0.998973
341.432818	0.998066
341.824694	0.998750
342.216506	0.998507
342.608253	0.997902
342.999937	0.998468
343.391557	0.997637
343.783113	0.999828
344.174605	0.998484
344.566033	0.997034
344.957397	0.998118
345.348697	0.998907
345.739934	0.999059
346.131106	0.998163
346.522215	0.998077
346.913260	0.998469
347.304241	0.997878
347.695159	0.998025
348.086012	0.999357
348.476802	0.997656
348.867528	0.997943
349.258191	0.998814
349.648789	0.998452
350.039324	0.998174
350.429796	0.998876
350.820203	0.997378
351.210548	0.997825
351.600828	0.998164
351.991045	0.997807
352.381198	0.997812
352.771288	0.997632
353.161314	0.998819
353.551276	0.997387
353.941175	0.995972
354.331010	0.998715
354.720782	0.998120
355.110490	0.997519
355.500135	0.998477
355.889717	0.996507
356.279235	0.996642
356.668689	0.998682
357.058080	0.996793
357.447408	0.995832
357.836672	0.998052
358.225873	0.997270
358.615010	0.997306
359.004084	0.996856
359.393095	0.997959
359.782043	0.997986
360.170927	0.997913
360.559748	0.997951
360.948505	0.997522
361.337199	0.996020
361.725830	0.998196
362.114398	0.996503
362.502903	0.996055
362.891344	0.996561
363.279722	0.996914
363.668037	0.998769
364.056289	0.996380
364.444478	0.998044
364.832603	0.996659
365.220665	0.996793
365.608665	0.995953
365.996601	0.995794
366.384474	0.994807
366.772284	0.996224
367.160031	0.994708
367.547715	0.995089
367.935336	0.993658
368.322893	0.991341
368.710388	0.991797
369.097820	0.990047
369.485189	0.987746
369.872495	0.987092
370.259738	0.985050
370.646918	0.980844
371.034035	0.978865
371.421090	0.976825
371.808081	0.969903
372.195010	0.969425
372.581875	0.963340
372.968678	0.959513
373.355418	0.955795
373.742096	0.947317
374.128710	0.942762
374.515262	0.937803
374.901751	0.933343
375.288177	0.928251
375.674540	0.921811
376.060841	0.914946
376.447079	0.908390
376.833254	0.901996
377.219367	0.897299
377.605417	0.884888
377.991404	0.882732
378.377329	0.875268
378.763191	0.870394
379.148991	0.860369
379.534727	0.853282
379.920402	0.844935
380.306013	0.842001
380.691563	0.829341
381.077049	0.823075
381.462474	0.818117
381.847835	0.807463
382.233134	0.801674
382.618371	0.801821
383.003545	0.784861
383.388657	0.782017
383.773706	0.774844
384.158693	0.771745
384.543618	0.766404
384.928480	0.756999
385.313280	0.747577
385.698017	0.746388
386.082692	0.734704
386.467305	0.733208
386.851856	0.728590
387.236344	0.722744
387.620770	0.717284
388.005133	0.711618
388.389435	0.705204
388.773674	0.703807
389.157851	0.694796
389.541965	0.693255
389.926018	0.699395
390.310008	0.685732
390.693936	0.683159
391.077802	0.674352
391.461606	0.677413
391.845348	0.666498
392.229027	0.665258
392.612645	0.663977
392.996200	0.651130
393.379694	0.644357
393.763125	0.633760
394.146494	0.638694
394.529801	0.629193
394.913047	0.621355
395.296230	0.627552
395.679351	0.618575
396.062410	0.615367
396.445408	0.617370
396.828343	0.612946
397.211217	0.608226
397.594028	0.620259
397.976778	0.610700
398.359466	0.607273
398.742092	0.602815
399.124656	0.614502
399.507158	0.602637
399.889598	0.600076
400.271977	0.590788
400.654294	0.595162
401.036549	0.594071
401.418742	0.599052
401.800874	0.584515
402.182944	0.581772
402.564952	0.572674
402.946898	0.574967
403.328783	0.575644
403.710606	0.586811
404.092367	0.561445
404.474067	0.566732
404.855705	0.565094
405.237282	0.574277
405.618797	0.561202
406.000250	0.555570
406.381642	0.546263
406.762972	0.551714
407.144240	0.550608
407.525447	0.549643
407.906593	0.542154
408.287677	0.538288
408.668700	0.546541
409.049661	0.540703
409.430560	0.535609
409.811399	0.544174
410.192176	0.526104
410.572891	0.533015
410.953545	0.521618
411.334138	0.534577
411.714669	0.527123
412.095139	0.540396
412.475547	0.523725
412.855894	0.525683
413.236180	0.524712
413.616405	0.529815
413.996568	0.519994
414.376670	0.526276
414.756711	0.531772
415.136691	0.527940
415.516609	0.519414
415.896466	0.516429
416.276262	0.512201
416.655997	0.513123
417.035670	0.495767
417.415283	0.486826
417.794834	0.491454
418.174324	0.497744
418.553753	0.506388
418.933121	0.488441
419.312428	0.482100
419.691674	0.488008
420.070859	0.476968
420.449983	0.484653
420.829045	0.473451
421.208047	0.482410
421.586988	0.475771
421.965867	0.474405
422.344686	0.463520
422.723444	0.475642
423.102141	0.493087
423.480777	0.465270
423.859352	0.486128
424.237866	0.463433
424.616319	0.464740
424.994712	0.454665
425.373044	0.465167
425.751314	0.453788
426.129524	0.470434
426.507673	0.453669
426.885762	0.446766
427.263789	0.452877
427.641756	0.462478
428.019662	0.452814
428.397508	0.451943
428.775292	0.456066
429.153016	0.448236
429.530679	0.454801
429.908282	0.447536
430.285824	0.457368
430.663305	0.436310
431.040726	0.457857
431.418086	0.457270
431.795385	0.449205
432.172624	0.448018
432.549802	0.448559
432.926920	0.447091
433.303977	0.446413
433.680974	0.443720
434.057910	0.442173
434.434786	0.441246
434.811601	0.444291
435.188355	0.426983
435.565050	0.436399
435.941683	0.437410
436.318257	0.421158
436.694770	0.422062
437.071222	0.420284
437.447614	0.424080
437.823946	0.431400
438.200218	0.420900
438.576429	0.430078
438.952580	0.423056
439.328670	0.419838
439.704700	0.426571
440.080670	0.428219
440.456580	0.409118
440.832429	0.417348
441.208218	0.428086
441.583947	0.417615
441.959616	0.416438
442.335224	0.421926
442.710773	0.412438
443.086261	0.410409
443.461689	0.424635
443.837057	0.414384
444.212365	0.404021
444.587612	0.411844
444.962800	0.401342
445.337927	0.403207
445.712995	0.428605
446.088002	0.390928
446.462949	0.401054
446.837837	0.406514
447.212664	0.395052
447.587431	0.386851
447.962139	0.356907
448.336786	0.315660
448.711374	0.326404
449.085901	0.370865
449.460369	0.375048
449.834776	0.378506
450.209124	0.357713
450.583412	0.350492
450.957640	0.343032
451.331808	0.354833
451.705917	0.378314
452.079965	0.382633
452.453954	0.371000
452.827883	0.377826
453.201752	0.372665
453.575562	0.383414
453.949311	0.372728
454.323001	0.378533
454.696632	0.374565
455.070202	0.366897
455.443713	0.359048
455.817164	0.353969
456.190556	0.348976
456.563888	0.346697
456.937160	0.343829
457.310373	0.361249
457.683526	0.360147
458.056619	0.366087
458.429653	0.366092
458.802628	0.369926
459.175542	0.364050
459.548398	0.346414
459.921194	0.338884
460.293930	0.338964
460.666607	0.316712
461.039224	0.305088
461.411782	0.300302
461.784280	0.299682
462.156719	0.303547
462.529099	0.308078
462.901419	0.324219
463.273680	0.328434
463.645882	0.328160
464.018024	0.334197
464.390106	0.326864
464.762130	0.311364
465.134094	0.294398
465.505999	0.263219
465.877845	0.233802
466.249631	0.220691
466.621358	0.227879
466.993026	0.242132
467.364634	0.248331
467.736184	0.256984
468.107674	0.265666
468.479105	0.265053
468.850477	0.271473
469.221790	0.278325
469.593043	0.288617
469.964238	0.293601
470.335373	0.293131
470.706449	0.290904
471.077467	0.291813
471.448425	0.253780
471.819324	0.229373
472.190164	0.228933
472.560945	0.257637
472.931667	0.279995
473.302330	0.284383
473.672934	0.296166
474.043479	0.284272
474.413965	0.286302
474.784393	0.289483
475.154761	0.284702
475.525070	0.281562
475.895321	0.287462
476.265513	0.281500
476.635645	0.277104
477.005719	0.276884
477.375734	0.273064
477.745691	0.266677
478.115588	0.263034
478.485427	0.256428
478.855207	0.243517
479.224928	0.225982
479.594591	0.213982
479.964194	0.217381
480.333739	0.218590
480.703226	0.220166
481.072653	0.218394
481.442022	0.213886
481.811333	0.210859
482.180584	0.214232
482.549777	0.219472
482.918912	0.222829
483.287988	0.222564
483.657005	0.222347
484.025964	0.228795
484.394864	0.225947
484.763706	0.226780
485.132489	0.231627
485.501213	0.232338
485.869879	0.230839
486.238487	0.234078
486.607036	0.231931
486.975527	0.236426
487.343959	0.232305
487.712333	0.231299
488.080648	0.232751
488.448905	0.231868
488.817104	0.233247
489.185244	0.227941
489.553326	0.224970
489.921350	0.214630
490.289315	0.197009
490.657222	0.191917
491.025070	0.193109
491.392861	0.194966
491.760593	0.200871
492.128267	0.206524
492.495883	0.212257
492.863440	0.218523
493.230939	0.224821
493.598380	0.226381
493.965763	0.228367
494.333088	0.230508
494.700354	0.232259
495.067563	0.231333
495.434713	0.234683
495.801805	0.232278
496.168839	0.234108
496.535815	0.235314
496.902733	0.235254
497.269593	0.236805
497.636395	0.234240
498.003139	0.234982
498.369825	0.237739
498.736453	0.234331
499.103023	0.236002
499.469535	0.235176
499.835989	0.235560
500.202385	0.236280
500.568723	0.239646
500.935003	0.234671
501.301226	0.239008
501.667390	0.233428
502.033497	0.231199
502.399546	0.234292
502.765537	0.236008
503.131470	0.234931
503.497345	0.230957
503.863163	0.239449
504.228923	0.232718
504.594625	0.231390
504.960269	0.236682
505.325856	0.232257
505.691385	0.236686
506.056856	0.233144
506.422270	0.232603
506.787625	0.235404
507.152924	0.232607
507.518164	0.232998
507.883347	0.234844
508.248472	0.236598
508.613540	0.231408
508.978550	0.233754
509.343503	0.234554
509.708398	0.232325
510.073236	0.229856
510.438016	0.229608
510.802738	0.230679
511.167403	0.229566
511.532010	0.231972
511.896561	0.227017
512.261053	0.225527
512.625488	0.227896
512.989866	0.228299
513.354186	0.228554
513.718449	0.230473
514.082655	0.226759
514.446803	0.229029
514.810894	0.226689
515.174927	0.229615
515.538904	0.229018
515.902822	0.225894
516.266684	0.228239
516.630488	0.229724
516.994235	0.228447
517.357925	0.227339
517.721558	0.225228
518.085133	0.224859
518.448651	0.224861
518.812112	0.227360
519.175516	0.227018
519.538863	0.224539
519.902152	0.226334
520.265385	0.223162
520.628560	0.224576
520.991678	0.225278
521.354739	0.224192
521.717743	0.225492
522.080690	0.225907
522.443580	0.223185
522.806413	0.224069
523.169189	0.223560
523.531908	0.222328
523.894569	0.226020
524.257174	0.226055
524.619722	0.223629
524.982213	0.224692
525.344647	0.223865
525.707025	0.224673
526.069345	0.222946
526.431608	0.224648
526.793815	0.222723
527.155964	0.226741
527.518057	0.225612
527.880093	0.226833
528.242072	0.225293
528.603995	0.227220
528.965860	0.228778
529.327669	0.228057
529.689421	0.228757
530.051117	0.229688
530.412755	0.227799
530.774337	0.229946
531.135862	0.230422
531.497331	0.229452
531.858743	0.232510
532.220098	0.229097
532.581396	0.231682
532.942638	0.232162
533.303824	0.233300
533.664953	0.233183
534.026025	0.234985
534.387040	0.232515
534.747999	0.232628
535.108902	0.231555
535.469748	0.236916
535.830537	0.234660
536.191270	0.234894
536.551947	0.234592
536.912567	0.234791
537.273131	0.236336
537.633638	0.236524
537.994089	0.236782
538.354483	0.238059
538.714821	0.235031
539.075103	0.234907
539.435328	0.235945
539.795497	0.239540
540.155609	0.236098
540.515665	0.234332
540.875665	0.240113
541.235609	0.238725
541.595496	0.238522
541.955328	0.235347
542.315102	0.238193
542.674821	0.239237
543.034483	0.239116
543.394090	0.238969
543.753640	0.240553
544.113134	0.235714
544.472571	0.238927
544.831953	0.236202
545.191278	0.240335
545.550548	0.239422
545.909761	0.236466
546.268918	0.237394
546.628019	0.235614
546.987064	0.238369
547.346053	0.240095
547.704986	0.238011
548.063863	0.238262
548.422684	0.238946
548.781449	0.240359
549.140158	0.238377
549.498811	0.241067
549.857408	0.244101
550.215949	0.239044
550.574434	0.242388
550.932864	0.240599
551.291237	0.239011
551.649555	0.241126
552.007817	0.240543
552.366022	0.241657
552.724173	0.241699
553.082267	0.241803
553.440305	0.239172
553.798288	0.243291
554.156215	0.240337
554.514086	0.241074
554.871902	0.244413
555.229661	0.243654
555.587365	0.244284
555.945014	0.247149
556.302606	0.244195
556.660143	0.247102
557.017625	0.243758
557.375050	0.246054
557.732421	0.243275
558.089735	0.245371
558.446994	0.245376
558.804197	0.244987
559.161345	0.244803
559.518437	0.248411
559.875474	0.246909
560.232455	0.246473
560.589381	0.247841
560.946251	0.248289
561.303065	0.245798
561.659825	0.247393
562.016528	0.249134
562.373177	0.252131
562.729770	0.249882
563.086307	0.251821
563.442789	0.250181
563.799216	0.253370
564.155587	0.252687
564.511904	0.254059
564.868164	0.254332
565.224370	0.254253
565.580520	0.256599
565.936615	0.256653
566.292654	0.260447
566.648638	0.257556
567.004567	0.258634
567.360441	0.259520
567.716260	0.262104
568.072023	0.259917
568.427732	0.261768
568.783385	0.264110
569.138982	0.262846
569.494525	0.262935
569.850013	0.266361
570.205445	0.265765
570.560823	0.268457
570.916145	0.271083
571.271412	0.269971
571.626625	0.272141
571.981782	0.272739
572.336884	0.274583
572.691931	0.274476
573.046923	0.277123
573.401860	0.278573
573.756743	0.280963
574.111570	0.280530
574.466342	0.281489
574.821059	0.281465
575.175722	0.284659
575.530330	0.285577
575.884882	0.286685
576.239380	0.289158
576.593823	0.290131
576.948211	0.290669
577.302544	0.294260
577.656823	0.295475
578.011047	0.295837
578.365216	0.298134
578.719330	0.300586
579.073389	0.301260
579.427394	0.303003
579.781344	0.305247
580.135239	0.307455
580.489080	0.308188
580.842866	0.312577
581.196597	0.313299
581.550273	0.312978
581.903895	0.315699
582.257463	0.314335
582.610975	0.319948
582.964434	0.320005
583.317837	0.323855
583.671186	0.324956
584.024481	0.326742
584.377721	0.329984
584.730906	0.332333
585.084037	0.332988
585.437113	0.335802
585.790135	0.337062
586.143103	0.341181
586.496016	0.343318
586.848874	0.342928
587.201679	0.344723
587.554428	0.349792
587.907124	0.350355
588.259765	0.352313
588.612352	0.355341
588.964884	0.359883
589.317362	0.361361
589.669786	0.362782
590.022155	0.362546
590.374470	0.363997
590.726731	0.367118
591.078937	0.374113
591.431090	0.372694
591.783188	0.377478
592.135232	0.380471
592.487222	0.381403
592.839157	0.381865
593.191038	0.385621
593.542866	0.388891
593.894639	0.394173
594.246358	0.394257
594.598022	0.395965
594.949633	0.400992
595.301190	0.403891
595.652692	0.404188
596.004141	0.403732
596.355535	0.412174
596.706876	0.415060
597.058162	0.419409
597.409395	0.418189
597.760573	0.418437
598.111698	0.423200
598.462768	0.425859
598.813785	0.428420
599.164748	0.432531
599.515657	0.434345
599.866511	0.440588
600.217312	0.437582
600.568060	0.444096
600.918753	0.443554
601.269392	0.446373
601.619978	0.451842
601.970510	0.452160
602.320988	0.454217
602.671412	0.455209
603.021783	0.458877
603.372100	0.462678
603.722363	0.465553
604.072572	0.467835
604.422728	0.470005
604.772830	0.474726
605.122878	0.477081
605.472872	0.479221
605.822813	0.480922
606.172701	0.485605
606.522534	0.486066
606.872314	0.488790
607.222041	0.491670
607.571714	0.492949
607.921333	0.496821
608.270899	0.499331
608.620411	0.498968
608.969870	0.505404
609.319276	0.507262
609.668627	0.510118
610.017926	0.511110
610.367171	0.513766
610.716362	0.515986
611.065500	0.519240
611.414585	0.521901
611.763616	0.523174
612.112594	0.527040
612.461518	0.528644
612.810389	0.530430
613.159207	0.534443
613.507971	0.538133
613.856682	0.539141
614.205340	0.541654
614.553945	0.542599
614.902496	0.548331
615.250994	0.549834
615.599439	0.553529
615.947830	0.555037
616.296169	0.558768
616.644454	0.561199
616.992686	0.564477
617.340864	0.566048
617.688990	0.571105
618.037063	0.571534
618.385082	0.576063
618.733048	0.576679
619.080961	0.580918
619.428821	0.583271
619.776628	0.585960
620.124382	0.590447
620.472083	0.593491
620.819731	0.595526
621.167326	0.600649
621.514868	0.602616
621.862357	0.608077
622.209793	0.610199
622.557176	0.614191
622.904506	0.617886
623.251783	0.621344
623.599007	0.626043
623.946179	0.628049
624.293297	0.632948
624.640363	0.637067
624.987376	0.640005
625.334336	0.643471
625.681243	0.648316
626.028097	0.650645
626.374899	0.653524
626.721647	0.658529
627.068343	0.661310
627.414987	0.664690
627.761577	0.667819
628.108115	0.669030
628.454600	0.675467
628.801032	0.676972
629.147412	0.679247
629.493739	0.683537
629.840014	0.686492
630.186236	0.687849
630.532405	0.693352
630.878521	0.694705
631.224585	0.697988
631.570597	0.702000
631.916556	0.704177
632.262462	0.705372
632.608316	0.710391
632.954117	0.711848
633.299866	0.714590
633.645562	0.718614
633.991206	0.722077
634.336797	0.725554
634.682336	0.729778
635.027823	0.732691
635.373257	0.735009
635.718639	0.739505
636.063968	0.741100
636.409245	0.745529
636.754470	0.748631
637.099642	0.751762
637.444762	0.755479
637.789829	0.757945
638.134845	0.760923
638.479808	0.763880
638.824719	0.766438
639.169577	0.770050
639.514383	0.772306
639.859137	0.776157
640.203839	0.777116
640.548489	0.779942
640.893086	0.782048
641.237632	0.786134
641.582125	0.786592
641.926566	0.790518
642.270955	0.792137
642.615292	0.794060
642.959576	0.795982
643.303809	0.797981
643.647990	0.800642
643.992118	0.802282
644.336195	0.803827
644.680219	0.806478
645.024192	0.807936
645.368112	0.807910
645.711981	0.808707
646.055797	0.809207
646.399562	0.811581
646.743274	0.811924
647.086935	0.811362
647.430544	0.812655
647.774101	0.814771
648.117606	0.815856
648.461059	0.818600
648.804460	0.820888
649.147810	0.823800
649.491108	0.827228
649.834354	0.829509
650.177548	0.833373
650.520690	0.836699
650.863781	0.838860
651.206820	0.840602
651.549807	0.843143
651.892742	0.847395
652.235626	0.848996
652.578458	0.850224
652.921238	0.853922
653.263967	0.855212
653.606644	0.856773
653.949269	0.859235
654.291843	0.860542
654.634365	0.862511
654.976836	0.864501
655.319255	0.866693
655.661622	0.869146
656.003938	0.870245
656.346203	0.871147
656.688416	0.873911
657.030577	0.875372
657.372687	0.877168
657.714746	0.878449
658.056753	0.879318
658.398708	0.881423
658.740612	0.883844
659.082465	0.884406
659.424266	0.885405
659.766016	0.886159
660.107715	0.889028
660.449362	0.889341
660.790958	0.890428
661.132503	0.893180
661.473996	0.893610
661.815438	0.894878
662.156829	0.896182
662.498168	0.897604
662.839456	0.896724
663.180693	0.899829
663.521879	0.900729
663.863013	0.902125
664.204097	0.902204
664.545129	0.902982
664.886110	0.904690
665.227040	0.905691
665.567918	0.905828
665.908746	0.906411
666.249522	0.907678
666.590248	0.909253
666.930922	0.908590
667.271545	0.910017
667.612118	0.910829
667.952639	0.912190
668.293109	0.913115
668.633528	0.914785
668.973896	0.916289
669.314213	0.916466
669.654480	0.918762
669.994695	0.919117
670.334859	0.921213
670.674973	0.922763
671.015035	0.923895
671.355047	0.924469
671.695008	0.925088
672.034918	0.926472
672.374777	0.927537
672.714585	0.928717
673.054342	0.928907
673.394049	0.929450
673.733705	0.930251
674.073310	0.931439
674.412864	0.932186
674.752368	0.933294
675.091820	0.936006
675.431223	0.935736
675.770574	0.936744
676.109875	0.937835
676.449125	0.938744
676.788324	0.939775
677.127473	0.941805
677.466571	0.941693
677.805619	0.943090
678.144616	0.944937
678.483562	0.945018
678.822458	0.946536
679.161303	0.946467
679.500098	0.948991
679.838842	0.949273
680.177535	0.949032
680.516179	0.948766
680.854771	0.950125
681.193314	0.950278
681.531805	0.949286
681.870247	0.948104
682.208638	0.947631
682.546978	0.948117
682.885268	0.949002
683.223508	0.950716
683.561697	0.951942
683.899836	0.952509
684.237925	0.953037
684.575963	0.953660
684.913951	0.954588
685.251889	0.954544
685.589776	0.953715
685.927614	0.955284
686.265401	0.955207
686.603137	0.955312
686.940824	0.955653
687.278460	0.955636
687.616046	0.955770
687.953582	0.954573
688.291068	0.955758
688.628504	0.955362
688.965889	0.955790
689.303224	0.956167
689.640510	0.956962
689.977745	0.957824
690.314930	0.959865
690.652065	0.961162
690.989150	0.960970
691.326185	0.963509
691.663170	0.964947
692.000105	0.965286
692.336990	0.966361
692.673825	0.967639
693.010610	0.967542
693.347345	0.968805
693.684030	0.968992
694.020665	0.969632
694.357251	0.970467
694.693786	0.971395
695.030272	0.971183
695.366707	0.973104
695.703093	0.972816
696.039429	0.972706
696.375716	0.973928
696.711952	0.972868
697.048139	0.974315
697.384276	0.974281
697.720363	0.974820
698.056400	0.973605
698.392388	0.975046
698.728326	0.975270
699.064214	0.977517
699.400053	0.976405
699.735842	0.977681
700.071581	0.977412
700.407270	0.977244
700.742910	0.978401
701.078501	0.978860
701.414042	0.979885
701.749533	0.978209
702.084974	0.979751
702.420366	0.981046
702.755709	0.979859
703.091002	0.982341
703.426246	0.980842
703.761440	0.980480
704.096584	0.981296
704.431679	0.981941
704.766725	0.982351
705.101721	0.982829
705.436668	0.983525
705.771565	0.982983
706.106413	0.981385
706.441212	0.983508
706.775961	0.982693
707.110661	0.983218
707.445311	0.983832
707.779913	0.984058
708.114465	0.985094
708.448967	0.983806
708.783421	0.983394
709.117825	0.982828
709.452180	0.982903
709.786485	0.983904
710.120742	0.982421
710.454949	0.982481
710.789107	0.982320
711.123216	0.980666
711.457275	0.980930
711.791286	0.981654
712.125247	0.982638
712.459159	0.981887
712.793023	0.981958
713.126837	0.981896
713.460602	0.981722
713.794318	0.981615
714.127985	0.981907
714.461602	0.983108
714.795171	0.983647
715.128691	0.983494
715.462162	0.984692
715.795584	0.984642
716.128957	0.986101
716.462281	0.986046
716.795556	0.984896
717.128782	0.986873
717.461960	0.987071
717.795088	0.986713
718.128167	0.986784
718.461198	0.986796
718.794180	0.987106
719.127113	0.987561
719.459997	0.987603
719.792833	0.988829
720.125619	0.986935
720.458357	0.988026
720.791046	0.988577
721.123686	0.987943
721.456278	0.988517
721.788821	0.987792
722.121315	0.989219
722.453761	0.988946
722.786158	0.989165
723.118506	0.988873
723.450805	0.988143
723.783056	0.989159
724.115259	0.988662
724.447412	0.989366
724.779518	0.988983
725.111574	0.988581
725.443582	0.989017
725.775542	0.988780
726.107453	0.989508
726.439315	0.990748
726.771129	0.989423
727.102895	0.989247
727.434612	0.989267
727.766281	0.988655
728.097901	0.987833
728.429473	0.989247
728.760996	0.987844
729.092471	0.988576
729.423897	0.989344
729.755276	0.988715
730.086606	0.988417
730.417887	0.988742
730.749120	0.988720
731.080305	0.988440
731.411442	0.987498
731.742530	0.987811
732.073570	0.987725
732.404562	0.988990
732.735506	0.987529
733.066401	0.987923
733.397249	0.987717
733.728048	0.988265
734.058798	0.989176
734.389501	0.989558
734.720156	0.990275
735.050762	0.990116
735.381320	0.990094
735.711831	0.989559
736.042293	0.990130
736.372707	0.991749
736.703073	0.989579
737.033391	0.990588
737.363661	0.990286
737.693883	0.991561
738.024056	0.989712
738.354182	0.991704
738.684260	0.990146
739.014290	0.989503
739.344272	0.989696
739.674207	0.990569
740.004093	0.990000
740.333931	0.989583
740.663722	0.989913
740.993464	0.990411
741.323159	0.989839
741.652806	0.990105
741.982405	0.989429
742.311956	0.991398
742.641460	0.990506
742.970915	0.991069
743.300323	0.989590
743.629683	0.990847
743.958996	0.992006
744.288260	0.990868
744.617477	0.991402
744.946647	0.990573
745.275768	0.992239
745.604842	0.991160
745.933869	0.990876
746.262847	0.992645
746.591778	0.991302
746.920662	0.992213
747.249498	0.992036
747.578286	0.993907
747.907027	0.992268
748.235720	0.992279
748.564365	0.992487
748.892963	0.990873
749.221514	0.992224
749.550017	0.991528
749.878473	0.992367
750.206881	0.992971
750.535242	0.991941
750.863555	0.991673
751.191821	0.992185
751.520039	0.991961
751.848210	0.990894
752.176334	0.991733
752.504411	0.991861
752.832440	0.991804
753.160421	0.992874
753.488356	0.992977
753.816243	0.992958
754.144082	0.992081
754.471875	0.992186
754.799620	0.992919
755.127318	0.992169
755.454969	0.992178
755.782572	0.993991
756.110129	0.992077
756.437638	0.993664
756.765100	0.992930
757.092515	0.991653
757.419882	0.992858
757.747203	0.992472
758.074477	0.993269
758.401703	0.992847
758.728882	0.992544
759.056014	0.992188
759.383099	0.993140
759.710138	0.992348
760.037129	0.993306
760.364073	0.992326
760.690970	0.992199
761.017820	0.990976
761.344623	0.992606
761.671379	0.993022
761.998088	0.991862
762.324751	0.991819
762.651366	0.991718
762.977935	0.988777
763.304456	0.988349
763.630931	0.985464
763.957359	0.984302
764.283740	0.986460
764.610074	0.988320
764.936362	0.987829
765.262602	0.988869
765.588796	0.991292
765.914943	0.991107
766.241044	0.991152
766.567097	0.992084
766.893104	0.993112
767.219064	0.992470
767.544978	0.992358
767.870845	0.993898
768.196665	0.993916
768.522438	0.993467
768.848165	0.994138
769.173846	0.994225
769.499479	0.994930
769.825066	0.994821
770.150607	0.995406
770.476101	0.995091
770.801548	0.995067
771.126949	0.995135
771.452303	0.995341
771.777611	0.995701
772.102872	0.994643
772.428087	0.994468
772.753256	0.995609
773.078378	0.995707
773.403453	0.994736
773.728482	0.996593
774.053465	0.995412
774.378401	0.995441
774.703291	0.995699
775.028135	0.996528
775.352932	0.994334
775.677683	0.996539
776.002388	0.995730
776.327046	0.994378
776.651658	0.997255
776.976224	0.995933
777.300743	0.995225
777.625216	0.996078
777.949643	0.995942
778.274024	0.994561
778.598359	0.995416
778.922647	0.995852
779.246889	0.995988
779.571086	0.995558
779.895236	0.995061
780.219339	0.996834
780.543397	0.995002
780.867409	0.995290
781.191374	0.996466
781.515294	0.995891
781.839167	0.996403
782.162995	0.996396
782.486776	0.996014
782.810511	0.996225
783.134201	0.996595
783.457844	0.995870
783.781441	0.995535
784.104993	0.995593
784.428498	0.996110
784.751958	0.997146
785.075372	0.995713
785.398739	0.995644
785.722061	0.995058
786.045337	0.996429
786.368568	0.995643
786.691752	0.996000
787.014891	0.996159
787.337983	0.994423
787.661030	0.994559
787.984031	0.995528
788.306987	0.994868
788.629897	0.992968
788.952760	0.995205
789.275579	0.994775
789.598351	0.994910
789.921078	0.996813
790.243759	0.995582
790.566395	0.994962
790.888984	0.996786
791.211529	0.995700
791.534027	0.995047
791.856480	0.996461
792.178888	0.995466
792.501249	0.995890
792.823566	0.997163
793.145836	0.995523
793.468062	0.997036
793.790241	0.996569
794.112375	0.995854
794.434464	0.996751
794.756507	0.997412
795.078505	0.996298
795.400457	0.996696
795.722364	0.995825
796.044226	0.995837
796.366042	0.994592
796.687812	0.993997
797.009538	0.995283
797.331218	0.996634
797.652852	0.996047
797.974442	0.995529
798.295986	0.995685
798.617484	0.994417
798.938938	0.996463
799.260346	0.995560
799.581709	0.995274
799.903026	0.995956
800.224299	0.996240
800.545526	0.996467
800.866708	0.996185
801.187845	0.996218
801.508936	0.996544
801.829983	0.995841
802.150984	0.995984
802.471940	0.996623
802.792851	0.996169
803.113717	0.996563
803.434538	0.997060
803.755314	0.997993
804.076045	0.996995
804.396731	0.996644
804.717372	0.996006
805.037967	0.997722
805.358518	0.996805
805.679024	0.996560
805.999485	0.996515
806.319901	0.996970
806.640272	0.997790
806.960598	0.997034
807.280879	0.996365
807.601115	0.996383
807.921306	0.997275
808.241453	0.996176
808.561554	0.996269
808.881611	0.996194
809.201623	0.995867
809.521590	0.996371
809.841513	0.996182
810.161390	0.995453
810.481223	0.995750
810.801011	0.996675
811.120755	0.997272
811.440453	0.995840
811.760107	0.996636
812.079716	0.996489
812.399281	0.997264
812.718801	0.996272
813.038276	0.995747
813.357707	0.996748
813.677093	0.997493
813.996434	0.997076
814.315731	0.998906
814.634983	0.997325
814.954191	0.997594
815.273354	0.996565
815.592473	0.996893
815.911547	0.996342
816.230577	0.996017
816.549562	0.997433
816.868502	0.995078
817.187399	0.997157
817.506250	0.995851
817.825058	0.995122
818.143821	0.996267
818.462539	0.994723
818.781213	0.994616
819.099843	0.995281
819.418429	0.994131
819.736970	0.994608
820.055466	0.992466
820.373919	0.991985
820.692327	0.988920
821.010691	0.988541
821.329011	0.984699
821.647286	0.981071
821.965517	0.976640
822.283704	0.971782
822.601847	0.969492
822.919945	0.969822
823.237999	0.972533
823.556010	0.974482
823.873976	0.976681
824.191897	0.979672
824.509775	0.982698
824.827609	0.984058
825.145398	0.985377
825.463144	0.984719
825.780845	0.984732
826.098502	0.985125
826.416116	0.985288
826.733685	0.981801
827.051210	0.978305
827.368692	0.979824
827.686129	0.981574
828.003522	0.984492
828.320872	0.985129
828.638177	0.988548
828.955439	0.991657
829.272656	0.991643
829.589830	0.990724
829.906960	0.993754
830.224046	0.993242
830.541088	0.993665
830.858086	0.994295
831.175041	0.995370
831.491952	0.995665
831.808819	0.994311
832.125642	0.994786
832.442421	0.994264
832.759157	0.994357
833.075849	0.991669
833.392497	0.989149
833.709101	0.985956
834.025662	0.985682
834.342179	0.986471
834.658653	0.988555
834.975083	0.989997
835.291469	0.990755
835.607811	0.992585
835.924110	0.992974
836.240366	0.996237
836.556578	0.996043
836.872746	0.996805
837.188871	0.994879
837.504952	0.996241
837.820990	0.997117
838.136984	0.996494
838.452935	0.997469
838.768842	0.997278
839.084706	0.997480
839.400526	0.996318
839.716303	0.993345
840.032037	0.992611
840.347727	0.992092
840.663373	0.992890
840.978977	0.993627
841.294537	0.994986
841.610054	0.996483
841.925527	0.996347
842.240957	0.997248
842.556344	0.997430
842.871687	0.996933
843.186987	0.997177
843.502244	0.998356
843.817458	0.996732
844.132629	0.997353
844.447756	0.998728
844.762840	0.998440
845.077881	0.999387
845.392879	0.997733
845.707833	0.999409
846.022745	0.998797
846.337613	0.998574
846.652438	0.998113
846.967221	0.998781
847.281960	0.998398
847.596656	0.999495
847.911309	0.998784
848.225919	0.997816
848.540485	0.998403
848.855009	1.000076
849.169490	0.999441
849.483928	0.998503
849.798323	0.998780
850.112675	1.000098
850.426984	0.999462
850.741251	0.997203
851.055474	0.998467
851.369654	0.999144
851.683792	0.997624
851.997887	0.999597
852.311938	0.999420
852.625947	0.998254
852.939914	0.998524
853.253837	1.000477
853.567718	0.999017
853.881555	0.998149
854.195350	0.998864
854.509103	0.999774
854.822812	0.999847
855.136479	0.999241
855.450103	0.998832
855.763685	0.999514
856.077224	0.999161
856.390720	0.998836
856.704173	0.999438
857.017584	1.000249
857.330953	0.999551
857.644278	0.998615
857.957561	0.999380
858.270802	0.999353
858.584000	0.998970
858.897155	0.998086
859.210268	0.998350
859.523339	0.999262
859.836367	0.997873
860.149352	0.998071
860.462295	0.998758
860.775195	0.999167
861.088054	0.996716
861.400869	0.999936
861.713642	0.998208
862.026373	0.999421
862.339062	0.999033
862.651708	0.998172
862.964312	0.998726
863.276873	0.998856
863.589392	0.998421
863.901869	0.998419
864.214303	0.999313
864.526696	0.998785
864.839045	0.998416
865.151353	0.997863
865.463619	0.997595
865.775842	0.997996
866.088023	0.998982
866.400162	0.998441
866.712258	0.998746
867.024313	0.999025
867.336325	0.999862
867.648296	0.999140
867.960224	0.998342
868.272110	0.999546
868.583954	0.998175
868.895755	0.999155
869.207515	0.997855
869.519233	0.999529
869.830909	0.996336
870.142542	0.997542
870.454134	0.998662
870.765684	0.998113
871.077191	0.998442
871.388657	0.998078
871.700081	0.999156
872.011463	0.999247
872.322803	0.997572
872.634101	0.997137
872.945357	0.997132
873.256571	0.997176
873.567744	0.997629
873.878874	0.997310
874.189963	0.997411
874.501010	0.998799
874.812015	0.996938
875.122979	0.996795
875.433900	0.997325
875.744780	0.997829
876.055618	0.996728
876.366415	0.995865
876.677169	0.996681
876.987882	0.996777
877.298554	0.998882
877.609183	0.997349
877.919771	0.998041
878.230317	0.997430
878.540822	0.995418
878.851285	0.995935
879.161707	0.995216
879.472087	0.994518
879.782425	0.991946
880.092722	0.990647
880.402977	0.986977
880.713191	0.983010
881.023363	0.977323
881.333494	0.974703
881.643583	0.974691
881.953631	0.973840
882.263637	0.972921
882.573602	0.975365
882.883526	0.976507
883.193408	0.979921
883.503248	0.982062
883.813048	0.983640
884.122806	0.986450
884.432522	0.987166
884.742197	0.989721
885.051831	0.990211
885.361424	0.991366
885.670975	0.993091
885.980485	0.992748
886.289954	0.992975
886.599382	0.993637
886.908768	0.995188
887.218113	0.995035
887.527417	0.994982
887.836680	0.994834
888.145901	0.995645
888.455082	0.998264
888.764221	0.997318
889.073319	0.997369
889.382376	0.998007
889.691392	0.996103
890.000366	0.996799
890.309300	0.996377
890.618193	0.997826
890.927044	0.996892
891.235855	0.996639
891.544625	0.997257
891.853353	0.996160
892.162041	0.996411
892.470687	0.996396
892.779293	0.995467
893.087858	0.994334
893.396381	0.994032
893.704864	0.992995
894.013306	0.991627
894.321707	0.990203
894.630068	0.987057
894.938387	0.985940
895.246665	0.987972
895.554903	0.986972
895.863100	0.990071
896.171256	0.990370
896.479371	0.991359
896.787446	0.992880
897.095480	0.992827
897.403473	0.995147
897.711425	0.994213
898.019336	0.995945
898.327207	0.995361
898.635038	0.994056
898.942827	0.995836
899.250576	0.996840
899.558284	0.996991
899.865952	0.995675
900.173579	0.997751
900.481165	0.997469
900.788711	0.996280
901.096216	0.996840
901.403681	0.997059
901.711105	0.996775
902.018489	0.997378
902.325832	0.996899
902.633135	0.997928
902.940397	0.995822
903.247619	0.995687
903.554800	0.993386
903.861941	0.990219
904.169041	0.985437
904.476101	0.984138
904.783121	0.983636
905.090100	0.984786
905.397039	0.986631
905.703938	0.989418
906.010796	0.990747
906.317614	0.992229
906.624391	0.993686
906.931129	0.994823
907.237826	0.995668
907.544483	0.996022
907.851099	0.996916
908.157675	0.996398
908.464211	0.998235
908.770707	0.997006
909.077163	0.997266
909.383578	0.997995
909.689954	0.997255
909.996289	0.998323
910.302584	0.998425
910.608839	0.999117
910.915054	0.999156
911.221229	0.998845
911.527363	0.997793
911.833458	0.998833
912.139513	0.997311
912.445527	0.999196
912.751502	0.998350
913.057436	0.997743
913.363331	0.997910
913.669186	0.998779
913.975000	0.997122
914.280775	0.996221
914.586510	0.994849
914.892205	0.993061
915.197859	0.991024
915.503475	0.989390
915.809050	0.986617
916.114585	0.984671
916.420081	0.984513
916.725536	0.984391
917.030952	0.985264
917.336328	0.986808
917.641665	0.987248
917.946961	0.989565
918.252218	0.990443
918.557435	0.991248
918.862612	0.993877
919.167750	0.994873
919.472848	0.995388
919.777906	0.995422
920.082925	0.996579
920.387904	0.996139
920.692843	0.996391
920.997743	0.995734
921.302603	0.997250
921.607423	0.997161
921.912204	0.996854
922.216946	0.998669
922.521647	0.998457
922.826310	0.997121
923.130932	0.997938
923.435516	0.999021
923.740059	0.997866
924.044564	0.997729
924.349028	0.998497
924.653454	1.000013
924.957840	0.999205
925.262186	0.998487
925.566493	0.998840
925.870761	1.000144
926.174989	0.999585
926.479178	0.999530
926.783328	0.999115
927.087438	0.998903
927.391509	0.998470
927.695541	0.999707
927.999533	0.999903
928.303486	0.999123
928.607400	1.000414
928.911275	0.999783
929.215110	0.999871
929.518906	1.000071
929.822663	1.000289
930.126381	0.999856
930.430060	0.999652
930.733699	1.000877
931.037299	1.000811
931.340861	0.999547
931.644383	0.998979
931.947866	1.000083
932.251309	1.000685
932.554714	0.999961
932.858080	1.000834
933.161407	0.999432
933.464694	1.000520
933.767943	1.000091
934.071153	0.999773
934.374323	1.000429
934.677455	0.999543
934.980548	1.000620
935.283602	1.000462
935.586617	0.999124
935.889593	1.001187
936.192530	1.000223
936.495428	1.000666
936.798287	0.999295
937.101108	1.000601
937.403890	0.998690
937.706632	1.000678
938.009336	0.999334
938.312002	0.998633
938.614628	0.998969
938.917216	0.998451
939.219765	0.998605
939.522275	0.999084
939.824747	0.998305
940.127179	0.998645
940.429573	1.000324
940.731929	0.998137
941.034246	0.999082
941.336524	0.998858
941.638763	0.998665
941.940964	0.998673
942.243126	0.998579
942.545250	0.998980
942.847335	0.999902
943.149381	0.999556
943.451389	0.998324
943.753359	0.999731
944.055290	1.000541
944.357182	0.999279
944.659036	1.000242
944.960851	1.000069
945.262628	0.999949
945.564367	1.000887
945.866067	0.998870
946.167729	1.001246
946.469352	0.998745
946.770937	0.997719
947.072484	0.999438
947.373992	0.998911
947.675462	0.997965
947.976893	0.999486
948.278286	1.001188
948.579641	1.000044
948.880958	1.000063
949.182236	0.999661
949.483476	1.000310
949.784678	0.999858
950.085841	0.999136
950.386967	0.999001
950.688054	1.000768
950.989103	0.998036
951.290114	0.998766
951.591087	1.000588
951.892021	0.998654
952.192917	1.000359
952.493776	0.999044
952.794596	0.999522
953.095378	0.999871
953.396122	0.998835
953.696828	1.001607
953.997496	1.000120
954.298126	0.999586
954.598718	0.999796
954.899272	1.000721
955.199788	0.999208
955.500266	1.000663
955.800706	1.000009
956.101108	0.999565
956.401472	1.002603
956.701798	1.001217
957.002087	1.000257
957.302337	1.000067
957.602550	1.000283
957.902724	1.000675
958.202861	1.000544
958.502960	1.000085
958.803022	1.000658
959.103045	1.000897
959.403031	1.001847
959.702979	1.002127
960.002889	1.000496
960.302762	1.000845
960.602596	1.001927
960.902393	1.000660
961.202153	1.000902
961.501875	1.001443
961.801559	1.002392
962.101205	1.000369
962.400814	1.001773
962.700385	1.001862
962.999918	1.000202
963.299414	0.999985
963.598873	1.000497
963.898293	1.001166
964.197677	1.000929
964.497022	1.001011
964.796331	1.000935
965.095601	1.002531
965.394835	1.001370
965.694030	1.001445
965.993189	1.001550
966.292309	1.001059
966.591393	1.000576
966.890439	1.001019
967.189447	1.000347
967.488419	1.001307
967.787353	1.000545
968.086249	1.001185
968.385108	1.000816
968.683930	1.002049
968.982714	1.000204
969.281462	1.002274
969.580172	1.001112
969.878844	1.001940
970.177480	1.000230
970.476078	1.001841
970.774639	1.002121
971.073162	1.001636
971.371649	1.000943
971.670098	1.000000
971.968510	1.001090
972.266885	1.000447
972.565223	1.001383
972.863524	0.998953
973.161788	1.000388
973.460014	1.001163
973.758204	1.001159
974.056356	1.001514
974.354471	1.000375
974.652550	1.001873
974.950591	1.000563
975.248595	1.001371
975.546563	1.001349
975.844493	1.000631
976.142386	1.000185
976.440243	1.001419
976.738062	1.001529
977.035845	1.000459
977.333590	1.001070
977.631299	1.000888
977.928971	1.001035
978.226606	1.000877
978.524204	1.001138
978.821765	1.001644
979.119290	1.001477
979.416777	1.001599
979.714228	0.999818
980.011642	1.002091
980.309020	1.000712
980.606360	1.001464
980.903664	1.000616
981.200931	1.000746
981.498162	1.000943
981.795356	1.002353
982.092513	1.000489
982.389633	1.001641
982.686717	1.000221
982.983764	1.000892
983.280775	1.001009
983.577749	1.000856
983.874686	1.000154
984.171587	1.000017
984.468451	1.000637
984.765279	1.001435
985.062070	1.001200
985.358824	1.000330
985.655543	1.001041
985.952224	1.002014
986.248869	1.001381
986.545478	1.002559
986.842050	1.000710
987.138586	1.001038
987.435086	1.001235
987.731549	1.002400
988.027975	1.001328
988.324366	1.001943
988.620719	1.002458
988.917037	1.001691
989.213318	1.002492
989.509563	1.001806
989.805772	1.002070
990.101944	1.002203
990.398080	1.001516
990.694180	1.002252
990.990244	1.001506
991.286271	1.001907
991.582262	1.002713
991.878217	1.000966
992.174136	1.002434
992.470019	1.001587
992.765865	1.003344
993.061676	1.002373
993.357450	1.001422
993.653188	1.001409
993.948890	1.001171
994.244556	1.001502
994.540186	1.002023
994.835780	1.000800
995.131337	1.002383
995.426859	1.002237
995.722345	1.001647
996.017795	1.001311
996.313208	1.000985
996.608586	1.002104
996.903928	1.002345
997.199234	1.001346
997.494504	1.001923
997.789738	0.999375
998.084936	1.002199
998.380099	1.001239
998.675225	1.002462
998.970316	1.002189
999.265371	1.000772
999.560390	1.001392
999.855373	1.001844
1000.150320	1.002112
1000.445232	1.003102
1000.740108	1.002296
1001.034948	1.002178
1001.329752	1.003148
1001.624521	1.001195
1001.919254	1.000583
1002.213951	1.002102
1002.508613	1.000491
1002.803239	1.001673
1003.097829	1.002590
1003.392384	1.001927
1003.686903	1.002214
1003.981386	1.001760
1004.275834	1.002016
1004.570246	1.000812
1004.864623	1.001448
1005.158964	1.001641
1005.453270	1.002278
1005.747540	1.000433
1006.041775	1.003219
1006.335974	1.001765
1006.630138	1.002266
1006.924266	1.001550
1007.218359	1.001001
1007.512416	1.003291
1007.806438	1.001939
1008.100425	1.002295
1008.394376	1.002935
1008.688292	1.001337
1008.982172	1.001459
1009.276017	1.002828
1009.569827	1.002613
1009.863602	1.000367
1010.157341	1.002598
1010.451045	1.001601
1010.744714	1.003575
1011.038347	1.002148
1011.331945	1.000529
1011.625508	1.002989
1011.919036	1.001794
1012.212528	1.002599
1012.505986	1.002043
1012.799408	1.002714
1013.092795	1.002891
1013.386147	1.003792
1013.679464	1.002577
1013.972745	1.001757
1014.265992	1.002738
1014.559204	1.002286
1014.852380	1.001957
1015.145521	1.001753
1015.438628	1.002726
1015.731699	1.002161
1016.024736	1.003491
1016.317737	1.001647
1016.610703	1.002313
1016.903635	1.003158
1017.196531	1.002197
1017.489393	1.001869
1017.782219	1.000592
1018.075011	1.001295
1018.367768	1.000509
1018.660490	1.002374
1018.953177	1.002374
1019.245829	1.002374
