Dividing Wavelength (nm)	Counts (n)	Blue Motor Position (mm): 40.600000	Red Motor Position (mm): 0.000000	
326.493990	0.999372
326.888308	0.999372
327.282561	0.999372
327.676750	0.999994
328.070874	1.000774
328.464933	1.001103
328.858929	0.999433
329.252859	0.999802
329.646726	0.998706
330.040528	0.999803
330.434265	0.998998
330.827938	0.998419
331.221547	0.998632
331.615091	0.999627
332.008571	1.001540
332.401986	0.999746
332.795338	1.000279
333.188625	0.999771
333.581847	0.998310
333.975006	0.999568
334.368100	1.000098
334.761129	0.998404
335.154095	0.999871
335.546996	1.000335
335.939833	0.998346
336.332606	0.999857
336.725315	0.997799
337.117960	0.999195
337.510540	0.998744
337.903056	0.999664
338.295508	1.000292
338.687896	0.999830
339.080220	0.999912
339.472480	0.998678
339.864676	0.999699
340.256807	0.997703
340.648875	0.999316
341.040879	0.999140
341.432818	1.000439
341.824694	0.998720
342.216506	1.000696
342.608253	0.999615
342.999937	0.999652
343.391557	1.000453
343.783113	1.000140
344.174605	1.000235
344.566033	0.999238
344.957397	0.999367
345.348697	0.999855
345.739934	1.000764
346.131106	0.999718
346.522215	0.998625
346.913260	0.998782
347.304241	0.997953
347.695159	0.998672
348.086012	0.999577
348.476802	0.999345
348.867528	0.998410
349.258191	0.999564
349.648789	0.998507
350.039324	0.998697
350.429796	0.998400
350.820203	0.997699
351.210548	0.999995
351.600828	0.998322
351.991045	0.999455
352.381198	0.999850
352.771288	0.998270
353.161314	0.999071
353.551276	0.999177
353.941175	0.996852
354.331010	0.999441
354.720782	0.998468
355.110490	0.997821
355.500135	0.998478
355.889717	0.998145
356.279235	0.998999
356.668689	0.999373
357.058080	0.999201
357.447408	0.997733
357.836672	0.999654
358.225873	0.997999
358.615010	0.997607
359.004084	0.996950
359.393095	0.997675
359.782043	0.998147
360.170927	0.997974
360.559748	0.998200
360.948505	0.998745
361.337199	0.998453
361.725830	0.998869
362.114398	0.998313
362.502903	0.996706
362.891344	0.997058
363.279722	0.998056
363.668037	0.997154
364.056289	0.998223
364.444478	0.999001
364.832603	0.998440
365.220665	0.998159
365.608665	0.996903
365.996601	0.997477
366.384474	0.996355
366.772284	0.997996
367.160031	0.996449
367.547715	0.996729
367.935336	0.996368
368.322893	0.994191
368.710388	0.993614
369.097820	0.992856
369.485189	0.989554
369.872495	0.988082
370.259738	0.987212
370.646918	0.982601
371.034035	0.981675
371.421090	0.977867
371.808081	0.973124
372.195010	0.971027
372.581875	0.965648
372.968678	0.962366
373.355418	0.957464
373.742096	0.950986
374.128710	0.945658
374.515262	0.941332
374.901751	0.936799
375.288177	0.929723
375.674540	0.924066
376.060841	0.918227
376.447079	0.911492
376.833254	0.905976
377.219367	0.899215
377.605417	0.887954
377.991404	0.884183
378.377329	0.879534
378.763191	0.872009
379.148991	0.864677
379.534727	0.855717
379.920402	0.847677
380.306013	0.845023
380.691563	0.831897
381.077049	0.825220
381.462474	0.821587
381.847835	0.809935
382.233134	0.805031
382.618371	0.805697
383.003545	0.788147
383.388657	0.786938
383.773706	0.778785
384.158693	0.774993
384.543618	0.770116
384.928480	0.761190
385.313280	0.751616
385.698017	0.752197
386.082692	0.741847
386.467305	0.739820
386.851856	0.736208
387.236344	0.732766
387.620770	0.728900
388.005133	0.725705
388.389435	0.721840
388.773674	0.721864
389.157851	0.718238
389.541965	0.718617
389.926018	0.727887
390.310008	0.720295
390.693936	0.720715
391.077802	0.717818
391.461606	0.724203
391.845348	0.719970
392.229027	0.724487
392.612645	0.727682
392.996200	0.722510
393.379694	0.722900
393.763125	0.722013
394.146494	0.732288
394.529801	0.732016
394.913047	0.732595
395.296230	0.744514
395.679351	0.746425
396.062410	0.752093
396.445408	0.760666
396.828343	0.766524
397.211217	0.771474
397.594028	0.787046
397.976778	0.791023
398.359466	0.797031
398.742092	0.802571
399.124656	0.816621
399.507158	0.819055
399.889598	0.826200
400.271977	0.831284
400.654294	0.841316
401.036549	0.849881
401.418742	0.857743
401.800874	0.861320
402.182944	0.868097
402.564952	0.873759
402.946898	0.881621
403.328783	0.890216
403.710606	0.899841
404.092367	0.899842
404.474067	0.909330
404.855705	0.914304
405.237282	0.922352
405.618797	0.925450
406.000250	0.930328
406.381642	0.934014
406.762972	0.941556
407.144240	0.946057
407.525447	0.949201
407.906593	0.953970
408.287677	0.958259
408.668700	0.962961
409.049661	0.966116
409.430560	0.968485
409.811399	0.972308
410.192176	0.974003
410.572891	0.977164
410.953545	0.978388
411.334138	0.981732
411.714669	0.983529
412.095139	0.986269
412.475547	0.987604
412.855894	0.989583
413.236180	0.990243
413.616405	0.991315
413.996568	0.991704
414.376670	0.993064
414.756711	0.993844
415.136691	0.995109
415.516609	0.994946
415.896466	0.996077
416.276262	0.995409
416.655997	0.996697
417.035670	0.997829
417.415283	0.996860
417.794834	0.997227
418.174324	0.997654
418.553753	0.997611
418.933121	0.997799
419.312428	0.998242
419.691674	0.998247
420.070859	0.998208
420.449983	0.998708
420.829045	0.996944
421.208047	0.998707
421.586988	0.997837
421.965867	0.998014
422.344686	0.996949
422.723444	0.997873
423.102141	0.999604
423.480777	0.998409
423.859352	0.998418
424.237866	0.998607
424.616319	0.998658
424.994712	0.999016
425.373044	0.998979
425.751314	0.999364
426.129524	0.999770
426.507673	0.997848
426.885762	0.999464
427.263789	0.998639
427.641756	0.999493
428.019662	0.998821
428.397508	0.998592
428.775292	0.998861
429.153016	0.999070
429.530679	0.998895
429.908282	0.999391
430.285824	0.998754
430.663305	0.998563
431.040726	0.999458
431.418086	0.999755
431.795385	0.999428
432.172624	0.999664
432.549802	0.998392
432.926920	0.999341
433.303977	0.999738
433.680974	0.998963
434.057910	0.999399
434.434786	0.999373
434.811601	0.999225
435.188355	1.000227
435.565050	1.000129
435.941683	0.998535
436.318257	0.997896
436.694770	1.000000
437.071222	0.999488
437.447614	0.998572
437.823946	0.999302
438.200218	0.998860
438.576429	0.999176
438.952580	0.999451
439.328670	0.996992
439.704700	0.998590
440.080670	0.999164
440.456580	0.999249
440.832429	0.999390
441.208218	0.999475
441.583947	0.998934
441.959616	0.997800
442.335224	1.000093
442.710773	0.999520
443.086261	0.999772
443.461689	0.999172
443.837057	0.998972
444.212365	0.999589
444.587612	1.000452
444.962800	0.999289
445.337927	0.999649
445.712995	0.998716
446.088002	0.998911
446.462949	0.999877
446.837837	1.000377
447.212664	0.999904
447.587431	0.999834
447.962139	0.999464
448.336786	0.998596
448.711374	0.998798
449.085901	0.999599
449.460369	0.999538
449.834776	0.998219
450.209124	0.998970
450.583412	1.000071
450.957640	0.999148
451.331808	1.000405
451.705917	0.998605
452.079965	0.999333
452.453954	1.000185
452.827883	0.999318
453.201752	0.998951
453.575562	0.999270
453.949311	0.999622
454.323001	0.999030
454.696632	0.999891
455.070202	0.999495
455.443713	0.999067
455.817164	0.998820
456.190556	0.998256
456.563888	0.999573
456.937160	0.998454
457.310373	0.999512
457.683526	0.999379
458.056619	0.999889
458.429653	0.998785
458.802628	0.998708
459.175542	0.999498
459.548398	0.999157
459.921194	0.999124
460.293930	0.999883
460.666607	0.999585
461.039224	0.999573
461.411782	0.999000
461.784280	0.998994
462.156719	0.999708
462.529099	0.998603
462.901419	0.999201
463.273680	0.997927
463.645882	0.998787
464.018024	0.998806
464.390106	0.998715
464.762130	0.999309
465.134094	0.999522
465.505999	1.000035
465.877845	0.998893
466.249631	0.999162
466.621358	0.998342
466.993026	0.998530
467.364634	0.999130
467.736184	0.998108
468.107674	0.998835
468.479105	0.998895
468.850477	0.998752
469.221790	0.998712
469.593043	0.998579
469.964238	0.998507
470.335373	0.998420
470.706449	0.998550
471.077467	0.998772
471.448425	0.998747
471.819324	0.998982
472.190164	0.997964
472.560945	0.997875
472.931667	0.998388
473.302330	0.998564
473.672934	0.999254
474.043479	0.998957
474.413965	0.998732
474.784393	0.998687
475.154761	0.998146
475.525070	0.999389
475.895321	0.999090
476.265513	0.999023
476.635645	0.998500
477.005719	0.999530
477.375734	0.998617
477.745691	0.998812
478.115588	0.998016
478.485427	0.998656
478.855207	0.999575
479.224928	0.998554
479.594591	0.998966
479.964194	0.999053
480.333739	0.998340
480.703226	0.998497
481.072653	0.998999
481.442022	0.999207
481.811333	0.998763
482.180584	0.998773
482.549777	0.998852
482.918912	0.998578
483.287988	0.998893
483.657005	0.998429
484.025964	0.999366
484.394864	0.998845
484.763706	0.998084
485.132489	0.998775
485.501213	0.999512
485.869879	0.999143
486.238487	0.998396
486.607036	0.998991
486.975527	0.999107
487.343959	0.998403
487.712333	0.999223
488.080648	0.998138
488.448905	0.999091
488.817104	0.997959
489.185244	0.998837
489.553326	0.998973
489.921350	0.999168
490.289315	0.998544
490.657222	0.997561
491.025070	0.998897
491.392861	0.999131
491.760593	0.998884
492.128267	0.998481
492.495883	0.998102
492.863440	0.998854
493.230939	0.998971
493.598380	0.999050
493.965763	0.998432
494.333088	0.997487
494.700354	0.998530
495.067563	0.998957
495.434713	0.999509
495.801805	0.998907
496.168839	0.999434
496.535815	0.998853
496.902733	0.998522
497.269593	0.998298
497.636395	0.998240
498.003139	0.998726
498.369825	0.999495
498.736453	0.998570
499.103023	0.998378
499.469535	0.998925
499.835989	0.998994
500.202385	0.999179
500.568723	0.998458
500.935003	0.999351
501.301226	0.998817
501.667390	0.998740
502.033497	0.998582
502.399546	0.998490
502.765537	0.998595
503.131470	0.998794
503.497345	0.999299
503.863163	0.999070
504.228923	0.999003
504.594625	0.998829
504.960269	0.998634
505.325856	0.999543
505.691385	0.998884
506.056856	0.998990
506.422270	0.998965
506.787625	0.999150
507.152924	0.999108
507.518164	0.998571
507.883347	0.998562
508.248472	0.999070
508.613540	0.998833
508.978550	0.999080
509.343503	0.998961
509.708398	0.999156
510.073236	0.999179
510.438016	0.999069
510.802738	0.998815
511.167403	0.998729
511.532010	0.999043
511.896561	0.999327
512.261053	0.998946
512.625488	0.998704
512.989866	0.998900
513.354186	0.998095
513.718449	0.998912
514.082655	0.998150
514.446803	0.998988
514.810894	0.999179
515.174927	0.999282
515.538904	0.999372
515.902822	0.998894
516.266684	0.999134
516.630488	0.999112
516.994235	0.999151
517.357925	0.999251
517.721558	0.999100
518.085133	0.998227
518.448651	0.999316
518.812112	0.999724
519.175516	0.998892
519.538863	0.998338
519.902152	0.999804
520.265385	0.998964
520.628560	0.998653
520.991678	0.998620
521.354739	0.999924
521.717743	0.998907
522.080690	0.998944
522.443580	0.999048
522.806413	0.998560
523.169189	0.999652
523.531908	0.998823
523.894569	0.999255
524.257174	0.998669
524.619722	0.998739
524.982213	0.999146
525.344647	0.998957
525.707025	0.998479
526.069345	0.997970
526.431608	0.999106
526.793815	0.998934
527.155964	0.999518
527.518057	0.998972
527.880093	0.998755
528.242072	0.998751
528.603995	0.998913
528.965860	0.999774
529.327669	0.998957
529.689421	0.998842
530.051117	0.999347
530.412755	0.999168
530.774337	0.998803
531.135862	0.999623
531.497331	0.998546
531.858743	0.999460
532.220098	0.998338
532.581396	0.999150
532.942638	0.999289
533.303824	0.999937
533.664953	0.998765
534.026025	0.999865
534.387040	0.999569
534.747999	0.999269
535.108902	0.998969
535.469748	0.999774
535.830537	0.999410
536.191270	0.999322
536.551947	0.998672
536.912567	0.999114
537.273131	1.000120
537.633638	0.998820
537.994089	0.999076
538.354483	0.999047
538.714821	0.999151
539.075103	0.999668
539.435328	0.999827
539.795497	0.999046
540.155609	0.999257
540.515665	0.999996
540.875665	0.999428
541.235609	0.999908
541.595496	0.998809
541.955328	0.999206
542.315102	0.999322
542.674821	0.999596
543.034483	0.999635
543.394090	0.999139
543.753640	0.998904
544.113134	0.998854
544.472571	0.999604
544.831953	0.999780
545.191278	0.998709
545.550548	0.999365
545.909761	0.998674
546.268918	0.999753
546.628019	0.999668
546.987064	0.998808
547.346053	0.999199
547.704986	0.999063
548.063863	0.998952
548.422684	0.999391
548.781449	0.999290
549.140158	0.999610
549.498811	0.998807
549.857408	0.997971
550.215949	0.998241
550.574434	0.998762
550.932864	0.999244
551.291237	0.998790
551.649555	0.999648
552.007817	0.998685
552.366022	0.999370
552.724173	0.999991
553.082267	0.999377
553.440305	0.998757
553.798288	0.998343
554.156215	0.999659
554.514086	0.999019
554.871902	0.999403
555.229661	0.997828
555.587365	0.998866
555.945014	0.999655
556.302606	0.998951
556.660143	0.999952
557.017625	0.999786
557.375050	0.998582
557.732421	0.998460
558.089735	0.998955
558.446994	0.998722
558.804197	0.999046
559.161345	0.998813
559.518437	0.998891
559.875474	0.999270
560.232455	0.999608
560.589381	0.999213
560.946251	0.998757
561.303065	0.998851
561.659825	0.998546
562.016528	0.999662
562.373177	0.999659
562.729770	0.999003
563.086307	0.998789
563.442789	0.998942
563.799216	0.998817
564.155587	0.999447
564.511904	0.999642
564.868164	0.998555
565.224370	0.998981
565.580520	0.998689
565.936615	0.998897
566.292654	0.998569
566.648638	0.999758
567.004567	0.999184
567.360441	0.999282
567.716260	0.998964
568.072023	0.998395
568.427732	0.999441
568.783385	0.999019
569.138982	0.998870
569.494525	0.998763
569.850013	0.999422
570.205445	0.999772
570.560823	0.998824
570.916145	0.998980
571.271412	0.998939
571.626625	0.999066
571.981782	0.998817
572.336884	0.999637
572.691931	0.998780
573.046923	0.999574
573.401860	0.998824
573.756743	0.999102
574.111570	0.998462
574.466342	0.999041
574.821059	0.998379
575.175722	0.999578
575.530330	0.999096
575.884882	0.999272
576.239380	0.999074
576.593823	0.999076
576.948211	0.999083
577.302544	0.998852
577.656823	0.999560
578.011047	0.999008
578.365216	1.000210
578.719330	0.998681
579.073389	0.997865
579.427394	0.998148
579.781344	0.999497
580.135239	0.998685
580.489080	0.999460
580.842866	0.998943
581.196597	0.999074
581.550273	0.998998
581.903895	0.999085
582.257463	0.999006
582.610975	0.998344
582.964434	0.999780
583.317837	0.998945
583.671186	0.999813
584.024481	0.998862
584.377721	0.998219
584.730906	0.999410
585.084037	0.999452
585.437113	0.999509
585.790135	0.998526
586.143103	0.999390
586.496016	0.999333
586.848874	0.999518
587.201679	0.998830
587.554428	0.998539
587.907124	0.999607
588.259765	0.998952
588.612352	0.999441
588.964884	0.999351
589.317362	0.998890
589.669786	0.998183
590.022155	0.997765
590.374470	0.999027
590.726731	0.999001
591.078937	0.999569
591.431090	0.998890
591.783188	0.997880
592.135232	0.999246
592.487222	0.999215
592.839157	0.998629
593.191038	0.998757
593.542866	0.998744
593.894639	0.998261
594.246358	0.999318
594.598022	0.999326
594.949633	0.998795
595.301190	0.999038
595.652692	0.998716
596.004141	0.998606
596.355535	0.998420
596.706876	0.998999
597.058162	0.998973
597.409395	0.998794
597.760573	0.998727
598.111698	0.999196
598.462768	0.998198
598.813785	0.998435
599.164748	0.998574
599.515657	0.998486
599.866511	0.999434
600.217312	0.998878
600.568060	0.998545
600.918753	0.999286
601.269392	0.999229
601.619978	0.998705
601.970510	0.998198
602.320988	0.998662
602.671412	0.998412
603.021783	0.999275
603.372100	0.999252
603.722363	0.999626
604.072572	0.998977
604.422728	0.997883
604.772830	0.998976
605.122878	0.998899
605.472872	0.999153
605.822813	0.998731
606.172701	0.998786
606.522534	0.999228
606.872314	0.999061
607.222041	0.998241
607.571714	0.999090
607.921333	0.998967
608.270899	0.998710
608.620411	0.999144
608.969870	0.999415
609.319276	0.999396
609.668627	0.999283
610.017926	0.998416
610.367171	0.999337
610.716362	0.999222
611.065500	0.998176
611.414585	0.999266
611.763616	0.998209
612.112594	0.998926
612.461518	0.998200
612.810389	0.999096
613.159207	0.998923
613.507971	0.998350
613.856682	0.999673
614.205340	0.997358
614.553945	0.998855
614.902496	0.998360
615.250994	0.999027
615.599439	0.998849
615.947830	0.998262
616.296169	0.998835
616.644454	0.999843
616.992686	0.999100
617.340864	0.998860
617.688990	0.998561
618.037063	0.999192
618.385082	0.998775
618.733048	0.997994
619.080961	0.998349
619.428821	0.999364
619.776628	0.998386
620.124382	0.999528
620.472083	0.999215
620.819731	0.999898
621.167326	0.998431
621.514868	0.999654
621.862357	0.998445
622.209793	0.999107
622.557176	0.998387
622.904506	0.997802
623.251783	0.998434
623.599007	0.999348
623.946179	0.998070
624.293297	0.999474
624.640363	0.998491
624.987376	0.998182
625.334336	0.997982
625.681243	0.998383
626.028097	0.999522
626.374899	0.998295
626.721647	0.999387
627.068343	0.998225
627.414987	0.998523
627.761577	0.998215
628.108115	0.997914
628.454600	0.998593
628.801032	0.998835
629.147412	0.998674
629.493739	0.998756
629.840014	0.998980
630.186236	0.998479
630.532405	0.998986
630.878521	0.998703
631.224585	0.998859
631.570597	0.998544
631.916556	0.999343
632.262462	0.997551
632.608316	0.998836
632.954117	0.997867
633.299866	0.998178
633.645562	0.998029
633.991206	0.998836
634.336797	0.998596
634.682336	0.998828
635.027823	0.998600
635.373257	0.999037
635.718639	0.998649
636.063968	0.999096
636.409245	0.998492
636.754470	0.998295
637.099642	0.999248
637.444762	0.999010
637.789829	0.998246
638.134845	0.998906
638.479808	0.998536
638.824719	0.998539
639.169577	0.998531
639.514383	0.998102
639.859137	0.999271
640.203839	0.998105
640.548489	0.998715
640.893086	0.998889
641.237632	0.998821
641.582125	0.998350
641.926566	0.998593
642.270955	0.998435
642.615292	0.997921
642.959576	0.998645
643.303809	0.999339
643.647990	0.998760
643.992118	0.997477
644.336195	0.998054
644.680219	0.998173
645.024192	0.998211
645.368112	0.997883
645.711981	0.998472
646.055797	0.999122
646.399562	0.997148
646.743274	0.999373
647.086935	0.998661
647.430544	0.998427
647.774101	0.998387
648.117606	0.999015
648.461059	0.998721
648.804460	0.998468
649.147810	0.998555
649.491108	0.998188
649.834354	0.998947
650.177548	0.997872
650.520690	0.998359
650.863781	0.997816
651.206820	0.998721
651.549807	0.998762
651.892742	0.998906
652.235626	0.998762
652.578458	0.999175
652.921238	0.998570
653.263967	0.999114
653.606644	0.998677
653.949269	0.999659
654.291843	0.997764
654.634365	0.998108
654.976836	0.998323
655.319255	0.999629
655.661622	0.999058
656.003938	0.998077
656.346203	0.997778
656.688416	0.999275
657.030577	0.998180
657.372687	0.998579
657.714746	0.998523
658.056753	0.997731
658.398708	0.997902
658.740612	0.999867
659.082465	0.997650
659.424266	0.998412
659.766016	0.997711
660.107715	0.998766
660.449362	0.998069
660.790958	0.998266
661.132503	0.998749
661.473996	0.998079
661.815438	0.998522
662.156829	0.998413
662.498168	0.999133
662.839456	0.997345
663.180693	0.998546
663.521879	0.998643
663.863013	0.998986
664.204097	0.997841
664.545129	0.998066
664.886110	0.999002
665.227040	0.998807
665.567918	0.998099
665.908746	0.997610
666.249522	0.997100
666.590248	0.998147
666.930922	0.997151
667.271545	0.998972
667.612118	0.998424
667.952639	0.998152
668.293109	0.997876
668.633528	0.997759
668.973896	0.998922
669.314213	0.997522
669.654480	0.999005
669.994695	0.998073
670.334859	0.998849
670.674973	0.998321
671.015035	0.998298
671.355047	0.998597
671.695008	0.997537
672.034918	0.998495
672.374777	0.998870
672.714585	0.998672
673.054342	0.998328
673.394049	0.998618
673.733705	0.998165
674.073310	0.997579
674.412864	0.998422
674.752368	0.997382
675.091820	0.998635
675.431223	0.998322
675.770574	0.997622
676.109875	0.998334
676.449125	0.997731
676.788324	0.998154
677.127473	0.999074
677.466571	0.998956
677.805619	0.998403
678.144616	0.998794
678.483562	0.997948
678.822458	0.998695
679.161303	0.997347
679.500098	0.998425
679.838842	0.998896
680.177535	0.998248
680.516179	0.997801
680.854771	0.997785
681.193314	0.997863
681.531805	0.998302
681.870247	0.998206
682.208638	0.997789
682.546978	0.997809
682.885268	0.997146
683.223508	0.996966
683.561697	0.997860
683.899836	0.998774
684.237925	0.998232
684.575963	0.998181
684.913951	0.998813
685.251889	0.997889
685.589776	0.997202
685.927614	0.998105
686.265401	0.997955
686.603137	0.998474
686.940824	0.998366
687.278460	0.998356
687.616046	0.998605
687.953582	0.997905
688.291068	0.998506
688.628504	0.997765
688.965889	0.998518
689.303224	0.996985
689.640510	0.997549
689.977745	0.997106
690.314930	0.998089
690.652065	0.998464
690.989150	0.997236
691.326185	0.999310
691.663170	0.997688
692.000105	0.998552
692.336990	0.997797
692.673825	0.998099
693.010610	0.997497
693.347345	0.997903
693.684030	0.997611
694.020665	0.997501
694.357251	0.997623
694.693786	0.998863
695.030272	0.996972
695.366707	0.997106
695.703093	0.998098
696.039429	0.997254
696.375716	0.998828
696.711952	0.997513
697.048139	0.997944
697.384276	0.998519
697.720363	0.998427
698.056400	0.996841
698.392388	0.997752
698.728326	0.997331
699.064214	0.998902
699.400053	0.998344
699.735842	0.999100
700.071581	0.997688
700.407270	0.997498
700.742910	0.997920
701.078501	0.997327
701.414042	0.998656
701.749533	0.996783
702.084974	0.998113
702.420366	0.997468
702.755709	0.997526
703.091002	0.998465
703.426246	0.998926
703.761440	0.998967
704.096584	0.997432
704.431679	0.997396
704.766725	0.997135
705.101721	0.997997
705.436668	0.998767
705.771565	0.997597
706.106413	0.997177
706.441212	0.997848
706.775961	0.998416
707.110661	0.997870
707.445311	0.998283
707.779913	0.998799
708.114465	0.998621
708.448967	0.998382
708.783421	0.998787
709.117825	0.998141
709.452180	0.998169
709.786485	0.998316
710.120742	0.998224
710.454949	0.997544
710.789107	0.997830
711.123216	0.996758
711.457275	0.996607
711.791286	0.997904
712.125247	0.998470
712.459159	0.997622
712.793023	0.997933
713.126837	0.998129
713.460602	0.998466
713.794318	0.996700
714.127985	0.996281
714.461602	0.998489
714.795171	0.997820
715.128691	0.997121
715.462162	0.997964
715.795584	0.997151
716.128957	0.998770
716.462281	0.998038
716.795556	0.997622
717.128782	0.998266
717.461960	0.997373
717.795088	0.997850
718.128167	0.998974
718.461198	0.997561
718.794180	0.997952
719.127113	0.997901
719.459997	0.998204
719.792833	0.997425
720.125619	0.997371
720.458357	0.998509
720.791046	0.998579
721.123686	0.997161
721.456278	0.997052
721.788821	0.997168
722.121315	0.998587
722.453761	0.997449
722.786158	0.997676
723.118506	0.997377
723.450805	0.997607
723.783056	0.997855
724.115259	0.997523
724.447412	0.998133
724.779518	0.998651
725.111574	0.997576
725.443582	0.998905
725.775542	0.998169
726.107453	0.998090
726.439315	0.998512
726.771129	0.997564
727.102895	0.998442
727.434612	0.997399
727.766281	0.997702
728.097901	0.997135
728.429473	0.997653
728.760996	0.997137
729.092471	0.997720
729.423897	0.998489
729.755276	0.997989
730.086606	0.997874
730.417887	0.998648
730.749120	0.998450
731.080305	0.997739
731.411442	0.996897
731.742530	0.997547
732.073570	0.997295
732.404562	0.998631
732.735506	0.998156
733.066401	0.997085
733.397249	0.997218
733.728048	0.998917
734.058798	0.997794
734.389501	0.998777
734.720156	0.997446
735.050762	0.997717
735.381320	0.998168
735.711831	0.997692
736.042293	0.997022
736.372707	0.998204
736.703073	0.996755
737.033391	0.997976
737.363661	0.998125
737.693883	0.997607
738.024056	0.997720
738.354182	0.998881
738.684260	0.998088
739.014290	0.998345
739.344272	0.998161
739.674207	0.997556
740.004093	0.997931
740.333931	0.997936
740.663722	0.997768
740.993464	0.998865
741.323159	0.997846
741.652806	0.997938
741.982405	0.998198
742.311956	0.997841
742.641460	0.998005
742.970915	0.997596
743.300323	0.997379
743.629683	0.997142
743.958996	0.998780
744.288260	0.997895
744.617477	0.998193
744.946647	0.997603
745.275768	0.999034
745.604842	0.998326
745.933869	0.997850
746.262847	0.998617
746.591778	0.996976
746.920662	0.998864
747.249498	0.998612
747.578286	0.998567
747.907027	0.998160
748.235720	0.998757
748.564365	0.998209
748.892963	0.997282
749.221514	0.998219
749.550017	0.997672
749.878473	0.997522
750.206881	0.999194
750.535242	0.998594
750.863555	0.998095
751.191821	0.997617
751.520039	0.997350
751.848210	0.996380
752.176334	0.998135
752.504411	0.997267
752.832440	0.997334
753.160421	0.998177
753.488356	0.997786
753.816243	0.997257
754.144082	0.997729
754.471875	0.998578
754.799620	0.997869
755.127318	0.997766
755.454969	0.998783
755.782572	0.998874
756.110129	0.997471
756.437638	0.999514
756.765100	0.997896
757.092515	0.997735
757.419882	0.998292
757.747203	0.998374
758.074477	0.998967
758.401703	0.998088
758.728882	0.998266
759.056014	0.998102
759.383099	0.998278
759.710138	0.997504
760.037129	0.997329
760.364073	0.997701
760.690970	0.998400
761.017820	0.997163
761.344623	0.999286
761.671379	0.998793
761.998088	0.997479
762.324751	0.999012
762.651366	0.997635
762.977935	0.997407
763.304456	0.998441
763.630931	0.996350
763.957359	0.995806
764.283740	0.996676
764.610074	0.996992
764.936362	0.996926
765.262602	0.998092
765.588796	0.998084
765.914943	0.997515
766.241044	0.997357
766.567097	0.998231
766.893104	0.998190
767.219064	0.997289
767.544978	0.998850
767.870845	0.999355
768.196665	0.998054
768.522438	0.997520
768.848165	0.998443
769.173846	0.998245
769.499479	0.999680
769.825066	0.999119
770.150607	0.999597
770.476101	0.998519
770.801548	0.998243
771.126949	0.999437
771.452303	0.997912
771.777611	0.997377
772.102872	0.997668
772.428087	0.998249
772.753256	0.997978
773.078378	0.999410
773.403453	0.997950
773.728482	0.999617
774.053465	0.998334
774.378401	0.999410
774.703291	0.998439
775.028135	0.999020
775.352932	0.998419
775.677683	0.999349
776.002388	0.998902
776.327046	0.998545
776.651658	1.000771
776.976224	0.998100
777.300743	0.998103
777.625216	0.998694
777.949643	0.998485
778.274024	0.997856
778.598359	0.999254
778.922647	0.998648
779.246889	0.998766
779.571086	0.998793
779.895236	0.998548
780.219339	0.999058
780.543397	0.998512
780.867409	0.999714
781.191374	0.998592
781.515294	0.999860
781.839167	0.998634
782.162995	0.998036
782.486776	0.997564
782.810511	0.998991
783.134201	0.999492
783.457844	0.998731
783.781441	0.998532
784.104993	0.997869
784.428498	0.998952
784.751958	0.999232
785.075372	1.000204
785.398739	0.998678
785.722061	0.997899
786.045337	0.998652
786.368568	0.997923
786.691752	0.998281
787.014891	0.997777
787.337983	0.997773
787.661030	0.998264
787.984031	0.998913
788.306987	0.999020
788.629897	0.996933
788.952760	0.997814
789.275579	0.998927
789.598351	0.997329
789.921078	0.999309
790.243759	0.998308
790.566395	0.997587
790.888984	0.999003
791.211529	0.997481
791.534027	0.998048
791.856480	0.999303
792.178888	0.998081
792.501249	0.999301
792.823566	0.999540
793.145836	0.998708
793.468062	0.999249
793.790241	0.999147
794.112375	0.997339
794.434464	0.998012
794.756507	0.999300
795.078505	0.998502
795.400457	0.999358
795.722364	0.998633
796.044226	0.998242
796.366042	0.998753
796.687812	0.996716
797.009538	0.997393
797.331218	0.998245
797.652852	0.999517
797.974442	0.998256
798.295986	0.998507
798.617484	0.997333
798.938938	0.999751
799.260346	0.999143
799.581709	0.997903
799.903026	0.998893
800.224299	0.997739
800.545526	0.997959
800.866708	0.997785
801.187845	0.998967
801.508936	0.997556
801.829983	0.998246
802.150984	0.999105
802.471940	0.998464
802.792851	0.998084
803.113717	0.998893
803.434538	0.999181
803.755314	0.999481
804.076045	0.998904
804.396731	0.997733
804.717372	0.996922
805.037967	0.999775
805.358518	0.997610
805.679024	0.998458
805.999485	0.998785
806.319901	0.998812
806.640272	0.999179
806.960598	0.999096
807.280879	0.998244
807.601115	0.999812
807.921306	1.000244
808.241453	0.997403
808.561554	0.998732
808.881611	0.998129
809.201623	0.997742
809.521590	0.999009
809.841513	0.998540
810.161390	0.997512
810.481223	0.998506
810.801011	0.999608
811.120755	1.000620
811.440453	0.998006
811.760107	0.998611
812.079716	0.999273
812.399281	0.997989
812.718801	0.998683
813.038276	0.997937
813.357707	0.997967
813.677093	0.999379
813.996434	0.997710
814.315731	0.999921
814.634983	0.998103
814.954191	0.998778
815.273354	0.998401
815.592473	0.998051
815.911547	0.999202
816.230577	0.997737
816.549562	0.998903
816.868502	0.997682
817.187399	1.000604
817.506250	0.999460
817.825058	0.997081
818.143821	0.998491
818.462539	0.999241
818.781213	0.998629
819.099843	0.999291
819.418429	0.997770
819.736970	0.999156
820.055466	0.997776
820.373919	0.998101
820.692327	0.997039
821.010691	0.997554
821.329011	0.995817
821.647286	0.994931
821.965517	0.994360
822.283704	0.993922
822.601847	0.993543
822.919945	0.993278
823.237999	0.993346
823.556010	0.994007
823.873976	0.994246
824.191897	0.995808
824.509775	0.995897
824.827609	0.995999
825.145398	0.997575
825.463144	0.995124
825.780845	0.995888
826.098502	0.995438
826.416116	0.995918
826.733685	0.996179
827.051210	0.994829
827.368692	0.995123
827.686129	0.994381
828.003522	0.996156
828.320872	0.996497
828.638177	0.997134
828.955439	0.997045
829.272656	0.997199
829.589830	0.996407
829.906960	0.999434
830.224046	0.997146
830.541088	0.997763
830.858086	0.998440
831.175041	0.999812
831.491952	0.997923
831.808819	0.997796
832.125642	0.997611
832.442421	0.999170
832.759157	0.998907
833.075849	0.997096
833.392497	0.997539
833.709101	0.996389
834.025662	0.996747
834.342179	0.997179
834.658653	0.998673
834.975083	0.997624
835.291469	0.998571
835.607811	0.997874
835.924110	0.997331
836.240366	0.998763
836.556578	0.997903
836.872746	0.998382
837.188871	0.999469
837.504952	0.997822
837.820990	0.999303
838.136984	0.997681
838.452935	0.998491
838.768842	0.999547
839.084706	0.999751
839.400526	0.998903
839.716303	0.998114
840.032037	0.998666
840.347727	0.998521
840.663373	0.999026
840.978977	0.997810
841.294537	0.999313
841.610054	0.998840
841.925527	0.998712
842.240957	0.999091
842.556344	0.998227
842.871687	0.998717
843.186987	0.998924
843.502244	0.998679
843.817458	0.999081
844.132629	0.997634
844.447756	0.999747
844.762840	0.998790
845.077881	0.999544
845.392879	0.998125
845.707833	0.999081
846.022745	0.998786
846.337613	0.999317
846.652438	0.999367
846.967221	0.999464
847.281960	0.998053
847.596656	0.998599
847.911309	0.999422
848.225919	0.998339
848.540485	0.998688
848.855009	1.000129
849.169490	0.999631
849.483928	0.999390
849.798323	0.998232
850.112675	0.998991
850.426984	0.999558
850.741251	0.999233
851.055474	0.999050
851.369654	0.999569
851.683792	0.997309
851.997887	0.999556
852.311938	0.999995
852.625947	0.998492
852.939914	0.998498
853.253837	1.000229
853.567718	0.999774
853.881555	0.998781
854.195350	0.998506
854.509103	0.999103
854.822812	0.999255
855.136479	0.999592
855.450103	0.999822
855.763685	0.999702
856.077224	0.999071
856.390720	0.999126
856.704173	1.000077
857.017584	1.000303
857.330953	0.999679
857.644278	0.999301
857.957561	1.000815
858.270802	0.999818
858.584000	0.999848
858.897155	0.998935
859.210268	0.999942
859.523339	1.000434
859.836367	0.999247
860.149352	0.999285
860.462295	1.000003
860.775195	0.999115
861.088054	0.998440
861.400869	0.998604
861.713642	0.998472
862.026373	0.999911
862.339062	0.999061
862.651708	1.000388
862.964312	1.001393
863.276873	0.999277
863.589392	0.999019
863.901869	0.998891
864.214303	0.998879
864.526696	0.998638
864.839045	0.998898
865.151353	0.999592
865.463619	0.998442
865.775842	0.999027
866.088023	0.999857
866.400162	0.999087
866.712258	1.000816
867.024313	1.000409
867.336325	0.999869
867.648296	1.000109
867.960224	0.999214
868.272110	1.000199
868.583954	0.998863
868.895755	1.000678
869.207515	0.999263
869.519233	0.999622
869.830909	0.998148
870.142542	0.998152
870.454134	0.999715
870.765684	0.998842
871.077191	0.999983
871.388657	1.000181
871.700081	1.000065
872.011463	0.999361
872.322803	0.999289
872.634101	0.998649
872.945357	0.998383
873.256571	0.998351
873.567744	0.998725
873.878874	0.999084
874.189963	0.998932
874.501010	0.999795
874.812015	0.999030
875.122979	0.999701
875.433900	0.997921
875.744780	1.000009
876.055618	0.998944
876.366415	0.999054
876.677169	1.000384
876.987882	0.998911
877.298554	1.000493
877.609183	0.999163
877.919771	0.999370
878.230317	0.999745
878.540822	0.999343
878.851285	0.999103
879.161707	0.998430
879.472087	0.999726
879.782425	0.997921
880.092722	0.997556
880.402977	0.996649
880.713191	0.996490
881.023363	0.995430
881.333494	0.994805
881.643583	0.995992
881.953631	0.995738
882.263637	0.994466
882.573602	0.994501
882.883526	0.995510
883.193408	0.996436
883.503248	0.996664
883.813048	0.995693
884.122806	0.996895
884.432522	0.997776
884.742197	0.997766
885.051831	0.997604
885.361424	0.997202
885.670975	0.998838
885.980485	0.997977
886.289954	0.998116
886.599382	0.998666
886.908768	0.999487
887.218113	0.997703
887.527417	0.998088
887.836680	0.998786
888.145901	0.999358
888.455082	0.999866
888.764221	0.998972
889.073319	0.998406
889.382376	1.000483
889.691392	0.998247
890.000366	0.999683
890.309300	0.999355
890.618193	0.999170
890.927044	0.998883
891.235855	0.999239
891.544625	0.999391
891.853353	0.998241
892.162041	0.998797
892.470687	0.999384
892.779293	0.998673
893.087858	0.998253
893.396381	0.998519
893.704864	0.997509
894.013306	0.997706
894.321707	0.997898
894.630068	0.997524
894.938387	0.997347
895.246665	0.997626
895.554903	0.997103
895.863100	0.997705
896.171256	0.997093
896.479371	0.997364
896.787446	0.997617
897.095480	0.997258
897.403473	0.998900
897.711425	0.998479
898.019336	0.998586
898.327207	0.998888
898.635038	0.997948
898.942827	0.998228
899.250576	0.998251
899.558284	0.999033
899.865952	0.998284
900.173579	0.998999
900.481165	0.998182
900.788711	0.998810
901.096216	0.998332
901.403681	0.998898
901.711105	0.998684
902.018489	0.998437
902.325832	0.999446
902.633135	0.998673
902.940397	0.999416
903.247619	0.999364
903.554800	0.997394
903.861941	0.997146
904.169041	0.997509
904.476101	0.997821
904.783121	0.996785
905.090100	0.997085
905.397039	0.997294
905.703938	0.996858
906.010796	0.997353
906.317614	0.997876
906.624391	0.999543
906.931129	0.999812
907.237826	0.998507
907.544483	0.998575
907.851099	0.999096
908.157675	0.997956
908.464211	0.999073
908.770707	0.999130
909.077163	0.999096
909.383578	0.998330
909.689954	0.999412
909.996289	1.000646
910.302584	0.999579
910.608839	0.999270
910.915054	0.998741
911.221229	0.999526
911.527363	0.999596
911.833458	0.997882
912.139513	0.999029
912.445527	0.999985
912.751502	0.999713
913.057436	0.999140
913.363331	0.999483
913.669186	0.999701
913.975000	1.000022
914.280775	0.999705
914.586510	0.997911
914.892205	0.998620
915.197859	0.997323
915.503475	0.997954
915.809050	0.996947
916.114585	0.996682
916.420081	0.998125
916.725536	0.997287
917.030952	0.997024
917.336328	0.996906
917.641665	0.995987
917.946961	0.997766
918.252218	0.998398
918.557435	0.997651
918.862612	0.998031
919.167750	0.998495
919.472848	0.998457
919.777906	0.999748
920.082925	0.999455
920.387904	0.999320
920.692843	0.999251
920.997743	0.997539
921.302603	1.000365
921.607423	0.998823
921.912204	0.999170
922.216946	0.999801
922.521647	0.998454
922.826310	0.998530
923.130932	1.000535
923.435516	1.000086
923.740059	0.999528
924.044564	0.999538
924.349028	0.999174
924.653454	0.999128
924.957840	0.999236
925.262186	0.999038
925.566493	0.997664
925.870761	0.999034
926.174989	0.999226
926.479178	1.000010
926.783328	0.999600
927.087438	0.999329
927.391509	0.998559
927.695541	0.999246
927.999533	0.999216
928.303486	0.998219
928.607400	0.999593
928.911275	0.999866
929.215110	0.999971
929.518906	0.999364
929.822663	1.000338
930.126381	0.999939
930.430060	0.999345
930.733699	0.999710
931.037299	0.999670
931.340861	1.000458
931.644383	0.998636
931.947866	0.999919
932.251309	0.999781
932.554714	0.999870
932.858080	1.000233
933.161407	0.998709
933.464694	0.999587
933.767943	0.999924
934.071153	0.998952
934.374323	1.000775
934.677455	0.999197
934.980548	0.998262
935.283602	0.999863
935.586617	0.999199
935.889593	1.000599
936.192530	0.999721
936.495428	0.999486
936.798287	0.999476
937.101108	0.999271
937.403890	0.999217
937.706632	1.000748
938.009336	0.999277
938.312002	0.999704
938.614628	0.999968
938.917216	0.999134
939.219765	1.000002
939.522275	0.999797
939.824747	1.000282
940.127179	0.998766
940.429573	1.000054
940.731929	0.998537
941.034246	0.998859
941.336524	0.997889
941.638763	0.998792
941.940964	0.998186
942.243126	0.998762
942.545250	1.000219
942.847335	0.999037
943.149381	1.000940
943.451389	0.999021
943.753359	0.999327
944.055290	0.999834
944.357182	0.999870
944.659036	0.998808
944.960851	1.000348
945.262628	0.999759
945.564367	0.999474
945.866067	0.999239
946.167729	0.999790
946.469352	0.999304
946.770937	0.998535
947.072484	1.000131
947.373992	0.999787
947.675462	0.999262
947.976893	1.000217
948.278286	1.000669
948.579641	1.001574
948.880958	0.998880
949.182236	0.999453
949.483476	0.999343
949.784678	1.000194
950.085841	0.999112
950.386967	0.998739
950.688054	1.000185
950.989103	0.998606
951.290114	0.998298
951.591087	1.000833
951.892021	0.999551
952.192917	1.000056
952.493776	0.999648
952.794596	0.999157
953.095378	0.998491
953.396122	0.999151
953.696828	0.999263
953.997496	0.999823
954.298126	1.000014
954.598718	0.998738
954.899272	0.998856
955.199788	0.998876
955.500266	1.000693
955.800706	0.999512
956.101108	0.998609
956.401472	0.999831
956.701798	0.999746
957.002087	0.999327
957.302337	0.999323
957.602550	0.998852
957.902724	0.999996
958.202861	0.998841
958.502960	0.999729
958.803022	0.999771
959.103045	0.999871
959.403031	1.000412
959.702979	1.000112
960.002889	0.998560
960.302762	0.998858
960.602596	0.999696
960.902393	0.999278
961.202153	0.999741
961.501875	1.000345
961.801559	0.999391
962.101205	0.998984
962.400814	1.000489
962.700385	1.000147
962.999918	0.999647
963.299414	0.998768
963.598873	1.000354
963.898293	1.000219
964.197677	0.999062
964.497022	0.999421
964.796331	0.998792
965.095601	1.000563
965.394835	0.999677
965.694030	1.000927
965.993189	0.998872
966.292309	0.999907
966.591393	0.997600
966.890439	1.001863
967.189447	0.998877
967.488419	1.000408
967.787353	0.999789
968.086249	0.999584
968.385108	1.000528
968.683930	1.001552
968.982714	1.000837
969.281462	0.999226
969.580172	1.000508
969.878844	1.001413
970.177480	1.000167
970.476078	1.001918
970.774639	0.999015
971.073162	0.998839
971.371649	0.999082
971.670098	0.999168
971.968510	1.000853
972.266885	0.999215
972.565223	0.999345
972.863524	0.998330
973.161788	0.999839
973.460014	1.000386
973.758204	0.999332
974.056356	1.000682
974.354471	0.999651
974.652550	0.999980
974.950591	0.998802
975.248595	0.998237
975.546563	0.999901
975.844493	1.000319
976.142386	0.998198
976.440243	0.999726
976.738062	0.999520
977.035845	0.998121
977.333590	1.000114
977.631299	0.998154
977.928971	0.999615
978.226606	1.000287
978.524204	0.998537
978.821765	1.000626
979.119290	1.000321
979.416777	1.000579
979.714228	0.999746
980.011642	0.999706
980.309020	0.999002
980.606360	0.998958
980.903664	0.998931
981.200931	0.998458
981.498162	0.999813
981.795356	1.000503
982.092513	0.999699
982.389633	0.999941
982.686717	0.999760
982.983764	0.999795
983.280775	1.000314
983.577749	0.999672
983.874686	0.999192
984.171587	0.998978
984.468451	0.999035
984.765279	0.999996
985.062070	0.999151
985.358824	0.998884
985.655543	0.998918
985.952224	0.999442
986.248869	1.000443
986.545478	1.000962
986.842050	0.999758
987.138586	0.999348
987.435086	0.999071
987.731549	1.000270
988.027975	0.999370
988.324366	0.999287
988.620719	1.000320
988.917037	0.998754
989.213318	1.000348
989.509563	0.999118
989.805772	1.000406
990.101944	0.998922
990.398080	0.999716
990.694180	1.000191
990.990244	0.998575
991.286271	0.998113
991.582262	0.999650
991.878217	0.998341
992.174136	1.000687
992.470019	0.999723
992.765865	1.000479
993.061676	0.999444
993.357450	1.000811
993.653188	1.001451
993.948890	0.999346
994.244556	0.998896
994.540186	0.999268
994.835780	0.999428
995.131337	1.000669
995.426859	1.001079
995.722345	0.999681
996.017795	0.999896
996.313208	0.999742
996.608586	0.999731
996.903928	0.999975
997.199234	0.999160
997.494504	1.000437
997.789738	0.998288
998.084936	1.000020
998.380099	0.998528
998.675225	1.001089
998.970316	1.000728
999.265371	0.999160
999.560390	1.000134
999.855373	0.998806
1000.150320	0.999749
1000.445232	1.000404
1000.740108	0.999093
1001.034948	0.999711
1001.329752	1.001229
1001.624521	0.999695
1001.919254	0.998943
1002.213951	1.000546
1002.508613	0.999252
1002.803239	0.999390
1003.097829	1.000122
1003.392384	0.999815
1003.686903	0.999187
1003.981386	0.998789
1004.275834	1.001048
1004.570246	0.999378
1004.864623	1.000374
1005.158964	0.999883
1005.453270	0.999669
1005.747540	0.999353
1006.041775	0.999609
1006.335974	1.000091
1006.630138	0.999834
1006.924266	0.998586
1007.218359	0.997526
1007.512416	1.000033
1007.806438	0.999381
1008.100425	1.000047
1008.394376	0.999312
1008.688292	0.999777
1008.982172	0.998251
1009.276017	0.999685
1009.569827	1.001344
1009.863602	0.998287
1010.157341	1.000430
1010.451045	0.999868
1010.744714	1.001377
1011.038347	0.999466
1011.331945	0.999056
1011.625508	0.998592
1011.919036	0.999653
1012.212528	0.999313
1012.505986	0.998850
1012.799408	1.000194
1013.092795	0.999999
1013.386147	1.000047
1013.679464	1.000781
1013.972745	0.999161
1014.265992	0.999975
1014.559204	0.999517
1014.852380	1.000822
1015.145521	1.000157
1015.438628	0.999870
1015.731699	1.000080
1016.024736	0.999619
1016.317737	0.999894
1016.610703	1.000061
1016.903635	0.999247
1017.196531	0.999511
1017.489393	0.999012
1017.782219	0.998958
1018.075011	1.000627
1018.367768	0.998721
1018.660490	0.999796
1018.953177	0.999796
1019.245829	0.999796
