Dividing Wavelength (nm)	Counts (n)	Blue Motor Position (mm): 33.300000	Red Motor Position (mm): 0.000000	
326.493990	0.999670
326.888308	0.999670
327.282561	0.999670
327.676750	0.999660
328.070874	1.000952
328.464933	1.001200
328.858929	1.001016
329.252859	0.999905
329.646726	1.000108
330.040528	1.000607
330.434265	1.001119
330.827938	0.999903
331.221547	1.001124
331.615091	1.000221
332.008571	1.001521
332.401986	0.999583
332.795338	0.999541
333.188625	1.001496
333.581847	1.000040
333.975006	1.000734
334.368100	1.000546
334.761129	0.999291
335.154095	1.000295
335.546996	1.000495
335.939833	0.998986
336.332606	0.998770
336.725315	0.999156
337.117960	0.999455
337.510540	0.998783
337.903056	1.000034
338.295508	1.000265
338.687896	1.001140
339.080220	0.999422
339.472480	0.999584
339.864676	0.999651
340.256807	0.998848
340.648875	1.000298
341.040879	1.000214
341.432818	0.999809
341.824694	0.999294
342.216506	1.000496
342.608253	0.998823
342.999937	0.999590
343.391557	0.999623
343.783113	1.000652
344.174605	0.999360
344.566033	0.999060
344.957397	0.999830
345.348697	1.000211
345.739934	1.000446
346.131106	0.998541
346.522215	0.998247
346.913260	0.999115
347.304241	0.997668
347.695159	0.999003
348.086012	1.000516
348.476802	0.999242
348.867528	0.998072
349.258191	0.999480
349.648789	1.000132
350.039324	0.998945
350.429796	0.999389
350.820203	0.997564
351.210548	0.999173
351.600828	0.998539
351.991045	0.998910
352.381198	0.999252
352.771288	0.998449
353.161314	0.999400
353.551276	0.998061
353.941175	0.997867
354.331010	0.999161
354.720782	0.999012
355.110490	0.999306
355.500135	0.998548
355.889717	0.997949
356.279235	0.997997
356.668689	0.999553
357.058080	0.998013
357.447408	0.997744
357.836672	0.998063
358.225873	0.997680
358.615010	0.998801
359.004084	0.998132
359.393095	0.998312
359.782043	0.997421
360.170927	0.999128
360.559748	0.997769
360.948505	0.998168
361.337199	0.996525
361.725830	0.998576
362.114398	0.997765
362.502903	0.997307
362.891344	0.996933
363.279722	0.997972
363.668037	0.999452
364.056289	0.997482
364.444478	0.998830
364.832603	0.997547
365.220665	0.997011
365.608665	0.997224
365.996601	0.996391
366.384474	0.995240
366.772284	0.996594
367.160031	0.996235
367.547715	0.995981
367.935336	0.994862
368.322893	0.994272
368.710388	0.992587
369.097820	0.991118
369.485189	0.988940
369.872495	0.987135
370.259738	0.986016
370.646918	0.982541
371.034035	0.981054
371.421090	0.977282
371.808081	0.972420
372.195010	0.969924
372.581875	0.964669
372.968678	0.959595
373.355418	0.955537
373.742096	0.949231
374.128710	0.944760
374.515262	0.940475
374.901751	0.934128
375.288177	0.929601
375.674540	0.923180
376.060841	0.917089
376.447079	0.909337
376.833254	0.903262
377.219367	0.899085
377.605417	0.886845
377.991404	0.883276
378.377329	0.877116
378.763191	0.871699
379.148991	0.860968
379.534727	0.854563
379.920402	0.845908
380.306013	0.842927
380.691563	0.830365
381.077049	0.823315
381.462474	0.818915
381.847835	0.808461
382.233134	0.803374
382.618371	0.803777
383.003545	0.786508
383.388657	0.784003
383.773706	0.776650
384.158693	0.772733
384.543618	0.767553
384.928480	0.758701
385.313280	0.749062
385.698017	0.747165
386.082692	0.737404
386.467305	0.735012
386.851856	0.729774
387.236344	0.724732
387.620770	0.718894
388.005133	0.712747
388.389435	0.707398
388.773674	0.705332
389.157851	0.696750
389.541965	0.693694
389.926018	0.700745
390.310008	0.687340
390.693936	0.685115
391.077802	0.676912
391.461606	0.677602
391.845348	0.667480
392.229027	0.666918
392.612645	0.666042
392.996200	0.653183
393.379694	0.645053
393.763125	0.635831
394.146494	0.640295
394.529801	0.631216
394.913047	0.623634
395.296230	0.629056
395.679351	0.620164
396.062410	0.617319
396.445408	0.619407
396.828343	0.615281
397.211217	0.610708
397.594028	0.622232
397.976778	0.612902
398.359466	0.609277
398.742092	0.605032
399.124656	0.617219
399.507158	0.604779
399.889598	0.602174
400.271977	0.593461
400.654294	0.597145
401.036549	0.596518
401.418742	0.600850
401.800874	0.586941
402.182944	0.583533
402.564952	0.575165
402.946898	0.577507
403.328783	0.578138
403.710606	0.590207
404.092367	0.564534
404.474067	0.569252
404.855705	0.568382
405.237282	0.576636
405.618797	0.563376
406.000250	0.559420
406.381642	0.548518
406.762972	0.554595
407.144240	0.553828
407.525447	0.553259
407.906593	0.546321
408.287677	0.542347
408.668700	0.550352
409.049661	0.545108
409.430560	0.540872
409.811399	0.550121
410.192176	0.532585
410.572891	0.540358
410.953545	0.529702
411.334138	0.543842
411.714669	0.537563
412.095139	0.551269
412.475547	0.536968
412.855894	0.540248
413.236180	0.541079
413.616405	0.548315
413.996568	0.540972
414.376670	0.549674
414.756711	0.556644
415.136691	0.556251
415.516609	0.550525
415.896466	0.550130
416.276262	0.549187
416.655997	0.555058
417.035670	0.540909
417.415283	0.536882
417.794834	0.545909
418.174324	0.554232
418.553753	0.566505
418.933121	0.554863
419.312428	0.554813
419.691674	0.565090
420.070859	0.559588
420.449983	0.571935
420.829045	0.567889
421.208047	0.581144
421.586988	0.581845
421.965867	0.586691
422.344686	0.585634
422.723444	0.601010
423.102141	0.621524
423.480777	0.606820
423.859352	0.630372
424.237866	0.621131
424.616319	0.629182
424.994712	0.630328
425.373044	0.645741
425.751314	0.646111
426.129524	0.666143
426.507673	0.662155
426.885762	0.665755
427.263789	0.679286
427.641756	0.692607
428.019662	0.696069
428.397508	0.704459
428.775292	0.716727
429.153016	0.720345
429.530679	0.732902
429.908282	0.738234
430.285824	0.751196
430.663305	0.749739
431.040726	0.769815
431.418086	0.777090
431.795385	0.782335
432.172624	0.790792
432.549802	0.798540
432.926920	0.806885
433.303977	0.814524
433.680974	0.821420
434.057910	0.829111
434.434786	0.836216
434.811601	0.845175
435.188355	0.846978
435.565050	0.857369
435.941683	0.863923
436.318257	0.866652
436.694770	0.875603
437.071222	0.881703
437.447614	0.889077
437.823946	0.896350
438.200218	0.900266
438.576429	0.907863
438.952580	0.912692
439.328670	0.915602
439.704700	0.922335
440.080670	0.928693
440.456580	0.931321
440.832429	0.937405
441.208218	0.942857
441.583947	0.945224
441.959616	0.948735
442.335224	0.953046
442.710773	0.956727
443.086261	0.959376
443.461689	0.962403
443.837057	0.965609
444.212365	0.968225
444.587612	0.971864
444.962800	0.973139
445.337927	0.975833
445.712995	0.979127
446.088002	0.978435
446.462949	0.980544
446.837837	0.984057
447.212664	0.983043
447.587431	0.985241
447.962139	0.985609
448.336786	0.985579
448.711374	0.986030
449.085901	0.988897
449.460369	0.990466
449.834776	0.990359
450.209124	0.991393
450.583412	0.992015
450.957640	0.992057
451.331808	0.993078
451.705917	0.993002
452.079965	0.993907
452.453954	0.995116
452.827883	0.995375
453.201752	0.995419
453.575562	0.994864
453.949311	0.995529
454.323001	0.995389
454.696632	0.996149
455.070202	0.995683
455.443713	0.995731
455.817164	0.996617
456.190556	0.996715
456.563888	0.997149
456.937160	0.996567
457.310373	0.996640
457.683526	0.996860
458.056619	0.997371
458.429653	0.996497
458.802628	0.996788
459.175542	0.997386
459.548398	0.996755
459.921194	0.997030
460.293930	0.997916
460.666607	0.997593
461.039224	0.996974
461.411782	0.997762
461.784280	0.997081
462.156719	0.998188
462.529099	0.997517
462.901419	0.997692
463.273680	0.996916
463.645882	0.996980
464.018024	0.997932
464.390106	0.997622
464.762130	0.997313
465.134094	0.997544
465.505999	0.997609
465.877845	0.996892
466.249631	0.997025
466.621358	0.996313
466.993026	0.996807
467.364634	0.996855
467.736184	0.996723
468.107674	0.996944
468.479105	0.996887
468.850477	0.997366
469.221790	0.997091
469.593043	0.997283
469.964238	0.997498
470.335373	0.996523
470.706449	0.996959
471.077467	0.996964
471.448425	0.997156
471.819324	0.997083
472.190164	0.996381
472.560945	0.996913
472.931667	0.996963
473.302330	0.996653
473.672934	0.997375
474.043479	0.996527
474.413965	0.997239
474.784393	0.997459
475.154761	0.996298
475.525070	0.996381
475.895321	0.997380
476.265513	0.998136
476.635645	0.997907
477.005719	0.996939
477.375734	0.996068
477.745691	0.996318
478.115588	0.996306
478.485427	0.996304
478.855207	0.996349
479.224928	0.996243
479.594591	0.997209
479.964194	0.996542
480.333739	0.996832
480.703226	0.995839
481.072653	0.995945
481.442022	0.997204
481.811333	0.996425
482.180584	0.997125
482.549777	0.997161
482.918912	0.996796
483.287988	0.996800
483.657005	0.996101
484.025964	0.996378
484.394864	0.996402
484.763706	0.995832
485.132489	0.996214
485.501213	0.996806
485.869879	0.995967
486.238487	0.996367
486.607036	0.997476
486.975527	0.996656
487.343959	0.996224
487.712333	0.996770
488.080648	0.996304
488.448905	0.996484
488.817104	0.996453
489.185244	0.996328
489.553326	0.996837
489.921350	0.996905
490.289315	0.996178
490.657222	0.996134
491.025070	0.997178
491.392861	0.996334
491.760593	0.996665
492.128267	0.996680
492.495883	0.995836
492.863440	0.996950
493.230939	0.996678
493.598380	0.997327
493.965763	0.996786
494.333088	0.996274
494.700354	0.996610
495.067563	0.997324
495.434713	0.997181
495.801805	0.997065
496.168839	0.997292
496.535815	0.997463
496.902733	0.997198
497.269593	0.996750
497.636395	0.995998
498.003139	0.996667
498.369825	0.997487
498.736453	0.996988
499.103023	0.997081
499.469535	0.996669
499.835989	0.997806
500.202385	0.996465
500.568723	0.996806
500.935003	0.996729
501.301226	0.997012
501.667390	0.996368
502.033497	0.997277
502.399546	0.996793
502.765537	0.996571
503.131470	0.996942
503.497345	0.997180
503.863163	0.997306
504.228923	0.997130
504.594625	0.997036
504.960269	0.997168
505.325856	0.997548
505.691385	0.997156
506.056856	0.997079
506.422270	0.996655
506.787625	0.997431
507.152924	0.997156
507.518164	0.996299
507.883347	0.996886
508.248472	0.996015
508.613540	0.996411
508.978550	0.996591
509.343503	0.996064
509.708398	0.997229
510.073236	0.996300
510.438016	0.996351
510.802738	0.996738
511.167403	0.996444
511.532010	0.997313
511.896561	0.996966
512.261053	0.996332
512.625488	0.996556
512.989866	0.996597
513.354186	0.996064
513.718449	0.996616
514.082655	0.995845
514.446803	0.997249
514.810894	0.996796
515.174927	0.997035
515.538904	0.997556
515.902822	0.996415
516.266684	0.997148
516.630488	0.996321
516.994235	0.996821
517.357925	0.996871
517.721558	0.996488
518.085133	0.996491
518.448651	0.996715
518.812112	0.997351
519.175516	0.997205
519.538863	0.996666
519.902152	0.997165
520.265385	0.996952
520.628560	0.996114
520.991678	0.996692
521.354739	0.997434
521.717743	0.996990
522.080690	0.996221
522.443580	0.996739
522.806413	0.995985
523.169189	0.997188
523.531908	0.996403
523.894569	0.997055
524.257174	0.996767
524.619722	0.996824
524.982213	0.996672
525.344647	0.996798
525.707025	0.996054
526.069345	0.995935
526.431608	0.996610
526.793815	0.997029
527.155964	0.997072
527.518057	0.997176
527.880093	0.996698
528.242072	0.996518
528.603995	0.996630
528.965860	0.997049
529.327669	0.996802
529.689421	0.996448
530.051117	0.996730
530.412755	0.997046
530.774337	0.996763
531.135862	0.997367
531.497331	0.996394
531.858743	0.996982
532.220098	0.996787
532.581396	0.997238
532.942638	0.997155
533.303824	0.997257
533.664953	0.996791
534.026025	0.997384
534.387040	0.996739
534.747999	0.996726
535.108902	0.996238
535.469748	0.997045
535.830537	0.997088
536.191270	0.996884
536.551947	0.996613
536.912567	0.997058
537.273131	0.997122
537.633638	0.996937
537.994089	0.997591
538.354483	0.997030
538.714821	0.997476
539.075103	0.997362
539.435328	0.996928
539.795497	0.997213
540.155609	0.996602
540.515665	0.996909
540.875665	0.996907
541.235609	0.997461
541.595496	0.996021
541.955328	0.996907
542.315102	0.997369
542.674821	0.997044
543.034483	0.997016
543.394090	0.996262
543.753640	0.996974
544.113134	0.996831
544.472571	0.997539
544.831953	0.997330
545.191278	0.997089
545.550548	0.996258
545.909761	0.996678
546.268918	0.996898
546.628019	0.997348
546.987064	0.996835
547.346053	0.996771
547.704986	0.996466
548.063863	0.996640
548.422684	0.997146
548.781449	0.996740
549.140158	0.997030
549.498811	0.996554
549.857408	0.996354
550.215949	0.996521
550.574434	0.996631
550.932864	0.997005
551.291237	0.996276
551.649555	0.996920
552.007817	0.997012
552.366022	0.997162
552.724173	0.997348
553.082267	0.997058
553.440305	0.996638
553.798288	0.995963
554.156215	0.996813
554.514086	0.997031
554.871902	0.996772
555.229661	0.995766
555.587365	0.997104
555.945014	0.996984
556.302606	0.996128
556.660143	0.997345
557.017625	0.997379
557.375050	0.996439
557.732421	0.996436
558.089735	0.996482
558.446994	0.996661
558.804197	0.996595
559.161345	0.996603
559.518437	0.996970
559.875474	0.996871
560.232455	0.997097
560.589381	0.997152
560.946251	0.996719
561.303065	0.997273
561.659825	0.996625
562.016528	0.997337
562.373177	0.996699
562.729770	0.996351
563.086307	0.996346
563.442789	0.997308
563.799216	0.996497
564.155587	0.996624
564.511904	0.997238
564.868164	0.995618
565.224370	0.997147
565.580520	0.997296
565.936615	0.996862
566.292654	0.996391
566.648638	0.997078
567.004567	0.996417
567.360441	0.997443
567.716260	0.997341
568.072023	0.996193
568.427732	0.997463
568.783385	0.996865
569.138982	0.996297
569.494525	0.997124
569.850013	0.997076
570.205445	0.996889
570.560823	0.996257
570.916145	0.996411
571.271412	0.997035
571.626625	0.996627
571.981782	0.997084
572.336884	0.996887
572.691931	0.997740
573.046923	0.997020
573.401860	0.996691
573.756743	0.997487
574.111570	0.996365
574.466342	0.997015
574.821059	0.996263
575.175722	0.997378
575.530330	0.997035
575.884882	0.996951
576.239380	0.996938
576.593823	0.996538
576.948211	0.996914
577.302544	0.997090
577.656823	0.997294
578.011047	0.996417
578.365216	0.997537
578.719330	0.997256
579.073389	0.996542
579.427394	0.996463
579.781344	0.997140
580.135239	0.995804
580.489080	0.996718
580.842866	0.997014
581.196597	0.996916
581.550273	0.996615
581.903895	0.997061
582.257463	0.996728
582.610975	0.996772
582.964434	0.996896
583.317837	0.997391
583.671186	0.997269
584.024481	0.996835
584.377721	0.996572
584.730906	0.997338
585.084037	0.998044
585.437113	0.997574
585.790135	0.997262
586.143103	0.996727
586.496016	0.996976
586.848874	0.997264
587.201679	0.997090
587.554428	0.996861
587.907124	0.997719
588.259765	0.996959
588.612352	0.997492
588.964884	0.997517
589.317362	0.997236
589.669786	0.996084
590.022155	0.997158
590.374470	0.996355
590.726731	0.996598
591.078937	0.997883
591.431090	0.996776
591.783188	0.996409
592.135232	0.997557
592.487222	0.997740
592.839157	0.997314
593.191038	0.997141
593.542866	0.996774
593.894639	0.996392
594.246358	0.996851
594.598022	0.997197
594.949633	0.997430
595.301190	0.996730
595.652692	0.997150
596.004141	0.996771
596.355535	0.997461
596.706876	0.996998
597.058162	0.997503
597.409395	0.997142
597.760573	0.996968
598.111698	0.997340
598.462768	0.996693
598.813785	0.996239
599.164748	0.996573
599.515657	0.996356
599.866511	0.997580
600.217312	0.997656
600.568060	0.995781
600.918753	0.996755
601.269392	0.997285
601.619978	0.996913
601.970510	0.996563
602.320988	0.997012
602.671412	0.997177
603.021783	0.996808
603.372100	0.997411
603.722363	0.997086
604.072572	0.996862
604.422728	0.997165
604.772830	0.997501
605.122878	0.996893
605.472872	0.998250
605.822813	0.996642
606.172701	0.997358
606.522534	0.997047
606.872314	0.997140
607.222041	0.996866
607.571714	0.997177
607.921333	0.996539
608.270899	0.996468
608.620411	0.997301
608.969870	0.997739
609.319276	0.997421
609.668627	0.997716
610.017926	0.997333
610.367171	0.997144
610.716362	0.997348
611.065500	0.996904
611.414585	0.997574
611.763616	0.996578
612.112594	0.997285
612.461518	0.996411
612.810389	0.997379
613.159207	0.997372
613.507971	0.996769
613.856682	0.997631
614.205340	0.996200
614.553945	0.997170
614.902496	0.997197
615.250994	0.997629
615.599439	0.997359
615.947830	0.995925
616.296169	0.996920
616.644454	0.997447
616.992686	0.997732
617.340864	0.997550
617.688990	0.996742
618.037063	0.997168
618.385082	0.996269
618.733048	0.996833
619.080961	0.997518
619.428821	0.997430
619.776628	0.996940
620.124382	0.998072
620.472083	0.997810
620.819731	0.998355
621.167326	0.997725
621.514868	0.996951
621.862357	0.996956
622.209793	0.997349
622.557176	0.996720
622.904506	0.996654
623.251783	0.996572
623.599007	0.997043
623.946179	0.996679
624.293297	0.997682
624.640363	0.997242
624.987376	0.996611
625.334336	0.997323
625.681243	0.997297
626.028097	0.997645
626.374899	0.997163
626.721647	0.997997
627.068343	0.996959
627.414987	0.997132
627.761577	0.996720
628.108115	0.997399
628.454600	0.997872
628.801032	0.997540
629.147412	0.997687
629.493739	0.998578
629.840014	0.996351
630.186236	0.996808
630.532405	0.997171
630.878521	0.997244
631.224585	0.997554
631.570597	0.997012
631.916556	0.997727
632.262462	0.996295
632.608316	0.997410
632.954117	0.996487
633.299866	0.997605
633.645562	0.996955
633.991206	0.997555
634.336797	0.997559
634.682336	0.997902
635.027823	0.997507
635.373257	0.997426
635.718639	0.997610
636.063968	0.997403
636.409245	0.996690
636.754470	0.997299
637.099642	0.997558
637.444762	0.998349
637.789829	0.997455
638.134845	0.997273
638.479808	0.997581
638.824719	0.997084
639.169577	0.996992
639.514383	0.996934
639.859137	0.997922
640.203839	0.996893
640.548489	0.996551
640.893086	0.996495
641.237632	0.997809
641.582125	0.997692
641.926566	0.997946
642.270955	0.997596
642.615292	0.996776
642.959576	0.997203
643.303809	0.997878
643.647990	0.997505
643.992118	0.997220
644.336195	0.996183
644.680219	0.998437
645.024192	0.997365
645.368112	0.997384
645.711981	0.996738
646.055797	0.997897
646.399562	0.996843
646.743274	0.998535
647.086935	0.996784
647.430544	0.996414
647.774101	0.996450
648.117606	0.997384
648.461059	0.997610
648.804460	0.998315
649.147810	0.997258
649.491108	0.996815
649.834354	0.997230
650.177548	0.997601
650.520690	0.996673
650.863781	0.996671
651.206820	0.996927
651.549807	0.997325
651.892742	0.997214
652.235626	0.997152
652.578458	0.997576
652.921238	0.998187
653.263967	0.997727
653.606644	0.996974
653.949269	0.997004
654.291843	0.996099
654.634365	0.997656
654.976836	0.997129
655.319255	0.997834
655.661622	0.997673
656.003938	0.997440
656.346203	0.997081
656.688416	0.997201
657.030577	0.997658
657.372687	0.997569
657.714746	0.997405
658.056753	0.997786
658.398708	0.996947
658.740612	0.997941
659.082465	0.997030
659.424266	0.997497
659.766016	0.996429
660.107715	0.997747
660.449362	0.996754
660.790958	0.997477
661.132503	0.997253
661.473996	0.997288
661.815438	0.997100
662.156829	0.997854
662.498168	0.998027
662.839456	0.996583
663.180693	0.997603
663.521879	0.996738
663.863013	0.997311
664.204097	0.996707
664.545129	0.997584
664.886110	0.997691
665.227040	0.997127
665.567918	0.995757
665.908746	0.996462
666.249522	0.997241
666.590248	0.996136
666.930922	0.996356
667.271545	0.997034
667.612118	0.996896
667.952639	0.997439
668.293109	0.996946
668.633528	0.996557
668.973896	0.997589
669.314213	0.996801
669.654480	0.997119
669.994695	0.996141
670.334859	0.996699
670.674973	0.997134
671.015035	0.997294
671.355047	0.997177
671.695008	0.995927
672.034918	0.996025
672.374777	0.997318
672.714585	0.996846
673.054342	0.997531
673.394049	0.996624
673.733705	0.996581
674.073310	0.997013
674.412864	0.996988
674.752368	0.996091
675.091820	0.998113
675.431223	0.997065
675.770574	0.996929
676.109875	0.997026
676.449125	0.996744
676.788324	0.996753
677.127473	0.997706
677.466571	0.997536
677.805619	0.996873
678.144616	0.997490
678.483562	0.997214
678.822458	0.996612
679.161303	0.996804
679.500098	0.997398
679.838842	0.997515
680.177535	0.996303
680.516179	0.996375
680.854771	0.997345
681.193314	0.997369
681.531805	0.996718
681.870247	0.996596
682.208638	0.996727
682.546978	0.996248
682.885268	0.996326
683.223508	0.996487
683.561697	0.996451
683.899836	0.997677
684.237925	0.996600
684.575963	0.997116
684.913951	0.997036
685.251889	0.996348
685.589776	0.996728
685.927614	0.996769
686.265401	0.996565
686.603137	0.996399
686.940824	0.996823
687.278460	0.997219
687.616046	0.996739
687.953582	0.996362
688.291068	0.996734
688.628504	0.996407
688.965889	0.996087
689.303224	0.995213
689.640510	0.996261
689.977745	0.996025
690.314930	0.996220
690.652065	0.996536
690.989150	0.995787
691.326185	0.996602
691.663170	0.996675
692.000105	0.997106
692.336990	0.996807
692.673825	0.996363
693.010610	0.996512
693.347345	0.997132
693.684030	0.996628
694.020665	0.996434
694.357251	0.996630
694.693786	0.996225
695.030272	0.995712
695.366707	0.996547
695.703093	0.996957
696.039429	0.996807
696.375716	0.997488
696.711952	0.996420
697.048139	0.996620
697.384276	0.997558
697.720363	0.996825
698.056400	0.994822
698.392388	0.995656
698.728326	0.995945
699.064214	0.997857
699.400053	0.996607
699.735842	0.996944
700.071581	0.997361
700.407270	0.995830
700.742910	0.996935
701.078501	0.996174
701.414042	0.997263
701.749533	0.995259
702.084974	0.996545
702.420366	0.996730
702.755709	0.996353
703.091002	0.997491
703.426246	0.997919
703.761440	0.997025
704.096584	0.996564
704.431679	0.995994
704.766725	0.997020
705.101721	0.998057
705.436668	0.997062
705.771565	0.996319
706.106413	0.995470
706.441212	0.996515
706.775961	0.996845
707.110661	0.995688
707.445311	0.996622
707.779913	0.997080
708.114465	0.997252
708.448967	0.997029
708.783421	0.996739
709.117825	0.996638
709.452180	0.997200
709.786485	0.996420
710.120742	0.996514
710.454949	0.996471
710.789107	0.996544
711.123216	0.995724
711.457275	0.995342
711.791286	0.996129
712.125247	0.997313
712.459159	0.996398
712.793023	0.996222
713.126837	0.996326
713.460602	0.995795
713.794318	0.995371
714.127985	0.995805
714.461602	0.995211
714.795171	0.995822
715.128691	0.995993
715.462162	0.996644
715.795584	0.997146
716.128957	0.996492
716.462281	0.996504
716.795556	0.995543
717.128782	0.996415
717.461960	0.996119
717.795088	0.997261
718.128167	0.996969
718.461198	0.996471
718.794180	0.996954
719.127113	0.996915
719.459997	0.995685
719.792833	0.996767
720.125619	0.997419
720.458357	0.997134
720.791046	0.997329
721.123686	0.997636
721.456278	0.996638
721.788821	0.996839
722.121315	0.997563
722.453761	0.997176
722.786158	0.995595
723.118506	0.996862
723.450805	0.996628
723.783056	0.997824
724.115259	0.997000
724.447412	0.997951
724.779518	0.997265
725.111574	0.996278
725.443582	0.996906
725.775542	0.997653
726.107453	0.997692
726.439315	0.997640
726.771129	0.997762
727.102895	0.997408
727.434612	0.996832
727.766281	0.997065
728.097901	0.996993
728.429473	0.996619
728.760996	0.996526
729.092471	0.996457
729.423897	0.997492
729.755276	0.996957
730.086606	0.995479
730.417887	0.997054
730.749120	0.997552
731.080305	0.996631
731.411442	0.996616
731.742530	0.996514
732.073570	0.996330
732.404562	0.996590
732.735506	0.996105
733.066401	0.995714
733.397249	0.997067
733.728048	0.996741
734.058798	0.997519
734.389501	0.997717
734.720156	0.996950
735.050762	0.997177
735.381320	0.995966
735.711831	0.996158
736.042293	0.996062
736.372707	0.997926
736.703073	0.995500
737.033391	0.997109
737.363661	0.997287
737.693883	0.997287
738.024056	0.995738
738.354182	0.997267
738.684260	0.996566
739.014290	0.997043
739.344272	0.996609
739.674207	0.997536
740.004093	0.996513
740.333931	0.997361
740.663722	0.996318
740.993464	0.997031
741.323159	0.996570
741.652806	0.996426
741.982405	0.996560
742.311956	0.997297
742.641460	0.996817
742.970915	0.996206
743.300323	0.996071
743.629683	0.996776
743.958996	0.997451
744.288260	0.996264
744.617477	0.996949
744.946647	0.996744
745.275768	0.997205
745.604842	0.996733
745.933869	0.997088
746.262847	0.997457
746.591778	0.995943
746.920662	0.997076
747.249498	0.998122
747.578286	0.998298
747.907027	0.997592
748.235720	0.997819
748.564365	0.996731
748.892963	0.996987
749.221514	0.997436
749.550017	0.996013
749.878473	0.997433
750.206881	0.998264
750.535242	0.996869
750.863555	0.996671
751.191821	0.997348
751.520039	0.997198
751.848210	0.995537
752.176334	0.996683
752.504411	0.996860
752.832440	0.997284
753.160421	0.996966
753.488356	0.997274
753.816243	0.997125
754.144082	0.997281
754.471875	0.997258
754.799620	0.997890
755.127318	0.996649
755.454969	0.996731
755.782572	0.999108
756.110129	0.997300
756.437638	0.998658
756.765100	0.997816
757.092515	0.996966
757.419882	0.998431
757.747203	0.996926
758.074477	0.998072
758.401703	0.997537
758.728882	0.997255
759.056014	0.997130
759.383099	0.997108
759.710138	0.997044
760.037129	0.997189
760.364073	0.998080
760.690970	0.998492
761.017820	0.997384
761.344623	0.997214
761.671379	0.997762
761.998088	0.996963
762.324751	0.996766
762.651366	0.996348
762.977935	0.996211
763.304456	0.995971
763.630931	0.994018
763.957359	0.994596
764.283740	0.994864
764.610074	0.995446
764.936362	0.996039
765.262602	0.996671
765.588796	0.997191
765.914943	0.995888
766.241044	0.996639
766.567097	0.997051
766.893104	0.998018
767.219064	0.995964
767.544978	0.997549
767.870845	0.997847
768.196665	0.997978
768.522438	0.997752
768.848165	0.997598
769.173846	0.997554
769.499479	0.999209
769.825066	0.998448
770.150607	0.998889
770.476101	0.998273
770.801548	0.998313
771.126949	0.998799
771.452303	0.998262
771.777611	0.998013
772.102872	0.998108
772.428087	0.998018
772.753256	0.998660
773.078378	0.998136
773.403453	0.997604
773.728482	0.999064
774.053465	0.996814
774.378401	0.998576
774.703291	0.998069
775.028135	0.998873
775.352932	0.997398
775.677683	0.998467
776.002388	0.997726
776.327046	0.997719
776.651658	0.999690
776.976224	0.999313
777.300743	0.997445
777.625216	0.997989
777.949643	0.998258
778.274024	0.997488
778.598359	0.998153
778.922647	0.998978
779.246889	0.998519
779.571086	0.998401
779.895236	0.998801
780.219339	0.999202
780.543397	0.998876
780.867409	0.998756
781.191374	0.998059
781.515294	0.998932
781.839167	0.998977
782.162995	0.997985
782.486776	0.998664
782.810511	0.998710
783.134201	0.999122
783.457844	0.999253
783.781441	0.997752
784.104993	0.998112
784.428498	0.998834
784.751958	0.999049
785.075372	0.999148
785.398739	0.998475
785.722061	0.997043
786.045337	0.998365
786.368568	0.997595
786.691752	0.998338
787.014891	0.997443
787.337983	0.997939
787.661030	0.998063
787.984031	0.998641
788.306987	0.999086
788.629897	0.995527
788.952760	0.998104
789.275579	0.997682
789.598351	0.997496
789.921078	0.998448
790.243759	0.998166
790.566395	0.997716
790.888984	0.998708
791.211529	0.998303
791.534027	0.998832
791.856480	0.997706
792.178888	0.997696
792.501249	0.997515
792.823566	1.000057
793.145836	0.998255
793.468062	0.998957
793.790241	0.999527
794.112375	0.997666
794.434464	0.997908
794.756507	0.998959
795.078505	0.997787
795.400457	0.999847
795.722364	0.998767
796.044226	0.998521
796.366042	0.998772
796.687812	0.996467
797.009538	0.997315
797.331218	0.999280
797.652852	0.999766
797.974442	0.998177
798.295986	0.999097
798.617484	0.997782
798.938938	0.998678
799.260346	0.997522
799.581709	0.998351
799.903026	0.998499
800.224299	0.997935
800.545526	0.997471
800.866708	0.997702
801.187845	0.999010
801.508936	0.998261
801.829983	0.998368
802.150984	0.998314
802.471940	0.999877
802.792851	0.998817
803.113717	0.999559
803.434538	0.999009
803.755314	1.000486
804.076045	0.998151
804.396731	0.997798
804.717372	0.997566
805.037967	0.999164
805.358518	0.998859
805.679024	0.998356
805.999485	0.999030
806.319901	0.998633
806.640272	0.999580
806.960598	0.999199
807.280879	0.999046
807.601115	0.999280
807.921306	1.000027
808.241453	0.998102
808.561554	0.998907
808.881611	0.998769
809.201623	0.998203
809.521590	0.998480
809.841513	0.999775
810.161390	0.997476
810.481223	0.998856
810.801011	0.999062
811.120755	0.999813
811.440453	0.999124
811.760107	0.999111
812.079716	0.998361
812.399281	0.998707
812.718801	0.999069
813.038276	0.999302
813.357707	0.998517
813.677093	0.999789
813.996434	0.998492
814.315731	0.999692
814.634983	0.998797
814.954191	0.998834
815.273354	0.998078
815.592473	0.998287
815.911547	0.999543
816.230577	0.999811
816.549562	0.998739
816.868502	0.997598
817.187399	0.999405
817.506250	0.998744
817.825058	0.996905
818.143821	0.998393
818.462539	0.999599
818.781213	0.997707
819.099843	0.998383
819.418429	0.997776
819.736970	0.998265
820.055466	0.996643
820.373919	0.997256
820.692327	0.996661
821.010691	0.996979
821.329011	0.995271
821.647286	0.993499
821.965517	0.992714
822.283704	0.991718
822.601847	0.991288
822.919945	0.990933
823.237999	0.991345
823.556010	0.991763
823.873976	0.992798
824.191897	0.993690
824.509775	0.994174
824.827609	0.994554
825.145398	0.995898
825.463144	0.994269
825.780845	0.994240
826.098502	0.994722
826.416116	0.994795
826.733685	0.994993
827.051210	0.994052
827.368692	0.993353
827.686129	0.993636
828.003522	0.996572
828.320872	0.995533
828.638177	0.996002
828.955439	0.996832
829.272656	0.996893
829.589830	0.997143
829.906960	0.997412
830.224046	0.997955
830.541088	0.997749
830.858086	0.997899
831.175041	0.999018
831.491952	0.999063
831.808819	0.997661
832.125642	0.997563
832.442421	0.998806
832.759157	0.998682
833.075849	0.997238
833.392497	0.996963
833.709101	0.995608
834.025662	0.996096
834.342179	0.995801
834.658653	0.995939
834.975083	0.997415
835.291469	0.997704
835.607811	0.997357
835.924110	0.997623
836.240366	0.999836
836.556578	0.998826
836.872746	0.997638
837.188871	0.998369
837.504952	0.998846
837.820990	0.999153
838.136984	0.997140
838.452935	0.998887
838.768842	0.999623
839.084706	0.999393
839.400526	0.999287
839.716303	0.997418
840.032037	0.998350
840.347727	0.998614
840.663373	0.998586
840.978977	0.998103
841.294537	0.998225
841.610054	0.998447
841.925527	0.999298
842.240957	0.998852
842.556344	0.998453
842.871687	0.999306
843.186987	0.998491
843.502244	0.999202
843.817458	0.999381
844.132629	1.000033
844.447756	0.999141
844.762840	0.998803
845.077881	1.001889
845.392879	0.998224
845.707833	0.998650
846.022745	0.998765
846.337613	1.000158
846.652438	0.998700
846.967221	0.999485
847.281960	1.000254
847.596656	0.999598
847.911309	0.998767
848.225919	0.998825
848.540485	0.999328
848.855009	0.999323
849.169490	0.999413
849.483928	0.998939
849.798323	0.998036
850.112675	0.999605
850.426984	0.999777
850.741251	1.000061
851.055474	0.999225
851.369654	0.998550
851.683792	0.999686
851.997887	0.999355
852.311938	1.000095
852.625947	0.998085
852.939914	0.998068
853.253837	1.000519
853.567718	1.000325
853.881555	0.999447
854.195350	0.999061
854.509103	0.999831
854.822812	0.999699
855.136479	0.999110
855.450103	0.999280
855.763685	0.999914
856.077224	0.998539
856.390720	0.999823
856.704173	0.999392
857.017584	1.000946
857.330953	1.000376
857.644278	1.000434
857.957561	0.999463
858.270802	1.000491
858.584000	0.999882
858.897155	0.999504
859.210268	0.999737
859.523339	1.000218
859.836367	0.999704
860.149352	0.998724
860.462295	0.999033
860.775195	0.999816
861.088054	0.998105
861.400869	0.999322
861.713642	0.999458
862.026373	1.000107
862.339062	1.000060
862.651708	0.999724
862.964312	0.999768
863.276873	1.000152
863.589392	0.999491
863.901869	0.999428
864.214303	0.999480
864.526696	0.999445
864.839045	0.998981
865.151353	0.999128
865.463619	0.997669
865.775842	0.999119
866.088023	1.000246
866.400162	0.999333
866.712258	1.001415
867.024313	1.000239
867.336325	0.999824
867.648296	0.999990
867.960224	0.999200
868.272110	0.999450
868.583954	0.998648
868.895755	1.000279
869.207515	0.999757
869.519233	1.000464
869.830909	0.997991
870.142542	0.998309
870.454134	0.998504
870.765684	0.998557
871.077191	1.000292
871.388657	0.999019
871.700081	0.999673
872.011463	1.000499
872.322803	0.999405
872.634101	0.998123
872.945357	0.998898
873.256571	0.999019
873.567744	0.999593
873.878874	0.999519
874.189963	0.998897
874.501010	1.000914
874.812015	0.998902
875.122979	0.999225
875.433900	0.998634
875.744780	0.998923
876.055618	0.997576
876.366415	0.998486
876.677169	0.998970
876.987882	0.998348
877.298554	1.000417
877.609183	0.999018
877.919771	0.998843
878.230317	0.999747
878.540822	0.998868
878.851285	0.998166
879.161707	0.998543
879.472087	0.999786
879.782425	0.997096
880.092722	0.995697
880.402977	0.996330
880.713191	0.994650
881.023363	0.992426
881.333494	0.991176
881.643583	0.993523
881.953631	0.992975
882.263637	0.991191
882.573602	0.991987
882.883526	0.993163
883.193408	0.994180
883.503248	0.994034
883.813048	0.993826
884.122806	0.995517
884.432522	0.996286
884.742197	0.997134
885.051831	0.997414
885.361424	0.997351
885.670975	0.998456
885.980485	0.996744
886.289954	0.998655
886.599382	0.996638
886.908768	0.999341
887.218113	0.997629
887.527417	0.998508
887.836680	0.998934
888.145901	0.999594
888.455082	1.000031
888.764221	1.000001
889.073319	0.998541
889.382376	0.999495
889.691392	0.997856
890.000366	0.998775
890.309300	0.998950
890.618193	0.999896
890.927044	0.998103
891.235855	0.999181
891.544625	0.998915
891.853353	0.999345
892.162041	0.998851
892.470687	0.999922
892.779293	0.998050
893.087858	0.997433
893.396381	0.999443
893.704864	0.997740
894.013306	0.997741
894.321707	0.997952
894.630068	0.995582
894.938387	0.996043
895.246665	0.996181
895.554903	0.995047
895.863100	0.997349
896.171256	0.996569
896.479371	0.998105
896.787446	0.997447
897.095480	0.997596
897.403473	0.998671
897.711425	0.998474
898.019336	0.998406
898.327207	0.998792
898.635038	0.997136
898.942827	0.998038
899.250576	0.998420
899.558284	0.999035
899.865952	0.999078
900.173579	0.999430
900.481165	0.998758
900.788711	0.998612
901.096216	0.998025
901.403681	0.999420
901.711105	0.999569
902.018489	0.998573
902.325832	0.999254
902.633135	0.999305
902.940397	0.999203
903.247619	0.998717
903.554800	0.997608
903.861941	0.997347
904.169041	0.996246
904.476101	0.995458
904.783121	0.995139
905.090100	0.995109
905.397039	0.996314
905.703938	0.996041
906.010796	0.996015
906.317614	0.997279
906.624391	0.997053
906.931129	0.997552
907.237826	0.998779
907.544483	0.998369
907.851099	0.998844
908.157675	0.998901
908.464211	0.999184
908.770707	0.999342
909.077163	0.998395
909.383578	0.998886
909.689954	0.998308
909.996289	1.000089
910.302584	0.999275
910.608839	0.999421
910.915054	0.999160
911.221229	1.001176
911.527363	0.998401
911.833458	0.999561
912.139513	0.999403
912.445527	0.999324
912.751502	0.999642
913.057436	0.998349
913.363331	1.000115
913.669186	1.000011
913.975000	0.998817
914.280775	0.999292
914.586510	0.997908
914.892205	0.996961
915.197859	0.997352
915.503475	0.995899
915.809050	0.996300
916.114585	0.995163
916.420081	0.995059
916.725536	0.996219
917.030952	0.995095
917.336328	0.995128
917.641665	0.995111
917.946961	0.996348
918.252218	0.995877
918.557435	0.997418
918.862612	0.997697
919.167750	0.998030
919.472848	0.998127
919.777906	1.000142
920.082925	0.998828
920.387904	0.998635
920.692843	0.998115
920.997743	0.999333
921.302603	0.999505
921.607423	0.998493
921.912204	0.998930
922.216946	0.999531
922.521647	1.000122
922.826310	0.999418
923.130932	0.999709
923.435516	0.999837
923.740059	0.997918
924.044564	0.998690
924.349028	0.997900
924.653454	1.000160
924.957840	0.999009
925.262186	0.999768
925.566493	0.999005
925.870761	0.998706
926.174989	0.998387
926.479178	1.001592
926.783328	0.999047
927.087438	0.999166
927.391509	0.998591
927.695541	0.999831
927.999533	0.999068
928.303486	0.999906
928.607400	0.999516
928.911275	1.000331
929.215110	1.001628
929.518906	1.000593
929.822663	0.999804
930.126381	1.000684
930.430060	0.999778
930.733699	1.000240
931.037299	1.002057
931.340861	0.999890
931.644383	0.998537
931.947866	0.999669
932.251309	0.999915
932.554714	0.999845
932.858080	1.000334
933.161407	0.999151
933.464694	0.999811
933.767943	1.000562
934.071153	1.000199
934.374323	1.000491
934.677455	0.999402
934.980548	0.999191
935.283602	1.000029
935.586617	0.999755
935.889593	1.001394
936.192530	1.000111
936.495428	0.999369
936.798287	0.998040
937.101108	0.999767
937.403890	0.999236
937.706632	1.000515
938.009336	0.999989
938.312002	0.999579
938.614628	1.000220
938.917216	0.999010
939.219765	0.998570
939.522275	1.000742
939.824747	0.998889
940.127179	0.998711
940.429573	1.000180
940.731929	0.999190
941.034246	0.999542
941.336524	0.998217
941.638763	1.000300
941.940964	0.998342
942.243126	0.999633
942.545250	1.001299
942.847335	0.999470
943.149381	0.999725
943.451389	0.999182
943.753359	0.999669
944.055290	1.000467
944.357182	0.999799
944.659036	1.000372
944.960851	1.000109
945.262628	1.001094
945.564367	1.000212
945.866067	0.999444
946.167729	0.999524
946.469352	1.001059
946.770937	0.997363
947.072484	1.000744
947.373992	0.999704
947.675462	0.999330
947.976893	0.999360
948.278286	1.000314
948.579641	1.000797
948.880958	0.999428
949.182236	0.999075
949.483476	1.000728
949.784678	0.999620
950.085841	0.998416
950.386967	0.999654
950.688054	0.999267
950.989103	0.998252
951.290114	0.998456
951.591087	0.998750
951.892021	0.999375
952.192917	0.999506
952.493776	0.999794
952.794596	0.999856
953.095378	0.999490
953.396122	0.999457
953.696828	1.000474
953.997496	0.999434
954.298126	0.999880
954.598718	0.998718
954.899272	1.000039
955.199788	0.999281
955.500266	1.000608
955.800706	0.999868
956.101108	0.998800
956.401472	1.001135
956.701798	0.999530
957.002087	0.999883
957.302337	0.999405
957.602550	1.000310
957.902724	0.999956
958.202861	1.000402
958.502960	0.999030
958.803022	0.999652
959.103045	0.999715
959.403031	0.999878
959.702979	1.001067
960.002889	0.999577
960.302762	0.999360
960.602596	0.999888
960.902393	0.998888
961.202153	1.000052
961.501875	0.999847
961.801559	1.000442
962.101205	1.000018
962.400814	1.000953
962.700385	1.000075
962.999918	0.999341
963.299414	1.000410
963.598873	0.999952
963.898293	0.999648
964.197677	1.000207
964.497022	1.000393
964.796331	0.999131
965.095601	1.000591
965.394835	1.000557
965.694030	1.000924
965.993189	1.000405
966.292309	1.000978
966.591393	0.998984
966.890439	1.000384
967.189447	1.000048
967.488419	1.000039
967.787353	1.000301
968.086249	1.001090
968.385108	0.999598
968.683930	1.000563
968.982714	0.999637
969.281462	1.000719
969.580172	1.000495
969.878844	1.001466
970.177480	1.000679
970.476078	1.000835
970.774639	1.000246
971.073162	0.999631
971.371649	0.999906
971.670098	0.999945
971.968510	0.999870
972.266885	0.999622
972.565223	0.999081
972.863524	0.999439
973.161788	0.999932
973.460014	0.999956
973.758204	1.000147
974.056356	0.999304
974.354471	0.999628
974.652550	1.000126
974.950591	1.000058
975.248595	0.999425
975.546563	1.000382
975.844493	1.000522
976.142386	0.999186
976.440243	1.000319
976.738062	0.999612
977.035845	0.999416
977.333590	1.000953
977.631299	0.999600
977.928971	1.000295
978.226606	0.999303
978.524204	0.999600
978.821765	0.999731
979.119290	1.000550
979.416777	1.000463
979.714228	1.000333
980.011642	1.000772
980.309020	0.999699
980.606360	0.999396
980.903664	1.000525
981.200931	0.999890
981.498162	0.999771
981.795356	0.999434
982.092513	1.001200
982.389633	1.000324
982.686717	0.999556
982.983764	0.999936
983.280775	0.999048
983.577749	1.000621
983.874686	0.999042
984.171587	0.999348
984.468451	0.998958
984.765279	1.000201
985.062070	0.999952
985.358824	0.999417
985.655543	1.001211
985.952224	1.001018
986.248869	0.999408
986.545478	1.001434
986.842050	0.999963
987.138586	0.999818
987.435086	0.999569
987.731549	1.001233
988.027975	1.000650
988.324366	1.000067
988.620719	1.000810
988.917037	0.999823
989.213318	1.000821
989.509563	0.999102
989.805772	1.000457
990.101944	1.001680
990.398080	1.000167
990.694180	1.000418
990.990244	1.000009
991.286271	1.000408
991.582262	1.000472
991.878217	0.998829
992.174136	0.999798
992.470019	1.000290
992.765865	1.001307
993.061676	1.000294
993.357450	1.000842
993.653188	1.000734
993.948890	1.000563
994.244556	1.000896
994.540186	1.000545
994.835780	0.999155
995.131337	1.001122
995.426859	0.999679
995.722345	0.999282
996.017795	1.000296
996.313208	0.999367
996.608586	0.999708
996.903928	1.001170
997.199234	1.000740
997.494504	1.001169
997.789738	0.997995
998.084936	1.000809
998.380099	0.999161
998.675225	1.001559
998.970316	1.000632
999.265371	0.999528
999.560390	1.000334
999.855373	1.000357
1000.150320	0.999953
1000.445232	0.999163
1000.740108	1.000646
1001.034948	1.000437
1001.329752	1.000849
1001.624521	1.000546
1001.919254	0.999218
1002.213951	0.999372
1002.508613	0.999109
1002.803239	0.999966
1003.097829	1.001399
1003.392384	0.999799
1003.686903	1.000426
1003.981386	1.000727
1004.275834	1.000722
1004.570246	0.999450
1004.864623	1.000466
1005.158964	1.000178
1005.453270	0.999517
1005.747540	0.999454
1006.041775	0.999138
1006.335974	1.000331
1006.630138	1.000291
1006.924266	0.998724
1007.218359	0.999678
1007.512416	1.000739
1007.806438	1.000003
1008.100425	1.000179
1008.394376	1.001662
1008.688292	0.999526
1008.982172	0.999704
1009.276017	1.000330
1009.569827	1.001370
1009.863602	0.998003
1010.157341	1.000646
1010.451045	0.999701
1010.744714	1.001801
1011.038347	1.000904
1011.331945	0.998807
1011.625508	1.000304
1011.919036	0.999327
1012.212528	1.000487
1012.505986	0.999307
1012.799408	1.000057
1013.092795	0.999461
1013.386147	1.000181
1013.679464	1.001123
1013.972745	0.999661
1014.265992	0.999558
1014.559204	1.000014
1014.852380	1.000887
1015.145521	0.999601
1015.438628	0.998925
1015.731699	1.000226
1016.024736	1.000411
1016.317737	1.000174
1016.610703	1.000439
1016.903635	1.000594
1017.196531	0.999958
1017.489393	0.998940
1017.782219	0.999613
1018.075011	1.000352
1018.367768	0.999844
1018.660490	1.000242
1018.953177	1.000242
1019.245829	1.000242
