Dividing Wavelength (nm)	Counts (n)	Blue Motor Position (mm): 5.600000	Red Motor Position (mm): 0.000000	
326.493990	1.005181
326.888308	1.005181
327.282561	1.005181
327.676750	1.006435
328.070874	1.007056
328.464933	1.006968
328.858929	1.006208
329.252859	1.005387
329.646726	1.004767
330.040528	1.005164
330.434265	1.005473
330.827938	1.004516
331.221547	1.006238
331.615091	1.006248
332.008571	1.006036
332.401986	1.004638
332.795338	1.004650
333.188625	1.005199
333.581847	1.005434
333.975006	1.006252
334.368100	1.006177
334.761129	1.004703
335.154095	1.005431
335.546996	1.002941
335.939833	0.997823
336.332606	0.997852
336.725315	0.997810
337.117960	0.999704
337.510540	0.998443
337.903056	0.999288
338.295508	1.000115
338.687896	0.999452
339.080220	0.999580
339.472480	0.998437
339.864676	0.999965
340.256807	0.996654
340.648875	0.998537
341.040879	0.997469
341.432818	0.999200
341.824694	0.997927
342.216506	0.999807
342.608253	0.998236
342.999937	0.998687
343.391557	0.998552
343.783113	0.998893
344.174605	0.999492
344.566033	0.997047
344.957397	0.999224
345.348697	0.999637
345.739934	0.999035
346.131106	0.998156
346.522215	0.997860
346.913260	0.997864
347.304241	0.996941
347.695159	0.998472
348.086012	0.998369
348.476802	0.997840
348.867528	0.997116
349.258191	0.999064
349.648789	0.998316
350.039324	0.998073
350.429796	0.997546
350.820203	0.997080
351.210548	0.997326
351.600828	0.998999
351.991045	0.997706
352.381198	0.998093
352.771288	0.998404
353.161314	0.998256
353.551276	0.997304
353.941175	0.996873
354.331010	0.998581
354.720782	0.998239
355.110490	0.996222
355.500135	0.998640
355.889717	0.996682
356.279235	0.997136
356.668689	0.998234
357.058080	0.997060
357.447408	0.996710
357.836672	0.997411
358.225873	0.997180
358.615010	0.997644
359.004084	0.997020
359.393095	0.997303
359.782043	0.997076
360.170927	0.997819
360.559748	0.997051
360.948505	0.996409
361.337199	0.996130
361.725830	0.997516
362.114398	0.996185
362.502903	0.996504
362.891344	0.996260
363.279722	0.995368
363.668037	0.997397
364.056289	0.996489
364.444478	0.998345
364.832603	0.995406
365.220665	0.997343
365.608665	0.995992
365.996601	0.996386
366.384474	0.994457
366.772284	0.995264
367.160031	0.993513
367.547715	0.994889
367.935336	0.993554
368.322893	0.992566
368.710388	0.992044
369.097820	0.988944
369.485189	0.988307
369.872495	0.985621
370.259738	0.984401
370.646918	0.980469
371.034035	0.979873
371.421090	0.976055
371.808081	0.970741
372.195010	0.967300
372.581875	0.963613
372.968678	0.959590
373.355418	0.954687
373.742096	0.947282
374.128710	0.942661
374.515262	0.939877
374.901751	0.933080
375.288177	0.928757
375.674540	0.921564
376.060841	0.915713
376.447079	0.908656
376.833254	0.901307
377.219367	0.897205
377.605417	0.885574
377.991404	0.881604
378.377329	0.875769
378.763191	0.870397
379.148991	0.861191
379.534727	0.854337
379.920402	0.844958
380.306013	0.841137
380.691563	0.829112
381.077049	0.821987
381.462474	0.817874
381.847835	0.806315
382.233134	0.801479
382.618371	0.801944
383.003545	0.784298
383.388657	0.782367
383.773706	0.774259
384.158693	0.771099
384.543618	0.766361
384.928480	0.756944
385.313280	0.746653
385.698017	0.746576
386.082692	0.734939
386.467305	0.733133
386.851856	0.727828
387.236344	0.723245
387.620770	0.717015
388.005133	0.710876
388.389435	0.705820
388.773674	0.702952
389.157851	0.694732
389.541965	0.693224
389.926018	0.699000
390.310008	0.685881
390.693936	0.682854
391.077802	0.675744
391.461606	0.676196
391.845348	0.665675
392.229027	0.665180
392.612645	0.663499
392.996200	0.650362
393.379694	0.643340
393.763125	0.633578
394.146494	0.639099
394.529801	0.629129
394.913047	0.620452
395.296230	0.627531
395.679351	0.617733
396.062410	0.615112
396.445408	0.618035
396.828343	0.613237
397.211217	0.608182
397.594028	0.619816
397.976778	0.610652
398.359466	0.606565
398.742092	0.602877
399.124656	0.614730
399.507158	0.601936
399.889598	0.600666
400.271977	0.590971
400.654294	0.595344
401.036549	0.594262
401.418742	0.598976
401.800874	0.584214
402.182944	0.580788
402.564952	0.573359
402.946898	0.574779
403.328783	0.575341
403.710606	0.586434
404.092367	0.561740
404.474067	0.566960
404.855705	0.565370
405.237282	0.574077
405.618797	0.560882
406.000250	0.556760
406.381642	0.545618
406.762972	0.550891
407.144240	0.549669
407.525447	0.549944
407.906593	0.542621
408.287677	0.538203
408.668700	0.546531
409.049661	0.540434
409.430560	0.535382
409.811399	0.543713
410.192176	0.525685
410.572891	0.533620
410.953545	0.521127
411.334138	0.534701
411.714669	0.526766
412.095139	0.539270
412.475547	0.523231
412.855894	0.525956
413.236180	0.524110
413.616405	0.529279
413.996568	0.520209
414.376670	0.526831
414.756711	0.531091
415.136691	0.527556
415.516609	0.519233
415.896466	0.516168
416.276262	0.511682
416.655997	0.513413
417.035670	0.495294
417.415283	0.486947
417.794834	0.491649
418.174324	0.497515
418.553753	0.506327
418.933121	0.488250
419.312428	0.482581
419.691674	0.488176
420.070859	0.476481
420.449983	0.484042
420.829045	0.474227
421.208047	0.482442
421.586988	0.475345
421.965867	0.474891
422.344686	0.462772
422.723444	0.475706
423.102141	0.493051
423.480777	0.465439
423.859352	0.486694
424.237866	0.463257
424.616319	0.464742
424.994712	0.454962
425.373044	0.465563
425.751314	0.453513
426.129524	0.469777
426.507673	0.453802
426.885762	0.446409
427.263789	0.453045
427.641756	0.462642
428.019662	0.452286
428.397508	0.452045
428.775292	0.456117
429.153016	0.447978
429.530679	0.454625
429.908282	0.447511
430.285824	0.457873
430.663305	0.435733
431.040726	0.456844
431.418086	0.457066
431.795385	0.449323
432.172624	0.447559
432.549802	0.448200
432.926920	0.447061
433.303977	0.446380
433.680974	0.444018
434.057910	0.442301
434.434786	0.441138
434.811601	0.444321
435.188355	0.426634
435.565050	0.436278
435.941683	0.436891
436.318257	0.420896
436.694770	0.422522
437.071222	0.420512
437.447614	0.424752
437.823946	0.431582
438.200218	0.420931
438.576429	0.430322
438.952580	0.423298
439.328670	0.420604
439.704700	0.426469
440.080670	0.427790
440.456580	0.409056
440.832429	0.417182
441.208218	0.427866
441.583947	0.416514
441.959616	0.416341
442.335224	0.422028
442.710773	0.412462
443.086261	0.410440
443.461689	0.424319
443.837057	0.414322
444.212365	0.404267
444.587612	0.411434
444.962800	0.401259
445.337927	0.402794
445.712995	0.428965
446.088002	0.390705
446.462949	0.401058
446.837837	0.406202
447.212664	0.394745
447.587431	0.386528
447.962139	0.356878
448.336786	0.315612
448.711374	0.326327
449.085901	0.370803
449.460369	0.374871
449.834776	0.378153
450.209124	0.357770
450.583412	0.350241
450.957640	0.343269
451.331808	0.354964
451.705917	0.378137
452.079965	0.382715
452.453954	0.370805
452.827883	0.377985
453.201752	0.372477
453.575562	0.383903
453.949311	0.372406
454.323001	0.378522
454.696632	0.374381
455.070202	0.366797
455.443713	0.358740
455.817164	0.353378
456.190556	0.349241
456.563888	0.346276
456.937160	0.343589
457.310373	0.360876
457.683526	0.359552
458.056619	0.365544
458.429653	0.366326
458.802628	0.369481
459.175542	0.364157
459.548398	0.346152
459.921194	0.338643
460.293930	0.338787
460.666607	0.316232
461.039224	0.305026
461.411782	0.300223
461.784280	0.299523
462.156719	0.303572
462.529099	0.308231
462.901419	0.324196
463.273680	0.328564
463.645882	0.327894
464.018024	0.334083
464.390106	0.326644
464.762130	0.311224
465.134094	0.294453
465.505999	0.263178
465.877845	0.233335
466.249631	0.220600
466.621358	0.228034
466.993026	0.242053
467.364634	0.247803
467.736184	0.256973
468.107674	0.265640
468.479105	0.264894
468.850477	0.271653
469.221790	0.278417
469.593043	0.288705
469.964238	0.293325
470.335373	0.292949
470.706449	0.291041
471.077467	0.291293
471.448425	0.254004
471.819324	0.229270
472.190164	0.228843
472.560945	0.257564
472.931667	0.279877
473.302330	0.284103
473.672934	0.296323
474.043479	0.284266
474.413965	0.285802
474.784393	0.289401
475.154761	0.284275
475.525070	0.281572
475.895321	0.287250
476.265513	0.281490
476.635645	0.276650
477.005719	0.276583
477.375734	0.273162
477.745691	0.266235
478.115588	0.262745
478.485427	0.256265
478.855207	0.243240
479.224928	0.225813
479.594591	0.213865
479.964194	0.217027
480.333739	0.218617
480.703226	0.219856
481.072653	0.218191
481.442022	0.213851
481.811333	0.210326
482.180584	0.213804
482.549777	0.219189
482.918912	0.222558
483.287988	0.222293
483.657005	0.222176
484.025964	0.228344
484.394864	0.225663
484.763706	0.226437
485.132489	0.231459
485.501213	0.232452
485.869879	0.230638
486.238487	0.233411
486.607036	0.231591
486.975527	0.236224
487.343959	0.232038
487.712333	0.231313
488.080648	0.232530
488.448905	0.231633
488.817104	0.232973
489.185244	0.227481
489.553326	0.224476
489.921350	0.214187
490.289315	0.196702
490.657222	0.191537
491.025070	0.192881
491.392861	0.194721
491.760593	0.200640
492.128267	0.206539
492.495883	0.211878
492.863440	0.217880
493.230939	0.224678
493.598380	0.225979
493.965763	0.228026
494.333088	0.230227
494.700354	0.231744
495.067563	0.230927
495.434713	0.234481
495.801805	0.231910
496.168839	0.233721
496.535815	0.234920
496.902733	0.235049
497.269593	0.236422
497.636395	0.233745
498.003139	0.234400
498.369825	0.237303
498.736453	0.233911
499.103023	0.235406
499.469535	0.234990
499.835989	0.235151
500.202385	0.235841
500.568723	0.239072
500.935003	0.234624
501.301226	0.238859
501.667390	0.232890
502.033497	0.230933
502.399546	0.233845
502.765537	0.235869
503.131470	0.234433
503.497345	0.230765
503.863163	0.239203
504.228923	0.232248
504.594625	0.230779
504.960269	0.236172
505.325856	0.231801
505.691385	0.236078
506.056856	0.232718
506.422270	0.231927
506.787625	0.234612
507.152924	0.231945
507.518164	0.232513
507.883347	0.234042
508.248472	0.235982
508.613540	0.230789
508.978550	0.233683
509.343503	0.234099
509.708398	0.231739
510.073236	0.229025
510.438016	0.228757
510.802738	0.229671
511.167403	0.229045
511.532010	0.231101
511.896561	0.226073
512.261053	0.224968
512.625488	0.227399
512.989866	0.227546
513.354186	0.227839
513.718449	0.229758
514.082655	0.225981
514.446803	0.228241
514.810894	0.226017
515.174927	0.229012
515.538904	0.228247
515.902822	0.225081
516.266684	0.227302
516.630488	0.228607
516.994235	0.227390
517.357925	0.226223
517.721558	0.224433
518.085133	0.224016
518.448651	0.224141
518.812112	0.226475
519.175516	0.225915
519.538863	0.223245
519.902152	0.225432
520.265385	0.222038
520.628560	0.223802
520.991678	0.224120
521.354739	0.223156
521.717743	0.224349
522.080690	0.224764
522.443580	0.221842
522.806413	0.222847
523.169189	0.222277
523.531908	0.221087
523.894569	0.224668
524.257174	0.224619
524.619722	0.222193
524.982213	0.223668
525.344647	0.222177
525.707025	0.223186
526.069345	0.221495
526.431608	0.222970
526.793815	0.220803
527.155964	0.225247
527.518057	0.224278
527.880093	0.225045
528.242072	0.223729
528.603995	0.226003
528.965860	0.227211
529.327669	0.226455
529.689421	0.226946
530.051117	0.228062
530.412755	0.225587
530.774337	0.227802
531.135862	0.228726
531.497331	0.227664
531.858743	0.230686
532.220098	0.227123
532.581396	0.229768
532.942638	0.230242
533.303824	0.231401
533.664953	0.230900
534.026025	0.232767
534.387040	0.230862
534.747999	0.230587
535.108902	0.229473
535.469748	0.234687
535.830537	0.232522
536.191270	0.232877
536.551947	0.232069
536.912567	0.232204
537.273131	0.234071
537.633638	0.234243
537.994089	0.234628
538.354483	0.235710
538.714821	0.232433
539.075103	0.232539
539.435328	0.233229
539.795497	0.237105
540.155609	0.233689
540.515665	0.231938
540.875665	0.237506
541.235609	0.235929
541.595496	0.236160
541.955328	0.232391
542.315102	0.235250
542.674821	0.236383
543.034483	0.236323
543.394090	0.235651
543.753640	0.237920
544.113134	0.232707
544.472571	0.236241
544.831953	0.232859
545.191278	0.237096
545.550548	0.236285
545.909761	0.233496
546.268918	0.234356
546.628019	0.232445
546.987064	0.234971
547.346053	0.236920
547.704986	0.234770
548.063863	0.235126
548.422684	0.235390
548.781449	0.237308
549.140158	0.234727
549.498811	0.237665
549.857408	0.240541
550.215949	0.235480
550.574434	0.238670
550.932864	0.236649
551.291237	0.234973
551.649555	0.236728
552.007817	0.236407
552.366022	0.237396
552.724173	0.237268
553.082267	0.237923
553.440305	0.234416
553.798288	0.238970
554.156215	0.235715
554.514086	0.236179
554.871902	0.239718
555.229661	0.238330
555.587365	0.238879
555.945014	0.241809
556.302606	0.238457
556.660143	0.241195
557.017625	0.237765
557.375050	0.239830
557.732421	0.236988
558.089735	0.238668
558.446994	0.238865
558.804197	0.237998
559.161345	0.237941
559.518437	0.241170
559.875474	0.239474
560.232455	0.238770
560.589381	0.239915
560.946251	0.240252
561.303065	0.237529
561.659825	0.238840
562.016528	0.240789
562.373177	0.243054
562.729770	0.240477
563.086307	0.242458
563.442789	0.240381
563.799216	0.243303
564.155587	0.242161
564.511904	0.243646
564.868164	0.243411
565.224370	0.243208
565.580520	0.244961
565.936615	0.244931
566.292654	0.247633
566.648638	0.244878
567.004567	0.245694
567.360441	0.246140
567.716260	0.248337
568.072023	0.245904
568.427732	0.246898
568.783385	0.249200
569.138982	0.247232
569.494525	0.246824
569.850013	0.249966
570.205445	0.248356
570.560823	0.250990
570.916145	0.252981
571.271412	0.251158
571.626625	0.252627
571.981782	0.253109
572.336884	0.254120
572.691931	0.253555
573.046923	0.255213
573.401860	0.256111
573.756743	0.257863
574.111570	0.256641
574.466342	0.257283
574.821059	0.256364
575.175722	0.259136
575.530330	0.259056
575.884882	0.259112
576.239380	0.261129
576.593823	0.261749
576.948211	0.261171
577.302544	0.264566
577.656823	0.263923
578.011047	0.264170
578.365216	0.265061
578.719330	0.266915
579.073389	0.266514
579.427394	0.267742
579.781344	0.268793
580.135239	0.270109
580.489080	0.269633
580.842866	0.273094
581.196597	0.272927
581.550273	0.271203
581.903895	0.272537
582.257463	0.270402
582.610975	0.273794
582.964434	0.273139
583.317837	0.275755
583.671186	0.276250
584.024481	0.276207
584.377721	0.278698
584.730906	0.279269
585.084037	0.278765
585.437113	0.280485
585.790135	0.279680
586.143103	0.283051
586.496016	0.283793
586.848874	0.281720
587.201679	0.282189
587.554428	0.285425
587.907124	0.284403
588.259765	0.284802
588.612352	0.285532
588.964884	0.289254
589.317362	0.288483
589.669786	0.288670
590.022155	0.287349
590.374470	0.286670
590.726731	0.288505
591.078937	0.293850
591.431090	0.290162
591.783188	0.293844
592.135232	0.294748
592.487222	0.294385
592.839157	0.292575
593.191038	0.295146
593.542866	0.296815
593.894639	0.299809
594.246358	0.298663
594.598022	0.297923
594.949633	0.301606
595.301190	0.302164
595.652692	0.301464
596.004141	0.297286
596.355535	0.305494
596.706876	0.306113
597.058162	0.308626
597.409395	0.305952
597.760573	0.303351
598.111698	0.306769
598.462768	0.307289
598.813785	0.308501
599.164748	0.309779
599.515657	0.310027
599.866511	0.313833
600.217312	0.308741
600.568060	0.314096
600.918753	0.310917
601.269392	0.311294
601.619978	0.314896
601.970510	0.312129
602.320988	0.312514
602.671412	0.309847
603.021783	0.312796
603.372100	0.314132
603.722363	0.313626
604.072572	0.314583
604.422728	0.314020
604.772830	0.316373
605.122878	0.316407
605.472872	0.316668
605.822813	0.314922
606.172701	0.317655
606.522534	0.314911
606.872314	0.315293
607.222041	0.316273
607.571714	0.313886
607.921333	0.315684
608.270899	0.315208
608.620411	0.311819
608.969870	0.315889
609.319276	0.315776
609.668627	0.315845
610.017926	0.314448
610.367171	0.312993
610.716362	0.313644
611.065500	0.314021
611.414585	0.312527
611.763616	0.313217
612.112594	0.313865
612.461518	0.312779
612.810389	0.310969
613.159207	0.312860
613.507971	0.314776
613.856682	0.310734
614.205340	0.311716
614.553945	0.309294
614.902496	0.312846
615.250994	0.310876
615.599439	0.311621
615.947830	0.310821
616.296169	0.311946
616.644454	0.311791
616.992686	0.311398
617.340864	0.309465
617.688990	0.313250
618.037063	0.309863
618.385082	0.311806
618.733048	0.308258
619.080961	0.310511
619.428821	0.310094
619.776628	0.309761
620.124382	0.311886
620.472083	0.312169
620.819731	0.311530
621.167326	0.315251
621.514868	0.315287
621.862357	0.319043
622.209793	0.318758
622.557176	0.321129
622.904506	0.322067
623.251783	0.324851
623.599007	0.326910
623.946179	0.326558
624.293297	0.328613
624.640363	0.332168
624.987376	0.332745
625.334336	0.335743
625.681243	0.338010
626.028097	0.338118
626.374899	0.339022
626.721647	0.339532
627.068343	0.342549
627.414987	0.344087
627.761577	0.345989
628.108115	0.344095
628.454600	0.349439
628.801032	0.346915
629.147412	0.348531
629.493739	0.349500
629.840014	0.352458
630.186236	0.349705
630.532405	0.355684
630.878521	0.352628
631.224585	0.355097
631.570597	0.358966
631.916556	0.357015
632.262462	0.356977
632.608316	0.359146
632.954117	0.360129
633.299866	0.360816
633.645562	0.361066
633.991206	0.365695
634.336797	0.368435
634.682336	0.371387
635.027823	0.372651
635.373257	0.373175
635.718639	0.377279
636.063968	0.375919
636.409245	0.382381
636.754470	0.382033
637.099642	0.384853
637.444762	0.388392
637.789829	0.387325
638.134845	0.390705
638.479808	0.391579
638.824719	0.391086
639.169577	0.395737
639.514383	0.394504
639.859137	0.399082
640.203839	0.398694
640.548489	0.398813
640.893086	0.400140
641.237632	0.401821
641.582125	0.400809
641.926566	0.402696
642.270955	0.402210
642.615292	0.402341
642.959576	0.401294
643.303809	0.402450
643.647990	0.401858
643.992118	0.402612
644.336195	0.405683
644.680219	0.404305
645.024192	0.404622
645.368112	0.398747
645.711981	0.397445
646.055797	0.393180
646.399562	0.395018
646.743274	0.387681
647.086935	0.384833
647.430544	0.384658
647.774101	0.383679
648.117606	0.383491
648.461059	0.384090
648.804460	0.385775
649.147810	0.391537
649.491108	0.393308
649.834354	0.394896
650.177548	0.400047
650.520690	0.405258
650.863781	0.406672
651.206820	0.405564
651.549807	0.410235
651.892742	0.414580
652.235626	0.413627
652.578458	0.414851
652.921238	0.421391
653.263967	0.419049
653.606644	0.422787
653.949269	0.422852
654.291843	0.426079
654.634365	0.423296
654.976836	0.426330
655.319255	0.426893
655.661622	0.428249
656.003938	0.428391
656.346203	0.430714
656.688416	0.429175
657.030577	0.432394
657.372687	0.434483
657.714746	0.435442
658.056753	0.432447
658.398708	0.436062
658.740612	0.437329
659.082465	0.433615
659.424266	0.434392
659.766016	0.433636
660.107715	0.436716
660.449362	0.435261
660.790958	0.435411
661.132503	0.436875
661.473996	0.433759
661.815438	0.435381
662.156829	0.435589
662.498168	0.435922
662.839456	0.437657
663.180693	0.435204
663.521879	0.435379
663.863013	0.435606
664.204097	0.434313
664.545129	0.431180
664.886110	0.431584
665.227040	0.429114
665.567918	0.431361
665.908746	0.429237
666.249522	0.429176
666.590248	0.430182
666.930922	0.428150
667.271545	0.426929
667.612118	0.427015
667.952639	0.429077
668.293109	0.427246
668.633528	0.430181
668.973896	0.430687
669.314213	0.430704
669.654480	0.432333
669.994695	0.432248
670.334859	0.433583
670.674973	0.433971
671.015035	0.433392
671.355047	0.433900
671.695008	0.434435
672.034918	0.436983
672.374777	0.435669
672.714585	0.436958
673.054342	0.437167
673.394049	0.437368
673.733705	0.435091
674.073310	0.436181
674.412864	0.438897
674.752368	0.439643
675.091820	0.439803
675.431223	0.444150
675.770574	0.444141
676.109875	0.446989
676.449125	0.446823
676.788324	0.449590
677.127473	0.454564
677.466571	0.455009
677.805619	0.456375
678.144616	0.457738
678.483562	0.459527
678.822458	0.462206
679.161303	0.462394
679.500098	0.462993
679.838842	0.464488
680.177535	0.463531
680.516179	0.462370
680.854771	0.461849
681.193314	0.455137
681.531805	0.446029
681.870247	0.434701
682.208638	0.427670
682.546978	0.426285
682.885268	0.427759
683.223508	0.434132
683.561697	0.438590
683.899836	0.441129
684.237925	0.443693
684.575963	0.446693
684.913951	0.449819
685.251889	0.445389
685.589776	0.447619
685.927614	0.449579
686.265401	0.444269
686.603137	0.445701
686.940824	0.439380
687.278460	0.438617
687.616046	0.437416
687.953582	0.432420
688.291068	0.433370
688.628504	0.428923
688.965889	0.431333
689.303224	0.435316
689.640510	0.439303
689.977745	0.444904
690.314930	0.452818
690.652065	0.457848
690.989150	0.464950
691.326185	0.471525
691.663170	0.476420
692.000105	0.483657
692.336990	0.490880
692.673825	0.493082
693.010610	0.499902
693.347345	0.506446
693.684030	0.506746
694.020665	0.512022
694.357251	0.520486
694.693786	0.520199
695.030272	0.523234
695.366707	0.527938
695.703093	0.531302
696.039429	0.528681
696.375716	0.530932
696.711952	0.533689
697.048139	0.535313
697.384276	0.538328
697.720363	0.536338
698.056400	0.534239
698.392388	0.540944
698.728326	0.543302
699.064214	0.546677
699.400053	0.546502
699.735842	0.550666
700.071581	0.553260
700.407270	0.556170
700.742910	0.558575
701.078501	0.565862
701.414042	0.565851
701.749533	0.568462
702.084974	0.578296
702.420366	0.570545
702.755709	0.578395
703.091002	0.585833
703.426246	0.579229
703.761440	0.584201
704.096584	0.589922
704.431679	0.587579
704.766725	0.589014
705.101721	0.590865
705.436668	0.586897
705.771565	0.593649
706.106413	0.589258
706.441212	0.585393
706.775961	0.585227
707.110661	0.586376
707.445311	0.583702
707.779913	0.580472
708.114465	0.579526
708.448967	0.576145
708.783421	0.568560
709.117825	0.563155
709.452180	0.561823
709.786485	0.556872
710.120742	0.545822
710.454949	0.547898
710.789107	0.540154
711.123216	0.530885
711.457275	0.532328
711.791286	0.524113
712.125247	0.522479
712.459159	0.533575
712.793023	0.524967
713.126837	0.529653
713.460602	0.530111
713.794318	0.538608
714.127985	0.538384
714.461602	0.548297
714.795171	0.551554
715.128691	0.559778
715.462162	0.567323
715.795584	0.573093
716.128957	0.576117
716.462281	0.582015
716.795556	0.585905
717.128782	0.592056
717.461960	0.600815
717.795088	0.599815
718.128167	0.605852
718.461198	0.614254
718.794180	0.614839
719.127113	0.617589
719.459997	0.620857
719.792833	0.627457
720.125619	0.628565
720.458357	0.634657
720.791046	0.633992
721.123686	0.638037
721.456278	0.644805
721.788821	0.641935
722.121315	0.646507
722.453761	0.650655
722.786158	0.648334
723.118506	0.643874
723.450805	0.652444
723.783056	0.649078
724.115259	0.646445
724.447412	0.644741
724.779518	0.647043
725.111574	0.645307
725.443582	0.641280
725.775542	0.642937
726.107453	0.635466
726.439315	0.636040
726.771129	0.633829
727.102895	0.626978
727.434612	0.619791
727.766281	0.618339
728.097901	0.616692
728.429473	0.616005
728.760996	0.615625
729.092471	0.615913
729.423897	0.620184
729.755276	0.617618
730.086606	0.618216
730.417887	0.613351
730.749120	0.603558
731.080305	0.594323
731.411442	0.589773
731.742530	0.594159
732.073570	0.594399
732.404562	0.586612
732.735506	0.588091
733.066401	0.592960
733.397249	0.602089
733.728048	0.612906
734.058798	0.625643
734.389501	0.637373
734.720156	0.647178
735.050762	0.654306
735.381320	0.655565
735.711831	0.663873
736.042293	0.668928
736.372707	0.665553
736.703073	0.669436
737.033391	0.671972
737.363661	0.669279
737.693883	0.664946
738.024056	0.662870
738.354182	0.664539
738.684260	0.653463
739.014290	0.650307
739.344272	0.649518
739.674207	0.643588
740.004093	0.642816
740.333931	0.642618
740.663722	0.643303
740.993464	0.643457
741.323159	0.647992
741.652806	0.652975
741.982405	0.657823
742.311956	0.663208
742.641460	0.664248
742.970915	0.668624
743.300323	0.675637
743.629683	0.681349
743.958996	0.684185
744.288260	0.687421
744.617477	0.694106
744.946647	0.695789
745.275768	0.701457
745.604842	0.700774
745.933869	0.710993
746.262847	0.712421
746.591778	0.705525
746.920662	0.712196
747.249498	0.718566
747.578286	0.709618
747.907027	0.704716
748.235720	0.706648
748.564365	0.701449
748.892963	0.700271
749.221514	0.705180
749.550017	0.707980
749.878473	0.708950
750.206881	0.716115
750.535242	0.716163
750.863555	0.715329
751.191821	0.717119
751.520039	0.720777
751.848210	0.724433
752.176334	0.717565
752.504411	0.716841
752.832440	0.724600
753.160421	0.728530
753.488356	0.726901
753.816243	0.724028
754.144082	0.733060
754.471875	0.736443
754.799620	0.733009
755.127318	0.733394
755.454969	0.733923
755.782572	0.733787
756.110129	0.737868
756.437638	0.741010
756.765100	0.737413
757.092515	0.734628
757.419882	0.734248
757.747203	0.738774
758.074477	0.739926
758.401703	0.734750
758.728882	0.731032
759.056014	0.730232
759.383099	0.729745
759.710138	0.729868
760.037129	0.726087
760.364073	0.720137
760.690970	0.721919
761.017820	0.726808
761.344623	0.724564
761.671379	0.713906
761.998088	0.702963
762.324751	0.678810
762.651366	0.637097
762.977935	0.568795
763.304456	0.518208
763.630931	0.507975
763.957359	0.547041
764.283740	0.591294
764.610074	0.619645
764.936362	0.650568
765.262602	0.678189
765.588796	0.699835
765.914943	0.716707
766.241044	0.735072
766.567097	0.741375
766.893104	0.753214
767.219064	0.758192
767.544978	0.765899
767.870845	0.777407
768.196665	0.783297
768.522438	0.780653
768.848165	0.782412
769.173846	0.790813
769.499479	0.795852
769.825066	0.799535
770.150607	0.803997
770.476101	0.798658
770.801548	0.801748
771.126949	0.813058
771.452303	0.817569
771.777611	0.815672
772.102872	0.813703
772.428087	0.819323
772.753256	0.822982
773.078378	0.824476
773.403453	0.833450
773.728482	0.838045
774.053465	0.830867
774.378401	0.835807
774.703291	0.843613
775.028135	0.844612
775.352932	0.844127
775.677683	0.849373
776.002388	0.849217
776.327046	0.848893
776.651658	0.853365
776.976224	0.855332
777.300743	0.854405
777.625216	0.857371
777.949643	0.859601
778.274024	0.858916
778.598359	0.860993
778.922647	0.858855
779.246889	0.860787
779.571086	0.863012
779.895236	0.866069
780.219339	0.864047
780.543397	0.859092
780.867409	0.858455
781.191374	0.860033
781.515294	0.863550
781.839167	0.860956
782.162995	0.864310
782.486776	0.860788
782.810511	0.862199
783.134201	0.866920
783.457844	0.864910
783.781441	0.867016
784.104993	0.873096
784.428498	0.872713
784.751958	0.868942
785.075372	0.871430
785.398739	0.874256
785.722061	0.869690
786.045337	0.866870
786.368568	0.870749
786.691752	0.874855
787.014891	0.859917
787.337983	0.849545
787.661030	0.843931
787.984031	0.825261
788.306987	0.813154
788.629897	0.813576
788.952760	0.817770
789.275579	0.823416
789.598351	0.838323
789.921078	0.851444
790.243759	0.853611
790.566395	0.858357
790.888984	0.865583
791.211529	0.871589
791.534027	0.874195
791.856480	0.876632
792.178888	0.880559
792.501249	0.883616
792.823566	0.886324
793.145836	0.885772
793.468062	0.886492
793.790241	0.886981
794.112375	0.884443
794.434464	0.882054
794.756507	0.880581
795.078505	0.879367
795.400457	0.874600
795.722364	0.862693
796.044226	0.855924
796.366042	0.854431
796.687812	0.856737
797.009538	0.852293
797.331218	0.858700
797.652852	0.861209
797.974442	0.865157
798.295986	0.866807
798.617484	0.867958
798.938938	0.873113
799.260346	0.877675
799.581709	0.878750
799.903026	0.882144
800.224299	0.882709
800.545526	0.885918
800.866708	0.890835
801.187845	0.895443
801.508936	0.894756
801.829983	0.892367
802.150984	0.896055
802.471940	0.899533
802.792851	0.900034
803.113717	0.901476
803.434538	0.897812
803.755314	0.901562
804.076045	0.903456
804.396731	0.901726
804.717372	0.900316
805.037967	0.904713
805.358518	0.902379
805.679024	0.897650
805.999485	0.899279
806.319901	0.898730
806.640272	0.901923
806.960598	0.898484
807.280879	0.896477
807.601115	0.894321
807.921306	0.898115
808.241453	0.899272
808.561554	0.897225
808.881611	0.896590
809.201623	0.897719
809.521590	0.899206
809.841513	0.899726
810.161390	0.898993
810.481223	0.899237
810.801011	0.904474
811.120755	0.905699
811.440453	0.903863
811.760107	0.903711
812.079716	0.903571
812.399281	0.906380
812.718801	0.907992
813.038276	0.910142
813.357707	0.909363
813.677093	0.906999
813.996434	0.909352
814.315731	0.912253
814.634983	0.913276
814.954191	0.912006
815.273354	0.907249
815.592473	0.903935
815.911547	0.904052
816.230577	0.900583
816.549562	0.898176
816.868502	0.898176
817.187399	0.895207
817.506250	0.889436
817.825058	0.891557
818.143821	0.888517
818.462539	0.883896
818.781213	0.875313
819.099843	0.864512
819.418429	0.846932
819.736970	0.830707
820.055466	0.810357
820.373919	0.783755
820.692327	0.751302
821.010691	0.714551
821.329011	0.634566
821.647286	0.518060
821.965517	0.403481
822.283704	0.360055
822.601847	0.361105
822.919945	0.397365
823.237999	0.431589
823.556010	0.480195
823.873976	0.535826
824.191897	0.587529
824.509775	0.631363
824.827609	0.676378
825.145398	0.700673
825.463144	0.701228
825.780845	0.684654
826.098502	0.666033
826.416116	0.620036
826.733685	0.575236
827.051210	0.566269
827.368692	0.581970
827.686129	0.619339
828.003522	0.674844
828.320872	0.722373
828.638177	0.766018
828.955439	0.799930
829.272656	0.822312
829.589830	0.839697
829.906960	0.854780
830.224046	0.867930
830.541088	0.877982
830.858086	0.883656
831.175041	0.891236
831.491952	0.888575
831.808819	0.885836
832.125642	0.877679
832.442421	0.863923
832.759157	0.841200
833.075849	0.793663
833.392497	0.728136
833.709101	0.687456
834.025662	0.697149
834.342179	0.729657
834.658653	0.769321
834.975083	0.806239
835.291469	0.834798
835.607811	0.856462
835.924110	0.872925
836.240366	0.889426
836.556578	0.902936
836.872746	0.911336
837.188871	0.916961
837.504952	0.923103
837.820990	0.926822
838.136984	0.930118
838.452935	0.933332
838.768842	0.934896
839.084706	0.927440
839.400526	0.902817
839.716303	0.859254
840.032037	0.838530
840.347727	0.840993
840.663373	0.860340
840.978977	0.882501
841.294537	0.905282
841.610054	0.919803
841.925527	0.928764
842.240957	0.935969
842.556344	0.944495
842.871687	0.949005
843.186987	0.952387
843.502244	0.953966
843.817458	0.955375
844.132629	0.959281
844.447756	0.962901
844.762840	0.964293
845.077881	0.964341
845.392879	0.961794
845.707833	0.966202
846.022745	0.967592
846.337613	0.969172
846.652438	0.968948
846.967221	0.970008
847.281960	0.969570
847.596656	0.971398
847.911309	0.971290
848.225919	0.970812
848.540485	0.972865
848.855009	0.974119
849.169490	0.973197
849.483928	0.972885
849.798323	0.972530
850.112675	0.974670
850.426984	0.974334
850.741251	0.974595
851.055474	0.973058
851.369654	0.973201
851.683792	0.971624
851.997887	0.973024
852.311938	0.974489
852.625947	0.973103
852.939914	0.971758
853.253837	0.973162
853.567718	0.974415
853.881555	0.974081
854.195350	0.971251
854.509103	0.972840
854.822812	0.973645
855.136479	0.973882
855.450103	0.973471
855.763685	0.972814
856.077224	0.974493
856.390720	0.975381
856.704173	0.974440
857.017584	0.972935
857.330953	0.971121
857.644278	0.970523
857.957561	0.971526
858.270802	0.972706
858.584000	0.971326
858.897155	0.970673
859.210268	0.969892
859.523339	0.974099
859.836367	0.973984
860.149352	0.974389
860.462295	0.974055
860.775195	0.974153
861.088054	0.972296
861.400869	0.975087
861.713642	0.973616
862.026373	0.975104
862.339062	0.974878
862.651708	0.972646
862.964312	0.972983
863.276873	0.972700
863.589392	0.970831
863.901869	0.969730
864.214303	0.969304
864.526696	0.967683
864.839045	0.967901
865.151353	0.966060
865.463619	0.965478
865.775842	0.965868
866.088023	0.967196
866.400162	0.966088
866.712258	0.966745
867.024313	0.967362
867.336325	0.968983
867.648296	0.968126
867.960224	0.965975
868.272110	0.966295
868.583954	0.968391
868.895755	0.968128
869.207515	0.966158
869.519233	0.964094
869.830909	0.963077
870.142542	0.964166
870.454134	0.965601
870.765684	0.963145
871.077191	0.962870
871.388657	0.961837
871.700081	0.961994
872.011463	0.963067
872.322803	0.962407
872.634101	0.960486
872.945357	0.957797
873.256571	0.955048
873.567744	0.957740
873.878874	0.956531
874.189963	0.956296
874.501010	0.956540
874.812015	0.953638
875.122979	0.954127
875.433900	0.956795
875.744780	0.957837
876.055618	0.954180
876.366415	0.952963
876.677169	0.953615
876.987882	0.955036
877.298554	0.955012
877.609183	0.951453
877.919771	0.947783
878.230317	0.946255
878.540822	0.942406
878.851285	0.938437
879.161707	0.929043
879.472087	0.918117
879.782425	0.899855
880.092722	0.865309
880.402977	0.810694
880.713191	0.747671
881.023363	0.685989
881.333494	0.652122
881.643583	0.624366
881.953631	0.625352
882.263637	0.653345
882.573602	0.693542
882.883526	0.719338
883.193408	0.745155
883.503248	0.767786
883.813048	0.795543
884.122806	0.827509
884.432522	0.850986
884.742197	0.871252
885.051831	0.882086
885.361424	0.893529
885.670975	0.905751
885.980485	0.915208
886.289954	0.920555
886.599382	0.926497
886.908768	0.930832
887.218113	0.936372
887.527417	0.942070
887.836680	0.943764
888.145901	0.946605
888.455082	0.951061
888.764221	0.954589
889.073319	0.955237
889.382376	0.957466
889.691392	0.954588
890.000366	0.956698
890.309300	0.956997
890.618193	0.957076
890.927044	0.955498
891.235855	0.955204
891.544625	0.954871
891.853353	0.954803
892.162041	0.952745
892.470687	0.945906
892.779293	0.941197
893.087858	0.935214
893.396381	0.927550
893.704864	0.914869
894.013306	0.890467
894.321707	0.863089
894.630068	0.847740
894.938387	0.841677
895.246665	0.843622
895.554903	0.856824
895.863100	0.870213
896.171256	0.887663
896.479371	0.907375
896.787446	0.920356
897.095480	0.927714
897.403473	0.930145
897.711425	0.934290
898.019336	0.942431
898.327207	0.947821
898.635038	0.947045
898.942827	0.948237
899.250576	0.951379
899.558284	0.955923
899.865952	0.957396
900.173579	0.958780
900.481165	0.958985
900.788711	0.961596
901.096216	0.964292
901.403681	0.966147
901.711105	0.965161
902.018489	0.966497
902.325832	0.965868
902.633135	0.964437
902.940397	0.960077
903.247619	0.944731
903.554800	0.921166
903.861941	0.879242
904.169041	0.840843
904.476101	0.823690
904.783121	0.824794
905.090100	0.841298
905.397039	0.863271
905.703938	0.885885
906.010796	0.906816
906.317614	0.923338
906.624391	0.935807
906.931129	0.947455
907.237826	0.954872
907.544483	0.961914
907.851099	0.966873
908.157675	0.971006
908.464211	0.973030
908.770707	0.974847
909.077163	0.977368
909.383578	0.977733
909.689954	0.979308
909.996289	0.979181
910.302584	0.981897
910.608839	0.983667
910.915054	0.982352
911.221229	0.983345
911.527363	0.980570
911.833458	0.981185
912.139513	0.981371
912.445527	0.981540
912.751502	0.977097
913.057436	0.975158
913.363331	0.974737
913.669186	0.970754
913.975000	0.964350
914.280775	0.958202
914.586510	0.951350
914.892205	0.937464
915.197859	0.914084
915.503475	0.886799
915.809050	0.866176
916.114585	0.861176
916.420081	0.857064
916.725536	0.854506
917.030952	0.861680
917.336328	0.876740
917.641665	0.891030
917.946961	0.908416
918.252218	0.919536
918.557435	0.928528
918.862612	0.937154
919.167750	0.944262
919.472848	0.949727
919.777906	0.956185
920.082925	0.962284
920.387904	0.964720
920.692843	0.966318
920.997743	0.967318
921.302603	0.971288
921.607423	0.971975
921.912204	0.975029
922.216946	0.976455
922.521647	0.977004
922.826310	0.978624
923.130932	0.980087
923.435516	0.983358
923.740059	0.982902
924.044564	0.983043
924.349028	0.984395
924.653454	0.987167
924.957840	0.987024
925.262186	0.988616
925.566493	0.988315
925.870761	0.988569
926.174989	0.989312
926.479178	0.991466
926.783328	0.990935
927.087438	0.992398
927.391509	0.992792
927.695541	0.993465
927.999533	0.993209
928.303486	0.995015
928.607400	0.994145
928.911275	0.993660
929.215110	0.995786
929.518906	0.994520
929.822663	0.995726
930.126381	0.996461
930.430060	0.995225
930.733699	0.995017
931.037299	0.995277
931.340861	0.993907
931.644383	0.993329
931.947866	0.994124
932.251309	0.995507
932.554714	0.993991
932.858080	0.995162
933.161407	0.993172
933.464694	0.995129
933.767943	0.994622
934.071153	0.996047
934.374323	0.995370
934.677455	0.994585
934.980548	0.995566
935.283602	0.996300
935.586617	0.994993
935.889593	0.996913
936.192530	0.996568
936.495428	0.995140
936.798287	0.994838
937.101108	0.994793
937.403890	0.993118
937.706632	0.994571
938.009336	0.990772
938.312002	0.987886
938.614628	0.989141
938.917216	0.985492
939.219765	0.986311
939.522275	0.987194
939.824747	0.986861
940.127179	0.987439
940.429573	0.988381
940.731929	0.986672
941.034246	0.988666
941.336524	0.988123
941.638763	0.990444
941.940964	0.989996
942.243126	0.991942
942.545250	0.991415
942.847335	0.992232
943.149381	0.993647
943.451389	0.991439
943.753359	0.992878
944.055290	0.994584
944.357182	0.993924
944.659036	0.994301
944.960851	0.994711
945.262628	0.993640
945.564367	0.994304
945.866067	0.993746
946.167729	0.994147
946.469352	0.994164
946.770937	0.991805
947.072484	0.995789
947.373992	0.994435
947.675462	0.994686
947.976893	0.994941
948.278286	0.996447
948.579641	0.996870
948.880958	0.994806
949.182236	0.995199
949.483476	0.995618
949.784678	0.995269
950.085841	0.995938
950.386967	0.994634
950.688054	0.994923
950.989103	0.993770
951.290114	0.993803
951.591087	0.993985
951.892021	0.992630
952.192917	0.992727
952.493776	0.992902
952.794596	0.992642
953.095378	0.991282
953.396122	0.993038
953.696828	0.992818
953.997496	0.992767
954.298126	0.994559
954.598718	0.993460
954.899272	0.995016
955.199788	0.994620
955.500266	0.996749
955.800706	0.996729
956.101108	0.997314
956.401472	0.999025
956.701798	0.998030
957.002087	0.998129
957.302337	0.999503
957.602550	0.999291
957.902724	0.998357
958.202861	0.998672
958.502960	0.999177
958.803022	1.000777
959.103045	1.000696
959.403031	1.001099
959.702979	1.001578
960.002889	0.999780
960.302762	0.999985
960.602596	1.000938
960.902393	1.000979
961.202153	1.001252
961.501875	1.000770
961.801559	1.000838
962.101205	1.000273
962.400814	1.001922
962.700385	1.001344
962.999918	1.001764
963.299414	0.999823
963.598873	1.002185
963.898293	1.000857
964.197677	1.000729
964.497022	1.000797
964.796331	1.000461
965.095601	1.001572
965.394835	1.002227
965.694030	1.002108
965.993189	1.001569
966.292309	1.002042
966.591393	1.000415
966.890439	1.002024
967.189447	1.000951
967.488419	1.000384
967.787353	1.000785
968.086249	1.001433
968.385108	1.001224
968.683930	1.003627
968.982714	1.002153
969.281462	1.001575
969.580172	1.001471
969.878844	1.002975
970.177480	1.001480
970.476078	1.001640
970.774639	1.000906
971.073162	1.001977
971.371649	1.001267
971.670098	1.001631
971.968510	1.001818
972.266885	1.000893
972.565223	1.000944
972.863524	1.000213
973.161788	1.000155
973.460014	1.001849
973.758204	1.000232
974.056356	1.000624
974.354471	1.001219
974.652550	1.002156
974.950591	1.000637
975.248595	1.000629
975.546563	1.001641
975.844493	1.001327
976.142386	1.001498
976.440243	1.000834
976.738062	1.002197
977.035845	1.000201
977.333590	1.002203
977.631299	1.001835
977.928971	1.002220
978.226606	1.001269
978.524204	1.000812
978.821765	1.002716
979.119290	1.002921
979.416777	1.001779
979.714228	1.001482
980.011642	1.002053
980.309020	1.000720
980.606360	1.000558
980.903664	1.000336
981.200931	1.000963
981.498162	1.000314
981.795356	1.000349
982.092513	0.998838
982.389633	0.999022
982.686717	0.995899
982.983764	0.996213
983.280775	0.995321
983.577749	0.996099
983.874686	0.994675
984.171587	0.996240
984.468451	0.997658
984.765279	0.998914
985.062070	0.999481
985.358824	1.000007
985.655543	1.000704
985.952224	1.001760
986.248869	1.001852
986.545478	1.002363
986.842050	1.002634
987.138586	1.000760
987.435086	1.001800
987.731549	1.003543
988.027975	1.003758
988.324366	1.002281
988.620719	1.003358
988.917037	1.002701
989.213318	1.002971
989.509563	1.004409
989.805772	1.004217
990.101944	1.003593
990.398080	1.002509
990.694180	1.003408
990.990244	1.001395
991.286271	1.002519
991.582262	1.003021
991.878217	1.002868
992.174136	1.004130
992.470019	1.002177
992.765865	1.003612
993.061676	1.002596
993.357450	1.002805
993.653188	1.003292
993.948890	1.003458
994.244556	1.002695
994.540186	1.002623
994.835780	1.001825
995.131337	1.002420
995.426859	1.002612
995.722345	1.002029
996.017795	1.000475
996.313208	1.001637
996.608586	1.000369
996.903928	1.001886
997.199234	1.001803
997.494504	1.002176
997.789738	1.000382
998.084936	1.002459
998.380099	1.001647
998.675225	1.003703
998.970316	1.003094
999.265371	1.001672
999.560390	1.002350
999.855373	1.002777
1000.150320	1.002650
1000.445232	1.001825
1000.740108	1.003277
1001.034948	1.003096
1001.329752	1.004058
1001.624521	1.003135
1001.919254	1.003045
1002.213951	1.002872
1002.508613	1.003286
1002.803239	1.003530
1003.097829	1.004576
1003.392384	1.003799
1003.686903	1.003365
1003.981386	1.003921
1004.275834	1.005035
1004.570246	1.002814
1004.864623	1.003596
1005.158964	1.003086
1005.453270	1.003306
1005.747540	1.002921
1006.041775	1.005116
1006.335974	1.003866
1006.630138	1.003770
1006.924266	1.001938
1007.218359	1.002093
1007.512416	1.004985
1007.806438	1.003751
1008.100425	1.003547
1008.394376	1.003889
1008.688292	1.002267
1008.982172	1.003241
1009.276017	1.002804
1009.569827	1.004117
1009.863602	1.002695
1010.157341	1.003419
1010.451045	1.003728
1010.744714	1.004278
1011.038347	1.004202
1011.331945	1.003408
1011.625508	1.002710
1011.919036	1.002913
1012.212528	1.003731
1012.505986	1.003312
1012.799408	1.003833
1013.092795	1.003752
1013.386147	1.002821
1013.679464	1.002711
1013.972745	1.004165
1014.265992	1.003897
1014.559204	1.004406
1014.852380	1.004535
1015.145521	1.003324
1015.438628	1.003749
1015.731699	1.003355
1016.024736	1.003663
1016.317737	1.003683
1016.610703	1.004943
1016.903635	1.003069
1017.196531	1.003178
1017.489393	1.002822
1017.782219	1.003925
1018.075011	1.004072
1018.367768	1.003308
1018.660490	1.003701
1018.953177	1.003701
1019.245829	1.003701
