Dividing Wavelength (nm)	Counts (n)	Blue Motor Position (mm): 9.700000	Red Motor Position (mm): 0.000000	
326.493990	1.004933
326.888308	1.004933
327.282561	1.004933
327.676750	1.004474
328.070874	1.005182
328.464933	1.006246
328.858929	1.006802
329.252859	1.004099
329.646726	1.004590
330.040528	1.004426
330.434265	1.005051
330.827938	1.004665
331.221547	1.005092
331.615091	1.004334
332.008571	1.006359
332.401986	1.003574
332.795338	1.004928
333.188625	1.005246
333.581847	1.004969
333.975006	1.004418
334.368100	1.004675
334.761129	1.004383
335.154095	1.004628
335.546996	1.003282
335.939833	0.998520
336.332606	0.999758
336.725315	0.998269
337.117960	1.000393
337.510540	0.998948
337.903056	1.000133
338.295508	0.999830
338.687896	1.000456
339.080220	0.998761
339.472480	0.999082
339.864676	0.999466
340.256807	0.997263
340.648875	0.999619
341.040879	0.999118
341.432818	0.999222
341.824694	0.998195
342.216506	0.999504
342.608253	0.999381
342.999937	0.998145
343.391557	0.997579
343.783113	1.000061
344.174605	0.998619
344.566033	0.996763
344.957397	1.000512
345.348697	0.998747
345.739934	0.999173
346.131106	0.998260
346.522215	0.998695
346.913260	0.998804
347.304241	0.998392
347.695159	0.999867
348.086012	0.997844
348.476802	0.998912
348.867528	0.998379
349.258191	0.998499
349.648789	0.999128
350.039324	0.998870
350.429796	0.998661
350.820203	0.998008
351.210548	0.998106
351.600828	0.999035
351.991045	0.998769
352.381198	0.999647
352.771288	0.998679
353.161314	0.998676
353.551276	0.998353
353.941175	0.996259
354.331010	0.999082
354.720782	0.997955
355.110490	0.998490
355.500135	0.997762
355.889717	0.996996
356.279235	0.997361
356.668689	0.998101
357.058080	0.997942
357.447408	0.996755
357.836672	0.997812
358.225873	0.997269
358.615010	0.997675
359.004084	0.996221
359.393095	0.998376
359.782043	0.996998
360.170927	0.998505
360.559748	0.997496
360.948505	0.997430
361.337199	0.996255
361.725830	0.997317
362.114398	0.997295
362.502903	0.996126
362.891344	0.997225
363.279722	0.996934
363.668037	0.997840
364.056289	0.996493
364.444478	0.997039
364.832603	0.997063
365.220665	0.996746
365.608665	0.995879
365.996601	0.996642
366.384474	0.995453
366.772284	0.997025
367.160031	0.995143
367.547715	0.994761
367.935336	0.995834
368.322893	0.993745
368.710388	0.992662
369.097820	0.990286
369.485189	0.987179
369.872495	0.986303
370.259738	0.984892
370.646918	0.980796
371.034035	0.979356
371.421090	0.976664
371.808081	0.970828
372.195010	0.969209
372.581875	0.963472
372.968678	0.959418
373.355418	0.955956
373.742096	0.947849
374.128710	0.943975
374.515262	0.939298
374.901751	0.934152
375.288177	0.928423
375.674540	0.922237
376.060841	0.914664
376.447079	0.908932
376.833254	0.902826
377.219367	0.897533
377.605417	0.885400
377.991404	0.883435
378.377329	0.876156
378.763191	0.870191
379.148991	0.860773
379.534727	0.853923
379.920402	0.843926
380.306013	0.842005
380.691563	0.829822
381.077049	0.822318
381.462474	0.818429
381.847835	0.807289
382.233134	0.803103
382.618371	0.802863
383.003545	0.784508
383.388657	0.782784
383.773706	0.776113
384.158693	0.770783
384.543618	0.766418
384.928480	0.757150
385.313280	0.746618
385.698017	0.747650
386.082692	0.735181
386.467305	0.734179
386.851856	0.728665
387.236344	0.723382
387.620770	0.717457
388.005133	0.711475
388.389435	0.705899
388.773674	0.704165
389.157851	0.695659
389.541965	0.692890
389.926018	0.698965
390.310008	0.686530
390.693936	0.683424
391.077802	0.674992
391.461606	0.678007
391.845348	0.666352
392.229027	0.665869
392.612645	0.664043
392.996200	0.650890
393.379694	0.644031
393.763125	0.634071
394.146494	0.639270
394.529801	0.629176
394.913047	0.621563
395.296230	0.627489
395.679351	0.618959
396.062410	0.615490
396.445408	0.618425
396.828343	0.613655
397.211217	0.608359
397.594028	0.620710
397.976778	0.611086
398.359466	0.607644
398.742092	0.603286
399.124656	0.615141
399.507158	0.603828
399.889598	0.600540
400.271977	0.591650
400.654294	0.595539
401.036549	0.594686
401.418742	0.598287
401.800874	0.584592
402.182944	0.581218
402.564952	0.573095
402.946898	0.574972
403.328783	0.575880
403.710606	0.587229
404.092367	0.561760
404.474067	0.567159
404.855705	0.566037
405.237282	0.574666
405.618797	0.560562
406.000250	0.556121
406.381642	0.546720
406.762972	0.552041
407.144240	0.549716
407.525447	0.549606
407.906593	0.542589
408.287677	0.538703
408.668700	0.546615
409.049661	0.540746
409.430560	0.535736
409.811399	0.544938
410.192176	0.525927
410.572891	0.533313
410.953545	0.521687
411.334138	0.535133
411.714669	0.527343
412.095139	0.539753
412.475547	0.523699
412.855894	0.525470
413.236180	0.524793
413.616405	0.529481
413.996568	0.520506
414.376670	0.526844
414.756711	0.531873
415.136691	0.528226
415.516609	0.520116
415.896466	0.515933
416.276262	0.512516
416.655997	0.513968
417.035670	0.495455
417.415283	0.487050
417.794834	0.491646
418.174324	0.497055
418.553753	0.506248
418.933121	0.488620
419.312428	0.483082
419.691674	0.487839
420.070859	0.476492
420.449983	0.484277
420.829045	0.473624
421.208047	0.482870
421.586988	0.475990
421.965867	0.474756
422.344686	0.463286
422.723444	0.475676
423.102141	0.493297
423.480777	0.465556
423.859352	0.486347
424.237866	0.463574
424.616319	0.464292
424.994712	0.455592
425.373044	0.465916
425.751314	0.453672
426.129524	0.470692
426.507673	0.453717
426.885762	0.446958
427.263789	0.452819
427.641756	0.462125
428.019662	0.452574
428.397508	0.451842
428.775292	0.456370
429.153016	0.448051
429.530679	0.454323
429.908282	0.447547
430.285824	0.457829
430.663305	0.436482
431.040726	0.457388
431.418086	0.457293
431.795385	0.449250
432.172624	0.447812
432.549802	0.448613
432.926920	0.447175
433.303977	0.446658
433.680974	0.443462
434.057910	0.442250
434.434786	0.441425
434.811601	0.444838
435.188355	0.427100
435.565050	0.436035
435.941683	0.437199
436.318257	0.421147
436.694770	0.422287
437.071222	0.420725
437.447614	0.425527
437.823946	0.431772
438.200218	0.420613
438.576429	0.430309
438.952580	0.423056
439.328670	0.420012
439.704700	0.426489
440.080670	0.427738
440.456580	0.408782
440.832429	0.416982
441.208218	0.428406
441.583947	0.417377
441.959616	0.416580
442.335224	0.422495
442.710773	0.412678
443.086261	0.410791
443.461689	0.424640
443.837057	0.414468
444.212365	0.404355
444.587612	0.411750
444.962800	0.401470
445.337927	0.403465
445.712995	0.428945
446.088002	0.391232
446.462949	0.401114
446.837837	0.406312
447.212664	0.395005
447.587431	0.386461
447.962139	0.356968
448.336786	0.315994
448.711374	0.326505
449.085901	0.371007
449.460369	0.375073
449.834776	0.378314
450.209124	0.357627
450.583412	0.350658
450.957640	0.343462
451.331808	0.355007
451.705917	0.378366
452.079965	0.382994
452.453954	0.371187
452.827883	0.377929
453.201752	0.372852
453.575562	0.383573
453.949311	0.372621
454.323001	0.378772
454.696632	0.374542
455.070202	0.367103
455.443713	0.358599
455.817164	0.353496
456.190556	0.349339
456.563888	0.346423
456.937160	0.343960
457.310373	0.360945
457.683526	0.359877
458.056619	0.365599
458.429653	0.366000
458.802628	0.369695
459.175542	0.364168
459.548398	0.346591
459.921194	0.339112
460.293930	0.339185
460.666607	0.317101
461.039224	0.305216
461.411782	0.300470
461.784280	0.299905
462.156719	0.303830
462.529099	0.308743
462.901419	0.323975
463.273680	0.328761
463.645882	0.328237
464.018024	0.334144
464.390106	0.327182
464.762130	0.311369
465.134094	0.294450
465.505999	0.263580
465.877845	0.233283
466.249631	0.220766
466.621358	0.228015
466.993026	0.242109
467.364634	0.248070
467.736184	0.256987
468.107674	0.265914
468.479105	0.265024
468.850477	0.271857
469.221790	0.278624
469.593043	0.288745
469.964238	0.293555
470.335373	0.292807
470.706449	0.291260
471.077467	0.291582
471.448425	0.253888
471.819324	0.229142
472.190164	0.228962
472.560945	0.257560
472.931667	0.280053
473.302330	0.284533
473.672934	0.296342
474.043479	0.284034
474.413965	0.286003
474.784393	0.289453
475.154761	0.284583
475.525070	0.281641
475.895321	0.287541
476.265513	0.281473
476.635645	0.277216
477.005719	0.276665
477.375734	0.273060
477.745691	0.266642
478.115588	0.263051
478.485427	0.256593
478.855207	0.243334
479.224928	0.225782
479.594591	0.213778
479.964194	0.217427
480.333739	0.218360
480.703226	0.220062
481.072653	0.218168
481.442022	0.213906
481.811333	0.210826
482.180584	0.214193
482.549777	0.219607
482.918912	0.222669
483.287988	0.222509
483.657005	0.222089
484.025964	0.228382
484.394864	0.225762
484.763706	0.226616
485.132489	0.231563
485.501213	0.232536
485.869879	0.230705
486.238487	0.233745
486.607036	0.231672
486.975527	0.236408
487.343959	0.232225
487.712333	0.231418
488.080648	0.232664
488.448905	0.231993
488.817104	0.233245
489.185244	0.227759
489.553326	0.224539
489.921350	0.214400
490.289315	0.196811
490.657222	0.191690
491.025070	0.193153
491.392861	0.195041
491.760593	0.200687
492.128267	0.206634
492.495883	0.211943
492.863440	0.218278
493.230939	0.224804
493.598380	0.226061
493.965763	0.228177
494.333088	0.230165
494.700354	0.231856
495.067563	0.230978
495.434713	0.234621
495.801805	0.232066
496.168839	0.233413
496.535815	0.235134
496.902733	0.235031
497.269593	0.236626
497.636395	0.234115
498.003139	0.234537
498.369825	0.237626
498.736453	0.234062
499.103023	0.235625
499.469535	0.234972
499.835989	0.235620
500.202385	0.236112
500.568723	0.239463
500.935003	0.234533
501.301226	0.238704
501.667390	0.233021
502.033497	0.231226
502.399546	0.234127
502.765537	0.235908
503.131470	0.234667
503.497345	0.230941
503.863163	0.239435
504.228923	0.232436
504.594625	0.231213
504.960269	0.236667
505.325856	0.232091
505.691385	0.236229
506.056856	0.232899
506.422270	0.232451
506.787625	0.234961
507.152924	0.232487
507.518164	0.232862
507.883347	0.234266
508.248472	0.236093
508.613540	0.230990
508.978550	0.233543
509.343503	0.234267
509.708398	0.231861
510.073236	0.229324
510.438016	0.228943
510.802738	0.230262
511.167403	0.229185
511.532010	0.231353
511.896561	0.226675
512.261053	0.225058
512.625488	0.227410
512.989866	0.227855
513.354186	0.228077
513.718449	0.229754
514.082655	0.226147
514.446803	0.228439
514.810894	0.225970
515.174927	0.228893
515.538904	0.228367
515.902822	0.225175
516.266684	0.227627
516.630488	0.228721
516.994235	0.227781
517.357925	0.226179
517.721558	0.224737
518.085133	0.224196
518.448651	0.224365
518.812112	0.226499
519.175516	0.226213
519.538863	0.223434
519.902152	0.225459
520.265385	0.222371
520.628560	0.224138
520.991678	0.224167
521.354739	0.223205
521.717743	0.224598
522.080690	0.224805
522.443580	0.222177
522.806413	0.223042
523.169189	0.222853
523.531908	0.221448
523.894569	0.224962
524.257174	0.224989
524.619722	0.222546
524.982213	0.223528
525.344647	0.222679
525.707025	0.223582
526.069345	0.221642
526.431608	0.223575
526.793815	0.221257
527.155964	0.225374
527.518057	0.224498
527.880093	0.225540
528.242072	0.223765
528.603995	0.225994
528.965860	0.227849
529.327669	0.226630
529.689421	0.227560
530.051117	0.228511
530.412755	0.226237
530.774337	0.228539
531.135862	0.228828
531.497331	0.228100
531.858743	0.231056
532.220098	0.227586
532.581396	0.230097
532.942638	0.230854
533.303824	0.232029
533.664953	0.231508
534.026025	0.233464
534.387040	0.231290
534.747999	0.231122
535.108902	0.230196
535.469748	0.235457
535.830537	0.233086
536.191270	0.233548
536.551947	0.232998
536.912567	0.232926
537.273131	0.234644
537.633638	0.235246
537.994089	0.235632
538.354483	0.236389
538.714821	0.233401
539.075103	0.233130
539.435328	0.233870
539.795497	0.237749
540.155609	0.234424
540.515665	0.232599
540.875665	0.238240
541.235609	0.236860
541.595496	0.236690
541.955328	0.233363
542.315102	0.236170
542.674821	0.237213
543.034483	0.237421
543.394090	0.237031
543.753640	0.238728
544.113134	0.233797
544.472571	0.237240
544.831953	0.234235
545.191278	0.238167
545.550548	0.237628
545.909761	0.234610
546.268918	0.235280
546.628019	0.233821
546.987064	0.236231
547.346053	0.238002
547.704986	0.235960
548.063863	0.235868
548.422684	0.236372
548.781449	0.238371
549.140158	0.236091
549.498811	0.238883
549.857408	0.241693
550.215949	0.236376
550.574434	0.239874
550.932864	0.238099
551.291237	0.236416
551.649555	0.237783
552.007817	0.237798
552.366022	0.238687
552.724173	0.238614
553.082267	0.238756
553.440305	0.235735
553.798288	0.239989
554.156215	0.237098
554.514086	0.237416
554.871902	0.240946
555.229661	0.239726
555.587365	0.240300
555.945014	0.243070
556.302606	0.239919
556.660143	0.242355
557.017625	0.238639
557.375050	0.241273
557.732421	0.238405
558.089735	0.240087
558.446994	0.240162
558.804197	0.239471
559.161345	0.239221
559.518437	0.242551
559.875474	0.240790
560.232455	0.240100
560.589381	0.241128
560.946251	0.241612
561.303065	0.238838
561.659825	0.240364
562.016528	0.241946
562.373177	0.244320
562.729770	0.241736
563.086307	0.243881
563.442789	0.241663
563.799216	0.244299
564.155587	0.243481
564.511904	0.244670
564.868164	0.244378
565.224370	0.244298
565.580520	0.246125
565.936615	0.245884
566.292654	0.249089
566.648638	0.246190
567.004567	0.246752
567.360441	0.247491
567.716260	0.249325
568.072023	0.247081
568.427732	0.248064
568.783385	0.250407
569.138982	0.248573
569.494525	0.248148
569.850013	0.251310
570.205445	0.249373
570.560823	0.251956
570.916145	0.254013
571.271412	0.252189
571.626625	0.253910
571.981782	0.254132
572.336884	0.255140
572.691931	0.254614
573.046923	0.256316
573.401860	0.257368
573.756743	0.259089
574.111570	0.257519
574.466342	0.258514
574.821059	0.257469
575.175722	0.260438
575.530330	0.259918
575.884882	0.260255
576.239380	0.262149
576.593823	0.262623
576.948211	0.262469
577.302544	0.265578
577.656823	0.265409
578.011047	0.265094
578.365216	0.265880
578.719330	0.268126
579.073389	0.267471
579.427394	0.268974
579.781344	0.269763
580.135239	0.271087
580.489080	0.270542
580.842866	0.273626
581.196597	0.273800
581.550273	0.272378
581.903895	0.273498
582.257463	0.271586
582.610975	0.274704
582.964434	0.274242
583.317837	0.276509
583.671186	0.276947
584.024481	0.276937
584.377721	0.279554
584.730906	0.280149
585.084037	0.279528
585.437113	0.281648
585.790135	0.280725
586.143103	0.283757
586.496016	0.284696
586.848874	0.282551
587.201679	0.283304
587.554428	0.286287
587.907124	0.285244
588.259765	0.285842
588.612352	0.286511
588.964884	0.290210
589.317362	0.289637
589.669786	0.289950
590.022155	0.288135
590.374470	0.287600
590.726731	0.289418
591.078937	0.294576
591.431090	0.290900
591.783188	0.295014
592.135232	0.295143
592.487222	0.295164
592.839157	0.293759
593.191038	0.296136
593.542866	0.297525
593.894639	0.301013
594.246358	0.299419
594.598022	0.299057
594.949633	0.302366
595.301190	0.303361
595.652692	0.302293
596.004141	0.298410
596.355535	0.306313
596.706876	0.307087
597.058162	0.309711
597.409395	0.306651
597.760573	0.304480
598.111698	0.307558
598.462768	0.308173
598.813785	0.309627
599.164748	0.310683
599.515657	0.310708
599.866511	0.314564
600.217312	0.309712
600.568060	0.315022
600.918753	0.311470
601.269392	0.312252
601.619978	0.315806
601.970510	0.313491
602.320988	0.313411
602.671412	0.311359
603.021783	0.313498
603.372100	0.315307
603.722363	0.314737
604.072572	0.315905
604.422728	0.315321
604.772830	0.317388
605.122878	0.317600
605.472872	0.317833
605.822813	0.316166
606.172701	0.318989
606.522534	0.316184
606.872314	0.316419
607.222041	0.317600
607.571714	0.315337
607.921333	0.316896
608.270899	0.316603
608.620411	0.313459
608.969870	0.317362
609.319276	0.317409
609.668627	0.317245
610.017926	0.315742
610.367171	0.314581
610.716362	0.314969
611.065500	0.315636
611.414585	0.314377
611.763616	0.314410
612.112594	0.315393
612.461518	0.314313
612.810389	0.312045
613.159207	0.314670
613.507971	0.316504
613.856682	0.312535
614.205340	0.313521
614.553945	0.310851
614.902496	0.314536
615.250994	0.312759
615.599439	0.313298
615.947830	0.312711
616.296169	0.314157
616.644454	0.313672
616.992686	0.313626
617.340864	0.311670
617.688990	0.314905
618.037063	0.311681
618.385082	0.313478
618.733048	0.310631
619.080961	0.312893
619.428821	0.312672
619.776628	0.312142
620.124382	0.314587
620.472083	0.314956
620.819731	0.314130
621.167326	0.318158
621.514868	0.318057
621.862357	0.322342
622.209793	0.321499
622.557176	0.324557
622.904506	0.325071
623.251783	0.327792
623.599007	0.330031
623.946179	0.329562
624.293297	0.331869
624.640363	0.335669
624.987376	0.336323
625.334336	0.339056
625.681243	0.341110
626.028097	0.341814
626.374899	0.342944
626.721647	0.343486
627.068343	0.346563
627.414987	0.347751
627.761577	0.349783
628.108115	0.348212
628.454600	0.353370
628.801032	0.351343
629.147412	0.353447
629.493739	0.354095
629.840014	0.357066
630.186236	0.354708
630.532405	0.360296
630.878521	0.357767
631.224585	0.360292
631.570597	0.364000
631.916556	0.362938
632.262462	0.362698
632.608316	0.365510
632.954117	0.366282
633.299866	0.367008
633.645562	0.367953
633.991206	0.372048
634.336797	0.374905
634.682336	0.377716
635.027823	0.379447
635.373257	0.380082
635.718639	0.383692
636.063968	0.383326
636.409245	0.389020
636.754470	0.389568
637.099642	0.392266
637.444762	0.395365
637.789829	0.395126
638.134845	0.398359
638.479808	0.399539
638.824719	0.399993
639.169577	0.403816
639.514383	0.403154
639.859137	0.407863
640.203839	0.407140
640.548489	0.408503
640.893086	0.409691
641.237632	0.412046
641.582125	0.410804
641.926566	0.413192
642.270955	0.412835
642.615292	0.413036
642.959576	0.412785
643.303809	0.413613
643.647990	0.413798
643.992118	0.414503
644.336195	0.417977
644.680219	0.417005
645.024192	0.417481
645.368112	0.411980
645.711981	0.411360
646.055797	0.406946
646.399562	0.409780
646.743274	0.403736
647.086935	0.400731
647.430544	0.401704
647.774101	0.401243
648.117606	0.401224
648.461059	0.401715
648.804460	0.404644
649.147810	0.409498
649.491108	0.411990
649.834354	0.413908
650.177548	0.418971
650.520690	0.424734
650.863781	0.426426
651.206820	0.425725
651.549807	0.430985
651.892742	0.435577
652.235626	0.435712
652.578458	0.436439
652.921238	0.443802
653.263967	0.441266
653.606644	0.445242
653.949269	0.446026
654.291843	0.449579
654.634365	0.447427
654.976836	0.451153
655.319255	0.451713
655.661622	0.454327
656.003938	0.454945
656.346203	0.457282
656.688416	0.456310
657.030577	0.459976
657.372687	0.462507
657.714746	0.463311
658.056753	0.461316
658.398708	0.465250
658.740612	0.466848
659.082465	0.464094
659.424266	0.465007
659.766016	0.465055
660.107715	0.469123
660.449362	0.468565
660.790958	0.469408
661.132503	0.470919
661.473996	0.469309
661.815438	0.470840
662.156829	0.471147
662.498168	0.473033
662.839456	0.473811
663.180693	0.472892
663.521879	0.473137
663.863013	0.474507
664.204097	0.474701
664.545129	0.471911
664.886110	0.473332
665.227040	0.472001
665.567918	0.474383
665.908746	0.473799
666.249522	0.474353
666.590248	0.475496
666.930922	0.474423
667.271545	0.474778
667.612118	0.475257
667.952639	0.477298
668.293109	0.477368
668.633528	0.480222
668.973896	0.480340
669.314213	0.481351
669.654480	0.485162
669.994695	0.484901
670.334859	0.485439
670.674973	0.487955
671.015035	0.487762
671.355047	0.489179
671.695008	0.490681
672.034918	0.492408
672.374777	0.493408
672.714585	0.495430
673.054342	0.496640
673.394049	0.496828
673.733705	0.496492
674.073310	0.499129
674.412864	0.500614
674.752368	0.502692
675.091820	0.503121
675.431223	0.508191
675.770574	0.508833
676.109875	0.512189
676.449125	0.512338
676.788324	0.515240
677.127473	0.521382
677.466571	0.521185
677.805619	0.523853
678.144616	0.526050
678.483562	0.528023
678.822458	0.531099
679.161303	0.532173
679.500098	0.533808
679.838842	0.535932
680.177535	0.536661
680.516179	0.535624
680.854771	0.536256
681.193314	0.531174
681.531805	0.524899
681.870247	0.518054
682.208638	0.512705
682.546978	0.511979
682.885268	0.514329
683.223508	0.520723
683.561697	0.524818
683.899836	0.528176
684.237925	0.531968
684.575963	0.535017
684.913951	0.537852
685.251889	0.536912
685.589776	0.538199
685.927614	0.540256
686.265401	0.538223
686.603137	0.539721
686.940824	0.536479
687.278460	0.536328
687.616046	0.537327
687.953582	0.534339
688.291068	0.535832
688.628504	0.535251
688.965889	0.537103
689.303224	0.540085
689.640510	0.545458
689.977745	0.550686
690.314930	0.557578
690.652065	0.561606
690.989150	0.568388
691.326185	0.575128
691.663170	0.580794
692.000105	0.586597
692.336990	0.591872
692.673825	0.596565
693.010610	0.601320
693.347345	0.605789
693.684030	0.610276
694.020665	0.614403
694.357251	0.620274
694.693786	0.622131
695.030272	0.625029
695.366707	0.629672
695.703093	0.631902
696.039429	0.631648
696.375716	0.636599
696.711952	0.637764
697.048139	0.639331
697.384276	0.642186
697.720363	0.641714
698.056400	0.642521
698.392388	0.647425
698.728326	0.649409
699.064214	0.652123
699.400053	0.653223
699.735842	0.659206
700.071581	0.660990
700.407270	0.663264
700.742910	0.667051
701.078501	0.671091
701.414042	0.674114
701.749533	0.676899
702.084974	0.682993
702.420366	0.679986
702.755709	0.685882
703.091002	0.691519
703.426246	0.690053
703.761440	0.691476
704.096584	0.695254
704.431679	0.695271
704.766725	0.698298
705.101721	0.700916
705.436668	0.699551
705.771565	0.702697
706.106413	0.700002
706.441212	0.701979
706.775961	0.701889
707.110661	0.701527
707.445311	0.698896
707.779913	0.701307
708.114465	0.699504
708.448967	0.696010
708.783421	0.692714
709.117825	0.689895
709.452180	0.689730
709.786485	0.685649
710.120742	0.678778
710.454949	0.680594
710.789107	0.676690
711.123216	0.671199
711.457275	0.671390
711.791286	0.667726
712.125247	0.669519
712.459159	0.672540
712.793023	0.667290
713.126837	0.677202
713.460602	0.677321
713.794318	0.679889
714.127985	0.682315
714.461602	0.691995
714.795171	0.692500
715.128691	0.699048
715.462162	0.706581
715.795584	0.712197
716.128957	0.715081
716.462281	0.717163
716.795556	0.721792
717.128782	0.727685
717.461960	0.734949
717.795088	0.734303
718.128167	0.739485
718.461198	0.743345
718.794180	0.745268
719.127113	0.749871
719.459997	0.752667
719.792833	0.755797
720.125619	0.756755
720.458357	0.762294
720.791046	0.764031
721.123686	0.766138
721.456278	0.771018
721.788821	0.770145
722.121315	0.774579
722.453761	0.776287
722.786158	0.777389
723.118506	0.775991
723.450805	0.778291
723.783056	0.777667
724.115259	0.779360
724.447412	0.779601
724.779518	0.778067
725.111574	0.778174
725.443582	0.776692
725.775542	0.778909
726.107453	0.774968
726.439315	0.775702
726.771129	0.772991
727.102895	0.769277
727.434612	0.767129
727.766281	0.765775
728.097901	0.764655
728.429473	0.765446
728.760996	0.765728
729.092471	0.765622
729.423897	0.769556
729.755276	0.770974
730.086606	0.770521
730.417887	0.765877
730.749120	0.762860
731.080305	0.760025
731.411442	0.756544
731.742530	0.758172
732.073570	0.758687
732.404562	0.756992
732.735506	0.758119
733.066401	0.759914
733.397249	0.766665
733.728048	0.774345
734.058798	0.785107
734.389501	0.793387
734.720156	0.797374
735.050762	0.803108
735.381320	0.806592
735.711831	0.808524
736.042293	0.812784
736.372707	0.813219
736.703073	0.815378
737.033391	0.814475
737.363661	0.814981
737.693883	0.814727
738.024056	0.811893
738.354182	0.811585
738.684260	0.806672
739.014290	0.804930
739.344272	0.803931
739.674207	0.802568
740.004093	0.800925
740.333931	0.801445
740.663722	0.803070
740.993464	0.803946
741.323159	0.805486
741.652806	0.811263
741.982405	0.813763
742.311956	0.818662
742.641460	0.819347
742.970915	0.823221
743.300323	0.826349
743.629683	0.829987
743.958996	0.834593
744.288260	0.836833
744.617477	0.840696
744.946647	0.842008
745.275768	0.847163
745.604842	0.847880
745.933869	0.849788
746.262847	0.852591
746.591778	0.851627
746.920662	0.853794
747.249498	0.857117
747.578286	0.855498
747.907027	0.851869
748.235720	0.849235
748.564365	0.849898
748.892963	0.851464
749.221514	0.852771
749.550017	0.852861
749.878473	0.855664
750.206881	0.860443
750.535242	0.860728
750.863555	0.861291
751.191821	0.862525
751.520039	0.862609
751.848210	0.863819
752.176334	0.863787
752.504411	0.864981
752.832440	0.867563
753.160421	0.868257
753.488356	0.869210
753.816243	0.868847
754.144082	0.872490
754.471875	0.874571
754.799620	0.873820
755.127318	0.874017
755.454969	0.875009
755.782572	0.876446
756.110129	0.875485
756.437638	0.878005
756.765100	0.878013
757.092515	0.876473
757.419882	0.877559
757.747203	0.878784
758.074477	0.878697
758.401703	0.877790
758.728882	0.876725
759.056014	0.876966
759.383099	0.875538
759.710138	0.874168
760.037129	0.872417
760.364073	0.873813
760.690970	0.874340
761.017820	0.874650
761.344623	0.874841
761.671379	0.873090
761.998088	0.868282
762.324751	0.858271
762.651366	0.835869
762.977935	0.798457
763.304456	0.776159
763.630931	0.776305
763.957359	0.794558
764.283740	0.816748
764.610074	0.834208
764.936362	0.849921
765.262602	0.860813
765.588796	0.871024
765.914943	0.879710
766.241044	0.887475
766.567097	0.890280
766.893104	0.896063
767.219064	0.898027
767.544978	0.903128
767.870845	0.906809
768.196665	0.909329
768.522438	0.910930
768.848165	0.912126
769.173846	0.915213
769.499479	0.917700
769.825066	0.919442
770.150607	0.921827
770.476101	0.920999
770.801548	0.922593
771.126949	0.925538
771.452303	0.927092
771.777611	0.929732
772.102872	0.929118
772.428087	0.930473
772.753256	0.931718
773.078378	0.932967
773.403453	0.936129
773.728482	0.939616
774.053465	0.937526
774.378401	0.938402
774.703291	0.941416
775.028135	0.942277
775.352932	0.941143
775.677683	0.944515
776.002388	0.944178
776.327046	0.944601
776.651658	0.947426
776.976224	0.947274
777.300743	0.947070
777.625216	0.947853
777.949643	0.949826
778.274024	0.949163
778.598359	0.950510
778.922647	0.950175
779.246889	0.950903
779.571086	0.951061
779.895236	0.952226
780.219339	0.952537
780.543397	0.950908
780.867409	0.951249
781.191374	0.950700
781.515294	0.952121
781.839167	0.952413
782.162995	0.952264
782.486776	0.951412
782.810511	0.953318
783.134201	0.955773
783.457844	0.955074
783.781441	0.955846
784.104993	0.957942
784.428498	0.956818
784.751958	0.958423
785.075372	0.958857
785.398739	0.958838
785.722061	0.958498
786.045337	0.957258
786.368568	0.957638
786.691752	0.958219
787.014891	0.955569
787.337983	0.951069
787.661030	0.946559
787.984031	0.940414
788.306987	0.936991
788.629897	0.936113
788.952760	0.940993
789.275579	0.944125
789.598351	0.948582
789.921078	0.954232
790.243759	0.955430
790.566395	0.957070
790.888984	0.959654
791.211529	0.961474
791.534027	0.962492
791.856480	0.964120
792.178888	0.964588
792.501249	0.965362
792.823566	0.968045
793.145836	0.966715
793.468062	0.967905
793.790241	0.969186
794.112375	0.966392
794.434464	0.966260
794.756507	0.965818
795.078505	0.964623
795.400457	0.962734
795.722364	0.959926
796.044226	0.956055
796.366042	0.954709
796.687812	0.955042
797.009538	0.955481
797.331218	0.958922
797.652852	0.960755
797.974442	0.961904
798.295986	0.962829
798.617484	0.962917
798.938938	0.965359
799.260346	0.966433
799.581709	0.966157
799.903026	0.968461
800.224299	0.968056
800.545526	0.969495
800.866708	0.970599
801.187845	0.971399
801.508936	0.971287
801.829983	0.970751
802.150984	0.973455
802.471940	0.973534
802.792851	0.973735
803.113717	0.973858
803.434538	0.974659
803.755314	0.975155
804.076045	0.975455
804.396731	0.974612
804.717372	0.973666
805.037967	0.976096
805.358518	0.974138
805.679024	0.972882
805.999485	0.973508
806.319901	0.974510
806.640272	0.974376
806.960598	0.973583
807.280879	0.973236
807.601115	0.972866
807.921306	0.973603
808.241453	0.973663
808.561554	0.973477
808.881611	0.973723
809.201623	0.973955
809.521590	0.973729
809.841513	0.975988
810.161390	0.973893
810.481223	0.974844
810.801011	0.976172
811.120755	0.977564
811.440453	0.977256
811.760107	0.977764
812.079716	0.977496
812.399281	0.978822
812.718801	0.978243
813.038276	0.978687
813.357707	0.979372
813.677093	0.979617
813.996434	0.980428
814.315731	0.981474
814.634983	0.980528
814.954191	0.980688
815.273354	0.979120
815.592473	0.978435
815.911547	0.979126
816.230577	0.977885
816.549562	0.977702
816.868502	0.977064
817.187399	0.978253
817.506250	0.977379
817.825058	0.976166
818.143821	0.976897
818.462539	0.975078
818.781213	0.973420
819.099843	0.971154
819.418429	0.965268
819.736970	0.961456
820.055466	0.955756
820.373919	0.952338
820.692327	0.945664
821.010691	0.936655
821.329011	0.909602
821.647286	0.860112
821.965517	0.810688
822.283704	0.791016
822.601847	0.796564
822.919945	0.819800
823.237999	0.844492
823.556010	0.866141
823.873976	0.883423
824.191897	0.900432
824.509775	0.913913
824.827609	0.925464
825.145398	0.931564
825.463144	0.932115
825.780845	0.929130
826.098502	0.922587
826.416116	0.910046
826.733685	0.894909
827.051210	0.890751
827.368692	0.898097
827.686129	0.911710
828.003522	0.927847
828.320872	0.938784
828.638177	0.948759
828.955439	0.957124
829.272656	0.961913
829.589830	0.965870
829.906960	0.970288
830.224046	0.973556
830.541088	0.974872
830.858086	0.977187
831.175041	0.978777
831.491952	0.977558
831.808819	0.977774
832.125642	0.977943
832.442421	0.975682
832.759157	0.968983
833.075849	0.956676
833.392497	0.942435
833.709101	0.933033
834.025662	0.933912
834.342179	0.943070
834.658653	0.953921
834.975083	0.962517
835.291469	0.967976
835.607811	0.972329
835.924110	0.975769
836.240366	0.980191
836.556578	0.982101
836.872746	0.984460
837.188871	0.985437
837.504952	0.985919
837.820990	0.987708
838.136984	0.987540
838.452935	0.988258
838.768842	0.989067
839.084706	0.987579
839.400526	0.982314
839.716303	0.971482
840.032037	0.966524
840.347727	0.967457
840.663373	0.973009
840.978977	0.978749
841.294537	0.983215
841.610054	0.985759
841.925527	0.989036
842.240957	0.989800
842.556344	0.990553
842.871687	0.991870
843.186987	0.992511
843.502244	0.993352
843.817458	0.993354
844.132629	0.993475
844.447756	0.994190
844.762840	0.994858
845.077881	0.995161
845.392879	0.994158
845.707833	0.993939
846.022745	0.994280
846.337613	0.996467
846.652438	0.995723
846.967221	0.995175
847.281960	0.995892
847.596656	0.996826
847.911309	0.995544
848.225919	0.994269
848.540485	0.996411
848.855009	0.996432
849.169490	0.995781
849.483928	0.996196
849.798323	0.995326
850.112675	0.996607
850.426984	0.996751
850.741251	0.996386
851.055474	0.995407
851.369654	0.996078
851.683792	0.996295
851.997887	0.995711
852.311938	0.996234
852.625947	0.995164
852.939914	0.994952
853.253837	0.996740
853.567718	0.997187
853.881555	0.996482
854.195350	0.997777
854.509103	0.996553
854.822812	0.996362
855.136479	0.996385
855.450103	0.996966
855.763685	0.996230
856.077224	0.995677
856.390720	0.996938
856.704173	0.996343
857.017584	0.997400
857.330953	0.995723
857.644278	0.996316
857.957561	0.995828
858.270802	0.996635
858.584000	0.996321
858.897155	0.994884
859.210268	0.995797
859.523339	0.995868
859.836367	0.997011
860.149352	0.996105
860.462295	0.996085
860.775195	0.997589
861.088054	0.995782
861.400869	0.996835
861.713642	0.996296
862.026373	0.995719
862.339062	0.997353
862.651708	0.996594
862.964312	0.996050
863.276873	0.996439
863.589392	0.996411
863.901869	0.995196
864.214303	0.996291
864.526696	0.995811
864.839045	0.995041
865.151353	0.994931
865.463619	0.995029
865.775842	0.995269
866.088023	0.996844
866.400162	0.994543
866.712258	0.996662
867.024313	0.995821
867.336325	0.995802
867.648296	0.994706
867.960224	0.995708
868.272110	0.995360
868.583954	0.995197
868.895755	0.996610
869.207515	0.995987
869.519233	0.995789
869.830909	0.993584
870.142542	0.993756
870.454134	0.995086
870.765684	0.994856
871.077191	0.995163
871.388657	0.995193
871.700081	0.996098
872.011463	0.995354
872.322803	0.994366
872.634101	0.992820
872.945357	0.994557
873.256571	0.992808
873.567744	0.993842
873.878874	0.993397
874.189963	0.993195
874.501010	0.995905
874.812015	0.993972
875.122979	0.993703
875.433900	0.992656
875.744780	0.993794
876.055618	0.992837
876.366415	0.992944
876.677169	0.993160
876.987882	0.992788
877.298554	0.994719
877.609183	0.993476
877.919771	0.992902
878.230317	0.993362
878.540822	0.989295
878.851285	0.990796
879.161707	0.989608
879.472087	0.988558
879.782425	0.983798
880.092722	0.979261
880.402977	0.968432
880.713191	0.951780
881.023363	0.931028
881.333494	0.918828
881.643583	0.916115
881.953631	0.919461
882.263637	0.926159
882.573602	0.935525
882.883526	0.942719
883.193408	0.951564
883.503248	0.956809
883.813048	0.962506
884.122806	0.968434
884.432522	0.972377
884.742197	0.976716
885.051831	0.978823
885.361424	0.981816
885.670975	0.985154
885.980485	0.985333
886.289954	0.987677
886.599382	0.986228
886.908768	0.989192
887.218113	0.989195
887.527417	0.991553
887.836680	0.992177
888.145901	0.992163
888.455082	0.993207
888.764221	0.993643
889.073319	0.992943
889.382376	0.994092
889.691392	0.993230
890.000366	0.994048
890.309300	0.993224
890.618193	0.993718
890.927044	0.992798
891.235855	0.991945
891.544625	0.992977
891.853353	0.993306
892.162041	0.992397
892.470687	0.992556
892.779293	0.989591
893.087858	0.988543
893.396381	0.987938
893.704864	0.985347
894.013306	0.980871
894.321707	0.976434
894.630068	0.972606
894.938387	0.970950
895.246665	0.971932
895.554903	0.974375
895.863100	0.978789
896.171256	0.981158
896.479371	0.983143
896.787446	0.986409
897.095480	0.987239
897.403473	0.988673
897.711425	0.989186
898.019336	0.990122
898.327207	0.991572
898.635038	0.990792
898.942827	0.991803
899.250576	0.993150
899.558284	0.993543
899.865952	0.992959
900.173579	0.993028
900.481165	0.993816
900.788711	0.993466
901.096216	0.995575
901.403681	0.994624
901.711105	0.994263
902.018489	0.995108
902.325832	0.995138
902.633135	0.994102
902.940397	0.994121
903.247619	0.991620
903.554800	0.987482
903.861941	0.978719
904.169041	0.970106
904.476101	0.966808
904.783121	0.966436
905.090100	0.968358
905.397039	0.973361
905.703938	0.978242
906.010796	0.983553
906.317614	0.986004
906.624391	0.989226
906.931129	0.991586
907.237826	0.992354
907.544483	0.993223
907.851099	0.993797
908.157675	0.994613
908.464211	0.996313
908.770707	0.995034
909.077163	0.996525
909.383578	0.997081
909.689954	0.996560
909.996289	0.997471
910.302584	0.996848
910.608839	0.998367
910.915054	0.997785
911.221229	0.998663
911.527363	0.995879
911.833458	0.997090
912.139513	0.997247
912.445527	0.997936
912.751502	0.997151
913.057436	0.996581
913.363331	0.997014
913.669186	0.995917
913.975000	0.994762
914.280775	0.993669
914.586510	0.990995
914.892205	0.987339
915.197859	0.984748
915.503475	0.979784
915.809050	0.976297
916.114585	0.971282
916.420081	0.971425
916.725536	0.972216
917.030952	0.973617
917.336328	0.976842
917.641665	0.978499
917.946961	0.981846
918.252218	0.984165
918.557435	0.985827
918.862612	0.988206
919.167750	0.989148
919.472848	0.991687
919.777906	0.994133
920.082925	0.993062
920.387904	0.994180
920.692843	0.993633
920.997743	0.993846
921.302603	0.996134
921.607423	0.994648
921.912204	0.996105
922.216946	0.997122
922.521647	0.995785
922.826310	0.995943
923.130932	0.997276
923.435516	0.997448
923.740059	0.997782
924.044564	0.996115
924.349028	0.997594
924.653454	0.997901
924.957840	0.999069
925.262186	0.998348
925.566493	0.997332
925.870761	0.998660
926.174989	0.997780
926.479178	1.000263
926.783328	0.999499
927.087438	0.999963
927.391509	0.999048
927.695541	0.998914
927.999533	0.999644
928.303486	0.998879
928.607400	0.999832
928.911275	1.000560
929.215110	1.000217
929.518906	1.000829
929.822663	1.000438
930.126381	1.000900
930.430060	0.999141
930.733699	1.000168
931.037299	1.000051
931.340861	1.000637
931.644383	0.999055
931.947866	1.000580
932.251309	0.998861
932.554714	0.999911
932.858080	1.000134
933.161407	0.999372
933.464694	1.000947
933.767943	0.999594
934.071153	0.999754
934.374323	1.000722
934.677455	1.000204
934.980548	0.999329
935.283602	1.000829
935.586617	1.000198
935.889593	1.000296
936.192530	1.000988
936.495428	1.000685
936.798287	0.999720
937.101108	0.999015
937.403890	0.999811
937.706632	1.000524
938.009336	0.999130
938.312002	0.997943
938.614628	0.999261
938.917216	0.998628
939.219765	0.997028
939.522275	0.997705
939.824747	0.998547
940.127179	0.998057
940.429573	1.000027
940.731929	0.997986
941.034246	0.999369
941.336524	0.997498
941.638763	0.999512
941.940964	0.997837
942.243126	0.999295
942.545250	0.999579
942.847335	1.000282
943.149381	0.999363
943.451389	0.998660
943.753359	0.998979
944.055290	0.999511
944.357182	0.999275
944.659036	0.998764
944.960851	0.999584
945.262628	0.999919
945.564367	0.999953
945.866067	1.000140
946.167729	0.999444
946.469352	0.999758
946.770937	0.998569
947.072484	1.000853
947.373992	1.000008
947.675462	1.000139
947.976893	0.998796
948.278286	1.000580
948.579641	1.002215
948.880958	0.999824
949.182236	1.000011
949.483476	1.000372
949.784678	1.000609
950.085841	1.000276
950.386967	0.999367
950.688054	1.000820
950.989103	0.999111
951.290114	0.999008
951.591087	0.999773
951.892021	0.999795
952.192917	0.999640
952.493776	1.000035
952.794596	0.998872
953.095378	0.998685
953.396122	0.999198
953.696828	1.000688
953.997496	1.000064
954.298126	1.000360
954.598718	0.998224
954.899272	1.001479
955.199788	0.998948
955.500266	1.001183
955.800706	1.000309
956.101108	1.000036
956.401472	1.002071
956.701798	1.000518
957.002087	1.000705
957.302337	1.000535
957.602550	1.000497
957.902724	1.001654
958.202861	1.000853
958.502960	1.001520
958.803022	1.001477
959.103045	1.001210
959.403031	1.002872
959.702979	1.002124
960.002889	1.001414
960.302762	1.001294
960.602596	1.001960
960.902393	1.002147
961.202153	1.001159
961.501875	1.001674
961.801559	1.002795
962.101205	1.001402
962.400814	1.001998
962.700385	1.002393
962.999918	1.002481
963.299414	1.001123
963.598873	1.001879
963.898293	1.001519
964.197677	1.000605
964.497022	1.001893
964.796331	1.002989
965.095601	1.002714
965.394835	1.001444
965.694030	1.002742
965.993189	1.001801
966.292309	1.002400
966.591393	1.000480
966.890439	1.003131
967.189447	1.001608
967.488419	1.001092
967.787353	1.002480
968.086249	1.001954
968.385108	1.001615
968.683930	1.003510
968.982714	1.001831
969.281462	1.002123
969.580172	1.001781
969.878844	1.003388
970.177480	1.001255
970.476078	1.003455
970.774639	1.002477
971.073162	1.001635
971.371649	1.001366
971.670098	1.001910
971.968510	1.002631
972.266885	1.001165
972.565223	1.001424
972.863524	1.000572
973.161788	1.000868
973.460014	1.002353
973.758204	1.001742
974.056356	1.001550
974.354471	1.002168
974.652550	1.002134
974.950591	1.002016
975.248595	1.002126
975.546563	1.004012
975.844493	1.003056
976.142386	1.002008
976.440243	1.002341
976.738062	1.002363
977.035845	1.000741
977.333590	1.002730
977.631299	1.001548
977.928971	1.001463
978.226606	1.001068
978.524204	1.001503
978.821765	1.002605
979.119290	1.004034
979.416777	1.002328
979.714228	1.002537
980.011642	1.002849
980.309020	1.000988
980.606360	1.000761
980.903664	1.002042
981.200931	1.002266
981.498162	1.001753
981.795356	1.001293
982.092513	1.002877
982.389633	1.001730
982.686717	1.000076
982.983764	1.000393
983.280775	1.001944
983.577749	1.001760
983.874686	1.000842
984.171587	1.001212
984.468451	1.000484
984.765279	1.001700
985.062070	1.002589
985.358824	1.000404
985.655543	1.002260
985.952224	1.003270
986.248869	1.002401
986.545478	1.003623
986.842050	1.002121
987.138586	1.000857
987.435086	1.000797
987.731549	1.002520
988.027975	1.003350
988.324366	1.002428
988.620719	1.003556
988.917037	1.002344
989.213318	1.003593
989.509563	1.002227
989.805772	1.002193
990.101944	1.002704
990.398080	1.002722
990.694180	1.003527
990.990244	1.001889
991.286271	1.002708
991.582262	1.002786
991.878217	1.002555
992.174136	1.003450
992.470019	1.001992
992.765865	1.004888
993.061676	1.004091
993.357450	1.002464
993.653188	1.003193
993.948890	1.001994
994.244556	1.002017
994.540186	1.001964
994.835780	1.002647
995.131337	1.003179
995.426859	1.002633
995.722345	1.002507
996.017795	1.001681
996.313208	1.001324
996.608586	1.001434
996.903928	1.002390
997.199234	1.001739
997.494504	1.002171
997.789738	1.000438
998.084936	1.002486
998.380099	1.001683
998.675225	1.003824
998.970316	1.003087
999.265371	1.002827
999.560390	1.002964
999.855373	1.002562
1000.150320	1.002868
1000.445232	1.003120
1000.740108	1.003810
1001.034948	1.002016
1001.329752	1.003468
1001.624521	1.003110
1001.919254	1.002084
1002.213951	1.002933
1002.508613	1.002081
1002.803239	1.002927
1003.097829	1.004571
1003.392384	1.003171
1003.686903	1.002326
1003.981386	1.002261
1004.275834	1.004936
1004.570246	1.003230
1004.864623	1.003196
1005.158964	1.004177
1005.453270	1.002231
1005.747540	1.003040
1006.041775	1.003945
1006.335974	1.003328
1006.630138	1.003991
1006.924266	1.002165
1007.218359	1.001893
1007.512416	1.002764
1007.806438	1.004590
1008.100425	1.003497
1008.394376	1.003056
1008.688292	1.002632
1008.982172	1.001533
1009.276017	1.005021
1009.569827	1.003042
1009.863602	1.001977
1010.157341	1.003961
1010.451045	1.002464
1010.744714	1.004936
1011.038347	1.002928
1011.331945	1.002495
1011.625508	1.003206
1011.919036	1.002889
1012.212528	1.002654
1012.505986	1.003623
1012.799408	1.004262
1013.092795	1.003657
1013.386147	1.003118
1013.679464	1.004495
1013.972745	1.002708
1014.265992	1.003631
1014.559204	1.003174
1014.852380	1.002883
1015.145521	1.003978
1015.438628	1.002914
1015.731699	1.001689
1016.024736	1.004233
1016.317737	1.002885
1016.610703	1.003690
1016.903635	1.003860
1017.196531	1.001180
1017.489393	1.003190
1017.782219	1.003235
1018.075011	1.003318
1018.367768	1.003222
1018.660490	1.003439
1018.953177	1.003439
1019.245829	1.003439
