Dividing Wavelength (nm)	Counts (n)	Blue Motor Position (mm): 5.000000	Red Motor Position (mm): 0.000000	
326.493990	1.004895
326.888308	1.004895
327.282561	1.004895
327.676750	1.006684
328.070874	1.006591
328.464933	1.006966
328.858929	1.006071
329.252859	1.006221
329.646726	1.006040
330.040528	1.005740
330.434265	1.006454
330.827938	1.005334
331.221547	1.006223
331.615091	1.006370
332.008571	1.007342
332.401986	1.005894
332.795338	1.005347
333.188625	1.006883
333.581847	1.005503
333.975006	1.006534
334.368100	1.006706
334.761129	1.004978
335.154095	1.005614
335.546996	1.003505
335.939833	0.997624
336.332606	1.000556
336.725315	0.998349
337.117960	0.998358
337.510540	0.998605
337.903056	0.999396
338.295508	0.998709
338.687896	0.998770
339.080220	0.998571
339.472480	0.998570
339.864676	0.998799
340.256807	0.998160
340.648875	0.999791
341.040879	0.999509
341.432818	0.999720
341.824694	0.998890
342.216506	0.999598
342.608253	0.999061
342.999937	0.999527
343.391557	0.999882
343.783113	0.999228
344.174605	0.999183
344.566033	0.999062
344.957397	1.000203
345.348697	0.998798
345.739934	0.999491
346.131106	0.998776
346.522215	0.997913
346.913260	0.998034
347.304241	0.998143
347.695159	0.998210
348.086012	0.998980
348.476802	0.999173
348.867528	0.999312
349.258191	0.999725
349.648789	0.998058
350.039324	0.998793
350.429796	0.998699
350.820203	0.996696
351.210548	0.999012
351.600828	0.998573
351.991045	0.998944
352.381198	0.999305
352.771288	0.999365
353.161314	0.998386
353.551276	0.998031
353.941175	0.997185
354.331010	0.999433
354.720782	0.997626
355.110490	0.998251
355.500135	0.998007
355.889717	0.997932
356.279235	0.996951
356.668689	0.999017
357.058080	0.998134
357.447408	0.997815
357.836672	0.998312
358.225873	0.997981
358.615010	0.997753
359.004084	0.996323
359.393095	0.997979
359.782043	0.997763
360.170927	0.998669
360.559748	0.998050
360.948505	0.997549
361.337199	0.996643
361.725830	0.997863
362.114398	0.997650
362.502903	0.996459
362.891344	0.996135
363.279722	0.996760
363.668037	0.997727
364.056289	0.996174
364.444478	0.998504
364.832603	0.996969
365.220665	0.996989
365.608665	0.996627
365.996601	0.997471
366.384474	0.994995
366.772284	0.996714
367.160031	0.994144
367.547715	0.995344
367.935336	0.993663
368.322893	0.993459
368.710388	0.992637
369.097820	0.990945
369.485189	0.988377
369.872495	0.987366
370.259738	0.983201
370.646918	0.981092
371.034035	0.979186
371.421090	0.977420
371.808081	0.971612
372.195010	0.969759
372.581875	0.963848
372.968678	0.960053
373.355418	0.955002
373.742096	0.948533
374.128710	0.944244
374.515262	0.940410
374.901751	0.933909
375.288177	0.928394
375.674540	0.922010
376.060841	0.916128
376.447079	0.908621
376.833254	0.901914
377.219367	0.897832
377.605417	0.885709
377.991404	0.883130
378.377329	0.875644
378.763191	0.869480
379.148991	0.860803
379.534727	0.854566
379.920402	0.845393
380.306013	0.841157
380.691563	0.829061
381.077049	0.822016
381.462474	0.818204
381.847835	0.807468
382.233134	0.802835
382.618371	0.802944
383.003545	0.785323
383.388657	0.782784
383.773706	0.775392
384.158693	0.771698
384.543618	0.766338
384.928480	0.758215
385.313280	0.747616
385.698017	0.746739
386.082692	0.734955
386.467305	0.734134
386.851856	0.728312
387.236344	0.722866
387.620770	0.717857
388.005133	0.711953
388.389435	0.706683
388.773674	0.703769
389.157851	0.695571
389.541965	0.693508
389.926018	0.699412
390.310008	0.686533
390.693936	0.684136
391.077802	0.675379
391.461606	0.676738
391.845348	0.665987
392.229027	0.665466
392.612645	0.663720
392.996200	0.650691
393.379694	0.644191
393.763125	0.635204
394.146494	0.638771
394.529801	0.629651
394.913047	0.621745
395.296230	0.627400
395.679351	0.618664
396.062410	0.615407
396.445408	0.617550
396.828343	0.613528
397.211217	0.608958
397.594028	0.621053
397.976778	0.611336
398.359466	0.606516
398.742092	0.602651
399.124656	0.614465
399.507158	0.602995
399.889598	0.600446
400.271977	0.591130
400.654294	0.595360
401.036549	0.594408
401.418742	0.598804
401.800874	0.584759
402.182944	0.581457
402.564952	0.573396
402.946898	0.574638
403.328783	0.575869
403.710606	0.586735
404.092367	0.562424
404.474067	0.567263
404.855705	0.566303
405.237282	0.574312
405.618797	0.561002
406.000250	0.556241
406.381642	0.546799
406.762972	0.551641
407.144240	0.550196
407.525447	0.550350
407.906593	0.542488
408.287677	0.538387
408.668700	0.547368
409.049661	0.540700
409.430560	0.535770
409.811399	0.544776
410.192176	0.526496
410.572891	0.533118
410.953545	0.520764
411.334138	0.534768
411.714669	0.527831
412.095139	0.539646
412.475547	0.523905
412.855894	0.525865
413.236180	0.524742
413.616405	0.529978
413.996568	0.520418
414.376670	0.526868
414.756711	0.532131
415.136691	0.528016
415.516609	0.519100
415.896466	0.516081
416.276262	0.512380
416.655997	0.514274
417.035670	0.495513
417.415283	0.486747
417.794834	0.492110
418.174324	0.497013
418.553753	0.505912
418.933121	0.488792
419.312428	0.483052
419.691674	0.488561
420.070859	0.476474
420.449983	0.484615
420.829045	0.473712
421.208047	0.482744
421.586988	0.475796
421.965867	0.474859
422.344686	0.463478
422.723444	0.476277
423.102141	0.493028
423.480777	0.465997
423.859352	0.487389
424.237866	0.463400
424.616319	0.464461
424.994712	0.455377
425.373044	0.465705
425.751314	0.453922
426.129524	0.470501
426.507673	0.454090
426.885762	0.447454
427.263789	0.452665
427.641756	0.462689
428.019662	0.453139
428.397508	0.451788
428.775292	0.456192
429.153016	0.448129
429.530679	0.454763
429.908282	0.447588
430.285824	0.457908
430.663305	0.436653
431.040726	0.457246
431.418086	0.457191
431.795385	0.448774
432.172624	0.448341
432.549802	0.448605
432.926920	0.447233
433.303977	0.447203
433.680974	0.444304
434.057910	0.442048
434.434786	0.441285
434.811601	0.444832
435.188355	0.426809
435.565050	0.436025
435.941683	0.437390
436.318257	0.421386
436.694770	0.422314
437.071222	0.421160
437.447614	0.424805
437.823946	0.431656
438.200218	0.421122
438.576429	0.430700
438.952580	0.423548
439.328670	0.420126
439.704700	0.426723
440.080670	0.428146
440.456580	0.409160
440.832429	0.416788
441.208218	0.427850
441.583947	0.417731
441.959616	0.416515
442.335224	0.421883
442.710773	0.412848
443.086261	0.410755
443.461689	0.424762
443.837057	0.414345
444.212365	0.404399
444.587612	0.411624
444.962800	0.401827
445.337927	0.403208
445.712995	0.428898
446.088002	0.390674
446.462949	0.401550
446.837837	0.406921
447.212664	0.394722
447.587431	0.387090
447.962139	0.356987
448.336786	0.315904
448.711374	0.326568
449.085901	0.370846
449.460369	0.375111
449.834776	0.378538
450.209124	0.358184
450.583412	0.350495
450.957640	0.343825
451.331808	0.354637
451.705917	0.378649
452.079965	0.382888
452.453954	0.371343
452.827883	0.377764
453.201752	0.373138
453.575562	0.383755
453.949311	0.372264
454.323001	0.378647
454.696632	0.374474
455.070202	0.366999
455.443713	0.358967
455.817164	0.353179
456.190556	0.349429
456.563888	0.346363
456.937160	0.343605
457.310373	0.361013
457.683526	0.360249
458.056619	0.365952
458.429653	0.366241
458.802628	0.369763
459.175542	0.363878
459.548398	0.346358
459.921194	0.339289
460.293930	0.339446
460.666607	0.316687
461.039224	0.304962
461.411782	0.300248
461.784280	0.299757
462.156719	0.303566
462.529099	0.308135
462.901419	0.324327
463.273680	0.328785
463.645882	0.328294
464.018024	0.333821
464.390106	0.326904
464.762130	0.311491
465.134094	0.294733
465.505999	0.263519
465.877845	0.233945
466.249631	0.220856
466.621358	0.228238
466.993026	0.241968
467.364634	0.248208
467.736184	0.257131
468.107674	0.265929
468.479105	0.264951
468.850477	0.271764
469.221790	0.278646
469.593043	0.288652
469.964238	0.293345
470.335373	0.292841
470.706449	0.291015
471.077467	0.291857
471.448425	0.253896
471.819324	0.229382
472.190164	0.228650
472.560945	0.257716
472.931667	0.280213
473.302330	0.284506
473.672934	0.296085
474.043479	0.284296
474.413965	0.286395
474.784393	0.289364
475.154761	0.284746
475.525070	0.281777
475.895321	0.287395
476.265513	0.281663
476.635645	0.276749
477.005719	0.277119
477.375734	0.273186
477.745691	0.266652
478.115588	0.262683
478.485427	0.256444
478.855207	0.243335
479.224928	0.225629
479.594591	0.213969
479.964194	0.217212
480.333739	0.218503
480.703226	0.219707
481.072653	0.218048
481.442022	0.213985
481.811333	0.210459
482.180584	0.214167
482.549777	0.219273
482.918912	0.222773
483.287988	0.222474
483.657005	0.221942
484.025964	0.228497
484.394864	0.225783
484.763706	0.226676
485.132489	0.231576
485.501213	0.232286
485.869879	0.230592
486.238487	0.233823
486.607036	0.231644
486.975527	0.236414
487.343959	0.232142
487.712333	0.231447
488.080648	0.232371
488.448905	0.231883
488.817104	0.233063
489.185244	0.227458
489.553326	0.224371
489.921350	0.214310
490.289315	0.196784
490.657222	0.191690
491.025070	0.192942
491.392861	0.195020
491.760593	0.200749
492.128267	0.206339
492.495883	0.211729
492.863440	0.218689
493.230939	0.224706
493.598380	0.226265
493.965763	0.228170
494.333088	0.230533
494.700354	0.232073
495.067563	0.230837
495.434713	0.234318
495.801805	0.231986
496.168839	0.233725
496.535815	0.235226
496.902733	0.235110
497.269593	0.236775
497.636395	0.234149
498.003139	0.234525
498.369825	0.237664
498.736453	0.233988
499.103023	0.235735
499.469535	0.234829
499.835989	0.235214
500.202385	0.235947
500.568723	0.239403
500.935003	0.234403
501.301226	0.239023
501.667390	0.233105
502.033497	0.231244
502.399546	0.233836
502.765537	0.236140
503.131470	0.234244
503.497345	0.230605
503.863163	0.239419
504.228923	0.232367
504.594625	0.231055
504.960269	0.236409
505.325856	0.231924
505.691385	0.236271
506.056856	0.232862
506.422270	0.232345
506.787625	0.234857
507.152924	0.232250
507.518164	0.232764
507.883347	0.234154
508.248472	0.236233
508.613540	0.230922
508.978550	0.233684
509.343503	0.234271
509.708398	0.231827
510.073236	0.229510
510.438016	0.228960
510.802738	0.230044
511.167403	0.229146
511.532010	0.231216
511.896561	0.226727
512.261053	0.225073
512.625488	0.227516
512.989866	0.227700
513.354186	0.228013
513.718449	0.230132
514.082655	0.226087
514.446803	0.228744
514.810894	0.226123
515.174927	0.228978
515.538904	0.228261
515.902822	0.225449
516.266684	0.227608
516.630488	0.228683
516.994235	0.227571
517.357925	0.226319
517.721558	0.224623
518.085133	0.224126
518.448651	0.224147
518.812112	0.226643
519.175516	0.226153
519.538863	0.223865
519.902152	0.225447
520.265385	0.222341
520.628560	0.223787
520.991678	0.224282
521.354739	0.223284
521.717743	0.224394
522.080690	0.224862
522.443580	0.222152
522.806413	0.222948
523.169189	0.222342
523.531908	0.221311
523.894569	0.224851
524.257174	0.224858
524.619722	0.222418
524.982213	0.223624
525.344647	0.222247
525.707025	0.223380
526.069345	0.221390
526.431608	0.223539
526.793815	0.221091
527.155964	0.225291
527.518057	0.224060
527.880093	0.225075
528.242072	0.223780
528.603995	0.225773
528.965860	0.227556
529.327669	0.226322
529.689421	0.227383
530.051117	0.228206
530.412755	0.225805
530.774337	0.227880
531.135862	0.228801
531.497331	0.227800
531.858743	0.230709
532.220098	0.227235
532.581396	0.229955
532.942638	0.230494
533.303824	0.231766
533.664953	0.230975
534.026025	0.232938
534.387040	0.230815
534.747999	0.230740
535.108902	0.229630
535.469748	0.234907
535.830537	0.232563
536.191270	0.232972
536.551947	0.232513
536.912567	0.232312
537.273131	0.234235
537.633638	0.234621
537.994089	0.234935
538.354483	0.235989
538.714821	0.232789
539.075103	0.232754
539.435328	0.233530
539.795497	0.237249
540.155609	0.233816
540.515665	0.231801
540.875665	0.237380
541.235609	0.235913
541.595496	0.236135
541.955328	0.232719
542.315102	0.235627
542.674821	0.236496
543.034483	0.236337
543.394090	0.236188
543.753640	0.238018
544.113134	0.232979
544.472571	0.236474
544.831953	0.233223
545.191278	0.237220
545.550548	0.236538
545.909761	0.233756
546.268918	0.234327
546.628019	0.232735
546.987064	0.235400
547.346053	0.237161
547.704986	0.234835
548.063863	0.235045
548.422684	0.235425
548.781449	0.237237
549.140158	0.235072
549.498811	0.237762
549.857408	0.240730
550.215949	0.235400
550.574434	0.238745
550.932864	0.236737
551.291237	0.235309
551.649555	0.236810
552.007817	0.236594
552.366022	0.237388
552.724173	0.237226
553.082267	0.237774
553.440305	0.234802
553.798288	0.239115
554.156215	0.235788
554.514086	0.236161
554.871902	0.239516
555.229661	0.238716
555.587365	0.239256
555.945014	0.241771
556.302606	0.238903
556.660143	0.241420
557.017625	0.237809
557.375050	0.239972
557.732421	0.237046
558.089735	0.239016
558.446994	0.239116
558.804197	0.238235
559.161345	0.238155
559.518437	0.241624
559.875474	0.239725
560.232455	0.239017
560.589381	0.240202
560.946251	0.240293
561.303065	0.237655
561.659825	0.239109
562.016528	0.240918
562.373177	0.243519
562.729770	0.240826
563.086307	0.242574
563.442789	0.240578
563.799216	0.243455
564.155587	0.242523
564.511904	0.243476
564.868164	0.243527
565.224370	0.243318
565.580520	0.245014
565.936615	0.244992
566.292654	0.248184
566.648638	0.244721
567.004567	0.245759
567.360441	0.246346
567.716260	0.248493
568.072023	0.245998
568.427732	0.246719
568.783385	0.249292
569.138982	0.247614
569.494525	0.247113
569.850013	0.249976
570.205445	0.248559
570.560823	0.250946
570.916145	0.253184
571.271412	0.251262
571.626625	0.253020
571.981782	0.253354
572.336884	0.254254
572.691931	0.253870
573.046923	0.255293
573.401860	0.256180
573.756743	0.257915
574.111570	0.256788
574.466342	0.257492
574.821059	0.256717
575.175722	0.259336
575.530330	0.259169
575.884882	0.259207
576.239380	0.261350
576.593823	0.262259
576.948211	0.261411
577.302544	0.264879
577.656823	0.264209
578.011047	0.264137
578.365216	0.265093
578.719330	0.267345
579.073389	0.266656
579.427394	0.267933
579.781344	0.268551
580.135239	0.270190
580.489080	0.270041
580.842866	0.272888
581.196597	0.273179
581.550273	0.271541
581.903895	0.272559
582.257463	0.270488
582.610975	0.274005
582.964434	0.273474
583.317837	0.275637
583.671186	0.276376
584.024481	0.276298
584.377721	0.278615
584.730906	0.279565
585.084037	0.278959
585.437113	0.280897
585.790135	0.279957
586.143103	0.283165
586.496016	0.284125
586.848874	0.281384
587.201679	0.282178
587.554428	0.285516
587.907124	0.284409
588.259765	0.285335
588.612352	0.285671
588.964884	0.289262
589.317362	0.288990
589.669786	0.288686
590.022155	0.287411
590.374470	0.286984
590.726731	0.288652
591.078937	0.293861
591.431090	0.290147
591.783188	0.294226
592.135232	0.294753
592.487222	0.294315
592.839157	0.292771
593.191038	0.295173
593.542866	0.297114
593.894639	0.300382
594.246358	0.298909
594.598022	0.298128
594.949633	0.301744
595.301190	0.302641
595.652692	0.301556
596.004141	0.297434
596.355535	0.305748
596.706876	0.306605
597.058162	0.308576
597.409395	0.305854
597.760573	0.303474
598.111698	0.306837
598.462768	0.307419
598.813785	0.308567
599.164748	0.309827
599.515657	0.310293
599.866511	0.313369
600.217312	0.308987
600.568060	0.314240
600.918753	0.310566
601.269392	0.311499
601.619978	0.314961
601.970510	0.312162
602.320988	0.312689
602.671412	0.310360
603.021783	0.313048
603.372100	0.313957
603.722363	0.313910
604.072572	0.314661
604.422728	0.314188
604.772830	0.316710
605.122878	0.316622
605.472872	0.316720
605.822813	0.315095
606.172701	0.318052
606.522534	0.314799
606.872314	0.315431
607.222041	0.316368
607.571714	0.314421
607.921333	0.315666
608.270899	0.315125
608.620411	0.312026
608.969870	0.316266
609.319276	0.316145
609.668627	0.316229
610.017926	0.314648
610.367171	0.313268
610.716362	0.313809
611.065500	0.313951
611.414585	0.313022
611.763616	0.313286
612.112594	0.313929
612.461518	0.312930
612.810389	0.310624
613.159207	0.313223
613.507971	0.314873
613.856682	0.310791
614.205340	0.312024
614.553945	0.309190
614.902496	0.313016
615.250994	0.310928
615.599439	0.311811
615.947830	0.311341
616.296169	0.312205
616.644454	0.311812
616.992686	0.311640
617.340864	0.309845
617.688990	0.313151
618.037063	0.309638
618.385082	0.311280
618.733048	0.308521
619.080961	0.310707
619.428821	0.310250
619.776628	0.309949
620.124382	0.312458
620.472083	0.312542
620.819731	0.311809
621.167326	0.315776
621.514868	0.315683
621.862357	0.319522
622.209793	0.318907
622.557176	0.321443
622.904506	0.322428
623.251783	0.325086
623.599007	0.327349
623.946179	0.326814
624.293297	0.329075
624.640363	0.332779
624.987376	0.333321
625.334336	0.335433
625.681243	0.338221
626.028097	0.338480
626.374899	0.339323
626.721647	0.339751
627.068343	0.343025
627.414987	0.344025
627.761577	0.346183
628.108115	0.344032
628.454600	0.349888
628.801032	0.347243
629.147412	0.349383
629.493739	0.349860
629.840014	0.352894
630.186236	0.349860
630.532405	0.355842
630.878521	0.352900
631.224585	0.354940
631.570597	0.358908
631.916556	0.357832
632.262462	0.357184
632.608316	0.359628
632.954117	0.360318
633.299866	0.361023
633.645562	0.361639
633.991206	0.366322
634.336797	0.368938
634.682336	0.371678
635.027823	0.372949
635.373257	0.373455
635.718639	0.377403
636.063968	0.376053
636.409245	0.382058
636.754470	0.382241
637.099642	0.385188
637.444762	0.388266
637.789829	0.387637
638.134845	0.390840
638.479808	0.391639
638.824719	0.392176
639.169577	0.396234
639.514383	0.394621
639.859137	0.399006
640.203839	0.398755
640.548489	0.399094
640.893086	0.400292
641.237632	0.402185
641.582125	0.400842
641.926566	0.402915
642.270955	0.402883
642.615292	0.402156
642.959576	0.401948
643.303809	0.402623
643.647990	0.402289
643.992118	0.402495
644.336195	0.405372
644.680219	0.404443
645.024192	0.404869
645.368112	0.398843
645.711981	0.397765
646.055797	0.393071
646.399562	0.395637
646.743274	0.388291
647.086935	0.384736
647.430544	0.385002
647.774101	0.383676
648.117606	0.383853
648.461059	0.384284
648.804460	0.386324
649.147810	0.391739
649.491108	0.392941
649.834354	0.395323
650.177548	0.400326
650.520690	0.405727
650.863781	0.406745
651.206820	0.405967
651.549807	0.410390
651.892742	0.415172
652.235626	0.414454
652.578458	0.415245
652.921238	0.422148
653.263967	0.419037
653.606644	0.423336
653.949269	0.422889
654.291843	0.426484
654.634365	0.424032
654.976836	0.426436
655.319255	0.427534
655.661622	0.428552
656.003938	0.429134
656.346203	0.431620
656.688416	0.429332
657.030577	0.432769
657.372687	0.435283
657.714746	0.435664
658.056753	0.432637
658.398708	0.435851
658.740612	0.437892
659.082465	0.433692
659.424266	0.434533
659.766016	0.434120
660.107715	0.436552
660.449362	0.435092
660.790958	0.435946
661.132503	0.437371
661.473996	0.433852
661.815438	0.435703
662.156829	0.435382
662.498168	0.436080
662.839456	0.437490
663.180693	0.434773
663.521879	0.435156
663.863013	0.436084
664.204097	0.434031
664.545129	0.431467
664.886110	0.431938
665.227040	0.429326
665.567918	0.431759
665.908746	0.429432
666.249522	0.429453
666.590248	0.430439
666.930922	0.428349
667.271545	0.427630
667.612118	0.427455
667.952639	0.428680
668.293109	0.427495
668.633528	0.430509
668.973896	0.430414
669.314213	0.430778
669.654480	0.432573
669.994695	0.432859
670.334859	0.433675
670.674973	0.434813
671.015035	0.434127
671.355047	0.433590
671.695008	0.435159
672.034918	0.436847
672.374777	0.436417
672.714585	0.437270
673.054342	0.437408
673.394049	0.437210
673.733705	0.434847
674.073310	0.436121
674.412864	0.438915
674.752368	0.439507
675.091820	0.440126
675.431223	0.444942
675.770574	0.444347
676.109875	0.447311
676.449125	0.446852
676.788324	0.449561
677.127473	0.455153
677.466571	0.455065
677.805619	0.456974
678.144616	0.458066
678.483562	0.459188
678.822458	0.462377
679.161303	0.462328
679.500098	0.463302
679.838842	0.464581
680.177535	0.464114
680.516179	0.462752
680.854771	0.461854
681.193314	0.455592
681.531805	0.446890
681.870247	0.435200
682.208638	0.427987
682.546978	0.426630
682.885268	0.428293
683.223508	0.434402
683.561697	0.438503
683.899836	0.440843
684.237925	0.444760
684.575963	0.447355
684.913951	0.450326
685.251889	0.445699
685.589776	0.447950
685.927614	0.449959
686.265401	0.444511
686.603137	0.445671
686.940824	0.439780
687.278460	0.438381
687.616046	0.437429
687.953582	0.432767
688.291068	0.434202
688.628504	0.429097
688.965889	0.431804
689.303224	0.435370
689.640510	0.439065
689.977745	0.445077
690.314930	0.452729
690.652065	0.457552
690.989150	0.465036
691.326185	0.472441
691.663170	0.476784
692.000105	0.484185
692.336990	0.490863
692.673825	0.493434
693.010610	0.499814
693.347345	0.506301
693.684030	0.507284
694.020665	0.511921
694.357251	0.521085
694.693786	0.520711
695.030272	0.523560
695.366707	0.528354
695.703093	0.531974
696.039429	0.529443
696.375716	0.531681
696.711952	0.533573
697.048139	0.535435
697.384276	0.538381
697.720363	0.536304
698.056400	0.534799
698.392388	0.540672
698.728326	0.543523
699.064214	0.546529
699.400053	0.546400
699.735842	0.551624
700.071581	0.553748
700.407270	0.557155
700.742910	0.559122
701.078501	0.566227
701.414042	0.566780
701.749533	0.569235
702.084974	0.578697
702.420366	0.570871
702.755709	0.578398
703.091002	0.585890
703.426246	0.579700
703.761440	0.585408
704.096584	0.590205
704.431679	0.587024
704.766725	0.590148
705.101721	0.591407
705.436668	0.586814
705.771565	0.594714
706.106413	0.589867
706.441212	0.585642
706.775961	0.585030
707.110661	0.587170
707.445311	0.584593
707.779913	0.580976
708.114465	0.579869
708.448967	0.576322
708.783421	0.569114
709.117825	0.562843
709.452180	0.562607
709.786485	0.556928
710.120742	0.546331
710.454949	0.548415
710.789107	0.540138
711.123216	0.531396
711.457275	0.532369
711.791286	0.523933
712.125247	0.522997
712.459159	0.534082
712.793023	0.525794
713.126837	0.530146
713.460602	0.531051
713.794318	0.539198
714.127985	0.539003
714.461602	0.548706
714.795171	0.551679
715.128691	0.560206
715.462162	0.567650
715.795584	0.573824
716.128957	0.576227
716.462281	0.583290
716.795556	0.585744
717.128782	0.592414
717.461960	0.601230
717.795088	0.598868
718.128167	0.605872
718.461198	0.614341
718.794180	0.615453
719.127113	0.617908
719.459997	0.621290
719.792833	0.627258
720.125619	0.629190
720.458357	0.634236
720.791046	0.633925
721.123686	0.638124
721.456278	0.644876
721.788821	0.642366
722.121315	0.647464
722.453761	0.650877
722.786158	0.648259
723.118506	0.644770
723.450805	0.652626
723.783056	0.649328
724.115259	0.646194
724.447412	0.646318
724.779518	0.647605
725.111574	0.645426
725.443582	0.642621
725.775542	0.643763
726.107453	0.637113
726.439315	0.636443
726.771129	0.633980
727.102895	0.627140
727.434612	0.619868
727.766281	0.617712
728.097901	0.617403
728.429473	0.616984
728.760996	0.615526
729.092471	0.615711
729.423897	0.619891
729.755276	0.618965
730.086606	0.618233
730.417887	0.613347
730.749120	0.603891
731.080305	0.594179
731.411442	0.590339
731.742530	0.594233
732.073570	0.594277
732.404562	0.587625
732.735506	0.587696
733.066401	0.593572
733.397249	0.601931
733.728048	0.613531
734.058798	0.626461
734.389501	0.637191
734.720156	0.647465
735.050762	0.655246
735.381320	0.655908
735.711831	0.664536
736.042293	0.669505
736.372707	0.666592
736.703073	0.670044
737.033391	0.672198
737.363661	0.669959
737.693883	0.664945
738.024056	0.663939
738.354182	0.664079
738.684260	0.652945
739.014290	0.650438
739.344272	0.650355
739.674207	0.643707
740.004093	0.642736
740.333931	0.643596
740.663722	0.643221
740.993464	0.644277
741.323159	0.647580
741.652806	0.652447
741.982405	0.657463
742.311956	0.663104
742.641460	0.665293
742.970915	0.668414
743.300323	0.676007
743.629683	0.682335
743.958996	0.684073
744.288260	0.688253
744.617477	0.693743
744.946647	0.696182
745.275768	0.702416
745.604842	0.700877
745.933869	0.711200
746.262847	0.712764
746.591778	0.705175
746.920662	0.712300
747.249498	0.719305
747.578286	0.709796
747.907027	0.705853
748.235720	0.706356
748.564365	0.701769
748.892963	0.700350
749.221514	0.704785
749.550017	0.708509
749.878473	0.709584
750.206881	0.715767
750.535242	0.716094
750.863555	0.715355
751.191821	0.717196
751.520039	0.720613
751.848210	0.724891
752.176334	0.717883
752.504411	0.716808
752.832440	0.725514
753.160421	0.729011
753.488356	0.726757
753.816243	0.724229
754.144082	0.733174
754.471875	0.737103
754.799620	0.732577
755.127318	0.735531
755.454969	0.734329
755.782572	0.734021
756.110129	0.737134
756.437638	0.741495
756.765100	0.736842
757.092515	0.735528
757.419882	0.733793
757.747203	0.739390
758.074477	0.740040
758.401703	0.735906
758.728882	0.731120
759.056014	0.729382
759.383099	0.728531
759.710138	0.729961
760.037129	0.726567
760.364073	0.719902
760.690970	0.722934
761.017820	0.728039
761.344623	0.723937
761.671379	0.715006
761.998088	0.703591
762.324751	0.680280
762.651366	0.637042
762.977935	0.569173
763.304456	0.517713
763.630931	0.508103
763.957359	0.546919
764.283740	0.591547
764.610074	0.619153
764.936362	0.650923
765.262602	0.678475
765.588796	0.699411
765.914943	0.717042
766.241044	0.734995
766.567097	0.741881
766.893104	0.752571
767.219064	0.758613
767.544978	0.766090
767.870845	0.778328
768.196665	0.783603
768.522438	0.781801
768.848165	0.783210
769.173846	0.791918
769.499479	0.796028
769.825066	0.800840
770.150607	0.804052
770.476101	0.800399
770.801548	0.802534
771.126949	0.813047
771.452303	0.816708
771.777611	0.815965
772.102872	0.814289
772.428087	0.819733
772.753256	0.823302
773.078378	0.825278
773.403453	0.833529
773.728482	0.837923
774.053465	0.832039
774.378401	0.834849
774.703291	0.844160
775.028135	0.844962
775.352932	0.844223
775.677683	0.848931
776.002388	0.849986
776.327046	0.848910
776.651658	0.853082
776.976224	0.855112
777.300743	0.855664
777.625216	0.857662
777.949643	0.859826
778.274024	0.858686
778.598359	0.861699
778.922647	0.859185
779.246889	0.860583
779.571086	0.863224
779.895236	0.866575
780.219339	0.864261
780.543397	0.859419
780.867409	0.858711
781.191374	0.861292
781.515294	0.863268
781.839167	0.861977
782.162995	0.864955
782.486776	0.861965
782.810511	0.863538
783.134201	0.866959
783.457844	0.864772
783.781441	0.867134
784.104993	0.873750
784.428498	0.873342
784.751958	0.869689
785.075372	0.871797
785.398739	0.875554
785.722061	0.870058
786.045337	0.866613
786.368568	0.871329
786.691752	0.873866
787.014891	0.860704
787.337983	0.850956
787.661030	0.842690
787.984031	0.825945
788.306987	0.813444
788.629897	0.813913
788.952760	0.819807
789.275579	0.823877
789.598351	0.839443
789.921078	0.851939
790.243759	0.854282
790.566395	0.858933
790.888984	0.866272
791.211529	0.871100
791.534027	0.874827
791.856480	0.876761
792.178888	0.881587
792.501249	0.883676
792.823566	0.886115
793.145836	0.886153
793.468062	0.886777
793.790241	0.888633
794.112375	0.885043
794.434464	0.882279
794.756507	0.880927
795.078505	0.878974
795.400457	0.874470
795.722364	0.862584
796.044226	0.855694
796.366042	0.854802
796.687812	0.856915
797.009538	0.853101
797.331218	0.857889
797.652852	0.862539
797.974442	0.865649
798.295986	0.867657
798.617484	0.867758
798.938938	0.874149
799.260346	0.877764
799.581709	0.879649
799.903026	0.882809
800.224299	0.883268
800.545526	0.886912
800.866708	0.891098
801.187845	0.894281
801.508936	0.894371
801.829983	0.892313
802.150984	0.896165
802.471940	0.900714
802.792851	0.900020
803.113717	0.902017
803.434538	0.898281
803.755314	0.902200
804.076045	0.902571
804.396731	0.903436
804.717372	0.900925
805.037967	0.904939
805.358518	0.902882
805.679024	0.898502
805.999485	0.900293
806.319901	0.899106
806.640272	0.901316
806.960598	0.899656
807.280879	0.895715
807.601115	0.895792
807.921306	0.898038
808.241453	0.899347
808.561554	0.898142
808.881611	0.897983
809.201623	0.899113
809.521590	0.898981
809.841513	0.901168
810.161390	0.899074
810.481223	0.900283
810.801011	0.903716
811.120755	0.906642
811.440453	0.903458
811.760107	0.903737
812.079716	0.904186
812.399281	0.906952
812.718801	0.909887
813.038276	0.909945
813.357707	0.908876
813.677093	0.907764
813.996434	0.909908
814.315731	0.912641
814.634983	0.913498
814.954191	0.911987
815.273354	0.907203
815.592473	0.904089
815.911547	0.904459
816.230577	0.901402
816.549562	0.898903
816.868502	0.898324
817.187399	0.896447
817.506250	0.890104
817.825058	0.891568
818.143821	0.888495
818.462539	0.884263
818.781213	0.875394
819.099843	0.864855
819.418429	0.847309
819.736970	0.830261
820.055466	0.811450
820.373919	0.783899
820.692327	0.750235
821.010691	0.714798
821.329011	0.634272
821.647286	0.517016
821.965517	0.402828
822.283704	0.359519
822.601847	0.360116
822.919945	0.395996
823.237999	0.431005
823.556010	0.478827
823.873976	0.535562
824.191897	0.586990
824.509775	0.630907
824.827609	0.676502
825.145398	0.701049
825.463144	0.702098
825.780845	0.684041
826.098502	0.666186
826.416116	0.620637
826.733685	0.575260
827.051210	0.565518
827.368692	0.581006
827.686129	0.618785
828.003522	0.674024
828.320872	0.722746
828.638177	0.766744
828.955439	0.800306
829.272656	0.822512
829.589830	0.839840
829.906960	0.855910
830.224046	0.868365
830.541088	0.878266
830.858086	0.883339
831.175041	0.890533
831.491952	0.889367
831.808819	0.885564
832.125642	0.878139
832.442421	0.865171
832.759157	0.841433
833.075849	0.793752
833.392497	0.728151
833.709101	0.687662
834.025662	0.697878
834.342179	0.729642
834.658653	0.770172
834.975083	0.806013
835.291469	0.834989
835.607811	0.855622
835.924110	0.873444
836.240366	0.890665
836.556578	0.903433
836.872746	0.910420
837.188871	0.916843
837.504952	0.922864
837.820990	0.926411
838.136984	0.929994
838.452935	0.933107
838.768842	0.934106
839.084706	0.927646
839.400526	0.902067
839.716303	0.859349
840.032037	0.837937
840.347727	0.841560
840.663373	0.859969
840.978977	0.882027
841.294537	0.905187
841.610054	0.919955
841.925527	0.929749
842.240957	0.936035
842.556344	0.944370
842.871687	0.948751
843.186987	0.953024
843.502244	0.954307
843.817458	0.954906
844.132629	0.960462
844.447756	0.963914
844.762840	0.964588
845.077881	0.965007
845.392879	0.962994
845.707833	0.966797
846.022745	0.969161
846.337613	0.969026
846.652438	0.968426
846.967221	0.969511
847.281960	0.970464
847.596656	0.972410
847.911309	0.970786
848.225919	0.971880
848.540485	0.972641
848.855009	0.973699
849.169490	0.973436
849.483928	0.972897
849.798323	0.971787
850.112675	0.974386
850.426984	0.973839
850.741251	0.974574
851.055474	0.973957
851.369654	0.973329
851.683792	0.973146
851.997887	0.973598
852.311938	0.974542
852.625947	0.973533
852.939914	0.973678
853.253837	0.973892
853.567718	0.974926
853.881555	0.975701
854.195350	0.972821
854.509103	0.974274
854.822812	0.974838
855.136479	0.974952
855.450103	0.974097
855.763685	0.972962
856.077224	0.974868
856.390720	0.975177
856.704173	0.974044
857.017584	0.974037
857.330953	0.972755
857.644278	0.970957
857.957561	0.973011
858.270802	0.973281
858.584000	0.972913
858.897155	0.971772
859.210268	0.971129
859.523339	0.975357
859.836367	0.975001
860.149352	0.974728
860.462295	0.974436
860.775195	0.974746
861.088054	0.974300
861.400869	0.975545
861.713642	0.973671
862.026373	0.975757
862.339062	0.975046
862.651708	0.972733
862.964312	0.973339
863.276873	0.973229
863.589392	0.973152
863.901869	0.970630
864.214303	0.968955
864.526696	0.967773
864.839045	0.967548
865.151353	0.966312
865.463619	0.966247
865.775842	0.966803
866.088023	0.966609
866.400162	0.965968
866.712258	0.966790
867.024313	0.966876
867.336325	0.969422
867.648296	0.967795
867.960224	0.966162
868.272110	0.967349
868.583954	0.966926
868.895755	0.968362
869.207515	0.965463
869.519233	0.964624
869.830909	0.964101
870.142542	0.965643
870.454134	0.966250
870.765684	0.963648
871.077191	0.963583
871.388657	0.962692
871.700081	0.963205
872.011463	0.963191
872.322803	0.961999
872.634101	0.959565
872.945357	0.958823
873.256571	0.956377
873.567744	0.956845
873.878874	0.957136
874.189963	0.956730
874.501010	0.957183
874.812015	0.953156
875.122979	0.954578
875.433900	0.955857
875.744780	0.958506
876.055618	0.954536
876.366415	0.953580
876.677169	0.952672
876.987882	0.953546
877.298554	0.954770
877.609183	0.950389
877.919771	0.948355
878.230317	0.945740
878.540822	0.943553
878.851285	0.937906
879.161707	0.930310
879.472087	0.917726
879.782425	0.900760
880.092722	0.864664
880.402977	0.810607
880.713191	0.746765
881.023363	0.686256
881.333494	0.651671
881.643583	0.624268
881.953631	0.624830
882.263637	0.652873
882.573602	0.692928
882.883526	0.718816
883.193408	0.744919
883.503248	0.768008
883.813048	0.795819
884.122806	0.827277
884.432522	0.850244
884.742197	0.871482
885.051831	0.881592
885.361424	0.893403
885.670975	0.905480
885.980485	0.915917
886.289954	0.920848
886.599382	0.926663
886.908768	0.931152
887.218113	0.936804
887.527417	0.942094
887.836680	0.944434
888.145901	0.947349
888.455082	0.950744
888.764221	0.954493
889.073319	0.956766
889.382376	0.957825
889.691392	0.955985
890.000366	0.957309
890.309300	0.957244
890.618193	0.956558
890.927044	0.954893
891.235855	0.955117
891.544625	0.955407
891.853353	0.954999
892.162041	0.953265
892.470687	0.946254
892.779293	0.940462
893.087858	0.936217
893.396381	0.928213
893.704864	0.913153
894.013306	0.890133
894.321707	0.862724
894.630068	0.847690
894.938387	0.842518
895.246665	0.844522
895.554903	0.855349
895.863100	0.870577
896.171256	0.888174
896.479371	0.908317
896.787446	0.920743
897.095480	0.927572
897.403473	0.930094
897.711425	0.935810
898.019336	0.941135
898.327207	0.947867
898.635038	0.947673
898.942827	0.949177
899.250576	0.951861
899.558284	0.956962
899.865952	0.957438
900.173579	0.958557
900.481165	0.960748
900.788711	0.962343
901.096216	0.964851
901.403681	0.966778
901.711105	0.966249
902.018489	0.967228
902.325832	0.965662
902.633135	0.964507
902.940397	0.958004
903.247619	0.945581
903.554800	0.920194
903.861941	0.878317
904.169041	0.840691
904.476101	0.822706
904.783121	0.824112
905.090100	0.842045
905.397039	0.863477
905.703938	0.885565
906.010796	0.906229
906.317614	0.924118
906.624391	0.937479
906.931129	0.947290
907.237826	0.956774
907.544483	0.962766
907.851099	0.967294
908.157675	0.971266
908.464211	0.973053
908.770707	0.974406
909.077163	0.978799
909.383578	0.979467
909.689954	0.980284
909.996289	0.979706
910.302584	0.982137
910.608839	0.983817
910.915054	0.982652
911.221229	0.983393
911.527363	0.981148
911.833458	0.981435
912.139513	0.981541
912.445527	0.981622
912.751502	0.978506
913.057436	0.976791
913.363331	0.974173
913.669186	0.970794
913.975000	0.964392
914.280775	0.958463
914.586510	0.951624
914.892205	0.938734
915.197859	0.914709
915.503475	0.887315
915.809050	0.865764
916.114585	0.860106
916.420081	0.857152
916.725536	0.855358
917.030952	0.861931
917.336328	0.876382
917.641665	0.892147
917.946961	0.907622
918.252218	0.918236
918.557435	0.928891
918.862612	0.937904
919.167750	0.944192
919.472848	0.950473
919.777906	0.956526
920.082925	0.962400
920.387904	0.964687
920.692843	0.966038
920.997743	0.967811
921.302603	0.971197
921.607423	0.972544
921.912204	0.976201
922.216946	0.976779
922.521647	0.977673
922.826310	0.979290
923.130932	0.982082
923.435516	0.982782
923.740059	0.983655
924.044564	0.983761
924.349028	0.984753
924.653454	0.986847
924.957840	0.988758
925.262186	0.989314
925.566493	0.988860
925.870761	0.990453
926.174989	0.990422
926.479178	0.992269
926.783328	0.992659
927.087438	0.993926
927.391509	0.991953
927.695541	0.992824
927.999533	0.994689
928.303486	0.995175
928.607400	0.995072
928.911275	0.995965
929.215110	0.996272
929.518906	0.994904
929.822663	0.996442
930.126381	0.996153
930.430060	0.994846
930.733699	0.995949
931.037299	0.994449
931.340861	0.995218
931.644383	0.994300
931.947866	0.994998
932.251309	0.995039
932.554714	0.995377
932.858080	0.996042
933.161407	0.994155
933.464694	0.994630
933.767943	0.996383
934.071153	0.995545
934.374323	0.996650
934.677455	0.995946
934.980548	0.995914
935.283602	0.997281
935.586617	0.996971
935.889593	0.996773
936.192530	0.996522
936.495428	0.996318
936.798287	0.995294
937.101108	0.995247
937.403890	0.994721
937.706632	0.994138
938.009336	0.991407
938.312002	0.989027
938.614628	0.988164
938.917216	0.988200
939.219765	0.986063
939.522275	0.987590
939.824747	0.987823
940.127179	0.988308
940.429573	0.990084
940.731929	0.988889
941.034246	0.988476
941.336524	0.989689
941.638763	0.990147
941.940964	0.990248
942.243126	0.991750
942.545250	0.992774
942.847335	0.992272
943.149381	0.992773
943.451389	0.993463
943.753359	0.994024
944.055290	0.995107
944.357182	0.994219
944.659036	0.994543
944.960851	0.993954
945.262628	0.995540
945.564367	0.995123
945.866067	0.994951
946.167729	0.995367
946.469352	0.996549
946.770937	0.993103
947.072484	0.995876
947.373992	0.994235
947.675462	0.994451
947.976893	0.995244
948.278286	0.996841
948.579641	0.996272
948.880958	0.995985
949.182236	0.995704
949.483476	0.997590
949.784678	0.996754
950.085841	0.995791
950.386967	0.995487
950.688054	0.995994
950.989103	0.995211
951.290114	0.994264
951.591087	0.995314
951.892021	0.994478
952.192917	0.993263
952.493776	0.993493
952.794596	0.992943
953.095378	0.992338
953.396122	0.993289
953.696828	0.994283
953.997496	0.993906
954.298126	0.994587
954.598718	0.993942
954.899272	0.995198
955.199788	0.994869
955.500266	0.997947
955.800706	0.997155
956.101108	0.996237
956.401472	0.999036
956.701798	0.997980
957.002087	0.998303
957.302337	0.999008
957.602550	1.000272
957.902724	1.000011
958.202861	0.999637
958.502960	0.999123
958.803022	1.000337
959.103045	1.000048
959.403031	1.001692
959.702979	1.002085
960.002889	1.000771
960.302762	0.999460
960.602596	1.001530
960.902393	1.002063
961.202153	1.001335
961.501875	1.001606
961.801559	1.002660
962.101205	1.000897
962.400814	1.002684
962.700385	1.002904
962.999918	1.001886
963.299414	0.999829
963.598873	1.002315
963.898293	1.001607
964.197677	1.001372
964.497022	1.002148
964.796331	1.001506
965.095601	1.003186
965.394835	1.001880
965.694030	1.003679
965.993189	1.002359
966.292309	1.002281
966.591393	1.001115
966.890439	1.002276
967.189447	1.001375
967.488419	1.002628
967.787353	1.002453
968.086249	1.002751
968.385108	1.001544
968.683930	1.002362
968.982714	1.002899
969.281462	1.002633
969.580172	1.002955
969.878844	1.002322
970.177480	1.001000
970.476078	1.002676
970.774639	1.001450
971.073162	1.002588
971.371649	1.002638
971.670098	1.001167
971.968510	1.002071
972.266885	1.001648
972.565223	1.001960
972.863524	0.999949
973.161788	1.001649
973.460014	1.002790
973.758204	1.000690
974.056356	1.001555
974.354471	1.001292
974.652550	1.003399
974.950591	1.000028
975.248595	1.000411
975.546563	1.002244
975.844493	1.002671
976.142386	1.001562
976.440243	1.002279
976.738062	1.002087
977.035845	1.001904
977.333590	1.002027
977.631299	1.001145
977.928971	1.001690
978.226606	1.001898
978.524204	1.001802
978.821765	1.003085
979.119290	1.002419
979.416777	1.002336
979.714228	1.002453
980.011642	1.001556
980.309020	1.002064
980.606360	1.002504
980.903664	1.002943
981.200931	1.001892
981.498162	1.001511
981.795356	1.001883
982.092513	1.000130
982.389633	0.999056
982.686717	0.996203
982.983764	0.996627
983.280775	0.995761
983.577749	0.997043
983.874686	0.995153
984.171587	0.997519
984.468451	0.999071
984.765279	0.999624
985.062070	0.999609
985.358824	0.999545
985.655543	1.001076
985.952224	1.002433
986.248869	1.001926
986.545478	1.003559
986.842050	1.002914
987.138586	1.001998
987.435086	1.002292
987.731549	1.003600
988.027975	1.003910
988.324366	1.002811
988.620719	1.004053
988.917037	1.003288
989.213318	1.003804
989.509563	1.003258
989.805772	1.003351
990.101944	1.004564
990.398080	1.002871
990.694180	1.004308
990.990244	1.003173
991.286271	1.003676
991.582262	1.003805
991.878217	1.003185
992.174136	1.004139
992.470019	1.003136
992.765865	1.005109
993.061676	1.003943
993.357450	1.003888
993.653188	1.004538
993.948890	1.004036
994.244556	1.002896
994.540186	1.002278
994.835780	1.003014
995.131337	1.003171
995.426859	1.003585
995.722345	1.001759
996.017795	1.001785
996.313208	1.001903
996.608586	1.001812
996.903928	1.001684
997.199234	1.002151
997.494504	1.002781
997.789738	1.000677
998.084936	1.002134
998.380099	1.001434
998.675225	1.003640
998.970316	1.002385
999.265371	1.002673
999.560390	1.001631
999.855373	1.003628
1000.150320	1.003426
1000.445232	1.003563
1000.740108	1.003200
1001.034948	1.002455
1001.329752	1.004964
1001.624521	1.003090
1001.919254	1.003431
1002.213951	1.003420
1002.508613	1.003438
1002.803239	1.003794
1003.097829	1.004655
1003.392384	1.003811
1003.686903	1.005224
1003.981386	1.004848
1004.275834	1.005229
1004.570246	1.003336
1004.864623	1.004077
1005.158964	1.003394
1005.453270	1.003561
1005.747540	1.003562
1006.041775	1.003461
1006.335974	1.004188
1006.630138	1.004325
1006.924266	1.003528
1007.218359	1.002974
1007.512416	1.004819
1007.806438	1.004029
1008.100425	1.004343
1008.394376	1.003655
1008.688292	1.003713
1008.982172	1.004357
1009.276017	1.004646
1009.569827	1.005731
1009.863602	1.003731
1010.157341	1.003575
1010.451045	1.004070
1010.744714	1.006309
1011.038347	1.005604
1011.331945	1.002436
1011.625508	1.005252
1011.919036	1.004175
1012.212528	1.004469
1012.505986	1.004424
1012.799408	1.004547
1013.092795	1.005525
1013.386147	1.005086
1013.679464	1.004769
1013.972745	1.004598
1014.265992	1.003147
1014.559204	1.004094
1014.852380	1.004986
1015.145521	1.004360
1015.438628	1.004108
1015.731699	1.003341
1016.024736	1.004874
1016.317737	1.004894
1016.610703	1.004206
1016.903635	1.003964
1017.196531	1.004581
1017.489393	1.002939
1017.782219	1.004125
1018.075011	1.003162
1018.367768	1.004361
1018.660490	1.004559
1018.953177	1.004559
1019.245829	1.004559
