Dividing Wavelength (nm)	Counts (n)	Blue Motor Position (mm): 37.100000	Red Motor Position (mm): 0.000000	
326.493990	1.000160
326.888308	1.000160
327.282561	1.000160
327.676750	1.000483
328.070874	1.001337
328.464933	1.001610
328.858929	0.999745
329.252859	1.000403
329.646726	1.000272
330.040528	0.999265
330.434265	1.000452
330.827938	0.998754
331.221547	0.999213
331.615091	0.999916
332.008571	1.000216
332.401986	1.000219
332.795338	0.999576
333.188625	0.999426
333.581847	0.998655
333.975006	0.999435
334.368100	0.999408
334.761129	0.998723
335.154095	1.000073
335.546996	1.000165
335.939833	0.999022
336.332606	1.000594
336.725315	0.998843
337.117960	1.000298
337.510540	0.999175
337.903056	1.000728
338.295508	1.000346
338.687896	0.999973
339.080220	0.999796
339.472480	1.000318
339.864676	1.000469
340.256807	0.998245
340.648875	1.000046
341.040879	0.999733
341.432818	1.000884
341.824694	0.999378
342.216506	1.000141
342.608253	0.999429
342.999937	0.998196
343.391557	0.999301
343.783113	1.000882
344.174605	1.000715
344.566033	0.998812
344.957397	0.999099
345.348697	0.999288
345.739934	1.000693
346.131106	1.000464
346.522215	0.998608
346.913260	0.999010
347.304241	0.998856
347.695159	0.999372
348.086012	0.999155
348.476802	0.999625
348.867528	0.998759
349.258191	0.999136
349.648789	0.999672
350.039324	0.998994
350.429796	0.999040
350.820203	0.997887
351.210548	0.999037
351.600828	0.998241
351.991045	0.998827
352.381198	1.000441
352.771288	0.998336
353.161314	0.998368
353.551276	0.999675
353.941175	0.996807
354.331010	0.999570
354.720782	0.999056
355.110490	0.999342
355.500135	1.000473
355.889717	0.998335
356.279235	0.998564
356.668689	1.000101
357.058080	0.998720
357.447408	0.997592
357.836672	0.999424
358.225873	0.997568
358.615010	0.998741
359.004084	0.996737
359.393095	0.999272
359.782043	0.997462
360.170927	0.999369
360.559748	0.998013
360.948505	0.998292
361.337199	0.998073
361.725830	0.998837
362.114398	0.997830
362.502903	0.997679
362.891344	0.997514
363.279722	0.997218
363.668037	0.998140
364.056289	0.997961
364.444478	0.998722
364.832603	0.996638
365.220665	0.998590
365.608665	0.997028
365.996601	0.997245
366.384474	0.995097
366.772284	0.997449
367.160031	0.995663
367.547715	0.995690
367.935336	0.996250
368.322893	0.993100
368.710388	0.992729
369.097820	0.992267
369.485189	0.988504
369.872495	0.987664
370.259738	0.985087
370.646918	0.982615
371.034035	0.980769
371.421090	0.978467
371.808081	0.971432
372.195010	0.970284
372.581875	0.965606
372.968678	0.960624
373.355418	0.956791
373.742096	0.949651
374.128710	0.945168
374.515262	0.941255
374.901751	0.934527
375.288177	0.929088
375.674540	0.923043
376.060841	0.917828
376.447079	0.909328
376.833254	0.904474
377.219367	0.898840
377.605417	0.887539
377.991404	0.885203
378.377329	0.877432
378.763191	0.872099
379.148991	0.863072
379.534727	0.854405
379.920402	0.847424
380.306013	0.843435
380.691563	0.830420
381.077049	0.823890
381.462474	0.820460
381.847835	0.809068
382.233134	0.804273
382.618371	0.804931
383.003545	0.786724
383.388657	0.785843
383.773706	0.778037
384.158693	0.773036
384.543618	0.767865
384.928480	0.758377
385.313280	0.749129
385.698017	0.748679
386.082692	0.737821
386.467305	0.736166
386.851856	0.730836
387.236344	0.725317
387.620770	0.719528
388.005133	0.713988
388.389435	0.708381
388.773674	0.706204
389.157851	0.697819
389.541965	0.695405
389.926018	0.702310
390.310008	0.688776
390.693936	0.686014
391.077802	0.678435
391.461606	0.680171
391.845348	0.668747
392.229027	0.668373
392.612645	0.667000
392.996200	0.653728
393.379694	0.647191
393.763125	0.637240
394.146494	0.641661
394.529801	0.632628
394.913047	0.625248
395.296230	0.631347
395.679351	0.623044
396.062410	0.619819
396.445408	0.623474
396.828343	0.620162
397.211217	0.616211
397.594028	0.628170
397.976778	0.620150
398.359466	0.618849
398.742092	0.615480
399.124656	0.629386
399.507158	0.620242
399.889598	0.619713
400.271977	0.613812
400.654294	0.620847
401.036549	0.623524
401.418742	0.631392
401.800874	0.621228
402.182944	0.622544
402.564952	0.619286
402.946898	0.625260
403.328783	0.631647
403.710606	0.646883
404.092367	0.629797
404.474067	0.639961
404.855705	0.645202
405.237282	0.657235
405.618797	0.652603
406.000250	0.656365
406.381642	0.654480
406.762972	0.665858
407.144240	0.672552
407.525447	0.678261
407.906593	0.681527
408.287677	0.685614
408.668700	0.700073
409.049661	0.703821
409.430560	0.709039
409.811399	0.722694
410.192176	0.720028
410.572891	0.733134
410.953545	0.735116
411.334138	0.750676
411.714669	0.755810
412.095139	0.770779
412.475547	0.772083
412.855894	0.781942
413.236180	0.790261
413.616405	0.801083
413.996568	0.805211
414.376670	0.816301
414.756711	0.826372
415.136691	0.833403
415.516609	0.837998
415.896466	0.844924
416.276262	0.851463
416.655997	0.860482
417.035670	0.862484
417.415283	0.868164
417.794834	0.877039
418.174324	0.884987
418.553753	0.893794
418.933121	0.896498
419.312428	0.903252
419.691674	0.910196
420.070859	0.915430
420.449983	0.921769
420.829045	0.924761
421.208047	0.932438
421.586988	0.936292
421.965867	0.939889
422.344686	0.944112
422.723444	0.949956
423.102141	0.955301
423.480777	0.955497
423.859352	0.962430
424.237866	0.964619
424.616319	0.967808
424.994712	0.968893
425.373044	0.972527
425.751314	0.974589
426.129524	0.979617
426.507673	0.979106
426.885762	0.980782
427.263789	0.983735
427.641756	0.985065
428.019662	0.986194
428.397508	0.988096
428.775292	0.988050
429.153016	0.989747
429.530679	0.991037
429.908282	0.992312
430.285824	0.992464
430.663305	0.992610
431.040726	0.994176
431.418086	0.995006
431.795385	0.995916
432.172624	0.996319
432.549802	0.995957
432.926920	0.995403
433.303977	0.995679
433.680974	0.996768
434.057910	0.996804
434.434786	0.996301
434.811601	0.996959
435.188355	0.996734
435.565050	0.997004
435.941683	0.997168
436.318257	0.996033
436.694770	0.997571
437.071222	0.997482
437.447614	0.998479
437.823946	0.997998
438.200218	0.997242
438.576429	0.997369
438.952580	0.997399
439.328670	0.997050
439.704700	0.997172
440.080670	0.997621
440.456580	0.997922
440.832429	0.997670
441.208218	0.997920
441.583947	0.997620
441.959616	0.997684
442.335224	0.998337
442.710773	0.997787
443.086261	0.997537
443.461689	0.997455
443.837057	0.997441
444.212365	0.998192
444.587612	0.998163
444.962800	0.997985
445.337927	0.998911
445.712995	0.997902
446.088002	0.997819
446.462949	0.997527
446.837837	0.999400
447.212664	0.997662
447.587431	0.997853
447.962139	0.998038
448.336786	0.996946
448.711374	0.997710
449.085901	0.997966
449.460369	0.998647
449.834776	0.997715
450.209124	0.998260
450.583412	0.998243
450.957640	0.998144
451.331808	0.998277
451.705917	0.996865
452.079965	0.997557
452.453954	0.998014
452.827883	0.997799
453.201752	0.997770
453.575562	0.997586
453.949311	0.998671
454.323001	0.998203
454.696632	0.998301
455.070202	0.997480
455.443713	0.997629
455.817164	0.998074
456.190556	0.998061
456.563888	0.998464
456.937160	0.998123
457.310373	0.997666
457.683526	0.997570
458.056619	0.997734
458.429653	0.997637
458.802628	0.997160
459.175542	0.997529
459.548398	0.998465
459.921194	0.997973
460.293930	0.998479
460.666607	0.998080
461.039224	0.997793
461.411782	0.997653
461.784280	0.998308
462.156719	0.998016
462.529099	0.997756
462.901419	0.997487
463.273680	0.996829
463.645882	0.997005
464.018024	0.998400
464.390106	0.997681
464.762130	0.997712
465.134094	0.997539
465.505999	0.998228
465.877845	0.996998
466.249631	0.997231
466.621358	0.996569
466.993026	0.996675
467.364634	0.997420
467.736184	0.997510
468.107674	0.997277
468.479105	0.997271
468.850477	0.997241
469.221790	0.998151
469.593043	0.996542
469.964238	0.997398
470.335373	0.997030
470.706449	0.996965
471.077467	0.997282
471.448425	0.997890
471.819324	0.997056
472.190164	0.997058
472.560945	0.996944
472.931667	0.997123
473.302330	0.996856
473.672934	0.997575
474.043479	0.997011
474.413965	0.997301
474.784393	0.997614
475.154761	0.997043
475.525070	0.996849
475.895321	0.997438
476.265513	0.997640
476.635645	0.997618
477.005719	0.997118
477.375734	0.996682
477.745691	0.996454
478.115588	0.997205
478.485427	0.997248
478.855207	0.997765
479.224928	0.997013
479.594591	0.996875
479.964194	0.996684
480.333739	0.996609
480.703226	0.996364
481.072653	0.996487
481.442022	0.996898
481.811333	0.996865
482.180584	0.997344
482.549777	0.997134
482.918912	0.996772
483.287988	0.996551
483.657005	0.997184
484.025964	0.996870
484.394864	0.997082
484.763706	0.996557
485.132489	0.997423
485.501213	0.997067
485.869879	0.996222
486.238487	0.996692
486.607036	0.997873
486.975527	0.996979
487.343959	0.996894
487.712333	0.996669
488.080648	0.996902
488.448905	0.996804
488.817104	0.997302
489.185244	0.996746
489.553326	0.997571
489.921350	0.996941
490.289315	0.997034
490.657222	0.996500
491.025070	0.997643
491.392861	0.997110
491.760593	0.997028
492.128267	0.997116
492.495883	0.996125
492.863440	0.996808
493.230939	0.997311
493.598380	0.997191
493.965763	0.997126
494.333088	0.996363
494.700354	0.996448
495.067563	0.996870
495.434713	0.997505
495.801805	0.997059
496.168839	0.997310
496.535815	0.997421
496.902733	0.997035
497.269593	0.996566
497.636395	0.996430
498.003139	0.996342
498.369825	0.997858
498.736453	0.997082
499.103023	0.997658
499.469535	0.996760
499.835989	0.997650
500.202385	0.996695
500.568723	0.996972
500.935003	0.997194
501.301226	0.997166
501.667390	0.996272
502.033497	0.997353
502.399546	0.997113
502.765537	0.997370
503.131470	0.996836
503.497345	0.996933
503.863163	0.996860
504.228923	0.996732
504.594625	0.996579
504.960269	0.996876
505.325856	0.997518
505.691385	0.997071
506.056856	0.996799
506.422270	0.996959
506.787625	0.997106
507.152924	0.997253
507.518164	0.996672
507.883347	0.996379
508.248472	0.996981
508.613540	0.996743
508.978550	0.996964
509.343503	0.997301
509.708398	0.997674
510.073236	0.997577
510.438016	0.996018
510.802738	0.996438
511.167403	0.996817
511.532010	0.997157
511.896561	0.996786
512.261053	0.996877
512.625488	0.996868
512.989866	0.996393
513.354186	0.996791
513.718449	0.997535
514.082655	0.997043
514.446803	0.996758
514.810894	0.997580
515.174927	0.997642
515.538904	0.997597
515.902822	0.997354
516.266684	0.996853
516.630488	0.997963
516.994235	0.997255
517.357925	0.997677
517.721558	0.997042
518.085133	0.996992
518.448651	0.997104
518.812112	0.997646
519.175516	0.997339
519.538863	0.997231
519.902152	0.997955
520.265385	0.996822
520.628560	0.997319
520.991678	0.996969
521.354739	0.997657
521.717743	0.996956
522.080690	0.996667
522.443580	0.997379
522.806413	0.996808
523.169189	0.997314
523.531908	0.996373
523.894569	0.997439
524.257174	0.997407
524.619722	0.996901
524.982213	0.996950
525.344647	0.997162
525.707025	0.996486
526.069345	0.996802
526.431608	0.997411
526.793815	0.997246
527.155964	0.997678
527.518057	0.997950
527.880093	0.997498
528.242072	0.997030
528.603995	0.997089
528.965860	0.997727
529.327669	0.997331
529.689421	0.996493
530.051117	0.997849
530.412755	0.997662
530.774337	0.997108
531.135862	0.997857
531.497331	0.996346
531.858743	0.998108
532.220098	0.996725
532.581396	0.997380
532.942638	0.997404
533.303824	0.997518
533.664953	0.996863
534.026025	0.998267
534.387040	0.997495
534.747999	0.997126
535.108902	0.997614
535.469748	0.998018
535.830537	0.997956
536.191270	0.997839
536.551947	0.997092
536.912567	0.997270
537.273131	0.997806
537.633638	0.997082
537.994089	0.998031
538.354483	0.997053
538.714821	0.997585
539.075103	0.997550
539.435328	0.998197
539.795497	0.997958
540.155609	0.997515
540.515665	0.998194
540.875665	0.997497
541.235609	0.997793
541.595496	0.996690
541.955328	0.997290
542.315102	0.997696
542.674821	0.998026
543.034483	0.997673
543.394090	0.996753
543.753640	0.997592
544.113134	0.996869
544.472571	0.997896
544.831953	0.997594
545.191278	0.997379
545.550548	0.996862
545.909761	0.997091
546.268918	0.998130
546.628019	0.998264
546.987064	0.996938
547.346053	0.996831
547.704986	0.997027
548.063863	0.997112
548.422684	0.997958
548.781449	0.997478
549.140158	0.997902
549.498811	0.996735
549.857408	0.997090
550.215949	0.996664
550.574434	0.997096
550.932864	0.997060
551.291237	0.997030
551.649555	0.998010
552.007817	0.997734
552.366022	0.998095
552.724173	0.997671
553.082267	0.997219
553.440305	0.997438
553.798288	0.996995
554.156215	0.997643
554.514086	0.997589
554.871902	0.997149
555.229661	0.997517
555.587365	0.997515
555.945014	0.997721
556.302606	0.997102
556.660143	0.997736
557.017625	0.998256
557.375050	0.996712
557.732421	0.997608
558.089735	0.997283
558.446994	0.996828
558.804197	0.998071
559.161345	0.996966
559.518437	0.997544
559.875474	0.997799
560.232455	0.998696
560.589381	0.997691
560.946251	0.997637
561.303065	0.997510
561.659825	0.997105
562.016528	0.997975
562.373177	0.997874
562.729770	0.997340
563.086307	0.996785
563.442789	0.997814
563.799216	0.996604
564.155587	0.997461
564.511904	0.998170
564.868164	0.996867
565.224370	0.997375
565.580520	0.998011
565.936615	0.997786
566.292654	0.996039
566.648638	0.998618
567.004567	0.997650
567.360441	0.997779
567.716260	0.997718
568.072023	0.996947
568.427732	0.997323
568.783385	0.997811
569.138982	0.997503
569.494525	0.997250
569.850013	0.998003
570.205445	0.998212
570.560823	0.997344
570.916145	0.997531
571.271412	0.997955
571.626625	0.997529
571.981782	0.997301
572.336884	0.998553
572.691931	0.997792
573.046923	0.998502
573.401860	0.997930
573.756743	0.998090
574.111570	0.997530
574.466342	0.998135
574.821059	0.998182
575.175722	0.998151
575.530330	0.997588
575.884882	0.998240
576.239380	0.998020
576.593823	0.997599
576.948211	0.998217
577.302544	0.997748
577.656823	0.997934
578.011047	0.997209
578.365216	0.998457
578.719330	0.997868
579.073389	0.997311
579.427394	0.997261
579.781344	0.998019
580.135239	0.997289
580.489080	0.997474
580.842866	0.998639
581.196597	0.997871
581.550273	0.997545
581.903895	0.998390
582.257463	0.997663
582.610975	0.997479
582.964434	0.998193
583.317837	0.998747
583.671186	0.997760
584.024481	0.998058
584.377721	0.997563
584.730906	0.997625
585.084037	0.998416
585.437113	0.998924
585.790135	0.997734
586.143103	0.997882
586.496016	0.997627
586.848874	0.998064
587.201679	0.997679
587.554428	0.997406
587.907124	0.998579
588.259765	0.998909
588.612352	0.998690
588.964884	0.998262
589.317362	0.997776
589.669786	0.997682
590.022155	0.997415
590.374470	0.998702
590.726731	0.997775
591.078937	0.998097
591.431090	0.997972
591.783188	0.997214
592.135232	0.998930
592.487222	0.998120
592.839157	0.996833
593.191038	0.998140
593.542866	0.997700
593.894639	0.997373
594.246358	0.998553
594.598022	0.997752
594.949633	0.998326
595.301190	0.997738
595.652692	0.997573
596.004141	0.997599
596.355535	0.997610
596.706876	0.998055
597.058162	0.998322
597.409395	0.998132
597.760573	0.998049
598.111698	0.998492
598.462768	0.997552
598.813785	0.997068
599.164748	0.997602
599.515657	0.997161
599.866511	0.998411
600.217312	0.998835
600.568060	0.997722
600.918753	0.998682
601.269392	0.997928
601.619978	0.997958
601.970510	0.997940
602.320988	0.997797
602.671412	0.997624
603.021783	0.998914
603.372100	0.998848
603.722363	0.998687
604.072572	0.997397
604.422728	0.998059
604.772830	0.998172
605.122878	0.998088
605.472872	0.998595
605.822813	0.998118
606.172701	0.998372
606.522534	0.998593
606.872314	0.999148
607.222041	0.997799
607.571714	0.997992
607.921333	0.998485
608.270899	0.997677
608.620411	0.998540
608.969870	0.998802
609.319276	0.997859
609.668627	0.998561
610.017926	0.997480
610.367171	0.998353
610.716362	0.998141
611.065500	0.997589
611.414585	0.998268
611.763616	0.997389
612.112594	0.998162
612.461518	0.997589
612.810389	0.998210
613.159207	0.998363
613.507971	0.997262
613.856682	0.998799
614.205340	0.997165
614.553945	0.998107
614.902496	0.997833
615.250994	0.998604
615.599439	0.998714
615.947830	0.997426
616.296169	0.998240
616.644454	0.997593
616.992686	0.997771
617.340864	0.998643
617.688990	0.998198
618.037063	0.998403
618.385082	0.998229
618.733048	0.997581
619.080961	0.998201
619.428821	0.998650
619.776628	0.997457
620.124382	0.999244
620.472083	0.998905
620.819731	0.998530
621.167326	0.999045
621.514868	0.999102
621.862357	0.997772
622.209793	0.998350
622.557176	0.998003
622.904506	0.997479
623.251783	0.998156
623.599007	0.998632
623.946179	0.997915
624.293297	0.998294
624.640363	0.999091
624.987376	0.997322
625.334336	0.997773
625.681243	0.998184
626.028097	0.999320
626.374899	0.997711
626.721647	0.998944
627.068343	0.998844
627.414987	0.998547
627.761577	0.997916
628.108115	0.997671
628.454600	0.998941
628.801032	0.998527
629.147412	0.998301
629.493739	0.999439
629.840014	0.998222
630.186236	0.998098
630.532405	0.998880
630.878521	0.997533
631.224585	0.998938
631.570597	0.997967
631.916556	0.998367
632.262462	0.998075
632.608316	0.999136
632.954117	0.997404
633.299866	0.997374
633.645562	0.997900
633.991206	0.998398
634.336797	0.998409
634.682336	0.999178
635.027823	0.998049
635.373257	0.998832
635.718639	0.998733
636.063968	0.999122
636.409245	0.997868
636.754470	0.998774
637.099642	0.999034
637.444762	0.998479
637.789829	0.998025
638.134845	0.998314
638.479808	0.998571
638.824719	0.998798
639.169577	0.998821
639.514383	0.998934
639.859137	0.998812
640.203839	0.998511
640.548489	0.998130
640.893086	0.997764
641.237632	0.998516
641.582125	0.997566
641.926566	0.999204
642.270955	0.998744
642.615292	0.998042
642.959576	0.998388
643.303809	0.998833
643.647990	0.998243
643.992118	0.998161
644.336195	0.997833
644.680219	0.998127
645.024192	0.997800
645.368112	0.997814
645.711981	0.997910
646.055797	0.998317
646.399562	0.997527
646.743274	0.999081
647.086935	0.997892
647.430544	0.998901
647.774101	0.997898
648.117606	0.998530
648.461059	0.998684
648.804460	0.997641
649.147810	0.997645
649.491108	0.998271
649.834354	0.997944
650.177548	0.997914
650.520690	0.998175
650.863781	0.998382
651.206820	0.998726
651.549807	0.998404
651.892742	0.998667
652.235626	0.998827
652.578458	0.998959
652.921238	0.998674
653.263967	0.998968
653.606644	0.997845
653.949269	0.998653
654.291843	0.998145
654.634365	0.998929
654.976836	0.997940
655.319255	0.999592
655.661622	0.998409
656.003938	0.997799
656.346203	0.998195
656.688416	0.998944
657.030577	0.998675
657.372687	0.998489
657.714746	0.997548
658.056753	0.997814
658.398708	0.998804
658.740612	0.999083
659.082465	0.997995
659.424266	0.998326
659.766016	0.997873
660.107715	0.999154
660.449362	0.997692
660.790958	0.997746
661.132503	0.998784
661.473996	0.998550
661.815438	0.998090
662.156829	0.998680
662.498168	0.998775
662.839456	0.997465
663.180693	0.998228
663.521879	0.998290
663.863013	0.998539
664.204097	0.998033
664.545129	0.998012
664.886110	0.997833
665.227040	0.998002
665.567918	0.998050
665.908746	0.997580
666.249522	0.997230
666.590248	0.998402
666.930922	0.997898
667.271545	0.998614
667.612118	0.997679
667.952639	0.998346
668.293109	0.998142
668.633528	0.997530
668.973896	0.997917
669.314213	0.997387
669.654480	0.998178
669.994695	0.997581
670.334859	0.997756
670.674973	0.997336
671.015035	0.998411
671.355047	0.997700
671.695008	0.997400
672.034918	0.998141
672.374777	0.998292
672.714585	0.997591
673.054342	0.999279
673.394049	0.997806
673.733705	0.997825
674.073310	0.998718
674.412864	0.997058
674.752368	0.997493
675.091820	0.998512
675.431223	0.998046
675.770574	0.997101
676.109875	0.998440
676.449125	0.997777
676.788324	0.997683
677.127473	0.999189
677.466571	0.997970
677.805619	0.997765
678.144616	0.998135
678.483562	0.998149
678.822458	0.998047
679.161303	0.997270
679.500098	0.998585
679.838842	0.998129
680.177535	0.997885
680.516179	0.998091
680.854771	0.998073
681.193314	0.998640
681.531805	0.997576
681.870247	0.998049
682.208638	0.997777
682.546978	0.998082
682.885268	0.997627
683.223508	0.997830
683.561697	0.997565
683.899836	0.998315
684.237925	0.997948
684.575963	0.997537
684.913951	0.998374
685.251889	0.997544
685.589776	0.998429
685.927614	0.998026
686.265401	0.997374
686.603137	0.997484
686.940824	0.997381
687.278460	0.998576
687.616046	0.998196
687.953582	0.997216
688.291068	0.998631
688.628504	0.997459
688.965889	0.997801
689.303224	0.996701
689.640510	0.997515
689.977745	0.997406
690.314930	0.997712
690.652065	0.997061
690.989150	0.997667
691.326185	0.997870
691.663170	0.998312
692.000105	0.997703
692.336990	0.997815
692.673825	0.997505
693.010610	0.997048
693.347345	0.997954
693.684030	0.997494
694.020665	0.996749
694.357251	0.997232
694.693786	0.997922
695.030272	0.996914
695.366707	0.997246
695.703093	0.998327
696.039429	0.996923
696.375716	0.998007
696.711952	0.997852
697.048139	0.998090
697.384276	0.997575
697.720363	0.997283
698.056400	0.996928
698.392388	0.997696
698.728326	0.997160
699.064214	0.997821
699.400053	0.997985
699.735842	0.998566
700.071581	0.996855
700.407270	0.996526
700.742910	0.998519
701.078501	0.997621
701.414042	0.998605
701.749533	0.995986
702.084974	0.998058
702.420366	0.997227
702.755709	0.997772
703.091002	0.998284
703.426246	0.998566
703.761440	0.997395
704.096584	0.996839
704.431679	0.997494
704.766725	0.997591
705.101721	0.998054
705.436668	0.998039
705.771565	0.996744
706.106413	0.997762
706.441212	0.997359
706.775961	0.998159
707.110661	0.996660
707.445311	0.998185
707.779913	0.998613
708.114465	0.998932
708.448967	0.998516
708.783421	0.999052
709.117825	0.997642
709.452180	0.998228
709.786485	0.997842
710.120742	0.996963
710.454949	0.997179
710.789107	0.998036
711.123216	0.996448
711.457275	0.996953
711.791286	0.996981
712.125247	0.998685
712.459159	0.997018
712.793023	0.997056
713.126837	0.997294
713.460602	0.996518
713.794318	0.996071
714.127985	0.996647
714.461602	0.997452
714.795171	0.996764
715.128691	0.997347
715.462162	0.997957
715.795584	0.997672
716.128957	0.998496
716.462281	0.997329
716.795556	0.996720
717.128782	0.997563
717.461960	0.997633
717.795088	0.998258
718.128167	0.998071
718.461198	0.996836
718.794180	0.997210
719.127113	0.997702
719.459997	0.997005
719.792833	0.997061
720.125619	0.996905
720.458357	0.997149
720.791046	0.998153
721.123686	0.997675
721.456278	0.997946
721.788821	0.997160
722.121315	0.998115
722.453761	0.998045
722.786158	0.996836
723.118506	0.998124
723.450805	0.996682
723.783056	0.998179
724.115259	0.997047
724.447412	0.997780
724.779518	0.997708
725.111574	0.996567
725.443582	0.997277
725.775542	0.996396
726.107453	0.997875
726.439315	0.999248
726.771129	0.998043
727.102895	0.997463
727.434612	0.997130
727.766281	0.997590
728.097901	0.997166
728.429473	0.998228
728.760996	0.995743
729.092471	0.997182
729.423897	0.997315
729.755276	0.997054
730.086606	0.997818
730.417887	0.997401
730.749120	0.997766
731.080305	0.997654
731.411442	0.997024
731.742530	0.997047
732.073570	0.997634
732.404562	0.997849
732.735506	0.997195
733.066401	0.997822
733.397249	0.998063
733.728048	0.997595
734.058798	0.997236
734.389501	0.997237
734.720156	0.997341
735.050762	0.998373
735.381320	0.997703
735.711831	0.997452
736.042293	0.997695
736.372707	0.998546
736.703073	0.996384
737.033391	0.997204
737.363661	0.998391
737.693883	0.997717
738.024056	0.997053
738.354182	0.997224
738.684260	0.997154
739.014290	0.997183
739.344272	0.997235
739.674207	0.997133
740.004093	0.997378
740.333931	0.996775
740.663722	0.997318
740.993464	0.998670
741.323159	0.997531
741.652806	0.998108
741.982405	0.996973
742.311956	0.997213
742.641460	0.998045
742.970915	0.997574
743.300323	0.997073
743.629683	0.996757
743.958996	0.999427
744.288260	0.996884
744.617477	0.997691
744.946647	0.997566
745.275768	0.997951
745.604842	0.996589
745.933869	0.997356
746.262847	0.998266
746.591778	0.996592
746.920662	0.998599
747.249498	0.998277
747.578286	0.998595
747.907027	0.998308
748.235720	0.997597
748.564365	0.998318
748.892963	0.997524
749.221514	0.997596
749.550017	0.996216
749.878473	0.998094
750.206881	0.998514
750.535242	0.997703
750.863555	0.996914
751.191821	0.997549
751.520039	0.997581
751.848210	0.996374
752.176334	0.997768
752.504411	0.998317
752.832440	0.996920
753.160421	0.998112
753.488356	0.997634
753.816243	0.997792
754.144082	0.997765
754.471875	0.998195
754.799620	0.998391
755.127318	0.997193
755.454969	0.997425
755.782572	0.998623
756.110129	0.997587
756.437638	0.998935
756.765100	0.998551
757.092515	0.997197
757.419882	0.998395
757.747203	0.997849
758.074477	0.999309
758.401703	0.997542
758.728882	0.997629
759.056014	0.998076
759.383099	0.998282
759.710138	0.997886
760.037129	0.997673
760.364073	0.997595
760.690970	0.997193
761.017820	0.996882
761.344623	0.998907
761.671379	0.999630
761.998088	0.997653
762.324751	0.997534
762.651366	0.995817
762.977935	0.996397
763.304456	0.996881
763.630931	0.995106
763.957359	0.994862
764.283740	0.996211
764.610074	0.996540
764.936362	0.996776
765.262602	0.997867
765.588796	0.997507
765.914943	0.997193
766.241044	0.996193
766.567097	0.997691
766.893104	0.997360
767.219064	0.996936
767.544978	0.997134
767.870845	0.998141
768.196665	0.997026
768.522438	0.998265
768.848165	0.997697
769.173846	0.998167
769.499479	0.999613
769.825066	0.999455
770.150607	0.998814
770.476101	0.999282
770.801548	0.999199
771.126949	0.999540
771.452303	0.998717
771.777611	0.997673
772.102872	0.997870
772.428087	0.998459
772.753256	0.998539
773.078378	0.998054
773.403453	0.998520
773.728482	0.998663
774.053465	0.998229
774.378401	0.998258
774.703291	0.998645
775.028135	0.998567
775.352932	0.997396
775.677683	0.999056
776.002388	0.998253
776.327046	0.997973
776.651658	0.999315
776.976224	0.998144
777.300743	0.998502
777.625216	0.998016
777.949643	0.998490
778.274024	0.997376
778.598359	0.997635
778.922647	0.998351
779.246889	0.998967
779.571086	0.998656
779.895236	0.998627
780.219339	0.999646
780.543397	0.997536
780.867409	0.999245
781.191374	0.997829
781.515294	0.998773
781.839167	0.999509
782.162995	0.997887
782.486776	0.999070
782.810511	0.997902
783.134201	0.999084
783.457844	0.998435
783.781441	0.999041
784.104993	0.999065
784.428498	0.999338
784.751958	0.998399
785.075372	0.999187
785.398739	0.998066
785.722061	0.998060
786.045337	0.997746
786.368568	0.998453
786.691752	0.998030
787.014891	0.997572
787.337983	0.997649
787.661030	0.998855
787.984031	0.998807
788.306987	0.998544
788.629897	0.997412
788.952760	0.998827
789.275579	0.998420
789.598351	0.997923
789.921078	0.998873
790.243759	0.998675
790.566395	0.996994
790.888984	0.999009
791.211529	0.998730
791.534027	0.998002
791.856480	0.998965
792.178888	0.998144
792.501249	0.998823
792.823566	0.999924
793.145836	0.997545
793.468062	0.998589
793.790241	0.998627
794.112375	0.997964
794.434464	0.998299
794.756507	0.999743
795.078505	0.998476
795.400457	0.998856
795.722364	1.000083
796.044226	0.998614
796.366042	0.997978
796.687812	0.997025
797.009538	0.998359
797.331218	0.999646
797.652852	0.998945
797.974442	0.997740
798.295986	0.998388
798.617484	0.996305
798.938938	0.998332
799.260346	0.998189
799.581709	0.997542
799.903026	0.999268
800.224299	0.997061
800.545526	0.997942
800.866708	0.998599
801.187845	0.998814
801.508936	0.998855
801.829983	0.997871
802.150984	0.997809
802.471940	0.999287
802.792851	0.998376
803.113717	0.999774
803.434538	0.999369
803.755314	0.998553
804.076045	0.999209
804.396731	0.997756
804.717372	0.996740
805.037967	0.999060
805.358518	0.998015
805.679024	0.997117
805.999485	0.999037
806.319901	0.998733
806.640272	0.999541
806.960598	0.998675
807.280879	0.998219
807.601115	0.998451
807.921306	0.998873
808.241453	0.997806
808.561554	0.998749
808.881611	0.998454
809.201623	0.997875
809.521590	0.998428
809.841513	0.998388
810.161390	0.996907
810.481223	0.997459
810.801011	0.998955
811.120755	0.999380
811.440453	0.997909
811.760107	0.997837
812.079716	0.999765
812.399281	0.998491
812.718801	0.998242
813.038276	0.998456
813.357707	0.998201
813.677093	1.000097
813.996434	0.998673
814.315731	0.999786
814.634983	0.998678
814.954191	0.998958
815.273354	0.998261
815.592473	0.997843
815.911547	0.999023
816.230577	0.998423
816.549562	0.998808
816.868502	0.997276
817.187399	0.999795
817.506250	0.998995
817.825058	0.998095
818.143821	0.998996
818.462539	0.998094
818.781213	0.998382
819.099843	0.999027
819.418429	0.997800
819.736970	0.998414
820.055466	0.996748
820.373919	0.996524
820.692327	0.996690
821.010691	0.996163
821.329011	0.994429
821.647286	0.992583
821.965517	0.991713
822.283704	0.990298
822.601847	0.990685
822.919945	0.990695
823.237999	0.990923
823.556010	0.992131
823.873976	0.992583
824.191897	0.993485
824.509775	0.994910
824.827609	0.994059
825.145398	0.995189
825.463144	0.994733
825.780845	0.994213
826.098502	0.994718
826.416116	0.995212
826.733685	0.994792
827.051210	0.992625
827.368692	0.993755
827.686129	0.993962
828.003522	0.996032
828.320872	0.995544
828.638177	0.995635
828.955439	0.996831
829.272656	0.996111
829.589830	0.996567
829.906960	0.997083
830.224046	0.997353
830.541088	0.997294
830.858086	0.997940
831.175041	0.998565
831.491952	0.997999
831.808819	0.997509
832.125642	0.998315
832.442421	0.998529
832.759157	0.998607
833.075849	0.997331
833.392497	0.996450
833.709101	0.995903
834.025662	0.995735
834.342179	0.995767
834.658653	0.996800
834.975083	0.997669
835.291469	0.996624
835.607811	0.996917
835.924110	0.997043
836.240366	0.999766
836.556578	0.998399
836.872746	0.998650
837.188871	0.998029
837.504952	0.997801
837.820990	0.997872
838.136984	0.997866
838.452935	0.998782
838.768842	0.998376
839.084706	0.997802
839.400526	0.998437
839.716303	0.997834
840.032037	0.997681
840.347727	0.997644
840.663373	0.997396
840.978977	0.997581
841.294537	0.999174
841.610054	0.999087
841.925527	0.999294
842.240957	0.998911
842.556344	0.998521
842.871687	0.998406
843.186987	0.999037
843.502244	0.998584
843.817458	0.998543
844.132629	0.998948
844.447756	0.999099
844.762840	0.999264
845.077881	1.000097
845.392879	0.998077
845.707833	0.999268
846.022745	0.999939
846.337613	0.999091
846.652438	0.999346
846.967221	0.998468
847.281960	0.999746
847.596656	0.999220
847.911309	0.999419
848.225919	0.998202
848.540485	0.998991
848.855009	1.000326
849.169490	0.998409
849.483928	0.999465
849.798323	0.998171
850.112675	0.999824
850.426984	0.999800
850.741251	1.000610
851.055474	0.999003
851.369654	0.999611
851.683792	0.998519
851.997887	0.999279
852.311938	0.999351
852.625947	0.998604
852.939914	0.999632
853.253837	0.999840
853.567718	0.999841
853.881555	0.999926
854.195350	0.999179
854.509103	0.999145
854.822812	0.999396
855.136479	0.999295
855.450103	1.000538
855.763685	0.999680
856.077224	0.999143
856.390720	0.998654
856.704173	0.999880
857.017584	1.000550
857.330953	0.998487
857.644278	0.999133
857.957561	0.999713
858.270802	0.999319
858.584000	0.999195
858.897155	0.999029
859.210268	0.999009
859.523339	0.999806
859.836367	1.000008
860.149352	0.998595
860.462295	0.999427
860.775195	0.999279
861.088054	0.997044
861.400869	0.999851
861.713642	0.998455
862.026373	0.999488
862.339062	1.000548
862.651708	0.998547
862.964312	0.999872
863.276873	0.999013
863.589392	0.999297
863.901869	0.999583
864.214303	0.999950
864.526696	0.999509
864.839045	0.999374
865.151353	0.999086
865.463619	0.999268
865.775842	0.998951
866.088023	1.000577
866.400162	0.999890
866.712258	0.999877
867.024313	0.999803
867.336325	1.000563
867.648296	0.999815
867.960224	0.999781
868.272110	0.999686
868.583954	0.998584
868.895755	0.999613
869.207515	0.999289
869.519233	1.000200
869.830909	0.998296
870.142542	0.997496
870.454134	0.999445
870.765684	0.999241
871.077191	1.000286
871.388657	0.999149
871.700081	0.998599
872.011463	0.998807
872.322803	0.999783
872.634101	0.998181
872.945357	0.998402
873.256571	0.998074
873.567744	0.999240
873.878874	0.999414
874.189963	0.998668
874.501010	1.000084
874.812015	0.998839
875.122979	0.998786
875.433900	0.999516
875.744780	0.999661
876.055618	0.997933
876.366415	0.999138
876.677169	0.998638
876.987882	0.998791
877.298554	0.999397
877.609183	0.999779
877.919771	0.999267
878.230317	0.998696
878.540822	0.998081
878.851285	0.997304
879.161707	0.997159
879.472087	0.999453
879.782425	0.997673
880.092722	0.996878
880.402977	0.995107
880.713191	0.994312
881.023363	0.992196
881.333494	0.991388
881.643583	0.992646
881.953631	0.991567
882.263637	0.990854
882.573602	0.990835
882.883526	0.992879
883.193408	0.994719
883.503248	0.994387
883.813048	0.995199
884.122806	0.995242
884.432522	0.995911
884.742197	0.997402
885.051831	0.997100
885.361424	0.997814
885.670975	0.998154
885.980485	0.997809
886.289954	0.997024
886.599382	0.996902
886.908768	0.998839
887.218113	0.998044
887.527417	0.997496
887.836680	0.998538
888.145901	0.998974
888.455082	0.999661
888.764221	0.999603
889.073319	0.998541
889.382376	0.998696
889.691392	0.998294
890.000366	0.999234
890.309300	0.998637
890.618193	0.999448
890.927044	0.998415
891.235855	0.997987
891.544625	0.999892
891.853353	0.998635
892.162041	0.998829
892.470687	0.998987
892.779293	0.997021
893.087858	0.996781
893.396381	0.998521
893.704864	0.997296
894.013306	0.997631
894.321707	0.996549
894.630068	0.996469
894.938387	0.995216
895.246665	0.996057
895.554903	0.995195
895.863100	0.996950
896.171256	0.996697
896.479371	0.996836
896.787446	0.996144
897.095480	0.998031
897.403473	0.998730
897.711425	0.998082
898.019336	0.998726
898.327207	0.999571
898.635038	0.997304
898.942827	0.998030
899.250576	0.998131
899.558284	0.999185
899.865952	0.997580
900.173579	0.998118
900.481165	0.998848
900.788711	0.997823
901.096216	0.998703
901.403681	0.998168
901.711105	0.998504
902.018489	0.998205
902.325832	0.998540
902.633135	0.999352
902.940397	0.999033
903.247619	0.997218
903.554800	0.997115
903.861941	0.997658
904.169041	0.995790
904.476101	0.995078
904.783121	0.995078
905.090100	0.995038
905.397039	0.995551
905.703938	0.997193
906.010796	0.998072
906.317614	0.997127
906.624391	0.998239
906.931129	0.998552
907.237826	0.998192
907.544483	0.998879
907.851099	0.999170
908.157675	0.998058
908.464211	0.999849
908.770707	0.997395
909.077163	0.998899
909.383578	0.999736
909.689954	0.998700
909.996289	0.999056
910.302584	0.999315
910.608839	1.000429
910.915054	0.998976
911.221229	1.000381
911.527363	0.998624
911.833458	1.000006
912.139513	0.999582
912.445527	0.998490
912.751502	0.998644
913.057436	0.998221
913.363331	0.999824
913.669186	0.999241
913.975000	0.998634
914.280775	0.999323
914.586510	0.998182
914.892205	0.996553
915.197859	0.996699
915.503475	0.996873
915.809050	0.995813
916.114585	0.995011
916.420081	0.994956
916.725536	0.996694
917.030952	0.994947
917.336328	0.995344
917.641665	0.995271
917.946961	0.996732
918.252218	0.996010
918.557435	0.996980
918.862612	0.997955
919.167750	0.997115
919.472848	0.999562
919.777906	0.999515
920.082925	0.998507
920.387904	0.998625
920.692843	0.998814
920.997743	0.997582
921.302603	0.999518
921.607423	0.997981
921.912204	0.999032
922.216946	0.999368
922.521647	0.998806
922.826310	0.998840
923.130932	0.999634
923.435516	0.999552
923.740059	0.999290
924.044564	0.999074
924.349028	0.998669
924.653454	1.000150
924.957840	0.998653
925.262186	0.998704
925.566493	0.998887
925.870761	0.999504
926.174989	0.999020
926.479178	0.999836
926.783328	0.998993
927.087438	0.999433
927.391509	0.998200
927.695541	0.998870
927.999533	0.998933
928.303486	0.999519
928.607400	1.000496
928.911275	1.000321
929.215110	1.000018
929.518906	1.000197
929.822663	0.999733
930.126381	1.001205
930.430060	0.999932
930.733699	1.000947
931.037299	0.999532
931.340861	1.000915
931.644383	0.998510
931.947866	0.999283
932.251309	1.000593
932.554714	0.999367
932.858080	1.000005
933.161407	0.999195
933.464694	0.999443
933.767943	0.999870
934.071153	0.999696
934.374323	1.000994
934.677455	0.999384
934.980548	0.999146
935.283602	0.999920
935.586617	0.999906
935.889593	1.000526
936.192530	0.999701
936.495428	0.999121
936.798287	0.999967
937.101108	0.999163
937.403890	0.999119
937.706632	1.001111
938.009336	0.999641
938.312002	0.998779
938.614628	0.999416
938.917216	0.999330
939.219765	0.998908
939.522275	0.999347
939.824747	0.998977
940.127179	0.999460
940.429573	1.000235
940.731929	0.998885
941.034246	0.999027
941.336524	0.998231
941.638763	0.999924
941.940964	0.999226
942.243126	0.998871
942.545250	0.999496
942.847335	0.999223
943.149381	1.000282
943.451389	0.997815
943.753359	1.000433
944.055290	1.000420
944.357182	0.999897
944.659036	0.998777
944.960851	1.000726
945.262628	1.000424
945.564367	0.999405
945.866067	0.998916
946.167729	0.999803
946.469352	1.001269
946.770937	0.996918
947.072484	0.999995
947.373992	0.999902
947.675462	0.999687
947.976893	1.000245
948.278286	1.001654
948.579641	1.001023
948.880958	0.999387
949.182236	0.999761
949.483476	1.001026
949.784678	1.000700
950.085841	0.998978
950.386967	0.998755
950.688054	1.000016
950.989103	0.997866
951.290114	0.997913
951.591087	0.999927
951.892021	0.998990
952.192917	1.000225
952.493776	0.999092
952.794596	1.000392
953.095378	0.999639
953.396122	0.999992
953.696828	0.999524
953.997496	1.000272
954.298126	1.000673
954.598718	0.999391
954.899272	1.000761
955.199788	0.999394
955.500266	1.000326
955.800706	0.999988
956.101108	0.999734
956.401472	1.000056
956.701798	0.999857
957.002087	1.000114
957.302337	0.998757
957.602550	1.000604
957.902724	0.998908
958.202861	0.999681
958.502960	0.999751
958.803022	0.999867
959.103045	0.999250
959.403031	1.000847
959.702979	1.000269
960.002889	0.999127
960.302762	1.000207
960.602596	1.000920
960.902393	0.999772
961.202153	0.999671
961.501875	0.999538
961.801559	1.000614
962.101205	0.998896
962.400814	1.000995
962.700385	1.000671
962.999918	0.999899
963.299414	0.999670
963.598873	1.000940
963.898293	0.999578
964.197677	0.998906
964.497022	0.999604
964.796331	0.999425
965.095601	1.000582
965.394835	0.999821
965.694030	1.001068
965.993189	0.999639
966.292309	0.999365
966.591393	0.996687
966.890439	1.000028
967.189447	0.999932
967.488419	0.998957
967.787353	1.000318
968.086249	0.999306
968.385108	0.999962
968.683930	1.000216
968.982714	0.999269
969.281462	1.000400
969.580172	1.000129
969.878844	1.000333
970.177480	0.999771
970.476078	1.000655
970.774639	1.000769
971.073162	0.999671
971.371649	0.999024
971.670098	0.999733
971.968510	0.999611
972.266885	0.998673
972.565223	1.000666
972.863524	1.000063
973.161788	0.999077
973.460014	1.000608
973.758204	0.999124
974.056356	0.999450
974.354471	0.998823
974.652550	0.999740
974.950591	0.999669
975.248595	0.999612
975.546563	1.000910
975.844493	1.000037
976.142386	0.999411
976.440243	1.001007
976.738062	1.000026
977.035845	0.999185
977.333590	0.999766
977.631299	0.999470
977.928971	0.999977
978.226606	1.000440
978.524204	0.999670
978.821765	1.001592
979.119290	1.000961
979.416777	0.999610
979.714228	0.999413
980.011642	0.999617
980.309020	0.999295
980.606360	0.999921
980.903664	0.999374
981.200931	0.999628
981.498162	1.000679
981.795356	0.999467
982.092513	0.999643
982.389633	1.000340
982.686717	0.999196
982.983764	0.999748
983.280775	0.999610
983.577749	1.001241
983.874686	0.999234
984.171587	0.999023
984.468451	0.999970
984.765279	1.000008
985.062070	1.000553
985.358824	0.998852
985.655543	0.999592
985.952224	0.999706
986.248869	0.999962
986.545478	1.001231
986.842050	0.999851
987.138586	0.998930
987.435086	1.000142
987.731549	1.001280
988.027975	1.001224
988.324366	1.000423
988.620719	1.000572
988.917037	1.000051
989.213318	1.000453
989.509563	1.000485
989.805772	1.001087
990.101944	1.001591
990.398080	1.000544
990.694180	1.000917
990.990244	1.000270
991.286271	1.000054
991.582262	1.000344
991.878217	0.999385
992.174136	1.000879
992.470019	0.999743
992.765865	1.002610
993.061676	1.000912
993.357450	1.000094
993.653188	1.001429
993.948890	1.000517
994.244556	1.000138
994.540186	0.999315
994.835780	0.999308
995.131337	1.000153
995.426859	1.000369
995.722345	0.999867
996.017795	1.000324
996.313208	0.999604
996.608586	0.998777
996.903928	1.000503
997.199234	1.000303
997.494504	1.001088
997.789738	0.999650
998.084936	1.000053
998.380099	0.999565
998.675225	1.001141
998.970316	1.000802
999.265371	1.000835
999.560390	0.999605
999.855373	0.999909
1000.150320	0.999141
1000.445232	1.000428
1000.740108	0.998906
1001.034948	0.997418
1001.329752	1.000088
1001.624521	1.000586
1001.919254	0.999344
1002.213951	0.999958
1002.508613	0.998603
1002.803239	1.000675
1003.097829	1.001821
1003.392384	0.999990
1003.686903	1.000143
1003.981386	0.999470
1004.275834	1.000525
1004.570246	0.998952
1004.864623	1.000116
1005.158964	1.000353
1005.453270	0.998235
1005.747540	0.999602
1006.041775	1.000165
1006.335974	1.000084
1006.630138	1.000398
1006.924266	0.999378
1007.218359	0.999299
1007.512416	1.001263
1007.806438	0.999379
1008.100425	1.000046
1008.394376	1.000508
1008.688292	0.999719
1008.982172	0.997719
1009.276017	0.999592
1009.569827	1.000888
1009.863602	0.998303
1010.157341	1.000951
1010.451045	0.998532
1010.744714	1.001940
1011.038347	1.000707
1011.331945	0.999525
1011.625508	1.000800
1011.919036	1.001091
1012.212528	0.999330
1012.505986	1.000697
1012.799408	1.000053
1013.092795	1.000382
1013.386147	1.000067
1013.679464	1.000354
1013.972745	1.000133
1014.265992	1.000979
1014.559204	0.999710
1014.852380	1.001125
1015.145521	1.001074
1015.438628	0.999991
1015.731699	0.999584
1016.024736	1.000607
1016.317737	1.000399
1016.610703	1.000986
1016.903635	1.000344
1017.196531	0.999287
1017.489393	1.000142
1017.782219	0.998511
1018.075011	1.000337
1018.367768	0.998472
1018.660490	1.000284
1018.953177	1.000284
1019.245829	1.000284
