Dividing Wavelength (nm)	Counts (n)	Blue Motor Position (mm): 27.600000	Red Motor Position (mm): 0.000000	
326.493990	1.001129
326.888308	1.001129
327.282561	1.001129
327.676750	1.001315
328.070874	1.001401
328.464933	1.002495
328.858929	1.001742
329.252859	1.001430
329.646726	1.000558
330.040528	1.001461
330.434265	1.001911
330.827938	1.000843
331.221547	1.001643
331.615091	1.001468
332.008571	1.002042
332.401986	1.001475
332.795338	1.000630
333.188625	1.002179
333.581847	1.000942
333.975006	1.002096
334.368100	1.000952
334.761129	1.001118
335.154095	1.002126
335.546996	1.000781
335.939833	1.000234
336.332606	0.999821
336.725315	0.999260
337.117960	1.000806
337.510540	0.999888
337.903056	1.000823
338.295508	1.002191
338.687896	0.999681
339.080220	0.999957
339.472480	0.998497
339.864676	1.000719
340.256807	0.999586
340.648875	1.000162
341.040879	1.000548
341.432818	1.000457
341.824694	0.999920
342.216506	1.000938
342.608253	1.000492
342.999937	1.000590
343.391557	0.999906
343.783113	1.000816
344.174605	1.000211
344.566033	0.999750
344.957397	1.000693
345.348697	1.000913
345.739934	0.999776
346.131106	0.999745
346.522215	0.999771
346.913260	0.999207
347.304241	1.000088
347.695159	0.999959
348.086012	0.999652
348.476802	1.000117
348.867528	0.999220
349.258191	0.999157
349.648789	1.000218
350.039324	0.999158
350.429796	0.999803
350.820203	0.998581
351.210548	1.000310
351.600828	1.000583
351.991045	0.999608
352.381198	0.999568
352.771288	0.998185
353.161314	1.000382
353.551276	0.998046
353.941175	0.998146
354.331010	0.999214
354.720782	0.999266
355.110490	0.999630
355.500135	0.999219
355.889717	0.998058
356.279235	0.998601
356.668689	0.999763
357.058080	0.999589
357.447408	0.997316
357.836672	0.999193
358.225873	0.998787
358.615010	0.999125
359.004084	0.997150
359.393095	0.999693
359.782043	0.998607
360.170927	0.998876
360.559748	0.999150
360.948505	0.998069
361.337199	0.997998
361.725830	0.998397
362.114398	0.998551
362.502903	0.998385
362.891344	0.998203
363.279722	0.996952
363.668037	0.998625
364.056289	0.997552
364.444478	0.998766
364.832603	0.998486
365.220665	0.998211
365.608665	0.997746
365.996601	0.997459
366.384474	0.996781
366.772284	0.998490
367.160031	0.996322
367.547715	0.997100
367.935336	0.995071
368.322893	0.995257
368.710388	0.993637
369.097820	0.991741
369.485189	0.988261
369.872495	0.988485
370.259738	0.985979
370.646918	0.983186
371.034035	0.980358
371.421090	0.977939
371.808081	0.972813
372.195010	0.970225
372.581875	0.964968
372.968678	0.960134
373.355418	0.956385
373.742096	0.949193
374.128710	0.945373
374.515262	0.941121
374.901751	0.934524
375.288177	0.930554
375.674540	0.923017
376.060841	0.917001
376.447079	0.910893
376.833254	0.903737
377.219367	0.898585
377.605417	0.886722
377.991404	0.883772
378.377329	0.877298
378.763191	0.871219
379.148991	0.863009
379.534727	0.854891
379.920402	0.846769
380.306013	0.843086
380.691563	0.830297
381.077049	0.823083
381.462474	0.819330
381.847835	0.808007
382.233134	0.803012
382.618371	0.803878
383.003545	0.786226
383.388657	0.783634
383.773706	0.776783
384.158693	0.772454
384.543618	0.768553
384.928480	0.758977
385.313280	0.748333
385.698017	0.747980
386.082692	0.736100
386.467305	0.735553
386.851856	0.729512
387.236344	0.724443
387.620770	0.718715
388.005133	0.713095
388.389435	0.707644
388.773674	0.703588
389.157851	0.696126
389.541965	0.694219
389.926018	0.701020
390.310008	0.687125
390.693936	0.684965
391.077802	0.676436
391.461606	0.678468
391.845348	0.666611
392.229027	0.666145
392.612645	0.665317
392.996200	0.652553
393.379694	0.645407
393.763125	0.635037
394.146494	0.639856
394.529801	0.630860
394.913047	0.622523
395.296230	0.628376
395.679351	0.620016
396.062410	0.616339
396.445408	0.619581
396.828343	0.614559
397.211217	0.609492
397.594028	0.622387
397.976778	0.611943
398.359466	0.609218
398.742092	0.604188
399.124656	0.616270
399.507158	0.603990
399.889598	0.601869
400.271977	0.592752
400.654294	0.596710
401.036549	0.595244
401.418742	0.599133
401.800874	0.585424
402.182944	0.581976
402.564952	0.574301
402.946898	0.576064
403.328783	0.576753
403.710606	0.588137
404.092367	0.563325
404.474067	0.567946
404.855705	0.567308
405.237282	0.575533
405.618797	0.561590
406.000250	0.558122
406.381642	0.548212
406.762972	0.552721
407.144240	0.551359
407.525447	0.551618
407.906593	0.543577
408.287677	0.539760
408.668700	0.548005
409.049661	0.541832
409.430560	0.536610
409.811399	0.545598
410.192176	0.527409
410.572891	0.534780
410.953545	0.522544
411.334138	0.536745
411.714669	0.528984
412.095139	0.540766
412.475547	0.524621
412.855894	0.526965
413.236180	0.526743
413.616405	0.531031
413.996568	0.521147
414.376670	0.528087
414.756711	0.532449
415.136691	0.529875
415.516609	0.520908
415.896466	0.517832
416.276262	0.513801
416.655997	0.515022
417.035670	0.497074
417.415283	0.489315
417.794834	0.493632
418.174324	0.498667
418.553753	0.508264
418.933121	0.490463
419.312428	0.484364
419.691674	0.489868
420.070859	0.477918
420.449983	0.485713
420.829045	0.475002
421.208047	0.484003
421.586988	0.477304
421.965867	0.476113
422.344686	0.465342
422.723444	0.477566
423.102141	0.495052
423.480777	0.467559
423.859352	0.488249
424.237866	0.465489
424.616319	0.466129
424.994712	0.457039
425.373044	0.467545
425.751314	0.455743
426.129524	0.472436
426.507673	0.455510
426.885762	0.449335
427.263789	0.454662
427.641756	0.464360
428.019662	0.455099
428.397508	0.454241
428.775292	0.458539
429.153016	0.450534
429.530679	0.456597
429.908282	0.449798
430.285824	0.460272
430.663305	0.438428
431.040726	0.459958
431.418086	0.459957
431.795385	0.451189
432.172624	0.450362
432.549802	0.451088
432.926920	0.450093
433.303977	0.449842
433.680974	0.447387
434.057910	0.446064
434.434786	0.445439
434.811601	0.448027
435.188355	0.430972
435.565050	0.440985
435.941683	0.441973
436.318257	0.426919
436.694770	0.427769
437.071222	0.426812
437.447614	0.431567
437.823946	0.439142
438.200218	0.428655
438.576429	0.439153
438.952580	0.432761
439.328670	0.430633
439.704700	0.438261
440.080670	0.440528
440.456580	0.423756
440.832429	0.432865
441.208218	0.444849
441.583947	0.435326
441.959616	0.436562
442.335224	0.443562
442.710773	0.436309
443.086261	0.436467
443.461689	0.451579
443.837057	0.443595
444.212365	0.436518
444.587612	0.445025
444.962800	0.438074
445.337927	0.442062
445.712995	0.469151
446.088002	0.435933
446.462949	0.448833
446.837837	0.456804
447.212664	0.448348
447.587431	0.445086
447.962139	0.422410
448.336786	0.388190
448.711374	0.401761
449.085901	0.444991
449.460369	0.452707
449.834776	0.460330
450.209124	0.446885
450.583412	0.446957
450.957640	0.443897
451.331808	0.458957
451.705917	0.484323
452.079965	0.493601
452.453954	0.488729
452.827883	0.500193
453.201752	0.501111
453.575562	0.515780
453.949311	0.513241
454.323001	0.523544
454.696632	0.526378
455.070202	0.527801
455.443713	0.527810
455.817164	0.530565
456.190556	0.535863
456.563888	0.540481
456.937160	0.544499
457.310373	0.563785
457.683526	0.570833
458.056619	0.582565
458.429653	0.590165
458.802628	0.599798
459.175542	0.602889
459.548398	0.600385
459.921194	0.603856
460.293930	0.611917
460.666607	0.606842
461.039224	0.607846
461.411782	0.613318
461.784280	0.620779
462.156719	0.631974
462.529099	0.642950
462.901419	0.660643
463.273680	0.670528
463.645882	0.677805
464.018024	0.691768
464.390106	0.695018
464.762130	0.695781
465.134094	0.695284
465.505999	0.687584
465.877845	0.681179
466.249631	0.683701
466.621358	0.697464
466.993026	0.714419
467.364634	0.725867
467.736184	0.738276
468.107674	0.750007
468.479105	0.757993
468.850477	0.767925
469.221790	0.779039
469.593043	0.790742
469.964238	0.800473
470.335373	0.806823
470.706449	0.813957
471.077467	0.821395
471.448425	0.817795
471.819324	0.816637
472.190164	0.822613
472.560945	0.838344
472.931667	0.850141
473.302330	0.857363
473.672934	0.865582
474.043479	0.868725
474.413965	0.874734
474.784393	0.881676
475.154761	0.885597
475.525070	0.890934
475.895321	0.896824
476.265513	0.901153
476.635645	0.905264
477.005719	0.910157
477.375734	0.913521
477.745691	0.916143
478.115588	0.920450
478.485427	0.924363
478.855207	0.925919
479.224928	0.926316
479.594591	0.929358
479.964194	0.934009
480.333739	0.937826
480.703226	0.942018
481.072653	0.944590
481.442022	0.947286
481.811333	0.949684
482.180584	0.953671
482.549777	0.957135
482.918912	0.958789
483.287988	0.961669
483.657005	0.963392
484.025964	0.966487
484.394864	0.967607
484.763706	0.970681
485.132489	0.973314
485.501213	0.974191
485.869879	0.976646
486.238487	0.976612
486.607036	0.979511
486.975527	0.981021
487.343959	0.980333
487.712333	0.981767
488.080648	0.982481
488.448905	0.984029
488.817104	0.984652
489.185244	0.986012
489.553326	0.986278
489.921350	0.987312
490.289315	0.986800
490.657222	0.987488
491.025070	0.988609
491.392861	0.988824
491.760593	0.988966
492.128267	0.990281
492.495883	0.989874
492.863440	0.991235
493.230939	0.991592
493.598380	0.992448
493.965763	0.992027
494.333088	0.991842
494.700354	0.992532
495.067563	0.992636
495.434713	0.993555
495.801805	0.993169
496.168839	0.993744
496.535815	0.992868
496.902733	0.993020
497.269593	0.994245
497.636395	0.993561
498.003139	0.992914
498.369825	0.994775
498.736453	0.994179
499.103023	0.994483
499.469535	0.994215
499.835989	0.995738
500.202385	0.994883
500.568723	0.994904
500.935003	0.994539
501.301226	0.995837
501.667390	0.994966
502.033497	0.994840
502.399546	0.995118
502.765537	0.995446
503.131470	0.995434
503.497345	0.995182
503.863163	0.995603
504.228923	0.995387
504.594625	0.995374
504.960269	0.995998
505.325856	0.996336
505.691385	0.996084
506.056856	0.995944
506.422270	0.996026
506.787625	0.995988
507.152924	0.996664
507.518164	0.995629
507.883347	0.995875
508.248472	0.996158
508.613540	0.995660
508.978550	0.996253
509.343503	0.996272
509.708398	0.996620
510.073236	0.996172
510.438016	0.996161
510.802738	0.996274
511.167403	0.995981
511.532010	0.996286
511.896561	0.995987
512.261053	0.996016
512.625488	0.996079
512.989866	0.996024
513.354186	0.996253
513.718449	0.996475
514.082655	0.996059
514.446803	0.996112
514.810894	0.996599
515.174927	0.996673
515.538904	0.997012
515.902822	0.996890
516.266684	0.996378
516.630488	0.996544
516.994235	0.996679
517.357925	0.996595
517.721558	0.996692
518.085133	0.996317
518.448651	0.996960
518.812112	0.997107
519.175516	0.996349
519.538863	0.996773
519.902152	0.996879
520.265385	0.996743
520.628560	0.996005
520.991678	0.996399
521.354739	0.996721
521.717743	0.996706
522.080690	0.996196
522.443580	0.996643
522.806413	0.996720
523.169189	0.997231
523.531908	0.996036
523.894569	0.996505
524.257174	0.996328
524.619722	0.997145
524.982213	0.996032
525.344647	0.996786
525.707025	0.996388
526.069345	0.995975
526.431608	0.996742
526.793815	0.996893
527.155964	0.997529
527.518057	0.997049
527.880093	0.996519
528.242072	0.996282
528.603995	0.996756
528.965860	0.996995
529.327669	0.997128
529.689421	0.995973
530.051117	0.997637
530.412755	0.997344
530.774337	0.996508
531.135862	0.997380
531.497331	0.996313
531.858743	0.996951
532.220098	0.996218
532.581396	0.996895
532.942638	0.997142
533.303824	0.997664
533.664953	0.996575
534.026025	0.997541
534.387040	0.997184
534.747999	0.996238
535.108902	0.996516
535.469748	0.997291
535.830537	0.996700
536.191270	0.997104
536.551947	0.996722
536.912567	0.996712
537.273131	0.996276
537.633638	0.996299
537.994089	0.996983
538.354483	0.997079
538.714821	0.997059
539.075103	0.996932
539.435328	0.996545
539.795497	0.996860
540.155609	0.996456
540.515665	0.997289
540.875665	0.996602
541.235609	0.996949
541.595496	0.996529
541.955328	0.997112
542.315102	0.997288
542.674821	0.997262
543.034483	0.997329
543.394090	0.996877
543.753640	0.996956
544.113134	0.997087
544.472571	0.997577
544.831953	0.996605
545.191278	0.997360
545.550548	0.996500
545.909761	0.996829
546.268918	0.997462
546.628019	0.997163
546.987064	0.996582
547.346053	0.996748
547.704986	0.996845
548.063863	0.996615
548.422684	0.997153
548.781449	0.996609
549.140158	0.996857
549.498811	0.996605
549.857408	0.996313
550.215949	0.996649
550.574434	0.996091
550.932864	0.997310
551.291237	0.996538
551.649555	0.997771
552.007817	0.996635
552.366022	0.996945
552.724173	0.997465
553.082267	0.996803
553.440305	0.996563
553.798288	0.996491
554.156215	0.997168
554.514086	0.997218
554.871902	0.996372
555.229661	0.995833
555.587365	0.996910
555.945014	0.997618
556.302606	0.995727
556.660143	0.996875
557.017625	0.997215
557.375050	0.996611
557.732421	0.996599
558.089735	0.996599
558.446994	0.995919
558.804197	0.997341
559.161345	0.995872
559.518437	0.995978
559.875474	0.996289
560.232455	0.997404
560.589381	0.997150
560.946251	0.996293
561.303065	0.997256
561.659825	0.996410
562.016528	0.996769
562.373177	0.996673
562.729770	0.996677
563.086307	0.995936
563.442789	0.996971
563.799216	0.996079
564.155587	0.997166
564.511904	0.996988
564.868164	0.996774
565.224370	0.995816
565.580520	0.996802
565.936615	0.996684
566.292654	0.995831
566.648638	0.996526
567.004567	0.996031
567.360441	0.996630
567.716260	0.996428
568.072023	0.996444
568.427732	0.996673
568.783385	0.996448
569.138982	0.996562
569.494525	0.997139
569.850013	0.996915
570.205445	0.996674
570.560823	0.997049
570.916145	0.996501
571.271412	0.996466
571.626625	0.996613
571.981782	0.996239
572.336884	0.997082
572.691931	0.996465
573.046923	0.997373
573.401860	0.996344
573.756743	0.996459
574.111570	0.996756
574.466342	0.997878
574.821059	0.996244
575.175722	0.996985
575.530330	0.997154
575.884882	0.996830
576.239380	0.996572
576.593823	0.996475
576.948211	0.996593
577.302544	0.996350
577.656823	0.997210
578.011047	0.995788
578.365216	0.997374
578.719330	0.996947
579.073389	0.996090
579.427394	0.996640
579.781344	0.996923
580.135239	0.995681
580.489080	0.996296
580.842866	0.996524
581.196597	0.996209
581.550273	0.996392
581.903895	0.996652
582.257463	0.996455
582.610975	0.996406
582.964434	0.996377
583.317837	0.996849
583.671186	0.996557
584.024481	0.996041
584.377721	0.996030
584.730906	0.996795
585.084037	0.997348
585.437113	0.997411
585.790135	0.997060
586.143103	0.996918
586.496016	0.997234
586.848874	0.996756
587.201679	0.996289
587.554428	0.996611
587.907124	0.996860
588.259765	0.997163
588.612352	0.996771
588.964884	0.996775
589.317362	0.996177
589.669786	0.996499
590.022155	0.996224
590.374470	0.996909
590.726731	0.995438
591.078937	0.997212
591.431090	0.996641
591.783188	0.996010
592.135232	0.997107
592.487222	0.996525
592.839157	0.996330
593.191038	0.996596
593.542866	0.996548
593.894639	0.995605
594.246358	0.996721
594.598022	0.996948
594.949633	0.996559
595.301190	0.996757
595.652692	0.996337
596.004141	0.996387
596.355535	0.996164
596.706876	0.997095
597.058162	0.996699
597.409395	0.997216
597.760573	0.996687
598.111698	0.996571
598.462768	0.996113
598.813785	0.995715
599.164748	0.996711
599.515657	0.996165
599.866511	0.996877
600.217312	0.997042
600.568060	0.995906
600.918753	0.996769
601.269392	0.996696
601.619978	0.996412
601.970510	0.996447
602.320988	0.996676
602.671412	0.996475
603.021783	0.996572
603.372100	0.996791
603.722363	0.996782
604.072572	0.996681
604.422728	0.996108
604.772830	0.996266
605.122878	0.997019
605.472872	0.997405
605.822813	0.996310
606.172701	0.996642
606.522534	0.996917
606.872314	0.996297
607.222041	0.996283
607.571714	0.996354
607.921333	0.996654
608.270899	0.995705
608.620411	0.996710
608.969870	0.997064
609.319276	0.997376
609.668627	0.997623
610.017926	0.996569
610.367171	0.996392
610.716362	0.996420
611.065500	0.996063
611.414585	0.996429
611.763616	0.996321
612.112594	0.995926
612.461518	0.995802
612.810389	0.996312
613.159207	0.996800
613.507971	0.996383
613.856682	0.997841
614.205340	0.995274
614.553945	0.996649
614.902496	0.995909
615.250994	0.996873
615.599439	0.997472
615.947830	0.996113
616.296169	0.996665
616.644454	0.996185
616.992686	0.996481
617.340864	0.996651
617.688990	0.996086
618.037063	0.996313
618.385082	0.996424
618.733048	0.995954
619.080961	0.996726
619.428821	0.996339
619.776628	0.995118
620.124382	0.996554
620.472083	0.996569
620.819731	0.996766
621.167326	0.997111
621.514868	0.996483
621.862357	0.997151
622.209793	0.996228
622.557176	0.996054
622.904506	0.996097
623.251783	0.996826
623.599007	0.996994
623.946179	0.995879
624.293297	0.996915
624.640363	0.997531
624.987376	0.996513
625.334336	0.996059
625.681243	0.996495
626.028097	0.996699
626.374899	0.996279
626.721647	0.997001
627.068343	0.997031
627.414987	0.997107
627.761577	0.996156
628.108115	0.996496
628.454600	0.997255
628.801032	0.997011
629.147412	0.996663
629.493739	0.997663
629.840014	0.996349
630.186236	0.996468
630.532405	0.996033
630.878521	0.996088
631.224585	0.996707
631.570597	0.996695
631.916556	0.997351
632.262462	0.995937
632.608316	0.997111
632.954117	0.995733
633.299866	0.996444
633.645562	0.996448
633.991206	0.996336
634.336797	0.995970
634.682336	0.996952
635.027823	0.996387
635.373257	0.996981
635.718639	0.997052
636.063968	0.996435
636.409245	0.996514
636.754470	0.996696
637.099642	0.997824
637.444762	0.997051
637.789829	0.996519
638.134845	0.996105
638.479808	0.997004
638.824719	0.996926
639.169577	0.996074
639.514383	0.997086
639.859137	0.996922
640.203839	0.995906
640.548489	0.996809
640.893086	0.997013
641.237632	0.997465
641.582125	0.997029
641.926566	0.997853
642.270955	0.997197
642.615292	0.996909
642.959576	0.996981
643.303809	0.997746
643.647990	0.997689
643.992118	0.996897
644.336195	0.996858
644.680219	0.997668
645.024192	0.996569
645.368112	0.995604
645.711981	0.996778
646.055797	0.997201
646.399562	0.995835
646.743274	0.997333
647.086935	0.996310
647.430544	0.996768
647.774101	0.996658
648.117606	0.996992
648.461059	0.996492
648.804460	0.996244
649.147810	0.996483
649.491108	0.996696
649.834354	0.996576
650.177548	0.996379
650.520690	0.996545
650.863781	0.995993
651.206820	0.996789
651.549807	0.997379
651.892742	0.997313
652.235626	0.997443
652.578458	0.996458
652.921238	0.996385
653.263967	0.997283
653.606644	0.996714
653.949269	0.997771
654.291843	0.995978
654.634365	0.997515
654.976836	0.996026
655.319255	0.997029
655.661622	0.996295
656.003938	0.996132
656.346203	0.996341
656.688416	0.997353
657.030577	0.996232
657.372687	0.997034
657.714746	0.996647
658.056753	0.997008
658.398708	0.996308
658.740612	0.997315
659.082465	0.996589
659.424266	0.996935
659.766016	0.996202
660.107715	0.997616
660.449362	0.996857
660.790958	0.996078
661.132503	0.997560
661.473996	0.996143
661.815438	0.997302
662.156829	0.996753
662.498168	0.997651
662.839456	0.995287
663.180693	0.997077
663.521879	0.996166
663.863013	0.997156
664.204097	0.996287
664.545129	0.997023
664.886110	0.996670
665.227040	0.996413
665.567918	0.995701
665.908746	0.995721
666.249522	0.996529
666.590248	0.996917
666.930922	0.996437
667.271545	0.996701
667.612118	0.996293
667.952639	0.996720
668.293109	0.997643
668.633528	0.995627
668.973896	0.997297
669.314213	0.995860
669.654480	0.996448
669.994695	0.995877
670.334859	0.996253
670.674973	0.996061
671.015035	0.996734
671.355047	0.996567
671.695008	0.996480
672.034918	0.996461
672.374777	0.996548
672.714585	0.995794
673.054342	0.996830
673.394049	0.996365
673.733705	0.995674
674.073310	0.997168
674.412864	0.996406
674.752368	0.995885
675.091820	0.997217
675.431223	0.997049
675.770574	0.995905
676.109875	0.996616
676.449125	0.996350
676.788324	0.996563
677.127473	0.997636
677.466571	0.996057
677.805619	0.996742
678.144616	0.997595
678.483562	0.996726
678.822458	0.997064
679.161303	0.995831
679.500098	0.997417
679.838842	0.996315
680.177535	0.995848
680.516179	0.996081
680.854771	0.996641
681.193314	0.996012
681.531805	0.996457
681.870247	0.996300
682.208638	0.996763
682.546978	0.995818
682.885268	0.996556
683.223508	0.996638
683.561697	0.995955
683.899836	0.996021
684.237925	0.996254
684.575963	0.996087
684.913951	0.996038
685.251889	0.995231
685.589776	0.996223
685.927614	0.995850
686.265401	0.996472
686.603137	0.996002
686.940824	0.996546
687.278460	0.996558
687.616046	0.996096
687.953582	0.995822
688.291068	0.995931
688.628504	0.996476
688.965889	0.995756
689.303224	0.994161
689.640510	0.996189
689.977745	0.996159
690.314930	0.996522
690.652065	0.996299
690.989150	0.995396
691.326185	0.996219
691.663170	0.995933
692.000105	0.996246
692.336990	0.997055
692.673825	0.995814
693.010610	0.995941
693.347345	0.997480
693.684030	0.995560
694.020665	0.996388
694.357251	0.996125
694.693786	0.997320
695.030272	0.995383
695.366707	0.996207
695.703093	0.996063
696.039429	0.996825
696.375716	0.997282
696.711952	0.995649
697.048139	0.997517
697.384276	0.996520
697.720363	0.996508
698.056400	0.995464
698.392388	0.996069
698.728326	0.996215
699.064214	0.997148
699.400053	0.996666
699.735842	0.996649
700.071581	0.996056
700.407270	0.996127
700.742910	0.997196
701.078501	0.996071
701.414042	0.997469
701.749533	0.995478
702.084974	0.996597
702.420366	0.996122
702.755709	0.996933
703.091002	0.996837
703.426246	0.996928
703.761440	0.996591
704.096584	0.996423
704.431679	0.995697
704.766725	0.996507
705.101721	0.997045
705.436668	0.997650
705.771565	0.997097
706.106413	0.995704
706.441212	0.996600
706.775961	0.996829
707.110661	0.996570
707.445311	0.997017
707.779913	0.997566
708.114465	0.997508
708.448967	0.997609
708.783421	0.997134
709.117825	0.997329
709.452180	0.997694
709.786485	0.996417
710.120742	0.996291
710.454949	0.995438
710.789107	0.996465
711.123216	0.995036
711.457275	0.995626
711.791286	0.996667
712.125247	0.997311
712.459159	0.996054
712.793023	0.995470
713.126837	0.996896
713.460602	0.995484
713.794318	0.995456
714.127985	0.995661
714.461602	0.996649
714.795171	0.994805
715.128691	0.996057
715.462162	0.997465
715.795584	0.997109
716.128957	0.996718
716.462281	0.996697
716.795556	0.996070
717.128782	0.997131
717.461960	0.996705
717.795088	0.996587
718.128167	0.996887
718.461198	0.996171
718.794180	0.997330
719.127113	0.996686
719.459997	0.996606
719.792833	0.996534
720.125619	0.996437
720.458357	0.996796
720.791046	0.997455
721.123686	0.997023
721.456278	0.995844
721.788821	0.995979
722.121315	0.997400
722.453761	0.996273
722.786158	0.995833
723.118506	0.997277
723.450805	0.995416
723.783056	0.996942
724.115259	0.996399
724.447412	0.997026
724.779518	0.996706
725.111574	0.996792
725.443582	0.997173
725.775542	0.997365
726.107453	0.997236
726.439315	0.997518
726.771129	0.997824
727.102895	0.997216
727.434612	0.996562
727.766281	0.996118
728.097901	0.995795
728.429473	0.996651
728.760996	0.996133
729.092471	0.997379
729.423897	0.996013
729.755276	0.996354
730.086606	0.995533
730.417887	0.996473
730.749120	0.996669
731.080305	0.996583
731.411442	0.995651
731.742530	0.995680
732.073570	0.995412
732.404562	0.996456
732.735506	0.996239
733.066401	0.995616
733.397249	0.996148
733.728048	0.996948
734.058798	0.996355
734.389501	0.997679
734.720156	0.996199
735.050762	0.996517
735.381320	0.996256
735.711831	0.997062
736.042293	0.997007
736.372707	0.997833
736.703073	0.996137
737.033391	0.996949
737.363661	0.997269
737.693883	0.996854
738.024056	0.996422
738.354182	0.995693
738.684260	0.996847
739.014290	0.996667
739.344272	0.996495
739.674207	0.996645
740.004093	0.996797
740.333931	0.996814
740.663722	0.996902
740.993464	0.996728
741.323159	0.996010
741.652806	0.997054
741.982405	0.996967
742.311956	0.996635
742.641460	0.996724
742.970915	0.996527
743.300323	0.995563
743.629683	0.996410
743.958996	0.997231
744.288260	0.995342
744.617477	0.995896
744.946647	0.996873
745.275768	0.997005
745.604842	0.996420
745.933869	0.996799
746.262847	0.997356
746.591778	0.996546
746.920662	0.997207
747.249498	0.997690
747.578286	0.998117
747.907027	0.997634
748.235720	0.997126
748.564365	0.996989
748.892963	0.996353
749.221514	0.997042
749.550017	0.996425
749.878473	0.996274
750.206881	0.997821
750.535242	0.997454
750.863555	0.997341
751.191821	0.996722
751.520039	0.996077
751.848210	0.995614
752.176334	0.996858
752.504411	0.996261
752.832440	0.996382
753.160421	0.997730
753.488356	0.997611
753.816243	0.996476
754.144082	0.996439
754.471875	0.997138
754.799620	0.998094
755.127318	0.996676
755.454969	0.997768
755.782572	0.998026
756.110129	0.996370
756.437638	0.997659
756.765100	0.997169
757.092515	0.996616
757.419882	0.997291
757.747203	0.995956
758.074477	0.997656
758.401703	0.996625
758.728882	0.997198
759.056014	0.997248
759.383099	0.997126
759.710138	0.997099
760.037129	0.997301
760.364073	0.997177
760.690970	0.997211
761.017820	0.996379
761.344623	0.997860
761.671379	0.997648
761.998088	0.996723
762.324751	0.996877
762.651366	0.996400
762.977935	0.995860
763.304456	0.994925
763.630931	0.993750
763.957359	0.993610
764.283740	0.993622
764.610074	0.994169
764.936362	0.994788
765.262602	0.996227
765.588796	0.996732
765.914943	0.996000
766.241044	0.996960
766.567097	0.995991
766.893104	0.997460
767.219064	0.996718
767.544978	0.997474
767.870845	0.997039
768.196665	0.997275
768.522438	0.997515
768.848165	0.998737
769.173846	0.997157
769.499479	0.998213
769.825066	0.999339
770.150607	0.998767
770.476101	0.997324
770.801548	0.998587
771.126949	0.998581
771.452303	0.998072
771.777611	0.998745
772.102872	0.998250
772.428087	0.997880
772.753256	0.997646
773.078378	0.996981
773.403453	0.997567
773.728482	0.998898
774.053465	0.997538
774.378401	0.997936
774.703291	0.998717
775.028135	0.999605
775.352932	0.997844
775.677683	0.998214
776.002388	0.998460
776.327046	0.998649
776.651658	1.000321
776.976224	0.998496
777.300743	0.997997
777.625216	0.998101
777.949643	0.998789
778.274024	0.998129
778.598359	0.998840
778.922647	0.998265
779.246889	0.998656
779.571086	0.999459
779.895236	0.998900
780.219339	0.998689
780.543397	0.997120
780.867409	0.999350
781.191374	0.997588
781.515294	0.998972
781.839167	0.998975
782.162995	0.998753
782.486776	0.998192
782.810511	0.998541
783.134201	0.998988
783.457844	0.998918
783.781441	0.998325
784.104993	0.998767
784.428498	0.999211
784.751958	1.000557
785.075372	0.999501
785.398739	0.998441
785.722061	0.997880
786.045337	0.998944
786.368568	0.998995
786.691752	0.998234
787.014891	0.998411
787.337983	0.997868
787.661030	0.998263
787.984031	0.998638
788.306987	0.998320
788.629897	0.995917
788.952760	0.998241
789.275579	0.997893
789.598351	0.997836
789.921078	0.999825
790.243759	0.997673
790.566395	0.998343
790.888984	0.998126
791.211529	0.998897
791.534027	0.998161
791.856480	0.999000
792.178888	0.998379
792.501249	0.998287
792.823566	0.999933
793.145836	0.998416
793.468062	0.998670
793.790241	0.999368
794.112375	0.996516
794.434464	0.998651
794.756507	0.998796
795.078505	0.998328
795.400457	0.998881
795.722364	0.999668
796.044226	0.999058
796.366042	0.996710
796.687812	0.997320
797.009538	0.998633
797.331218	0.998241
797.652852	0.999186
797.974442	0.997983
798.295986	0.998348
798.617484	0.998345
798.938938	0.998470
799.260346	0.997573
799.581709	0.997900
799.903026	0.999323
800.224299	0.997283
800.545526	0.998330
800.866708	0.998202
801.187845	0.999620
801.508936	0.999817
801.829983	0.999485
802.150984	0.998736
802.471940	0.998786
802.792851	0.998140
803.113717	0.999131
803.434538	0.998724
803.755314	1.000377
804.076045	1.000415
804.396731	0.997934
804.717372	0.997021
805.037967	0.999263
805.358518	0.999828
805.679024	0.997401
805.999485	0.998029
806.319901	0.998562
806.640272	0.998385
806.960598	0.998407
807.280879	0.998561
807.601115	0.999729
807.921306	1.000348
808.241453	0.999327
808.561554	0.998459
808.881611	0.998710
809.201623	0.998171
809.521590	0.998782
809.841513	0.999053
810.161390	0.998096
810.481223	0.998214
810.801011	0.998191
811.120755	0.999069
811.440453	0.998539
811.760107	0.998984
812.079716	1.000034
812.399281	0.998102
812.718801	0.999349
813.038276	0.997963
813.357707	0.999231
813.677093	0.998908
813.996434	0.998480
814.315731	1.001291
814.634983	0.999989
814.954191	0.999185
815.273354	0.998898
815.592473	0.997823
815.911547	0.999223
816.230577	0.998978
816.549562	0.998731
816.868502	0.998078
817.187399	0.999035
817.506250	0.998313
817.825058	0.997092
818.143821	0.998081
818.462539	0.998180
818.781213	0.997823
819.099843	0.998617
819.418429	0.996712
819.736970	0.996923
820.055466	0.995256
820.373919	0.995774
820.692327	0.995312
821.010691	0.994997
821.329011	0.991689
821.647286	0.989225
821.965517	0.987201
822.283704	0.984287
822.601847	0.981888
822.919945	0.982812
823.237999	0.985562
823.556010	0.986389
823.873976	0.987679
824.191897	0.990154
824.509775	0.991308
824.827609	0.992444
825.145398	0.993242
825.463144	0.992310
825.780845	0.992447
826.098502	0.991957
826.416116	0.993270
826.733685	0.991147
827.051210	0.988713
827.368692	0.989724
827.686129	0.990659
828.003522	0.993563
828.320872	0.992667
828.638177	0.993864
828.955439	0.996587
829.272656	0.996159
829.589830	0.996683
829.906960	0.997137
830.224046	0.997520
830.541088	0.997654
830.858086	0.997932
831.175041	0.999158
831.491952	0.997671
831.808819	0.997114
832.125642	0.997699
832.442421	0.998149
832.759157	0.997601
833.075849	0.996325
833.392497	0.994905
833.709101	0.993415
834.025662	0.992721
834.342179	0.992989
834.658653	0.995358
834.975083	0.996467
835.291469	0.995059
835.607811	0.996576
835.924110	0.996409
836.240366	0.998547
836.556578	0.997544
836.872746	0.997553
837.188871	0.998215
837.504952	0.998544
837.820990	0.999125
838.136984	0.998982
838.452935	0.998316
838.768842	0.998771
839.084706	0.998186
839.400526	0.998787
839.716303	0.997183
840.032037	0.996328
840.347727	0.996467
840.663373	0.997566
840.978977	0.997938
841.294537	0.998663
841.610054	0.999185
841.925527	0.998734
842.240957	0.998513
842.556344	0.998904
842.871687	0.999129
843.186987	1.000075
843.502244	1.000021
843.817458	0.998753
844.132629	0.999884
844.447756	0.999582
844.762840	0.999920
845.077881	1.001050
845.392879	0.997694
845.707833	1.000745
846.022745	1.000243
846.337613	1.000115
846.652438	0.998948
846.967221	1.000413
847.281960	0.999436
847.596656	1.000882
847.911309	1.000342
848.225919	0.998870
848.540485	0.999942
848.855009	1.001779
849.169490	1.000022
849.483928	0.999867
849.798323	0.998608
850.112675	1.000495
850.426984	1.000357
850.741251	1.000269
851.055474	1.000488
851.369654	1.000254
851.683792	0.999220
851.997887	0.999587
852.311938	1.000267
852.625947	0.999886
852.939914	0.999366
853.253837	1.001308
853.567718	1.001585
853.881555	0.999339
854.195350	1.000774
854.509103	0.999638
854.822812	1.000492
855.136479	0.999616
855.450103	1.000143
855.763685	1.000144
856.077224	0.999043
856.390720	0.999871
856.704173	1.000316
857.017584	1.000738
857.330953	1.000258
857.644278	1.000026
857.957561	1.001459
858.270802	0.999378
858.584000	1.000344
858.897155	1.000167
859.210268	1.000039
859.523339	1.000771
859.836367	1.000146
860.149352	1.000164
860.462295	1.000181
860.775195	0.999776
861.088054	0.998175
861.400869	0.999407
861.713642	0.998969
862.026373	1.000138
862.339062	0.999840
862.651708	1.000305
862.964312	1.001195
863.276873	0.999618
863.589392	0.999680
863.901869	1.000277
864.214303	1.000150
864.526696	1.000368
864.839045	1.000298
865.151353	1.000291
865.463619	0.999050
865.775842	1.000788
866.088023	1.001093
866.400162	0.999779
866.712258	1.000978
867.024313	1.000681
867.336325	1.000969
867.648296	0.999756
867.960224	0.999868
868.272110	0.999692
868.583954	0.999834
868.895755	1.000112
869.207515	1.000149
869.519233	1.000535
869.830909	0.999245
870.142542	0.999528
870.454134	0.999825
870.765684	0.999378
871.077191	0.999813
871.388657	0.999110
871.700081	0.999427
872.011463	1.001316
872.322803	1.000122
872.634101	0.999061
872.945357	1.000046
873.256571	0.999098
873.567744	0.999266
873.878874	0.999061
874.189963	0.998616
874.501010	0.999877
874.812015	0.999548
875.122979	0.999788
875.433900	0.998761
875.744780	1.000175
876.055618	0.998395
876.366415	0.999088
876.677169	0.998314
876.987882	0.998814
877.298554	0.999830
877.609183	0.999183
877.919771	0.998228
878.230317	0.999975
878.540822	0.998920
878.851285	0.998142
879.161707	0.997945
879.472087	0.998914
879.782425	0.996157
880.092722	0.995628
880.402977	0.992900
880.713191	0.989816
881.023363	0.986792
881.333494	0.984709
881.643583	0.985742
881.953631	0.985123
882.263637	0.984168
882.573602	0.986120
882.883526	0.988124
883.193408	0.989397
883.503248	0.991078
883.813048	0.990479
884.122806	0.993208
884.432522	0.993322
884.742197	0.994631
885.051831	0.995316
885.361424	0.995792
885.670975	0.997614
885.980485	0.996507
886.289954	0.997661
886.599382	0.996737
886.908768	0.998213
887.218113	0.998059
887.527417	0.999493
887.836680	0.998722
888.145901	0.999102
888.455082	0.999708
888.764221	0.999264
889.073319	0.998390
889.382376	0.998918
889.691392	0.997273
890.000366	0.999645
890.309300	0.999305
890.618193	0.999678
890.927044	0.999642
891.235855	0.998404
891.544625	0.997780
891.853353	0.999167
892.162041	0.998809
892.470687	0.998716
892.779293	0.997848
893.087858	0.997130
893.396381	0.996483
893.704864	0.996296
894.013306	0.996112
894.321707	0.995282
894.630068	0.993904
894.938387	0.992470
895.246665	0.992454
895.554903	0.992952
895.863100	0.994377
896.171256	0.995183
896.479371	0.994840
896.787446	0.996036
897.095480	0.998043
897.403473	0.997204
897.711425	0.997098
898.019336	0.998545
898.327207	0.999011
898.635038	0.997878
898.942827	0.999210
899.250576	0.998324
899.558284	0.999016
899.865952	0.997724
900.173579	0.997954
900.481165	0.999723
900.788711	0.997935
901.096216	0.998884
901.403681	0.998440
901.711105	0.999520
902.018489	0.997851
902.325832	0.999172
902.633135	0.998470
902.940397	0.999467
903.247619	0.998212
903.554800	0.996252
903.861941	0.995910
904.169041	0.992907
904.476101	0.992106
904.783121	0.990411
905.090100	0.991628
905.397039	0.993021
905.703938	0.994225
906.010796	0.994894
906.317614	0.996648
906.624391	0.997859
906.931129	0.998370
907.237826	0.997566
907.544483	0.998710
907.851099	0.998219
908.157675	0.998690
908.464211	1.000391
908.770707	0.998578
909.077163	0.999882
909.383578	1.000831
909.689954	0.998885
909.996289	0.999597
910.302584	0.999840
910.608839	1.000911
910.915054	1.000096
911.221229	1.000766
911.527363	1.000056
911.833458	1.000372
912.139513	0.999506
912.445527	1.000503
912.751502	0.999268
913.057436	0.998775
913.363331	0.999745
913.669186	1.000089
913.975000	0.999229
914.280775	0.998139
914.586510	0.997110
914.892205	0.996593
915.197859	0.996641
915.503475	0.994741
915.809050	0.993012
916.114585	0.991096
916.420081	0.991401
916.725536	0.992089
917.030952	0.991755
917.336328	0.993177
917.641665	0.993082
917.946961	0.994166
918.252218	0.995099
918.557435	0.994617
918.862612	0.997419
919.167750	0.997278
919.472848	0.997608
919.777906	0.998970
920.082925	0.998812
920.387904	0.998530
920.692843	0.998473
920.997743	0.998733
921.302603	0.999464
921.607423	0.998719
921.912204	0.999065
922.216946	0.999764
922.521647	0.999981
922.826310	0.998413
923.130932	0.998593
923.435516	1.000071
923.740059	0.999853
924.044564	0.998981
924.349028	0.999521
924.653454	0.999327
924.957840	1.000292
925.262186	1.000298
925.566493	0.998914
925.870761	1.000254
926.174989	0.999449
926.479178	1.000518
926.783328	0.999717
927.087438	1.000036
927.391509	1.001095
927.695541	0.999528
927.999533	1.000900
928.303486	1.001348
928.607400	1.000989
928.911275	1.001549
929.215110	1.001288
929.518906	1.000397
929.822663	1.001598
930.126381	1.001107
930.430060	0.999901
930.733699	1.000661
931.037299	1.000629
931.340861	1.000921
931.644383	1.000029
931.947866	1.001222
932.251309	1.001391
932.554714	1.000589
932.858080	1.000010
933.161407	0.999995
933.464694	1.000508
933.767943	1.001029
934.071153	1.002016
934.374323	1.000341
934.677455	1.000831
934.980548	1.001127
935.283602	1.000399
935.586617	0.999913
935.889593	1.001746
936.192530	1.001566
936.495428	1.001721
936.798287	0.999493
937.101108	1.000079
937.403890	1.000814
937.706632	1.001923
938.009336	1.000228
938.312002	1.000156
938.614628	1.000544
938.917216	0.998980
939.219765	0.999300
939.522275	0.999798
939.824747	1.000235
940.127179	1.000806
940.429573	1.000848
940.731929	0.999273
941.034246	0.999340
941.336524	0.998930
941.638763	0.999773
941.940964	0.999328
942.243126	0.999943
942.545250	1.000815
942.847335	1.000540
943.149381	1.000394
943.451389	0.999474
943.753359	0.999867
944.055290	1.002313
944.357182	1.000312
944.659036	1.000517
944.960851	1.001495
945.262628	1.001124
945.564367	1.000265
945.866067	1.000951
946.167729	1.001816
946.469352	1.000746
946.770937	0.998347
947.072484	1.001085
947.373992	1.001865
947.675462	1.000085
947.976893	1.000587
948.278286	1.000981
948.579641	1.000908
948.880958	1.001523
949.182236	1.001352
949.483476	1.000608
949.784678	1.001183
950.085841	1.000164
950.386967	1.000671
950.688054	1.000840
950.989103	0.999024
951.290114	0.999461
951.591087	1.001174
951.892021	0.999154
952.192917	1.001922
952.493776	1.000728
952.794596	0.999862
953.095378	1.000201
953.396122	1.000182
953.696828	1.000378
953.997496	1.000726
954.298126	1.000665
954.598718	1.000191
954.899272	1.000048
955.199788	0.999796
955.500266	1.001517
955.800706	1.000343
956.101108	0.999652
956.401472	1.002347
956.701798	1.000555
957.002087	1.001114
957.302337	1.000926
957.602550	1.000771
957.902724	1.000907
958.202861	0.999457
958.502960	1.001186
958.803022	1.001153
959.103045	1.001643
959.403031	1.001851
959.702979	1.003540
960.002889	1.000081
960.302762	0.999869
960.602596	1.001458
960.902393	1.001982
961.202153	1.001342
961.501875	1.001466
961.801559	1.000855
962.101205	1.001474
962.400814	1.002039
962.700385	1.001341
962.999918	1.001392
963.299414	0.999902
963.598873	1.001126
963.898293	1.001623
964.197677	1.001060
964.497022	1.001380
964.796331	0.999890
965.095601	1.002437
965.394835	1.001030
965.694030	1.001698
965.993189	1.000816
966.292309	1.001820
966.591393	1.000981
966.890439	1.002071
967.189447	0.999716
967.488419	1.001893
967.787353	1.001160
968.086249	1.000548
968.385108	1.000920
968.683930	1.001827
968.982714	1.001588
969.281462	1.001420
969.580172	1.001161
969.878844	1.002214
970.177480	1.001128
970.476078	1.002184
970.774639	1.001177
971.073162	1.000594
971.371649	1.000468
971.670098	1.000544
971.968510	1.001823
972.266885	0.999657
972.565223	1.001262
972.863524	1.000359
973.161788	0.999823
973.460014	1.002542
973.758204	1.000993
974.056356	1.000803
974.354471	1.000172
974.652550	1.002259
974.950591	0.999985
975.248595	1.001005
975.546563	1.001569
975.844493	1.001176
976.142386	1.000461
976.440243	1.001617
976.738062	1.001308
977.035845	1.000055
977.333590	1.002000
977.631299	1.000843
977.928971	1.000355
978.226606	1.002142
978.524204	1.000361
978.821765	1.001494
979.119290	1.002236
979.416777	1.000918
979.714228	1.000971
980.011642	1.000658
980.309020	0.999951
980.606360	0.999979
980.903664	1.001558
981.200931	0.999557
981.498162	1.000731
981.795356	1.001335
982.092513	0.999939
982.389633	1.000523
982.686717	0.999422
982.983764	1.000142
983.280775	1.000621
983.577749	1.001815
983.874686	0.999721
984.171587	1.000367
984.468451	0.999574
984.765279	1.001751
985.062070	1.000997
985.358824	1.000402
985.655543	1.000796
985.952224	1.001288
986.248869	1.001511
986.545478	1.002168
986.842050	0.999848
987.138586	1.000249
987.435086	1.000499
987.731549	1.002357
988.027975	1.002549
988.324366	1.001366
988.620719	1.002150
988.917037	1.001255
989.213318	1.001661
989.509563	1.000593
989.805772	1.000616
990.101944	1.001615
990.398080	1.001317
990.694180	1.002456
990.990244	1.001087
991.286271	1.000749
991.582262	1.002598
991.878217	1.001300
992.174136	1.002011
992.470019	1.000970
992.765865	1.002000
993.061676	1.002405
993.357450	1.002556
993.653188	1.001284
993.948890	1.000808
994.244556	1.000217
994.540186	1.001747
994.835780	1.000982
995.131337	1.001848
995.426859	1.000985
995.722345	1.001053
996.017795	1.000743
996.313208	1.000281
996.608586	1.001213
996.903928	1.001666
997.199234	1.000436
997.494504	1.002487
997.789738	0.999434
998.084936	1.002631
998.380099	1.001377
998.675225	1.001694
998.970316	1.002888
999.265371	1.001773
999.560390	1.001446
999.855373	1.000664
1000.150320	1.002278
1000.445232	1.000826
1000.740108	1.001735
1001.034948	1.000664
1001.329752	1.001620
1001.624521	1.000817
1001.919254	1.001431
1002.213951	1.001751
1002.508613	1.000406
1002.803239	1.000956
1003.097829	1.001680
1003.392384	1.002275
1003.686903	1.000619
1003.981386	1.000346
1004.275834	1.002782
1004.570246	0.998836
1004.864623	1.001434
1005.158964	1.001063
1005.453270	1.000710
1005.747540	1.001211
1006.041775	1.002224
1006.335974	1.002694
1006.630138	1.001847
1006.924266	1.000951
1007.218359	0.999814
1007.512416	1.002026
1007.806438	1.000502
1008.100425	1.001715
1008.394376	1.001371
1008.688292	1.000984
1008.982172	1.000729
1009.276017	1.001640
1009.569827	1.001341
1009.863602	1.001414
1010.157341	1.002055
1010.451045	1.000797
1010.744714	1.002230
1011.038347	1.002159
1011.331945	1.000437
1011.625508	1.001049
1011.919036	1.001833
1012.212528	1.002250
1012.505986	1.001550
1012.799408	1.002523
1013.092795	1.001896
1013.386147	1.000654
1013.679464	1.001950
1013.972745	1.000864
1014.265992	1.000904
1014.559204	1.000889
1014.852380	1.002636
1015.145521	1.001519
1015.438628	1.001628
1015.731699	1.000446
1016.024736	1.002570
1016.317737	1.001367
1016.610703	1.001494
1016.903635	1.002091
1017.196531	1.000722
1017.489393	1.000878
1017.782219	1.000969
1018.075011	1.001783
1018.367768	1.000344
1018.660490	1.001868
1018.953177	1.001868
1019.245829	1.001868
