Dividing Wavelength (nm)	Counts (n)	Blue Motor Position (mm): 25.600000	Red Motor Position (mm): 0.000000	
326.493990	1.000439
326.888308	1.000439
327.282561	1.000439
327.676750	1.001016
328.070874	1.002802
328.464933	1.002172
328.858929	1.003131
329.252859	1.000620
329.646726	1.000342
330.040528	1.000326
330.434265	1.001105
330.827938	1.000984
331.221547	1.001108
331.615091	1.002170
332.008571	1.002093
332.401986	0.999570
332.795338	1.001422
333.188625	1.002220
333.581847	1.001106
333.975006	1.001931
334.368100	1.001203
334.761129	1.000689
335.154095	1.001911
335.546996	1.000965
335.939833	0.999034
336.332606	1.000589
336.725315	0.998457
337.117960	1.000295
337.510540	0.998099
337.903056	0.999957
338.295508	0.999842
338.687896	0.999638
339.080220	1.000088
339.472480	0.999631
339.864676	1.000531
340.256807	0.998273
340.648875	1.000109
341.040879	0.999768
341.432818	1.001002
341.824694	0.999647
342.216506	1.000219
342.608253	0.999515
342.999937	0.998753
343.391557	0.999717
343.783113	0.999863
344.174605	1.000510
344.566033	0.999260
344.957397	1.000611
345.348697	1.000590
345.739934	0.999390
346.131106	0.999336
346.522215	0.999609
346.913260	1.000307
347.304241	0.998794
347.695159	1.001161
348.086012	0.999583
348.476802	0.999164
348.867528	0.998596
349.258191	1.000077
349.648789	1.000059
350.039324	0.999763
350.429796	0.999580
350.820203	0.998117
351.210548	1.000438
351.600828	1.000502
351.991045	0.998909
352.381198	1.000664
352.771288	0.997990
353.161314	0.999074
353.551276	0.998678
353.941175	0.997446
354.331010	1.001280
354.720782	0.998941
355.110490	0.999091
355.500135	0.998888
355.889717	0.998178
356.279235	0.999014
356.668689	0.999205
357.058080	0.998838
357.447408	0.997394
357.836672	0.998297
358.225873	0.998212
358.615010	0.997855
359.004084	0.997663
359.393095	0.998217
359.782043	0.996594
360.170927	0.998237
360.559748	0.998189
360.948505	0.998126
361.337199	0.998143
361.725830	0.998429
362.114398	0.997489
362.502903	0.997216
362.891344	0.996726
363.279722	0.997314
363.668037	0.999144
364.056289	0.996776
364.444478	0.999795
364.832603	0.997165
365.220665	0.998643
365.608665	0.996315
365.996601	0.997601
366.384474	0.996686
366.772284	0.997532
367.160031	0.995538
367.547715	0.996352
367.935336	0.995791
368.322893	0.994554
368.710388	0.992046
369.097820	0.991666
369.485189	0.989117
369.872495	0.988201
370.259738	0.985771
370.646918	0.982381
371.034035	0.980205
371.421090	0.977245
371.808081	0.971565
372.195010	0.969724
372.581875	0.964195
372.968678	0.960267
373.355418	0.956764
373.742096	0.948797
374.128710	0.945186
374.515262	0.940331
374.901751	0.933810
375.288177	0.929636
375.674540	0.923236
376.060841	0.917831
376.447079	0.908843
376.833254	0.903318
377.219367	0.898279
377.605417	0.887022
377.991404	0.883594
378.377329	0.877301
378.763191	0.871077
379.148991	0.862478
379.534727	0.854471
379.920402	0.846262
380.306013	0.842540
380.691563	0.829701
381.077049	0.823241
381.462474	0.819105
381.847835	0.808201
382.233134	0.803017
382.618371	0.802380
383.003545	0.785077
383.388657	0.784205
383.773706	0.776136
384.158693	0.772855
384.543618	0.767110
384.928480	0.757443
385.313280	0.747667
385.698017	0.746767
386.082692	0.736037
386.467305	0.734223
386.851856	0.729196
387.236344	0.723833
387.620770	0.719227
388.005133	0.713038
388.389435	0.706567
388.773674	0.704174
389.157851	0.696179
389.541965	0.694377
389.926018	0.700096
390.310008	0.687327
390.693936	0.683580
391.077802	0.676324
391.461606	0.677499
391.845348	0.666777
392.229027	0.666116
392.612645	0.664449
392.996200	0.651776
393.379694	0.644813
393.763125	0.635435
394.146494	0.639564
394.529801	0.630634
394.913047	0.622177
395.296230	0.627910
395.679351	0.618850
396.062410	0.616693
396.445408	0.618716
396.828343	0.614278
397.211217	0.609406
397.594028	0.621504
397.976778	0.611447
398.359466	0.607582
398.742092	0.603432
399.124656	0.615709
399.507158	0.603435
399.889598	0.601305
400.271977	0.592043
400.654294	0.596173
401.036549	0.594439
401.418742	0.599383
401.800874	0.584933
402.182944	0.581408
402.564952	0.573357
402.946898	0.575498
403.328783	0.576709
403.710606	0.588213
404.092367	0.562757
404.474067	0.567673
404.855705	0.566486
405.237282	0.575321
405.618797	0.561106
406.000250	0.558055
406.381642	0.547242
406.762972	0.552542
407.144240	0.551170
407.525447	0.550508
407.906593	0.543667
408.287677	0.538752
408.668700	0.547866
409.049661	0.542035
409.430560	0.535962
409.811399	0.545280
410.192176	0.526977
410.572891	0.534542
410.953545	0.521965
411.334138	0.535471
411.714669	0.528094
412.095139	0.540734
412.475547	0.524679
412.855894	0.526241
413.236180	0.525531
413.616405	0.531362
413.996568	0.521488
414.376670	0.527652
414.756711	0.532203
415.136691	0.529455
415.516609	0.520284
415.896466	0.517316
416.276262	0.513223
416.655997	0.514423
417.035670	0.496963
417.415283	0.488217
417.794834	0.492561
418.174324	0.498643
418.553753	0.507860
418.933121	0.489593
419.312428	0.483238
419.691674	0.489282
420.070859	0.477526
420.449983	0.485202
420.829045	0.474293
421.208047	0.483935
421.586988	0.476407
421.965867	0.475784
422.344686	0.464337
422.723444	0.476961
423.102141	0.493974
423.480777	0.466328
423.859352	0.487663
424.237866	0.464838
424.616319	0.465834
424.994712	0.456689
425.373044	0.466985
425.751314	0.454659
426.129524	0.471306
426.507673	0.454599
426.885762	0.448658
427.263789	0.453804
427.641756	0.463466
428.019662	0.453509
428.397508	0.453124
428.775292	0.457396
429.153016	0.449044
429.530679	0.455798
429.908282	0.448981
430.285824	0.459214
430.663305	0.437243
431.040726	0.458578
431.418086	0.458708
431.795385	0.450146
432.172624	0.449491
432.549802	0.449651
432.926920	0.448541
433.303977	0.448149
433.680974	0.445196
434.057910	0.443965
434.434786	0.443265
434.811601	0.445925
435.188355	0.428714
435.565050	0.437723
435.941683	0.438759
436.318257	0.423141
436.694770	0.423896
437.071222	0.422294
437.447614	0.426491
437.823946	0.433175
438.200218	0.422554
438.576429	0.432222
438.952580	0.425209
439.328670	0.421859
439.704700	0.428069
440.080670	0.429640
440.456580	0.411281
440.832429	0.419137
441.208218	0.429917
441.583947	0.418896
441.959616	0.418024
442.335224	0.424522
442.710773	0.414938
443.086261	0.412565
443.461689	0.426991
443.837057	0.417002
444.212365	0.407672
444.587612	0.414393
444.962800	0.404552
445.337927	0.406286
445.712995	0.432829
446.088002	0.394527
446.462949	0.405623
446.837837	0.410652
447.212664	0.399462
447.587431	0.391464
447.962139	0.362394
448.336786	0.322420
448.711374	0.333110
449.085901	0.377984
449.460369	0.382885
449.834776	0.387080
450.209124	0.366763
450.583412	0.360360
450.957640	0.354546
451.331808	0.366795
451.705917	0.390908
452.079965	0.396710
452.453954	0.386192
452.827883	0.393685
453.201752	0.389777
453.575562	0.402019
453.949311	0.392406
454.323001	0.399497
454.696632	0.397175
455.070202	0.391990
455.443713	0.385353
455.817164	0.382068
456.190556	0.379995
456.563888	0.379243
456.937160	0.378819
457.310373	0.396780
457.683526	0.397793
458.056619	0.405524
458.429653	0.408612
458.802628	0.414059
459.175542	0.411459
459.548398	0.397749
459.921194	0.394601
460.293930	0.398514
460.666607	0.382058
461.039224	0.375953
461.411782	0.374586
461.784280	0.376834
462.156719	0.383770
462.529099	0.391373
462.901419	0.409420
463.273680	0.416688
463.645882	0.419664
464.018024	0.430798
464.390106	0.428224
464.762130	0.419673
465.134094	0.412633
465.505999	0.394454
465.877845	0.376940
466.249631	0.370026
466.621358	0.379871
466.993026	0.397113
467.364634	0.406130
467.736184	0.419323
468.107674	0.433178
468.479105	0.440107
468.850477	0.449674
469.221790	0.461631
469.593043	0.476366
469.964238	0.487447
470.335373	0.492937
470.706449	0.499040
471.077467	0.506587
471.448425	0.488074
471.819324	0.479078
472.190164	0.484414
472.560945	0.511740
472.931667	0.535342
473.302330	0.544895
473.672934	0.560584
474.043479	0.559918
474.413965	0.569187
474.784393	0.580320
475.154761	0.583831
475.525070	0.590198
475.895321	0.600631
476.265513	0.605149
476.635645	0.609724
477.005719	0.619201
477.375734	0.624212
477.745691	0.627798
478.115588	0.634299
478.485427	0.639632
478.855207	0.640520
479.224928	0.639916
479.594591	0.640833
479.964194	0.651590
480.333739	0.660356
480.703226	0.671131
481.072653	0.678049
481.442022	0.685177
481.811333	0.689836
482.180584	0.700248
482.549777	0.711622
482.918912	0.720526
483.287988	0.727543
483.657005	0.734986
484.025964	0.745508
484.394864	0.751868
484.763706	0.759789
485.132489	0.768733
485.501213	0.776348
485.869879	0.781992
486.238487	0.790922
486.607036	0.796997
486.975527	0.806225
487.343959	0.810056
487.712333	0.816983
488.080648	0.822797
488.448905	0.829868
488.817104	0.835888
489.185244	0.840375
489.553326	0.845909
489.921350	0.848240
490.289315	0.847693
490.657222	0.850538
491.025070	0.857695
491.392861	0.863287
491.760593	0.871756
492.128267	0.879066
492.495883	0.885677
492.863440	0.891751
493.230939	0.897758
493.598380	0.902116
493.965763	0.907099
494.333088	0.909813
494.700354	0.914876
495.067563	0.918237
495.434713	0.923558
495.801805	0.925811
496.168839	0.929960
496.535815	0.933237
496.902733	0.935596
497.269593	0.939379
497.636395	0.941742
498.003139	0.944968
498.369825	0.948479
498.736453	0.950418
499.103023	0.953661
499.469535	0.955640
499.835989	0.957866
500.202385	0.959614
500.568723	0.962093
500.935003	0.963569
501.301226	0.966439
501.667390	0.966711
502.033497	0.969189
502.399546	0.970994
502.765537	0.972419
503.131470	0.974061
503.497345	0.975559
503.863163	0.976162
504.228923	0.976933
504.594625	0.978001
504.960269	0.979872
505.325856	0.981215
505.691385	0.982095
506.056856	0.983107
506.422270	0.983300
506.787625	0.984629
507.152924	0.985584
507.518164	0.985469
507.883347	0.986589
508.248472	0.986609
508.613540	0.986699
508.978550	0.988057
509.343503	0.988222
509.708398	0.989487
510.073236	0.989215
510.438016	0.989743
510.802738	0.989865
511.167403	0.990056
511.532010	0.991155
511.896561	0.991212
512.261053	0.990515
512.625488	0.991223
512.989866	0.991392
513.354186	0.991273
513.718449	0.992092
514.082655	0.991628
514.446803	0.992415
514.810894	0.992693
515.174927	0.992665
515.538904	0.992865
515.902822	0.992635
516.266684	0.993067
516.630488	0.993002
516.994235	0.993279
517.357925	0.993705
517.721558	0.993466
518.085133	0.993702
518.448651	0.994167
518.812112	0.994441
519.175516	0.993966
519.538863	0.993426
519.902152	0.994318
520.265385	0.994244
520.628560	0.994092
520.991678	0.994087
521.354739	0.994943
521.717743	0.994505
522.080690	0.994494
522.443580	0.994871
522.806413	0.994636
523.169189	0.995329
523.531908	0.993840
523.894569	0.994975
524.257174	0.994325
524.619722	0.995126
524.982213	0.995118
525.344647	0.995097
525.707025	0.994337
526.069345	0.994492
526.431608	0.995569
526.793815	0.994771
527.155964	0.995561
527.518057	0.995550
527.880093	0.995429
528.242072	0.995312
528.603995	0.994878
528.965860	0.995838
529.327669	0.995350
529.689421	0.995118
530.051117	0.996129
530.412755	0.995640
530.774337	0.995039
531.135862	0.995665
531.497331	0.994734
531.858743	0.995668
532.220098	0.995242
532.581396	0.995485
532.942638	0.995348
533.303824	0.996318
533.664953	0.995145
534.026025	0.996236
534.387040	0.995477
534.747999	0.995630
535.108902	0.995012
535.469748	0.996416
535.830537	0.995446
536.191270	0.995937
536.551947	0.995897
536.912567	0.995454
537.273131	0.995812
537.633638	0.995734
537.994089	0.995918
538.354483	0.995747
538.714821	0.995626
539.075103	0.996073
539.435328	0.996428
539.795497	0.996290
540.155609	0.996211
540.515665	0.995866
540.875665	0.995795
541.235609	0.996233
541.595496	0.995213
541.955328	0.995677
542.315102	0.996033
542.674821	0.995561
543.034483	0.995807
543.394090	0.995305
543.753640	0.995381
544.113134	0.995201
544.472571	0.996272
544.831953	0.996009
545.191278	0.995693
545.550548	0.995218
545.909761	0.994993
546.268918	0.996076
546.628019	0.996616
546.987064	0.995442
547.346053	0.995091
547.704986	0.995321
548.063863	0.996144
548.422684	0.996085
548.781449	0.995387
549.140158	0.996878
549.498811	0.995513
549.857408	0.995791
550.215949	0.995205
550.574434	0.995616
550.932864	0.995979
551.291237	0.996006
551.649555	0.996196
552.007817	0.995989
552.366022	0.996106
552.724173	0.996357
553.082267	0.995851
553.440305	0.995570
553.798288	0.994786
554.156215	0.995859
554.514086	0.995985
554.871902	0.996134
555.229661	0.995019
555.587365	0.996022
555.945014	0.996424
556.302606	0.995038
556.660143	0.995794
557.017625	0.995878
557.375050	0.995432
557.732421	0.995800
558.089735	0.995878
558.446994	0.995535
558.804197	0.995676
559.161345	0.995676
559.518437	0.996019
559.875474	0.995620
560.232455	0.996498
560.589381	0.996162
560.946251	0.995697
561.303065	0.996016
561.659825	0.995640
562.016528	0.995813
562.373177	0.995180
562.729770	0.995801
563.086307	0.994246
563.442789	0.995462
563.799216	0.995259
564.155587	0.995899
564.511904	0.996328
564.868164	0.995170
565.224370	0.995583
565.580520	0.995672
565.936615	0.995680
566.292654	0.995548
566.648638	0.996098
567.004567	0.995234
567.360441	0.995463
567.716260	0.995409
568.072023	0.995706
568.427732	0.996455
568.783385	0.996302
569.138982	0.995760
569.494525	0.995827
569.850013	0.996210
570.205445	0.995855
570.560823	0.996110
570.916145	0.995434
571.271412	0.995559
571.626625	0.995977
571.981782	0.995294
572.336884	0.996329
572.691931	0.996104
573.046923	0.996442
573.401860	0.995912
573.756743	0.995623
574.111570	0.995834
574.466342	0.996314
574.821059	0.996028
575.175722	0.996378
575.530330	0.996130
575.884882	0.995753
576.239380	0.995433
576.593823	0.995541
576.948211	0.996055
577.302544	0.995286
577.656823	0.996174
578.011047	0.994746
578.365216	0.996444
578.719330	0.995825
579.073389	0.995302
579.427394	0.995575
579.781344	0.996188
580.135239	0.994970
580.489080	0.995138
580.842866	0.995942
581.196597	0.995119
581.550273	0.995369
581.903895	0.996012
582.257463	0.995783
582.610975	0.995564
582.964434	0.996007
583.317837	0.996460
583.671186	0.995729
584.024481	0.995161
584.377721	0.995027
584.730906	0.995628
585.084037	0.996155
585.437113	0.996453
585.790135	0.995895
586.143103	0.996163
586.496016	0.996324
586.848874	0.995650
587.201679	0.995622
587.554428	0.995827
587.907124	0.996786
588.259765	0.996300
588.612352	0.996244
588.964884	0.995898
589.317362	0.995566
589.669786	0.995465
590.022155	0.995592
590.374470	0.995299
590.726731	0.995236
591.078937	0.996104
591.431090	0.996586
591.783188	0.995567
592.135232	0.996644
592.487222	0.995566
592.839157	0.995687
593.191038	0.996034
593.542866	0.995768
593.894639	0.995189
594.246358	0.996550
594.598022	0.995890
594.949633	0.995946
595.301190	0.995608
595.652692	0.995758
596.004141	0.996139
596.355535	0.995759
596.706876	0.996550
597.058162	0.995713
597.409395	0.996153
597.760573	0.995426
598.111698	0.996013
598.462768	0.994999
598.813785	0.994905
599.164748	0.995522
599.515657	0.995883
599.866511	0.996627
600.217312	0.996803
600.568060	0.995544
600.918753	0.996646
601.269392	0.995968
601.619978	0.995911
601.970510	0.995811
602.320988	0.995282
602.671412	0.994799
603.021783	0.996435
603.372100	0.996292
603.722363	0.996331
604.072572	0.995827
604.422728	0.995388
604.772830	0.995912
605.122878	0.995350
605.472872	0.996303
605.822813	0.995805
606.172701	0.995441
606.522534	0.996754
606.872314	0.997235
607.222041	0.995579
607.571714	0.995843
607.921333	0.996248
608.270899	0.995766
608.620411	0.996022
608.969870	0.996557
609.319276	0.995771
609.668627	0.995938
610.017926	0.995666
610.367171	0.996339
610.716362	0.996188
611.065500	0.995432
611.414585	0.995416
611.763616	0.994830
612.112594	0.995339
612.461518	0.995176
612.810389	0.995486
613.159207	0.995548
613.507971	0.994672
613.856682	0.996014
614.205340	0.994969
614.553945	0.995942
614.902496	0.995271
615.250994	0.995532
615.599439	0.996444
615.947830	0.995891
616.296169	0.996089
616.644454	0.995826
616.992686	0.996240
617.340864	0.995660
617.688990	0.995147
618.037063	0.995308
618.385082	0.995451
618.733048	0.995174
619.080961	0.995017
619.428821	0.995482
619.776628	0.994452
620.124382	0.995833
620.472083	0.995373
620.819731	0.996959
621.167326	0.995942
621.514868	0.997009
621.862357	0.995984
622.209793	0.995627
622.557176	0.995190
622.904506	0.995851
623.251783	0.995287
623.599007	0.995615
623.946179	0.995141
624.293297	0.996226
624.640363	0.996150
624.987376	0.995179
625.334336	0.995609
625.681243	0.995361
626.028097	0.996321
626.374899	0.995369
626.721647	0.996872
627.068343	0.995518
627.414987	0.996548
627.761577	0.995444
628.108115	0.995160
628.454600	0.995904
628.801032	0.995863
629.147412	0.995705
629.493739	0.997183
629.840014	0.995906
630.186236	0.995714
630.532405	0.996085
630.878521	0.994850
631.224585	0.996282
631.570597	0.995540
631.916556	0.996443
632.262462	0.994029
632.608316	0.996369
632.954117	0.995769
633.299866	0.995684
633.645562	0.995396
633.991206	0.996180
634.336797	0.995439
634.682336	0.996751
635.027823	0.996571
635.373257	0.996279
635.718639	0.996294
636.063968	0.994996
636.409245	0.994994
636.754470	0.996163
637.099642	0.996020
637.444762	0.996342
637.789829	0.995309
638.134845	0.995825
638.479808	0.995896
638.824719	0.996398
639.169577	0.995732
639.514383	0.996853
639.859137	0.996163
640.203839	0.994496
640.548489	0.995269
640.893086	0.995300
641.237632	0.996013
641.582125	0.996169
641.926566	0.997032
642.270955	0.996341
642.615292	0.995622
642.959576	0.997038
643.303809	0.996766
643.647990	0.996458
643.992118	0.996161
644.336195	0.995451
644.680219	0.995939
645.024192	0.996050
645.368112	0.995811
645.711981	0.995431
646.055797	0.996308
646.399562	0.995074
646.743274	0.996804
647.086935	0.995377
647.430544	0.995730
647.774101	0.995183
648.117606	0.996439
648.461059	0.996280
648.804460	0.995384
649.147810	0.995468
649.491108	0.995514
649.834354	0.995746
650.177548	0.996151
650.520690	0.995821
650.863781	0.995782
651.206820	0.995564
651.549807	0.996213
651.892742	0.996952
652.235626	0.996033
652.578458	0.996256
652.921238	0.996080
653.263967	0.996443
653.606644	0.995471
653.949269	0.996442
654.291843	0.994820
654.634365	0.996565
654.976836	0.995203
655.319255	0.996269
655.661622	0.996373
656.003938	0.995182
656.346203	0.994961
656.688416	0.996844
657.030577	0.995577
657.372687	0.996032
657.714746	0.995712
658.056753	0.995146
658.398708	0.995590
658.740612	0.995507
659.082465	0.995548
659.424266	0.995791
659.766016	0.994590
660.107715	0.995478
660.449362	0.995433
660.790958	0.995334
661.132503	0.996173
661.473996	0.995395
661.815438	0.995313
662.156829	0.996574
662.498168	0.996487
662.839456	0.995080
663.180693	0.995668
663.521879	0.995511
663.863013	0.996183
664.204097	0.995446
664.545129	0.995901
664.886110	0.996639
665.227040	0.995971
665.567918	0.995571
665.908746	0.995599
666.249522	0.995453
666.590248	0.995376
666.930922	0.995476
667.271545	0.995925
667.612118	0.995586
667.952639	0.995775
668.293109	0.995870
668.633528	0.995199
668.973896	0.995546
669.314213	0.995101
669.654480	0.995841
669.994695	0.995001
670.334859	0.995910
670.674973	0.995872
671.015035	0.995756
671.355047	0.994501
671.695008	0.994875
672.034918	0.995038
672.374777	0.995875
672.714585	0.996504
673.054342	0.996474
673.394049	0.995414
673.733705	0.995321
674.073310	0.995185
674.412864	0.994604
674.752368	0.995179
675.091820	0.996053
675.431223	0.996162
675.770574	0.995536
676.109875	0.996008
676.449125	0.994681
676.788324	0.994828
677.127473	0.996810
677.466571	0.995799
677.805619	0.995346
678.144616	0.996194
678.483562	0.995408
678.822458	0.996099
679.161303	0.995226
679.500098	0.995335
679.838842	0.995909
680.177535	0.994782
680.516179	0.995435
680.854771	0.995310
681.193314	0.995845
681.531805	0.995557
681.870247	0.995965
682.208638	0.995387
682.546978	0.994764
682.885268	0.994253
683.223508	0.995037
683.561697	0.994827
683.899836	0.995247
684.237925	0.995367
684.575963	0.995258
684.913951	0.995915
685.251889	0.994771
685.589776	0.994820
685.927614	0.995691
686.265401	0.995298
686.603137	0.994876
686.940824	0.994624
687.278460	0.995476
687.616046	0.994961
687.953582	0.994674
688.291068	0.994808
688.628504	0.995007
688.965889	0.994608
689.303224	0.993547
689.640510	0.995215
689.977745	0.994109
690.314930	0.994285
690.652065	0.995465
690.989150	0.993747
691.326185	0.994925
691.663170	0.994748
692.000105	0.995287
692.336990	0.995846
692.673825	0.994964
693.010610	0.994721
693.347345	0.995732
693.684030	0.995381
694.020665	0.995217
694.357251	0.994370
694.693786	0.996039
695.030272	0.993821
695.366707	0.994861
695.703093	0.994913
696.039429	0.994669
696.375716	0.995905
696.711952	0.995539
697.048139	0.995800
697.384276	0.995901
697.720363	0.996295
698.056400	0.994099
698.392388	0.995449
698.728326	0.995182
699.064214	0.996496
699.400053	0.995769
699.735842	0.995569
700.071581	0.995232
700.407270	0.994914
700.742910	0.996159
701.078501	0.994883
701.414042	0.996846
701.749533	0.995265
702.084974	0.995615
702.420366	0.995976
702.755709	0.996131
703.091002	0.996815
703.426246	0.996082
703.761440	0.995726
704.096584	0.995240
704.431679	0.995749
704.766725	0.996253
705.101721	0.996851
705.436668	0.995558
705.771565	0.995800
706.106413	0.995211
706.441212	0.996146
706.775961	0.996092
707.110661	0.995275
707.445311	0.995926
707.779913	0.996197
708.114465	0.996505
708.448967	0.996164
708.783421	0.995789
709.117825	0.995501
709.452180	0.995401
709.786485	0.995304
710.120742	0.994654
710.454949	0.994446
710.789107	0.995664
711.123216	0.994469
711.457275	0.993848
711.791286	0.995046
712.125247	0.996386
712.459159	0.993767
712.793023	0.994238
713.126837	0.995970
713.460602	0.994575
713.794318	0.994657
714.127985	0.994160
714.461602	0.994739
714.795171	0.994799
715.128691	0.994921
715.462162	0.995083
715.795584	0.995528
716.128957	0.995262
716.462281	0.996182
716.795556	0.994805
717.128782	0.995861
717.461960	0.995501
717.795088	0.995365
718.128167	0.996222
718.461198	0.995063
718.794180	0.995723
719.127113	0.996204
719.459997	0.995113
719.792833	0.995083
720.125619	0.995255
720.458357	0.995450
720.791046	0.997378
721.123686	0.995433
721.456278	0.995439
721.788821	0.995779
722.121315	0.996659
722.453761	0.995780
722.786158	0.994527
723.118506	0.996272
723.450805	0.995257
723.783056	0.996835
724.115259	0.994472
724.447412	0.996897
724.779518	0.996000
725.111574	0.995916
725.443582	0.996320
725.775542	0.995855
726.107453	0.995738
726.439315	0.996538
726.771129	0.996506
727.102895	0.996188
727.434612	0.996207
727.766281	0.994986
728.097901	0.994324
728.429473	0.995125
728.760996	0.994466
729.092471	0.995863
729.423897	0.995243
729.755276	0.995276
730.086606	0.994986
730.417887	0.996292
730.749120	0.995430
731.080305	0.994887
731.411442	0.994424
731.742530	0.994163
732.073570	0.994812
732.404562	0.995539
732.735506	0.994391
733.066401	0.994911
733.397249	0.995557
733.728048	0.995775
734.058798	0.995571
734.389501	0.996690
734.720156	0.995736
735.050762	0.996259
735.381320	0.995791
735.711831	0.995638
736.042293	0.995031
736.372707	0.997283
736.703073	0.995338
737.033391	0.995515
737.363661	0.995685
737.693883	0.995644
738.024056	0.994738
738.354182	0.995803
738.684260	0.995904
739.014290	0.994960
739.344272	0.994898
739.674207	0.996196
740.004093	0.995635
740.333931	0.994786
740.663722	0.994970
740.993464	0.995348
741.323159	0.995389
741.652806	0.994723
741.982405	0.995173
742.311956	0.996035
742.641460	0.995996
742.970915	0.995859
743.300323	0.994407
743.629683	0.995653
743.958996	0.995485
744.288260	0.995283
744.617477	0.995400
744.946647	0.996076
745.275768	0.996137
745.604842	0.995436
745.933869	0.995934
746.262847	0.996117
746.591778	0.994679
746.920662	0.996675
747.249498	0.997484
747.578286	0.997928
747.907027	0.996795
748.235720	0.996440
748.564365	0.996221
748.892963	0.995012
749.221514	0.996438
749.550017	0.995200
749.878473	0.995674
750.206881	0.997288
750.535242	0.996381
750.863555	0.996100
751.191821	0.995723
751.520039	0.996117
751.848210	0.994977
752.176334	0.996140
752.504411	0.996441
752.832440	0.996095
753.160421	0.995771
753.488356	0.996547
753.816243	0.996235
754.144082	0.995479
754.471875	0.996427
754.799620	0.996363
755.127318	0.996183
755.454969	0.997026
755.782572	0.996457
756.110129	0.996162
756.437638	0.997068
756.765100	0.995825
757.092515	0.995784
757.419882	0.996751
757.747203	0.995912
758.074477	0.997182
758.401703	0.996350
758.728882	0.995661
759.056014	0.995471
759.383099	0.995909
759.710138	0.995381
760.037129	0.996670
760.364073	0.996883
760.690970	0.996469
761.017820	0.996419
761.344623	0.995515
761.671379	0.996410
761.998088	0.995487
762.324751	0.995687
762.651366	0.994664
762.977935	0.994358
763.304456	0.993693
763.630931	0.992097
763.957359	0.992246
764.283740	0.992835
764.610074	0.993403
764.936362	0.994120
765.262602	0.994639
765.588796	0.995623
765.914943	0.995725
766.241044	0.995120
766.567097	0.995753
766.893104	0.996302
767.219064	0.995681
767.544978	0.995507
767.870845	0.995886
768.196665	0.996562
768.522438	0.997328
768.848165	0.997178
769.173846	0.998266
769.499479	0.997668
769.825066	0.996814
770.150607	0.997800
770.476101	0.996839
770.801548	0.998543
771.126949	0.998171
771.452303	0.996862
771.777611	0.998225
772.102872	0.998013
772.428087	0.997241
772.753256	0.997112
773.078378	0.996945
773.403453	0.996574
773.728482	0.998533
774.053465	0.997519
774.378401	0.997632
774.703291	0.997891
775.028135	0.998997
775.352932	0.995892
775.677683	0.997866
776.002388	0.997881
776.327046	0.996872
776.651658	0.998417
776.976224	0.997930
777.300743	0.997656
777.625216	0.996889
777.949643	0.998123
778.274024	0.997460
778.598359	0.997854
778.922647	0.998059
779.246889	0.997528
779.571086	0.997313
779.895236	0.998395
780.219339	0.998642
780.543397	0.997539
780.867409	0.998179
781.191374	0.997933
781.515294	0.998390
781.839167	0.998568
782.162995	0.997700
782.486776	0.997033
782.810511	0.997740
783.134201	0.998271
783.457844	0.998239
783.781441	0.997469
784.104993	0.997524
784.428498	0.997812
784.751958	0.999510
785.075372	0.997888
785.398739	0.997489
785.722061	0.997406
786.045337	0.998743
786.368568	0.997461
786.691752	0.998047
787.014891	0.997798
787.337983	0.996601
787.661030	0.997380
787.984031	0.996980
788.306987	0.997556
788.629897	0.995920
788.952760	0.997196
789.275579	0.998205
789.598351	0.996394
789.921078	0.998238
790.243759	0.996993
790.566395	0.997028
790.888984	0.997719
791.211529	0.998292
791.534027	0.996914
791.856480	0.998268
792.178888	0.997468
792.501249	0.997418
792.823566	0.999459
793.145836	0.997498
793.468062	0.998481
793.790241	0.998890
794.112375	0.997403
794.434464	0.998224
794.756507	0.998082
795.078505	0.998037
795.400457	0.997752
795.722364	0.998562
796.044226	0.997946
796.366042	0.997386
796.687812	0.996431
797.009538	0.996810
797.331218	0.998053
797.652852	0.997937
797.974442	0.997315
798.295986	0.997658
798.617484	0.997275
798.938938	0.997426
799.260346	0.997284
799.581709	0.996835
799.903026	0.998482
800.224299	0.997495
800.545526	0.996825
800.866708	0.997257
801.187845	0.997711
801.508936	0.999235
801.829983	0.997195
802.150984	0.997975
802.471940	0.998697
802.792851	0.997997
803.113717	0.999914
803.434538	0.998784
803.755314	0.998867
804.076045	0.999267
804.396731	0.998267
804.717372	0.996867
805.037967	0.998515
805.358518	0.998992
805.679024	0.997620
805.999485	0.997981
806.319901	0.998007
806.640272	0.998613
806.960598	0.997858
807.280879	0.997935
807.601115	0.998900
807.921306	0.999424
808.241453	0.997375
808.561554	0.998764
808.881611	0.998146
809.201623	0.997941
809.521590	0.998283
809.841513	0.997199
810.161390	0.997045
810.481223	0.996912
810.801011	0.999320
811.120755	0.999773
811.440453	0.997826
811.760107	0.997957
812.079716	0.998918
812.399281	0.997032
812.718801	0.998082
813.038276	0.998547
813.357707	0.997902
813.677093	0.998677
813.996434	0.998530
814.315731	0.998732
814.634983	0.998975
814.954191	0.999539
815.273354	0.997765
815.592473	0.998170
815.911547	0.997671
816.230577	0.997517
816.549562	0.998113
816.868502	0.997046
817.187399	0.998429
817.506250	0.998091
817.825058	0.997059
818.143821	0.998058
818.462539	0.998357
818.781213	0.998141
819.099843	0.997075
819.418429	0.996899
819.736970	0.996336
820.055466	0.994724
820.373919	0.995132
820.692327	0.993881
821.010691	0.992446
821.329011	0.989791
821.647286	0.988383
821.965517	0.985296
822.283704	0.982807
822.601847	0.981371
822.919945	0.981255
823.237999	0.983639
823.556010	0.984605
823.873976	0.985989
824.191897	0.988291
824.509775	0.989413
824.827609	0.991305
825.145398	0.991504
825.463144	0.990577
825.780845	0.991092
826.098502	0.991461
826.416116	0.990962
826.733685	0.989076
827.051210	0.987466
827.368692	0.987938
827.686129	0.988698
828.003522	0.991268
828.320872	0.990699
828.638177	0.991990
828.955439	0.995334
829.272656	0.996177
829.589830	0.994951
829.906960	0.995479
830.224046	0.996248
830.541088	0.996958
830.858086	0.996973
831.175041	0.998106
831.491952	0.996939
831.808819	0.996574
832.125642	0.996302
832.442421	0.996785
832.759157	0.996715
833.075849	0.994372
833.392497	0.993588
833.709101	0.991221
834.025662	0.992050
834.342179	0.991996
834.658653	0.993545
834.975083	0.994684
835.291469	0.994988
835.607811	0.995632
835.924110	0.996741
836.240366	0.998340
836.556578	0.997924
836.872746	0.998946
837.188871	0.998778
837.504952	0.997975
837.820990	0.999607
838.136984	0.997610
838.452935	0.997461
838.768842	0.998216
839.084706	0.997991
839.400526	0.998150
839.716303	0.995531
840.032037	0.996582
840.347727	0.994956
840.663373	0.996009
840.978977	0.996595
841.294537	0.997980
841.610054	0.998710
841.925527	0.998797
842.240957	0.999512
842.556344	0.998884
842.871687	0.999126
843.186987	0.998762
843.502244	0.999568
843.817458	0.998654
844.132629	0.998439
844.447756	0.999077
844.762840	0.999661
845.077881	1.001164
845.392879	0.997349
845.707833	0.999906
846.022745	0.999749
846.337613	1.000430
846.652438	0.999991
846.967221	0.998910
847.281960	0.999624
847.596656	0.999846
847.911309	0.999315
848.225919	0.998749
848.540485	0.999235
848.855009	1.000975
849.169490	1.000795
849.483928	1.000366
849.798323	0.998154
850.112675	1.001382
850.426984	0.999418
850.741251	1.001174
851.055474	0.999850
851.369654	0.999887
851.683792	0.999684
851.997887	1.000675
852.311938	1.000255
852.625947	0.998847
852.939914	0.998995
853.253837	1.000723
853.567718	0.999652
853.881555	1.000393
854.195350	0.999764
854.509103	0.999573
854.822812	1.000239
855.136479	0.999815
855.450103	0.998941
855.763685	0.999236
856.077224	0.999931
856.390720	0.999149
856.704173	0.999918
857.017584	1.000675
857.330953	1.000822
857.644278	0.999484
857.957561	0.999050
858.270802	1.000257
858.584000	0.999240
858.897155	0.998966
859.210268	0.998922
859.523339	1.000730
859.836367	1.000917
860.149352	0.999198
860.462295	1.000276
860.775195	1.000186
861.088054	0.998629
861.400869	0.999619
861.713642	0.998609
862.026373	0.999821
862.339062	1.000088
862.651708	0.999276
862.964312	0.999944
863.276873	0.999441
863.589392	0.999690
863.901869	0.999329
864.214303	1.000533
864.526696	1.000299
864.839045	0.999441
865.151353	0.998868
865.463619	0.998981
865.775842	0.999713
866.088023	1.000789
866.400162	0.999325
866.712258	1.000232
867.024313	0.999400
867.336325	0.999949
867.648296	0.999675
867.960224	1.000636
868.272110	1.000528
868.583954	0.999261
868.895755	1.000376
869.207515	0.999234
869.519233	0.999822
869.830909	0.998855
870.142542	0.998601
870.454134	0.998918
870.765684	0.998564
871.077191	0.999695
871.388657	0.998910
871.700081	0.999834
872.011463	1.000629
872.322803	0.999150
872.634101	0.998347
872.945357	0.998628
873.256571	0.998130
873.567744	0.999226
873.878874	0.998738
874.189963	0.998616
874.501010	1.000473
874.812015	0.998546
875.122979	0.998200
875.433900	0.998656
875.744780	0.999789
876.055618	0.998170
876.366415	0.998641
876.677169	0.997913
876.987882	0.998833
877.298554	0.999101
877.609183	0.997574
877.919771	0.999155
878.230317	0.999783
878.540822	0.997610
878.851285	0.997788
879.161707	0.996183
879.472087	0.997722
879.782425	0.995668
880.092722	0.994050
880.402977	0.992557
880.713191	0.989786
881.023363	0.986018
881.333494	0.984266
881.643583	0.985841
881.953631	0.984361
882.263637	0.984544
882.573602	0.984363
882.883526	0.985598
883.193408	0.988650
883.503248	0.989638
883.813048	0.990226
884.122806	0.991949
884.432522	0.991969
884.742197	0.994818
885.051831	0.994295
885.361424	0.994882
885.670975	0.996708
885.980485	0.996443
886.289954	0.995820
886.599382	0.995619
886.908768	0.996532
887.218113	0.996578
887.527417	0.997566
887.836680	0.997944
888.145901	0.998655
888.455082	1.000218
888.764221	0.998734
889.073319	0.998763
889.382376	0.999568
889.691392	0.998037
890.000366	0.999565
890.309300	0.998355
890.618193	0.998148
890.927044	0.998670
891.235855	0.998113
891.544625	0.998531
891.853353	0.998014
892.162041	0.998640
892.470687	0.998401
892.779293	0.997146
893.087858	0.996258
893.396381	0.996356
893.704864	0.995612
894.013306	0.994518
894.321707	0.994706
894.630068	0.992320
894.938387	0.991802
895.246665	0.992361
895.554903	0.991663
895.863100	0.993781
896.171256	0.994812
896.479371	0.994893
896.787446	0.994961
897.095480	0.996593
897.403473	0.997222
897.711425	0.996773
898.019336	0.997461
898.327207	0.997597
898.635038	0.997398
898.942827	0.998381
899.250576	0.998046
899.558284	0.998662
899.865952	0.996986
900.173579	0.998078
900.481165	0.998542
900.788711	0.998189
901.096216	0.998206
901.403681	0.997685
901.711105	0.998397
902.018489	0.998074
902.325832	0.998412
902.633135	0.998939
902.940397	0.998843
903.247619	0.997930
903.554800	0.996161
903.861941	0.994661
904.169041	0.991173
904.476101	0.990296
904.783121	0.989226
905.090100	0.989422
905.397039	0.991523
905.703938	0.993603
906.010796	0.994330
906.317614	0.996025
906.624391	0.997382
906.931129	0.997312
907.237826	0.998223
907.544483	0.997919
907.851099	0.997636
908.157675	0.998619
908.464211	0.998515
908.770707	0.999013
909.077163	0.998427
909.383578	1.000261
909.689954	0.997959
909.996289	0.999286
910.302584	0.999441
910.608839	1.000267
910.915054	1.000055
911.221229	1.001075
911.527363	0.999457
911.833458	0.999391
912.139513	0.999587
912.445527	0.999629
912.751502	0.999833
913.057436	0.997679
913.363331	1.000669
913.669186	0.999468
913.975000	0.999127
914.280775	0.997821
914.586510	0.996534
914.892205	0.995424
915.197859	0.994647
915.503475	0.994916
915.809050	0.991905
916.114585	0.990014
916.420081	0.990368
916.725536	0.991140
917.030952	0.991681
917.336328	0.991962
917.641665	0.991947
917.946961	0.993159
918.252218	0.994394
918.557435	0.995613
918.862612	0.996308
919.167750	0.997138
919.472848	0.997020
919.777906	0.999008
920.082925	0.997728
920.387904	0.998297
920.692843	0.997984
920.997743	0.997896
921.302603	0.999430
921.607423	0.998012
921.912204	0.999177
922.216946	1.000013
922.521647	0.999317
922.826310	0.998770
923.130932	0.999421
923.435516	0.998915
923.740059	0.999161
924.044564	0.998758
924.349028	0.998709
924.653454	0.999327
924.957840	0.999194
925.262186	0.999129
925.566493	0.999987
925.870761	0.999613
926.174989	1.000040
926.479178	1.000082
926.783328	0.999992
927.087438	1.000123
927.391509	1.000318
927.695541	1.000193
927.999533	0.999699
928.303486	0.999985
928.607400	1.000694
928.911275	1.000524
929.215110	1.000681
929.518906	1.000053
929.822663	1.000804
930.126381	1.001734
930.430060	0.999531
930.733699	1.000618
931.037299	1.001406
931.340861	1.001674
931.644383	0.999076
931.947866	1.000603
932.251309	1.000702
932.554714	1.000975
932.858080	1.000488
933.161407	0.999093
933.464694	0.999813
933.767943	1.000949
934.071153	1.000475
934.374323	1.000871
934.677455	1.001145
934.980548	1.000581
935.283602	1.000776
935.586617	1.000051
935.889593	1.002600
936.192530	1.001334
936.495428	1.000703
936.798287	0.999703
937.101108	1.001402
937.403890	1.000413
937.706632	1.001108
938.009336	1.000252
938.312002	1.000399
938.614628	0.998693
938.917216	0.999173
939.219765	0.999589
939.522275	1.000114
939.824747	1.000023
940.127179	0.999352
940.429573	1.000327
940.731929	0.999126
941.034246	0.999533
941.336524	0.998863
941.638763	0.998518
941.940964	0.999929
942.243126	0.998644
942.545250	1.000765
942.847335	1.001027
943.149381	1.000280
943.451389	0.999701
943.753359	0.999785
944.055290	1.001352
944.357182	0.999901
944.659036	1.000284
944.960851	1.000142
945.262628	1.000851
945.564367	1.001244
945.866067	1.000738
946.167729	1.001842
946.469352	0.999631
946.770937	0.998848
947.072484	1.000933
947.373992	1.000218
947.675462	0.999662
947.976893	0.999668
948.278286	1.001912
948.579641	1.000911
948.880958	0.999769
949.182236	1.000148
949.483476	1.001134
949.784678	1.000644
950.085841	0.999015
950.386967	1.000783
950.688054	0.999985
950.989103	0.999038
951.290114	0.998601
951.591087	1.001091
951.892021	0.999560
952.192917	1.000609
952.493776	0.999534
952.794596	0.999587
953.095378	1.000083
953.396122	1.000458
953.696828	1.000302
953.997496	0.999853
954.298126	1.000568
954.598718	0.999875
954.899272	1.001026
955.199788	0.999358
955.500266	1.001614
955.800706	1.000865
956.101108	0.999842
956.401472	1.000797
956.701798	0.999245
957.002087	1.000739
957.302337	1.000884
957.602550	1.001106
957.902724	1.000024
958.202861	1.000079
958.502960	0.999892
958.803022	1.001621
959.103045	1.000452
959.403031	1.001281
959.702979	1.001865
960.002889	1.000483
960.302762	0.999467
960.602596	1.000513
960.902393	1.000959
961.202153	1.002156
961.501875	1.000720
961.801559	1.001763
962.101205	1.000056
962.400814	1.000480
962.700385	1.001539
962.999918	1.001199
963.299414	1.000311
963.598873	1.002347
963.898293	1.000263
964.197677	1.000713
964.497022	1.001252
964.796331	1.000265
965.095601	1.002071
965.394835	0.999267
965.694030	1.001161
965.993189	1.000222
966.292309	1.001249
966.591393	0.999739
966.890439	1.002601
967.189447	1.000609
967.488419	1.001788
967.787353	1.000637
968.086249	1.001743
968.385108	1.000627
968.683930	1.001909
968.982714	1.001284
969.281462	1.001250
969.580172	1.001209
969.878844	1.001543
970.177480	1.000448
970.476078	1.002329
970.774639	0.999626
971.073162	1.000326
971.371649	1.000805
971.670098	1.000975
971.968510	1.000779
972.266885	1.000118
972.565223	1.001532
972.863524	1.000177
973.161788	1.000825
973.460014	1.001572
973.758204	1.000059
974.056356	1.000042
974.354471	1.000267
974.652550	1.001382
974.950591	1.001193
975.248595	1.000426
975.546563	1.001626
975.844493	1.001659
976.142386	0.999898
976.440243	1.001177
976.738062	1.000317
977.035845	1.000225
977.333590	1.001797
977.631299	1.000923
977.928971	1.000566
978.226606	1.000924
978.524204	0.999938
978.821765	1.001815
979.119290	1.000951
979.416777	1.001095
979.714228	1.000634
980.011642	1.002123
980.309020	0.999975
980.606360	0.999282
980.903664	0.999278
981.200931	1.000336
981.498162	1.001048
981.795356	1.000349
982.092513	0.999521
982.389633	1.002455
982.686717	1.000852
982.983764	1.000557
983.280775	1.000490
983.577749	1.001816
983.874686	0.999188
984.171587	0.999660
984.468451	1.000696
984.765279	1.001633
985.062070	1.000761
985.358824	0.999336
985.655543	1.001821
985.952224	1.001617
986.248869	1.000665
986.545478	1.002142
986.842050	0.999701
987.138586	1.001314
987.435086	1.001393
987.731549	1.002259
988.027975	1.001995
988.324366	0.999563
988.620719	1.001681
988.917037	1.000437
989.213318	1.001915
989.509563	1.001402
989.805772	1.001560
990.101944	1.001346
990.398080	1.001908
990.694180	1.000613
990.990244	1.000842
991.286271	0.999954
991.582262	1.000726
991.878217	1.000243
992.174136	1.000983
992.470019	1.001173
992.765865	1.001988
993.061676	1.001614
993.357450	1.000968
993.653188	1.002010
993.948890	1.001270
994.244556	0.999958
994.540186	1.001257
994.835780	1.000806
995.131337	1.001087
995.426859	1.001066
995.722345	1.001500
996.017795	1.001275
996.313208	1.000814
996.608586	1.000354
996.903928	1.001210
997.199234	1.000218
997.494504	1.001453
997.789738	0.999479
998.084936	1.001641
998.380099	1.000116
998.675225	1.002272
998.970316	1.003094
999.265371	1.000977
999.560390	1.000816
999.855373	1.000219
1000.150320	1.000880
1000.445232	1.001063
1000.740108	1.000990
1001.034948	1.001309
1001.329752	1.001367
1001.624521	1.000904
1001.919254	1.001021
1002.213951	1.002655
1002.508613	1.000957
1002.803239	1.001685
1003.097829	1.001398
1003.392384	1.000828
1003.686903	1.002312
1003.981386	1.001562
1004.275834	1.003163
1004.570246	0.998934
1004.864623	1.001807
1005.158964	1.001886
1005.453270	1.000353
1005.747540	1.000903
1006.041775	1.001509
1006.335974	1.001488
1006.630138	1.001142
1006.924266	1.000034
1007.218359	1.000059
1007.512416	1.001148
1007.806438	1.000577
1008.100425	1.000634
1008.394376	1.001316
1008.688292	1.000271
1008.982172	1.000536
1009.276017	1.003069
1009.569827	1.002079
1009.863602	0.999773
1010.157341	1.001514
1010.451045	1.000255
1010.744714	1.002975
1011.038347	1.001996
1011.331945	1.000756
1011.625508	1.000877
1011.919036	1.000993
1012.212528	1.001701
1012.505986	1.001134
1012.799408	1.001673
1013.092795	1.000320
1013.386147	1.002174
1013.679464	1.001754
1013.972745	1.000946
1014.265992	1.000508
1014.559204	1.000555
1014.852380	1.000672
1015.145521	1.000566
1015.438628	1.001089
1015.731699	1.000014
1016.024736	1.001925
1016.317737	1.001753
1016.610703	1.001637
1016.903635	1.001407
1017.196531	1.000556
1017.489393	1.001577
1017.782219	1.000793
1018.075011	1.000769
1018.367768	1.000412
1018.660490	1.002180
1018.953177	1.002180
1019.245829	1.002180
