Dividing Wavelength (nm)	Counts (n)	Blue Motor Position (mm): 31.000000	Red Motor Position (mm): 0.000000	
326.493990	1.000615
326.888308	1.000615
327.282561	1.000615
327.676750	1.002766
328.070874	1.001270
328.464933	1.001611
328.858929	1.001981
329.252859	1.001087
329.646726	1.001367
330.040528	1.000436
330.434265	1.000490
330.827938	1.000045
331.221547	1.001025
331.615091	1.001630
332.008571	1.001237
332.401986	0.999916
332.795338	1.001157
333.188625	1.000820
333.581847	1.000395
333.975006	1.001637
334.368100	1.000746
334.761129	0.999783
335.154095	1.000769
335.546996	1.001013
335.939833	0.998738
336.332606	0.999730
336.725315	0.998286
337.117960	1.001558
337.510540	0.998770
337.903056	1.000021
338.295508	1.000649
338.687896	1.001209
339.080220	0.999923
339.472480	0.999471
339.864676	0.999897
340.256807	0.999674
340.648875	0.999868
341.040879	0.999777
341.432818	1.000659
341.824694	0.999949
342.216506	0.999758
342.608253	0.999888
342.999937	0.999547
343.391557	0.998907
343.783113	1.000708
344.174605	1.000723
344.566033	0.999581
344.957397	1.000749
345.348697	1.000077
345.739934	1.001194
346.131106	0.999109
346.522215	0.999108
346.913260	0.999488
347.304241	0.999084
347.695159	0.999059
348.086012	0.997777
348.476802	0.999305
348.867528	0.998220
349.258191	1.000615
349.648789	0.998615
350.039324	1.000414
350.429796	0.998333
350.820203	0.999451
351.210548	0.999612
351.600828	0.998804
351.991045	0.998395
352.381198	0.999864
352.771288	0.999054
353.161314	0.998830
353.551276	0.998914
353.941175	0.997296
354.331010	0.999217
354.720782	0.999692
355.110490	0.998363
355.500135	1.000064
355.889717	0.997881
356.279235	0.998714
356.668689	0.999818
357.058080	0.999007
357.447408	0.997527
357.836672	0.999069
358.225873	0.997472
358.615010	0.998157
359.004084	0.998434
359.393095	0.999393
359.782043	0.998478
360.170927	0.998712
360.559748	0.999307
360.948505	0.998666
361.337199	0.997223
361.725830	0.998752
362.114398	0.997793
362.502903	0.998042
362.891344	0.998096
363.279722	0.997343
363.668037	0.998217
364.056289	0.997311
364.444478	0.999448
364.832603	0.997683
365.220665	0.999557
365.608665	0.997161
365.996601	0.997384
366.384474	0.996362
366.772284	0.997391
367.160031	0.995397
367.547715	0.996545
367.935336	0.994848
368.322893	0.994427
368.710388	0.993644
369.097820	0.990761
369.485189	0.989416
369.872495	0.988649
370.259738	0.985368
370.646918	0.982679
371.034035	0.980686
371.421090	0.977347
371.808081	0.972139
372.195010	0.969818
372.581875	0.965165
372.968678	0.959880
373.355418	0.957332
373.742096	0.949021
374.128710	0.944421
374.515262	0.940152
374.901751	0.934423
375.288177	0.929086
375.674540	0.922639
376.060841	0.917171
376.447079	0.909880
376.833254	0.903626
377.219367	0.899169
377.605417	0.887949
377.991404	0.883994
378.377329	0.878546
378.763191	0.871725
379.148991	0.861933
379.534727	0.854041
379.920402	0.846194
380.306013	0.842992
380.691563	0.830128
381.077049	0.823157
381.462474	0.819639
381.847835	0.807839
382.233134	0.803566
382.618371	0.802523
383.003545	0.786705
383.388657	0.784640
383.773706	0.777820
384.158693	0.772594
384.543618	0.767946
384.928480	0.758503
385.313280	0.747909
385.698017	0.747239
386.082692	0.736453
386.467305	0.735268
386.851856	0.729630
387.236344	0.724436
387.620770	0.718938
388.005133	0.713271
388.389435	0.707625
388.773674	0.704253
389.157851	0.696239
389.541965	0.693840
389.926018	0.701726
390.310008	0.687266
390.693936	0.684385
391.077802	0.676097
391.461606	0.678237
391.845348	0.667821
392.229027	0.666665
392.612645	0.664943
392.996200	0.652040
393.379694	0.645737
393.763125	0.636059
394.146494	0.640719
394.529801	0.630898
394.913047	0.622525
395.296230	0.628220
395.679351	0.619812
396.062410	0.616591
396.445408	0.619373
396.828343	0.615024
397.211217	0.610430
397.594028	0.622289
397.976778	0.612830
398.359466	0.609071
398.742092	0.604377
399.124656	0.616487
399.507158	0.604170
399.889598	0.601140
400.271977	0.592713
400.654294	0.597213
401.036549	0.595458
401.418742	0.600239
401.800874	0.585911
402.182944	0.583089
402.564952	0.574581
402.946898	0.576831
403.328783	0.577028
403.710606	0.588315
404.092367	0.563142
404.474067	0.568622
404.855705	0.567571
405.237282	0.576810
405.618797	0.562621
406.000250	0.557823
406.381642	0.548399
406.762972	0.553476
407.144240	0.552475
407.525447	0.552296
407.906593	0.544673
408.287677	0.540226
408.668700	0.548523
409.049661	0.543196
409.430560	0.537521
409.811399	0.546617
410.192176	0.528663
410.572891	0.535455
410.953545	0.523750
411.334138	0.536962
411.714669	0.530176
412.095139	0.541725
412.475547	0.525547
412.855894	0.528760
413.236180	0.527044
413.616405	0.532617
413.996568	0.522740
414.376670	0.529235
414.756711	0.534213
415.136691	0.530016
415.516609	0.522005
415.896466	0.519277
416.276262	0.515363
416.655997	0.516869
417.035670	0.498698
417.415283	0.490212
417.794834	0.495705
418.174324	0.501026
418.553753	0.510558
418.933121	0.493425
419.312428	0.487449
419.691674	0.493600
420.070859	0.482939
420.449983	0.491646
420.829045	0.481571
421.208047	0.491790
421.586988	0.486130
421.965867	0.486263
422.344686	0.476855
422.723444	0.489929
423.102141	0.508673
423.480777	0.483592
423.859352	0.505914
424.237866	0.485822
424.616319	0.488274
424.994712	0.481858
425.373044	0.494117
425.751314	0.485448
426.129524	0.503787
426.507673	0.490533
426.885762	0.486786
427.263789	0.496125
427.641756	0.507921
428.019662	0.502206
428.397508	0.505114
428.775292	0.513555
429.153016	0.509681
429.530679	0.519422
429.908282	0.517626
430.285824	0.530976
430.663305	0.516551
431.040726	0.540819
431.418086	0.544826
431.795385	0.543421
432.172624	0.549114
432.549802	0.553727
432.926920	0.559186
433.303977	0.564911
433.680974	0.568597
434.057910	0.574049
434.434786	0.579846
434.811601	0.588624
435.188355	0.582555
435.565050	0.596188
435.941683	0.604345
436.318257	0.600248
436.694770	0.609366
437.071222	0.615393
437.447614	0.626784
437.823946	0.637706
438.200218	0.638414
438.576429	0.653483
438.952580	0.658029
439.328670	0.663859
439.704700	0.675939
440.080670	0.684572
440.456580	0.683756
440.832429	0.696485
441.208218	0.711098
441.583947	0.713221
441.959616	0.720410
442.335224	0.733110
442.710773	0.737227
443.086261	0.744774
443.461689	0.758660
443.837057	0.763381
444.212365	0.767621
444.587612	0.778399
444.962800	0.782495
445.337927	0.791336
445.712995	0.808831
446.088002	0.802233
446.462949	0.814152
446.837837	0.824663
447.212664	0.825767
447.587431	0.833240
447.962139	0.830979
448.336786	0.825297
448.711374	0.835801
449.085901	0.855951
449.460369	0.865075
449.834776	0.871905
450.209124	0.873080
450.583412	0.878834
450.957640	0.881697
451.331808	0.890939
451.705917	0.901531
452.079965	0.907028
452.453954	0.910549
452.827883	0.916874
453.201752	0.921286
453.575562	0.926230
453.949311	0.931011
454.323001	0.934623
454.696632	0.938675
455.070202	0.941311
455.443713	0.943996
455.817164	0.947493
456.190556	0.950798
456.563888	0.954958
456.937160	0.957154
457.310373	0.961383
457.683526	0.963718
458.056619	0.967185
458.429653	0.970028
458.802628	0.971595
459.175542	0.973758
459.548398	0.975121
459.921194	0.975796
460.293930	0.978024
460.666607	0.978637
461.039224	0.979310
461.411782	0.980856
461.784280	0.981644
462.156719	0.984297
462.529099	0.986058
462.901419	0.986676
463.273680	0.987649
463.645882	0.988946
464.018024	0.990864
464.390106	0.990469
464.762130	0.991407
465.134094	0.991086
465.505999	0.991222
465.877845	0.990154
466.249631	0.990783
466.621358	0.991169
466.993026	0.992648
467.364634	0.993439
467.736184	0.994197
468.107674	0.994178
468.479105	0.994172
468.850477	0.994559
469.221790	0.995427
469.593043	0.994394
469.964238	0.995321
470.335373	0.994770
470.706449	0.995737
471.077467	0.995537
471.448425	0.996315
471.819324	0.996048
472.190164	0.995191
472.560945	0.995313
472.931667	0.996184
473.302330	0.995646
473.672934	0.997037
474.043479	0.996361
474.413965	0.995776
474.784393	0.995707
475.154761	0.995809
475.525070	0.996902
475.895321	0.996868
476.265513	0.996576
476.635645	0.997299
477.005719	0.996386
477.375734	0.996478
477.745691	0.996321
478.115588	0.995929
478.485427	0.996297
478.855207	0.996257
479.224928	0.997025
479.594591	0.996163
479.964194	0.996686
480.333739	0.996352
480.703226	0.995971
481.072653	0.995774
481.442022	0.996751
481.811333	0.996500
482.180584	0.996288
482.549777	0.996027
482.918912	0.996223
483.287988	0.996700
483.657005	0.996447
484.025964	0.996614
484.394864	0.996375
484.763706	0.995558
485.132489	0.996771
485.501213	0.996930
485.869879	0.996345
486.238487	0.996157
486.607036	0.996870
486.975527	0.996910
487.343959	0.996382
487.712333	0.996640
488.080648	0.996377
488.448905	0.996599
488.817104	0.996004
489.185244	0.996473
489.553326	0.996848
489.921350	0.996975
490.289315	0.996272
490.657222	0.995695
491.025070	0.996370
491.392861	0.996187
491.760593	0.996747
492.128267	0.996027
492.495883	0.996212
492.863440	0.996444
493.230939	0.996706
493.598380	0.997023
493.965763	0.996642
494.333088	0.996062
494.700354	0.996447
495.067563	0.997283
495.434713	0.996700
495.801805	0.996661
496.168839	0.996582
496.535815	0.997320
496.902733	0.997219
497.269593	0.997149
497.636395	0.996481
498.003139	0.996175
498.369825	0.997924
498.736453	0.997115
499.103023	0.997548
499.469535	0.997430
499.835989	0.997162
500.202385	0.997302
500.568723	0.996367
500.935003	0.997013
501.301226	0.997225
501.667390	0.997228
502.033497	0.997576
502.399546	0.996653
502.765537	0.997062
503.131470	0.997300
503.497345	0.997010
503.863163	0.997695
504.228923	0.997006
504.594625	0.997453
504.960269	0.997308
505.325856	0.998028
505.691385	0.998055
506.056856	0.997546
506.422270	0.997639
506.787625	0.997590
507.152924	0.997579
507.518164	0.997261
507.883347	0.997320
508.248472	0.997501
508.613540	0.996813
508.978550	0.997716
509.343503	0.997162
509.708398	0.996773
510.073236	0.997376
510.438016	0.997280
510.802738	0.996997
511.167403	0.997414
511.532010	0.997560
511.896561	0.997289
512.261053	0.996295
512.625488	0.996898
512.989866	0.997047
513.354186	0.996535
513.718449	0.997331
514.082655	0.997007
514.446803	0.997528
514.810894	0.997755
515.174927	0.997689
515.538904	0.997851
515.902822	0.997272
516.266684	0.997773
516.630488	0.997267
516.994235	0.997543
517.357925	0.997536
517.721558	0.997178
518.085133	0.996841
518.448651	0.996911
518.812112	0.997275
519.175516	0.997087
519.538863	0.997052
519.902152	0.997523
520.265385	0.996871
520.628560	0.996722
520.991678	0.997162
521.354739	0.997096
521.717743	0.997594
522.080690	0.996943
522.443580	0.997377
522.806413	0.996759
523.169189	0.997820
523.531908	0.996327
523.894569	0.997155
524.257174	0.997138
524.619722	0.997280
524.982213	0.997435
525.344647	0.996702
525.707025	0.996427
526.069345	0.996951
526.431608	0.997345
526.793815	0.997488
527.155964	0.997696
527.518057	0.997660
527.880093	0.997250
528.242072	0.996473
528.603995	0.996819
528.965860	0.997315
529.327669	0.997270
529.689421	0.996289
530.051117	0.997840
530.412755	0.997504
530.774337	0.996832
531.135862	0.997450
531.497331	0.996650
531.858743	0.997407
532.220098	0.996916
532.581396	0.997289
532.942638	0.997230
533.303824	0.998237
533.664953	0.997044
534.026025	0.998274
534.387040	0.996886
534.747999	0.996478
535.108902	0.996615
535.469748	0.997868
535.830537	0.997345
536.191270	0.996588
536.551947	0.997122
536.912567	0.996736
537.273131	0.996736
537.633638	0.997342
537.994089	0.996987
538.354483	0.996716
538.714821	0.996903
539.075103	0.996978
539.435328	0.997533
539.795497	0.997597
540.155609	0.996775
540.515665	0.997218
540.875665	0.996752
541.235609	0.997197
541.595496	0.996684
541.955328	0.997030
542.315102	0.997289
542.674821	0.997704
543.034483	0.997649
543.394090	0.996960
543.753640	0.997529
544.113134	0.997005
544.472571	0.997257
544.831953	0.997318
545.191278	0.997668
545.550548	0.996280
545.909761	0.996433
546.268918	0.997782
546.628019	0.997490
546.987064	0.996875
547.346053	0.996719
547.704986	0.996647
548.063863	0.997202
548.422684	0.997146
548.781449	0.997123
549.140158	0.996975
549.498811	0.996091
549.857408	0.995814
550.215949	0.995815
550.574434	0.996824
550.932864	0.997233
551.291237	0.996193
551.649555	0.997676
552.007817	0.997120
552.366022	0.997014
552.724173	0.997565
553.082267	0.997026
553.440305	0.996143
553.798288	0.996285
554.156215	0.996836
554.514086	0.996727
554.871902	0.996738
555.229661	0.995945
555.587365	0.997212
555.945014	0.997702
556.302606	0.996501
556.660143	0.997735
557.017625	0.997507
557.375050	0.996909
557.732421	0.997340
558.089735	0.995994
558.446994	0.996517
558.804197	0.996715
559.161345	0.996748
559.518437	0.996425
559.875474	0.997260
560.232455	0.997629
560.589381	0.997392
560.946251	0.997102
561.303065	0.997422
561.659825	0.996582
562.016528	0.997476
562.373177	0.996573
562.729770	0.996748
563.086307	0.996344
563.442789	0.997311
563.799216	0.996200
564.155587	0.996980
564.511904	0.996757
564.868164	0.995814
565.224370	0.997042
565.580520	0.997017
565.936615	0.996769
566.292654	0.996905
566.648638	0.997377
567.004567	0.995983
567.360441	0.997078
567.716260	0.996566
568.072023	0.997037
568.427732	0.996569
568.783385	0.996939
569.138982	0.997343
569.494525	0.996049
569.850013	0.997550
570.205445	0.997494
570.560823	0.996930
570.916145	0.996564
571.271412	0.997377
571.626625	0.997358
571.981782	0.997122
572.336884	0.996446
572.691931	0.996634
573.046923	0.997344
573.401860	0.997200
573.756743	0.997486
574.111570	0.996617
574.466342	0.997790
574.821059	0.996776
575.175722	0.997359
575.530330	0.996477
575.884882	0.996951
576.239380	0.997245
576.593823	0.996349
576.948211	0.996925
577.302544	0.996970
577.656823	0.996801
578.011047	0.996647
578.365216	0.997170
578.719330	0.997375
579.073389	0.996238
579.427394	0.996049
579.781344	0.998329
580.135239	0.996295
580.489080	0.996704
580.842866	0.996667
581.196597	0.996695
581.550273	0.995902
581.903895	0.997425
582.257463	0.996741
582.610975	0.996527
582.964434	0.997237
583.317837	0.997323
583.671186	0.997268
584.024481	0.996652
584.377721	0.996357
584.730906	0.996559
585.084037	0.997765
585.437113	0.997477
585.790135	0.996895
586.143103	0.997045
586.496016	0.996952
586.848874	0.997649
587.201679	0.997295
587.554428	0.996323
587.907124	0.997490
588.259765	0.996752
588.612352	0.997147
588.964884	0.997362
589.317362	0.995616
589.669786	0.996811
590.022155	0.996629
590.374470	0.996419
590.726731	0.996835
591.078937	0.996908
591.431090	0.997233
591.783188	0.996867
592.135232	0.997352
592.487222	0.996760
592.839157	0.996677
593.191038	0.997600
593.542866	0.997005
593.894639	0.996172
594.246358	0.996822
594.598022	0.997316
594.949633	0.996521
595.301190	0.997048
595.652692	0.996212
596.004141	0.996760
596.355535	0.996477
596.706876	0.997664
597.058162	0.997699
597.409395	0.997189
597.760573	0.997100
598.111698	0.997376
598.462768	0.996416
598.813785	0.996651
599.164748	0.996876
599.515657	0.996440
599.866511	0.997208
600.217312	0.997384
600.568060	0.996395
600.918753	0.997309
601.269392	0.997445
601.619978	0.996708
601.970510	0.996613
602.320988	0.996505
602.671412	0.996785
603.021783	0.997137
603.372100	0.997233
603.722363	0.997223
604.072572	0.997271
604.422728	0.997045
604.772830	0.996315
605.122878	0.997208
605.472872	0.997556
605.822813	0.996176
606.172701	0.996803
606.522534	0.997823
606.872314	0.997068
607.222041	0.997328
607.571714	0.996739
607.921333	0.996430
608.270899	0.996535
608.620411	0.997205
608.969870	0.997438
609.319276	0.996799
609.668627	0.997367
610.017926	0.997022
610.367171	0.997315
610.716362	0.996386
611.065500	0.996845
611.414585	0.997074
611.763616	0.995918
612.112594	0.996596
612.461518	0.996274
612.810389	0.996796
613.159207	0.996679
613.507971	0.996911
613.856682	0.997109
614.205340	0.995640
614.553945	0.997310
614.902496	0.997037
615.250994	0.996525
615.599439	0.996874
615.947830	0.996438
616.296169	0.996824
616.644454	0.997247
616.992686	0.997136
617.340864	0.997338
617.688990	0.996343
618.037063	0.996527
618.385082	0.996458
618.733048	0.996492
619.080961	0.996574
619.428821	0.997209
619.776628	0.995865
620.124382	0.997791
620.472083	0.997084
620.819731	0.998304
621.167326	0.997021
621.514868	0.997622
621.862357	0.997072
622.209793	0.997037
622.557176	0.996329
622.904506	0.996022
623.251783	0.996533
623.599007	0.997002
623.946179	0.996103
624.293297	0.997314
624.640363	0.997796
624.987376	0.996286
625.334336	0.996407
625.681243	0.997327
626.028097	0.997611
626.374899	0.997301
626.721647	0.997600
627.068343	0.997053
627.414987	0.997260
627.761577	0.996550
628.108115	0.996777
628.454600	0.998108
628.801032	0.997154
629.147412	0.996616
629.493739	0.997830
629.840014	0.996977
630.186236	0.996815
630.532405	0.997476
630.878521	0.996176
631.224585	0.996806
631.570597	0.997563
631.916556	0.997273
632.262462	0.995810
632.608316	0.997457
632.954117	0.996904
633.299866	0.996665
633.645562	0.996976
633.991206	0.997368
634.336797	0.997102
634.682336	0.997741
635.027823	0.997168
635.373257	0.996882
635.718639	0.997231
636.063968	0.996570
636.409245	0.996555
636.754470	0.997924
637.099642	0.997159
637.444762	0.997791
637.789829	0.996549
638.134845	0.996983
638.479808	0.996981
638.824719	0.997909
639.169577	0.997248
639.514383	0.997016
639.859137	0.997233
640.203839	0.997325
640.548489	0.996134
640.893086	0.996649
641.237632	0.997418
641.582125	0.997102
641.926566	0.998302
642.270955	0.997192
642.615292	0.997402
642.959576	0.997555
643.303809	0.997640
643.647990	0.997468
643.992118	0.997776
644.336195	0.996829
644.680219	0.997201
645.024192	0.996656
645.368112	0.996958
645.711981	0.997206
646.055797	0.997085
646.399562	0.997133
646.743274	0.997153
647.086935	0.996583
647.430544	0.996426
647.774101	0.996367
648.117606	0.996732
648.461059	0.997001
648.804460	0.997034
649.147810	0.996400
649.491108	0.997164
649.834354	0.997169
650.177548	0.997301
650.520690	0.997079
650.863781	0.996354
651.206820	0.997399
651.549807	0.996237
651.892742	0.997505
652.235626	0.997578
652.578458	0.996504
652.921238	0.997812
653.263967	0.998841
653.606644	0.996797
653.949269	0.997801
654.291843	0.996126
654.634365	0.997515
654.976836	0.996262
655.319255	0.997767
655.661622	0.997699
656.003938	0.997392
656.346203	0.996691
656.688416	0.997962
657.030577	0.997190
657.372687	0.996989
657.714746	0.996811
658.056753	0.997502
658.398708	0.996414
658.740612	0.997559
659.082465	0.996923
659.424266	0.997316
659.766016	0.996309
660.107715	0.997334
660.449362	0.997562
660.790958	0.996384
661.132503	0.997413
661.473996	0.996287
661.815438	0.996549
662.156829	0.997548
662.498168	0.997170
662.839456	0.995813
663.180693	0.997076
663.521879	0.996780
663.863013	0.996952
664.204097	0.995845
664.545129	0.996506
664.886110	0.997170
665.227040	0.996850
665.567918	0.996892
665.908746	0.996131
666.249522	0.996678
666.590248	0.996865
666.930922	0.996508
667.271545	0.997003
667.612118	0.996822
667.952639	0.997265
668.293109	0.996679
668.633528	0.996615
668.973896	0.997787
669.314213	0.996615
669.654480	0.997274
669.994695	0.996393
670.334859	0.996685
670.674973	0.996822
671.015035	0.996907
671.355047	0.996405
671.695008	0.996761
672.034918	0.996053
672.374777	0.996438
672.714585	0.996449
673.054342	0.998107
673.394049	0.996523
673.733705	0.996772
674.073310	0.996850
674.412864	0.996959
674.752368	0.996532
675.091820	0.998093
675.431223	0.997994
675.770574	0.996279
676.109875	0.996905
676.449125	0.996105
676.788324	0.995740
677.127473	0.997035
677.466571	0.996894
677.805619	0.997271
678.144616	0.997726
678.483562	0.997148
678.822458	0.997193
679.161303	0.996471
679.500098	0.996564
679.838842	0.996870
680.177535	0.997108
680.516179	0.996074
680.854771	0.996384
681.193314	0.996684
681.531805	0.996748
681.870247	0.996761
682.208638	0.996383
682.546978	0.996462
682.885268	0.996429
683.223508	0.996158
683.561697	0.996798
683.899836	0.996642
684.237925	0.996814
684.575963	0.996788
684.913951	0.996345
685.251889	0.996348
685.589776	0.996087
685.927614	0.996174
686.265401	0.996215
686.603137	0.996567
686.940824	0.995976
687.278460	0.996623
687.616046	0.996012
687.953582	0.995767
688.291068	0.996181
688.628504	0.996870
688.965889	0.996020
689.303224	0.994609
689.640510	0.996256
689.977745	0.996397
690.314930	0.996250
690.652065	0.996715
690.989150	0.996704
691.326185	0.996550
691.663170	0.996827
692.000105	0.996130
692.336990	0.996413
692.673825	0.996932
693.010610	0.996129
693.347345	0.996716
693.684030	0.996503
694.020665	0.997098
694.357251	0.997234
694.693786	0.997345
695.030272	0.995764
695.366707	0.997037
695.703093	0.996296
696.039429	0.995795
696.375716	0.996778
696.711952	0.997117
697.048139	0.997532
697.384276	0.996605
697.720363	0.997148
698.056400	0.995895
698.392388	0.996903
698.728326	0.996305
699.064214	0.997782
699.400053	0.996400
699.735842	0.997650
700.071581	0.995646
700.407270	0.997014
700.742910	0.998259
701.078501	0.997118
701.414042	0.997616
701.749533	0.996935
702.084974	0.997807
702.420366	0.997484
702.755709	0.996445
703.091002	0.997354
703.426246	0.997040
703.761440	0.996635
704.096584	0.995878
704.431679	0.996099
704.766725	0.996726
705.101721	0.996517
705.436668	0.997680
705.771565	0.996858
706.106413	0.996562
706.441212	0.997643
706.775961	0.996891
707.110661	0.995618
707.445311	0.996539
707.779913	0.997277
708.114465	0.997276
708.448967	0.996663
708.783421	0.997333
709.117825	0.996971
709.452180	0.997256
709.786485	0.996963
710.120742	0.995437
710.454949	0.995297
710.789107	0.996767
711.123216	0.995387
711.457275	0.995063
711.791286	0.996787
712.125247	0.997514
712.459159	0.996245
712.793023	0.995791
713.126837	0.997060
713.460602	0.995925
713.794318	0.996608
714.127985	0.996350
714.461602	0.997035
714.795171	0.995313
715.128691	0.995865
715.462162	0.996437
715.795584	0.996343
716.128957	0.997144
716.462281	0.997099
716.795556	0.996767
717.128782	0.998003
717.461960	0.996904
717.795088	0.996729
718.128167	0.998179
718.461198	0.997068
718.794180	0.996541
719.127113	0.997044
719.459997	0.996749
719.792833	0.996696
720.125619	0.995631
720.458357	0.997088
720.791046	0.997859
721.123686	0.997043
721.456278	0.996747
721.788821	0.997011
722.121315	0.997318
722.453761	0.996940
722.786158	0.996072
723.118506	0.996964
723.450805	0.996174
723.783056	0.998086
724.115259	0.996887
724.447412	0.997314
724.779518	0.997580
725.111574	0.996833
725.443582	0.996931
725.775542	0.997352
726.107453	0.997294
726.439315	0.997918
726.771129	0.997986
727.102895	0.996653
727.434612	0.996811
727.766281	0.996714
728.097901	0.995166
728.429473	0.997803
728.760996	0.995602
729.092471	0.996754
729.423897	0.996566
729.755276	0.996704
730.086606	0.996327
730.417887	0.997427
730.749120	0.998469
731.080305	0.996597
731.411442	0.996364
731.742530	0.996041
732.073570	0.995864
732.404562	0.996403
732.735506	0.996678
733.066401	0.996258
733.397249	0.996730
733.728048	0.996523
734.058798	0.996786
734.389501	0.997397
734.720156	0.997853
735.050762	0.997964
735.381320	0.996420
735.711831	0.996492
736.042293	0.996495
736.372707	0.997785
736.703073	0.995265
737.033391	0.996977
737.363661	0.998072
737.693883	0.996992
738.024056	0.996733
738.354182	0.997598
738.684260	0.996627
739.014290	0.997635
739.344272	0.996145
739.674207	0.996689
740.004093	0.996700
740.333931	0.996069
740.663722	0.996982
740.993464	0.996470
741.323159	0.995931
741.652806	0.997070
741.982405	0.997304
742.311956	0.997230
742.641460	0.997851
742.970915	0.998068
743.300323	0.996145
743.629683	0.997153
743.958996	0.996750
744.288260	0.995956
744.617477	0.997142
744.946647	0.997123
745.275768	0.997394
745.604842	0.996749
745.933869	0.996708
746.262847	0.997432
746.591778	0.995390
746.920662	0.997247
747.249498	0.998128
747.578286	0.997981
747.907027	0.997250
748.235720	0.998375
748.564365	0.997309
748.892963	0.996659
749.221514	0.997134
749.550017	0.996017
749.878473	0.997503
750.206881	0.999247
750.535242	0.997238
750.863555	0.996716
751.191821	0.997257
751.520039	0.997019
751.848210	0.995675
752.176334	0.997330
752.504411	0.997521
752.832440	0.997275
753.160421	0.996780
753.488356	0.997544
753.816243	0.997329
754.144082	0.997333
754.471875	0.996990
754.799620	0.997339
755.127318	0.996683
755.454969	0.997394
755.782572	0.998649
756.110129	0.996763
756.437638	0.998983
756.765100	0.998065
757.092515	0.997410
757.419882	0.996799
757.747203	0.995467
758.074477	0.997757
758.401703	0.996677
758.728882	0.996805
759.056014	0.997203
759.383099	0.997382
759.710138	0.996272
760.037129	0.997324
760.364073	0.997531
760.690970	0.997714
761.017820	0.995324
761.344623	0.997766
761.671379	0.997233
761.998088	0.997490
762.324751	0.997694
762.651366	0.996142
762.977935	0.994722
763.304456	0.996134
763.630931	0.994133
763.957359	0.993492
764.283740	0.994662
764.610074	0.995344
764.936362	0.996071
765.262602	0.996769
765.588796	0.997261
765.914943	0.996395
766.241044	0.996846
766.567097	0.996782
766.893104	0.997669
767.219064	0.996682
767.544978	0.997180
767.870845	0.997300
768.196665	0.997068
768.522438	0.997843
768.848165	0.997978
769.173846	0.998751
769.499479	0.998989
769.825066	0.999001
770.150607	0.998919
770.476101	0.997176
770.801548	0.998514
771.126949	0.997933
771.452303	0.997958
771.777611	0.999363
772.102872	0.997973
772.428087	0.997850
772.753256	0.998558
773.078378	0.998229
773.403453	0.998063
773.728482	0.998857
774.053465	0.997927
774.378401	0.998771
774.703291	0.999000
775.028135	0.999152
775.352932	0.997476
775.677683	0.999581
776.002388	0.998426
776.327046	0.997199
776.651658	0.999489
776.976224	0.998368
777.300743	0.997494
777.625216	0.997955
777.949643	0.998373
778.274024	0.997468
778.598359	0.998415
778.922647	0.997638
779.246889	0.999061
779.571086	0.998230
779.895236	0.998186
780.219339	0.999928
780.543397	0.998657
780.867409	0.998591
781.191374	0.998398
781.515294	0.998556
781.839167	0.998778
782.162995	0.997737
782.486776	0.998192
782.810511	0.999254
783.134201	0.999120
783.457844	0.999106
783.781441	0.997980
784.104993	0.997932
784.428498	0.999128
784.751958	0.999867
785.075372	0.998583
785.398739	0.998565
785.722061	0.998310
786.045337	0.999004
786.368568	0.998487
786.691752	0.998445
787.014891	0.998566
787.337983	0.997457
787.661030	0.997209
787.984031	0.998772
788.306987	0.998125
788.629897	0.996657
788.952760	0.997845
789.275579	0.998576
789.598351	0.997686
789.921078	0.999045
790.243759	0.998381
790.566395	0.997498
790.888984	0.998972
791.211529	0.998511
791.534027	0.997914
791.856480	0.998744
792.178888	0.998951
792.501249	0.998902
792.823566	1.000322
793.145836	0.997822
793.468062	0.997762
793.790241	0.999416
794.112375	0.997258
794.434464	0.998245
794.756507	0.998986
795.078505	0.999028
795.400457	0.998894
795.722364	0.999369
796.044226	0.997839
796.366042	0.997977
796.687812	0.996372
797.009538	0.998450
797.331218	0.999127
797.652852	0.999029
797.974442	0.996884
798.295986	0.997963
798.617484	0.996839
798.938938	0.999499
799.260346	0.998515
799.581709	0.997831
799.903026	0.999138
800.224299	0.997130
800.545526	0.998649
800.866708	0.998022
801.187845	0.999046
801.508936	0.999303
801.829983	0.998248
802.150984	0.999387
802.471940	0.999310
802.792851	0.998183
803.113717	0.998761
803.434538	1.000004
803.755314	0.999781
804.076045	0.999167
804.396731	0.998061
804.717372	0.997796
805.037967	0.999197
805.358518	0.998934
805.679024	0.997785
805.999485	0.999146
806.319901	0.998480
806.640272	0.999155
806.960598	0.999439
807.280879	0.999083
807.601115	0.999260
807.921306	0.999214
808.241453	0.998866
808.561554	0.998733
808.881611	0.998120
809.201623	0.998520
809.521590	0.998157
809.841513	0.998598
810.161390	0.998316
810.481223	0.997832
810.801011	0.998618
811.120755	0.999581
811.440453	0.997837
811.760107	0.998982
812.079716	0.998425
812.399281	0.999196
812.718801	0.998766
813.038276	0.998116
813.357707	0.999012
813.677093	0.998972
813.996434	0.998465
814.315731	1.000555
814.634983	0.998375
814.954191	0.999847
815.273354	0.998774
815.592473	0.998460
815.911547	0.999201
816.230577	0.997654
816.549562	0.997973
816.868502	0.999096
817.187399	0.998480
817.506250	0.999236
817.825058	0.997459
818.143821	0.998201
818.462539	0.998368
818.781213	0.997993
819.099843	0.998476
819.418429	0.997701
819.736970	0.997290
820.055466	0.996246
820.373919	0.996404
820.692327	0.995060
821.010691	0.994675
821.329011	0.993403
821.647286	0.991258
821.965517	0.989706
822.283704	0.989163
822.601847	0.988035
822.919945	0.988059
823.237999	0.989487
823.556010	0.990107
823.873976	0.991292
824.191897	0.992099
824.509775	0.992898
824.827609	0.994058
825.145398	0.994257
825.463144	0.992721
825.780845	0.993564
826.098502	0.993172
826.416116	0.993528
826.733685	0.992513
827.051210	0.990651
827.368692	0.991182
827.686129	0.991600
828.003522	0.994480
828.320872	0.993789
828.638177	0.994884
828.955439	0.996546
829.272656	0.996762
829.589830	0.996570
829.906960	0.997686
830.224046	0.997581
830.541088	0.996669
830.858086	0.997450
831.175041	0.998493
831.491952	0.997482
831.808819	0.997850
832.125642	0.997888
832.442421	0.997566
832.759157	0.997596
833.075849	0.996427
833.392497	0.995417
833.709101	0.994666
834.025662	0.994814
834.342179	0.994817
834.658653	0.996436
834.975083	0.996736
835.291469	0.997480
835.607811	0.996685
835.924110	0.997028
836.240366	0.998949
836.556578	0.998507
836.872746	0.998986
837.188871	0.998912
837.504952	0.998659
837.820990	0.998832
838.136984	0.998705
838.452935	0.997897
838.768842	0.999518
839.084706	0.998876
839.400526	0.998330
839.716303	0.997069
840.032037	0.997582
840.347727	0.997504
840.663373	0.997853
840.978977	0.998505
841.294537	0.998509
841.610054	0.999764
841.925527	0.998656
842.240957	0.999149
842.556344	0.998605
842.871687	0.999619
843.186987	0.999800
843.502244	0.999994
843.817458	0.999305
844.132629	0.998993
844.447756	0.999598
844.762840	0.998871
845.077881	1.001001
845.392879	0.998439
845.707833	0.998588
846.022745	1.000174
846.337613	0.999392
846.652438	0.999508
846.967221	0.999441
847.281960	0.999591
847.596656	1.000619
847.911309	1.000237
848.225919	0.998753
848.540485	0.999887
848.855009	1.000520
849.169490	0.999506
849.483928	0.999629
849.798323	0.998107
850.112675	1.001251
850.426984	1.000463
850.741251	0.999567
851.055474	0.999466
851.369654	1.000113
851.683792	0.999178
851.997887	0.999037
852.311938	0.999683
852.625947	0.998788
852.939914	0.998762
853.253837	1.001566
853.567718	1.000853
853.881555	0.999074
854.195350	0.999539
854.509103	0.999438
854.822812	1.000230
855.136479	0.999557
855.450103	1.000668
855.763685	0.999086
856.077224	0.999786
856.390720	0.999035
856.704173	1.000918
857.017584	1.000005
857.330953	1.000088
857.644278	1.000680
857.957561	1.000142
858.270802	0.999402
858.584000	0.999548
858.897155	0.999743
859.210268	0.999089
859.523339	1.000376
859.836367	0.999177
860.149352	0.999656
860.462295	0.999179
860.775195	0.999780
861.088054	0.999088
861.400869	0.999157
861.713642	0.998125
862.026373	1.000459
862.339062	1.000966
862.651708	0.998867
862.964312	1.000465
863.276873	0.998858
863.589392	1.000086
863.901869	0.999446
864.214303	0.999665
864.526696	0.999239
864.839045	1.000871
865.151353	1.000302
865.463619	0.998868
865.775842	0.999674
866.088023	1.001925
866.400162	1.000437
866.712258	1.001232
867.024313	1.000065
867.336325	1.000102
867.648296	0.998656
867.960224	0.998975
868.272110	0.999775
868.583954	1.000006
868.895755	1.000129
869.207515	0.999844
869.519233	0.999356
869.830909	0.999034
870.142542	1.000024
870.454134	0.999557
870.765684	0.998842
871.077191	0.999532
871.388657	1.000664
871.700081	0.999947
872.011463	1.000665
872.322803	0.999343
872.634101	0.998743
872.945357	0.999184
873.256571	1.000334
873.567744	0.999231
873.878874	0.999061
874.189963	0.998231
874.501010	1.001172
874.812015	0.999337
875.122979	0.999646
875.433900	0.998669
875.744780	0.999628
876.055618	0.998469
876.366415	0.998522
876.677169	0.998658
876.987882	0.998810
877.298554	0.999277
877.609183	0.998011
877.919771	0.998991
878.230317	0.999461
878.540822	0.998551
878.851285	0.998487
879.161707	0.997624
879.472087	0.998628
879.782425	0.997016
880.092722	0.997107
880.402977	0.994058
880.713191	0.992827
881.023363	0.990275
881.333494	0.988863
881.643583	0.990060
881.953631	0.989995
882.263637	0.989042
882.573602	0.989919
882.883526	0.990133
883.193408	0.993541
883.503248	0.992801
883.813048	0.993006
884.122806	0.994805
884.432522	0.995214
884.742197	0.996886
885.051831	0.995890
885.361424	0.997308
885.670975	0.998359
885.980485	0.997398
886.289954	0.996732
886.599382	0.996916
886.908768	0.998645
887.218113	0.997176
887.527417	0.999109
887.836680	0.998230
888.145901	0.999378
888.455082	0.998808
888.764221	1.000142
889.073319	0.997451
889.382376	0.998894
889.691392	0.997697
890.000366	0.999069
890.309300	0.999653
890.618193	0.999071
890.927044	0.998681
891.235855	0.998137
891.544625	1.000052
891.853353	0.999330
892.162041	0.998661
892.470687	0.999651
892.779293	0.999445
893.087858	0.996927
893.396381	0.998131
893.704864	0.997142
894.013306	0.996672
894.321707	0.996333
894.630068	0.994368
894.938387	0.994477
895.246665	0.994086
895.554903	0.994136
895.863100	0.995812
896.171256	0.996024
896.479371	0.996698
896.787446	0.996800
897.095480	0.996733
897.403473	0.997756
897.711425	0.997561
898.019336	0.998632
898.327207	0.998851
898.635038	0.998578
898.942827	0.999079
899.250576	0.998905
899.558284	0.999447
899.865952	0.998703
900.173579	0.999496
900.481165	0.999965
900.788711	0.999326
901.096216	0.999040
901.403681	0.999828
901.711105	0.998432
902.018489	0.998813
902.325832	0.999899
902.633135	0.999976
902.940397	0.999615
903.247619	0.998702
903.554800	0.996680
903.861941	0.996763
904.169041	0.995458
904.476101	0.993675
904.783121	0.994315
905.090100	0.994957
905.397039	0.994790
905.703938	0.996601
906.010796	0.995865
906.317614	0.997393
906.624391	0.999023
906.931129	0.999264
907.237826	0.998975
907.544483	0.999052
907.851099	0.998121
908.157675	0.998899
908.464211	0.999838
908.770707	0.998396
909.077163	0.999402
909.383578	0.999098
909.689954	0.999242
909.996289	0.998823
910.302584	1.000184
910.608839	1.000272
910.915054	0.999804
911.221229	1.000279
911.527363	0.998207
911.833458	1.000098
912.139513	0.998846
912.445527	0.999786
912.751502	1.000010
913.057436	0.999440
913.363331	0.999932
913.669186	0.999091
913.975000	0.999871
914.280775	0.998223
914.586510	0.998578
914.892205	0.996967
915.197859	0.996210
915.503475	0.995748
915.809050	0.994813
916.114585	0.992792
916.420081	0.993422
916.725536	0.993566
917.030952	0.995349
917.336328	0.994640
917.641665	0.994437
917.946961	0.995435
918.252218	0.995078
918.557435	0.996860
918.862612	0.997381
919.167750	0.998627
919.472848	0.998335
919.777906	0.999118
920.082925	1.000375
920.387904	0.999846
920.692843	0.998026
920.997743	0.997992
921.302603	0.999629
921.607423	0.998673
921.912204	0.998475
922.216946	1.000376
922.521647	1.000005
922.826310	0.998878
923.130932	1.000034
923.435516	0.999438
923.740059	0.999654
924.044564	0.998971
924.349028	0.998757
924.653454	0.999600
924.957840	1.000105
925.262186	0.999081
925.566493	0.999216
925.870761	1.000105
926.174989	0.998894
926.479178	1.001197
926.783328	1.000753
927.087438	1.000360
927.391509	0.999766
927.695541	0.999540
927.999533	1.000101
928.303486	0.999266
928.607400	1.001221
928.911275	1.000473
929.215110	1.001370
929.518906	1.000352
929.822663	1.000583
930.126381	1.001421
930.430060	0.998787
930.733699	1.000415
931.037299	1.000183
931.340861	1.000654
931.644383	0.999066
931.947866	1.001134
932.251309	0.999550
932.554714	0.999913
932.858080	1.000582
933.161407	0.999593
933.464694	1.000040
933.767943	1.001069
934.071153	0.999365
934.374323	1.000598
934.677455	1.000151
934.980548	1.000581
935.283602	1.000907
935.586617	1.000066
935.889593	1.001991
936.192530	1.000482
936.495428	1.000232
936.798287	0.999156
937.101108	1.000668
937.403890	0.999819
937.706632	1.000142
938.009336	1.000600
938.312002	0.999443
938.614628	0.999571
938.917216	0.998546
939.219765	0.999489
939.522275	1.000031
939.824747	1.001001
940.127179	0.998946
940.429573	1.000398
940.731929	0.999582
941.034246	0.999281
941.336524	0.998737
941.638763	0.999896
941.940964	0.999171
942.243126	0.999849
942.545250	1.001074
942.847335	0.998991
943.149381	0.999740
943.451389	0.998939
943.753359	1.001147
944.055290	1.001660
944.357182	0.999809
944.659036	1.000708
944.960851	1.000856
945.262628	1.001006
945.564367	0.999941
945.866067	0.999680
946.167729	0.999860
946.469352	1.000156
946.770937	0.998097
947.072484	1.000542
947.373992	1.001314
947.675462	0.999437
947.976893	0.998751
948.278286	1.001678
948.579641	1.001571
948.880958	1.000347
949.182236	1.000786
949.483476	1.000592
949.784678	1.001013
950.085841	0.999695
950.386967	1.000362
950.688054	1.001038
950.989103	1.000017
951.290114	0.999424
951.591087	0.999867
951.892021	0.999732
952.192917	1.000766
952.493776	1.000275
952.794596	1.000468
953.095378	0.999996
953.396122	0.999330
953.696828	1.000627
953.997496	1.000592
954.298126	1.000942
954.598718	0.998983
954.899272	1.000856
955.199788	0.999682
955.500266	1.000278
955.800706	0.999866
956.101108	0.998937
956.401472	1.000448
956.701798	1.000114
957.002087	0.999197
957.302337	0.999058
957.602550	1.000668
957.902724	0.999806
958.202861	1.000761
958.502960	0.999678
958.803022	1.001759
959.103045	1.001583
959.403031	1.001737
959.702979	1.002401
960.002889	1.000361
960.302762	1.001120
960.602596	1.001075
960.902393	1.001150
961.202153	1.001840
961.501875	1.000447
961.801559	1.001781
962.101205	1.000211
962.400814	1.001382
962.700385	1.001091
962.999918	1.000452
963.299414	0.999546
963.598873	1.000431
963.898293	1.000096
964.197677	1.001143
964.497022	1.000485
964.796331	1.000333
965.095601	1.001644
965.394835	1.001143
965.694030	1.000680
965.993189	0.999538
966.292309	1.001279
966.591393	0.998605
966.890439	1.001681
967.189447	0.999634
967.488419	0.999950
967.787353	1.000978
968.086249	0.999979
968.385108	1.000392
968.683930	1.001736
968.982714	1.001120
969.281462	1.001179
969.580172	0.999895
969.878844	1.001491
970.177480	1.001969
970.476078	1.001468
970.774639	1.000892
971.073162	1.000556
971.371649	1.000672
971.670098	1.000901
971.968510	1.001079
972.266885	0.999681
972.565223	1.000409
972.863524	1.000806
973.161788	1.000052
973.460014	1.001596
973.758204	1.000341
974.056356	1.000814
974.354471	0.999038
974.652550	1.001964
974.950591	1.000418
975.248595	0.999331
975.546563	1.001588
975.844493	1.000348
976.142386	1.000391
976.440243	0.999872
976.738062	1.000394
977.035845	1.000199
977.333590	1.000702
977.631299	1.000203
977.928971	1.000382
978.226606	1.000576
978.524204	1.000188
978.821765	1.001111
979.119290	1.001204
979.416777	1.001554
979.714228	1.000027
980.011642	1.001144
980.309020	0.999488
980.606360	1.000328
980.903664	1.000337
981.200931	0.999067
981.498162	1.000348
981.795356	1.000422
982.092513	1.000123
982.389633	1.001749
982.686717	0.999024
982.983764	1.000066
983.280775	0.999940
983.577749	1.000530
983.874686	0.999490
984.171587	1.000276
984.468451	0.999608
984.765279	1.000442
985.062070	1.000261
985.358824	1.000531
985.655543	1.000892
985.952224	1.000920
986.248869	1.001323
986.545478	1.002210
986.842050	0.999542
987.138586	0.998887
987.435086	1.000091
987.731549	1.002098
988.027975	1.001227
988.324366	1.000965
988.620719	1.002045
988.917037	1.000619
989.213318	1.001727
989.509563	1.002234
989.805772	1.001055
990.101944	1.000872
990.398080	1.001686
990.694180	1.001478
990.990244	1.000231
991.286271	1.000487
991.582262	1.001201
991.878217	0.999633
992.174136	1.001635
992.470019	1.000375
992.765865	1.000979
993.061676	1.001157
993.357450	1.001171
993.653188	1.001266
993.948890	1.001020
994.244556	0.998841
994.540186	1.001074
994.835780	0.999979
995.131337	1.000971
995.426859	0.999802
995.722345	1.000464
996.017795	1.000307
996.313208	1.000228
996.608586	1.000686
996.903928	1.000100
997.199234	1.001182
997.494504	1.000658
997.789738	0.999832
998.084936	1.000867
998.380099	1.000263
998.675225	1.000986
998.970316	1.000150
999.265371	1.000933
999.560390	1.000038
999.855373	1.000263
1000.150320	1.000466
1000.445232	1.001766
1000.740108	1.000350
1001.034948	1.000715
1001.329752	1.001815
1001.624521	1.000652
1001.919254	0.999475
1002.213951	1.000628
1002.508613	1.000471
1002.803239	0.999139
1003.097829	1.000030
1003.392384	1.001119
1003.686903	1.000990
1003.981386	1.001309
1004.275834	1.000881
1004.570246	0.999596
1004.864623	1.001302
1005.158964	1.001213
1005.453270	0.999348
1005.747540	0.999258
1006.041775	1.001119
1006.335974	1.000732
1006.630138	1.000945
1006.924266	0.999693
1007.218359	0.999409
1007.512416	1.000808
1007.806438	0.999543
1008.100425	1.000794
1008.394376	1.001792
1008.688292	1.001222
1008.982172	1.000197
1009.276017	1.001510
1009.569827	1.001521
1009.863602	0.999494
1010.157341	1.001398
1010.451045	1.001140
1010.744714	1.001739
1011.038347	1.002075
1011.331945	1.000064
1011.625508	1.000972
1011.919036	1.001069
1012.212528	1.001427
1012.505986	1.000445
1012.799408	1.000401
1013.092795	1.001085
1013.386147	1.001428
1013.679464	1.001044
1013.972745	1.000571
1014.265992	1.001466
1014.559204	0.999665
1014.852380	1.001733
1015.145521	1.000961
1015.438628	1.001302
1015.731699	1.000301
1016.024736	1.000552
1016.317737	1.001529
1016.610703	1.000095
1016.903635	1.000173
1017.196531	1.000573
1017.489393	1.000162
1017.782219	1.000470
1018.075011	1.000217
1018.367768	1.001297
1018.660490	1.000875
1018.953177	1.000875
1019.245829	1.000875
