Dividing Wavelength (nm)	Counts (n)	Blue Motor Position (mm): 18.000000	Red Motor Position (mm): 0.000000	
326.493990	1.001209
326.888308	1.001209
327.282561	1.001209
327.676750	1.002847
328.070874	1.002679
328.464933	1.004585
328.858929	1.002614
329.252859	1.002747
329.646726	1.001790
330.040528	1.002162
330.434265	1.002795
330.827938	1.001414
331.221547	1.003114
331.615091	1.002119
332.008571	1.002969
332.401986	1.001373
332.795338	1.001739
333.188625	1.003051
333.581847	1.001580
333.975006	1.002115
334.368100	1.002774
334.761129	1.001234
335.154095	1.002551
335.546996	1.002245
335.939833	0.998371
336.332606	0.998983
336.725315	0.998912
337.117960	1.000406
337.510540	0.998458
337.903056	0.998725
338.295508	1.001826
338.687896	1.000296
339.080220	0.998817
339.472480	0.998282
339.864676	1.000080
340.256807	0.998498
340.648875	0.999464
341.040879	0.998634
341.432818	0.999329
341.824694	0.997910
342.216506	0.999567
342.608253	0.998687
342.999937	0.999018
343.391557	0.999218
343.783113	0.999110
344.174605	0.998230
344.566033	0.998156
344.957397	0.999231
345.348697	0.999571
345.739934	0.998990
346.131106	0.998732
346.522215	0.998141
346.913260	0.999314
347.304241	0.998825
347.695159	0.999034
348.086012	0.998246
348.476802	0.998227
348.867528	0.997192
349.258191	0.999574
349.648789	0.998031
350.039324	0.999268
350.429796	0.996726
350.820203	0.997459
351.210548	0.998340
351.600828	0.997995
351.991045	0.999084
352.381198	0.998170
352.771288	0.998107
353.161314	0.997858
353.551276	0.997252
353.941175	0.996962
354.331010	0.999212
354.720782	0.998672
355.110490	0.998110
355.500135	0.999101
355.889717	0.996522
356.279235	0.996482
356.668689	0.997903
357.058080	0.997645
357.447408	0.996938
357.836672	0.998440
358.225873	0.997487
358.615010	0.998219
359.004084	0.996417
359.393095	0.997719
359.782043	0.997643
360.170927	0.997539
360.559748	0.998247
360.948505	0.997618
361.337199	0.996509
361.725830	0.997720
362.114398	0.997180
362.502903	0.996199
362.891344	0.995948
363.279722	0.995919
363.668037	0.997213
364.056289	0.996898
364.444478	0.997971
364.832603	0.996661
365.220665	0.996935
365.608665	0.996204
365.996601	0.996047
366.384474	0.995763
366.772284	0.995986
367.160031	0.994876
367.547715	0.996066
367.935336	0.993879
368.322893	0.993763
368.710388	0.992239
369.097820	0.990742
369.485189	0.988713
369.872495	0.986850
370.259738	0.985512
370.646918	0.981820
371.034035	0.979509
371.421090	0.975683
371.808081	0.971598
372.195010	0.967934
372.581875	0.963011
372.968678	0.958491
373.355418	0.956349
373.742096	0.947024
374.128710	0.944938
374.515262	0.939874
374.901751	0.933627
375.288177	0.928312
375.674540	0.921749
376.060841	0.915761
376.447079	0.908896
376.833254	0.902585
377.219367	0.897380
377.605417	0.886207
377.991404	0.882458
378.377329	0.876376
378.763191	0.870417
379.148991	0.859629
379.534727	0.853753
379.920402	0.844991
380.306013	0.842318
380.691563	0.828336
381.077049	0.822917
381.462474	0.817515
381.847835	0.807208
382.233134	0.802444
382.618371	0.802258
383.003545	0.785453
383.388657	0.782710
383.773706	0.776028
384.158693	0.771503
384.543618	0.766064
384.928480	0.757898
385.313280	0.747053
385.698017	0.746688
386.082692	0.734952
386.467305	0.733925
386.851856	0.728698
387.236344	0.723607
387.620770	0.716948
388.005133	0.712225
388.389435	0.706245
388.773674	0.703641
389.157851	0.695883
389.541965	0.693020
389.926018	0.699468
390.310008	0.685450
390.693936	0.683768
391.077802	0.675448
391.461606	0.677107
391.845348	0.665503
392.229027	0.665576
392.612645	0.663582
392.996200	0.650536
393.379694	0.643770
393.763125	0.634602
394.146494	0.638698
394.529801	0.629461
394.913047	0.621545
395.296230	0.627474
395.679351	0.618232
396.062410	0.615543
396.445408	0.618802
396.828343	0.613699
397.211217	0.608718
397.594028	0.620587
397.976778	0.611115
398.359466	0.607956
398.742092	0.603212
399.124656	0.614605
399.507158	0.602722
399.889598	0.600128
400.271977	0.591055
400.654294	0.595431
401.036549	0.594277
401.418742	0.598874
401.800874	0.584524
402.182944	0.581307
402.564952	0.573001
402.946898	0.575192
403.328783	0.575825
403.710606	0.586817
404.092367	0.562065
404.474067	0.566797
404.855705	0.566230
405.237282	0.574798
405.618797	0.560263
406.000250	0.556472
406.381642	0.546793
406.762972	0.551629
407.144240	0.550140
407.525447	0.550314
407.906593	0.542932
408.287677	0.538089
408.668700	0.546521
409.049661	0.540628
409.430560	0.536265
409.811399	0.544521
410.192176	0.526211
410.572891	0.533236
410.953545	0.521442
411.334138	0.534910
411.714669	0.527342
412.095139	0.539463
412.475547	0.524018
412.855894	0.525928
413.236180	0.524852
413.616405	0.529832
413.996568	0.520177
414.376670	0.526242
414.756711	0.532008
415.136691	0.528352
415.516609	0.519429
415.896466	0.516152
416.276262	0.512029
416.655997	0.514161
417.035670	0.495508
417.415283	0.487365
417.794834	0.491430
418.174324	0.497134
418.553753	0.506278
418.933121	0.488533
419.312428	0.482249
419.691674	0.487864
420.070859	0.476481
420.449983	0.484489
420.829045	0.473820
421.208047	0.482658
421.586988	0.475984
421.965867	0.474619
422.344686	0.463111
422.723444	0.476115
423.102141	0.492703
423.480777	0.465665
423.859352	0.486631
424.237866	0.463749
424.616319	0.464323
424.994712	0.455398
425.373044	0.465835
425.751314	0.454233
426.129524	0.470885
426.507673	0.453750
426.885762	0.447299
427.263789	0.452822
427.641756	0.462144
428.019662	0.452786
428.397508	0.452063
428.775292	0.456507
429.153016	0.448164
429.530679	0.454178
429.908282	0.447950
430.285824	0.457734
430.663305	0.435695
431.040726	0.457815
431.418086	0.456939
431.795385	0.449153
432.172624	0.447994
432.549802	0.448343
432.926920	0.447005
433.303977	0.447158
433.680974	0.444032
434.057910	0.442696
434.434786	0.441659
434.811601	0.444641
435.188355	0.427020
435.565050	0.436635
435.941683	0.437711
436.318257	0.421326
436.694770	0.422814
437.071222	0.420796
437.447614	0.424749
437.823946	0.431363
438.200218	0.420928
438.576429	0.430750
438.952580	0.423838
439.328670	0.420041
439.704700	0.426649
440.080670	0.427632
440.456580	0.409037
440.832429	0.417694
441.208218	0.427522
441.583947	0.417208
441.959616	0.416523
442.335224	0.422051
442.710773	0.412697
443.086261	0.410858
443.461689	0.424956
443.837057	0.415219
444.212365	0.404588
444.587612	0.411617
444.962800	0.401776
445.337927	0.403429
445.712995	0.429313
446.088002	0.391180
446.462949	0.401791
446.837837	0.406434
447.212664	0.395416
447.587431	0.386587
447.962139	0.356988
448.336786	0.316209
448.711374	0.326381
449.085901	0.370873
449.460369	0.375242
449.834776	0.378799
450.209124	0.357729
450.583412	0.350658
450.957640	0.343717
451.331808	0.355020
451.705917	0.378527
452.079965	0.382952
452.453954	0.371205
452.827883	0.378398
453.201752	0.373083
453.575562	0.384187
453.949311	0.372813
454.323001	0.378987
454.696632	0.375073
455.070202	0.367303
455.443713	0.359123
455.817164	0.353862
456.190556	0.349425
456.563888	0.346622
456.937160	0.344135
457.310373	0.361064
457.683526	0.360262
458.056619	0.366131
458.429653	0.366386
458.802628	0.369984
459.175542	0.364173
459.548398	0.346905
459.921194	0.339276
460.293930	0.339405
460.666607	0.316892
461.039224	0.305293
461.411782	0.300721
461.784280	0.300134
462.156719	0.304341
462.529099	0.308385
462.901419	0.324626
463.273680	0.328940
463.645882	0.328515
464.018024	0.334539
464.390106	0.327128
464.762130	0.311610
465.134094	0.294892
465.505999	0.263702
465.877845	0.234283
466.249631	0.220873
466.621358	0.228418
466.993026	0.242388
467.364634	0.248581
467.736184	0.257349
468.107674	0.266127
468.479105	0.265324
468.850477	0.272211
469.221790	0.278953
469.593043	0.289039
469.964238	0.293940
470.335373	0.293408
470.706449	0.291656
471.077467	0.292288
471.448425	0.254523
471.819324	0.229821
472.190164	0.229266
472.560945	0.258142
472.931667	0.280620
473.302330	0.284633
473.672934	0.296081
474.043479	0.284640
474.413965	0.286844
474.784393	0.289773
475.154761	0.284976
475.525070	0.282020
475.895321	0.287869
476.265513	0.282101
476.635645	0.277773
477.005719	0.277194
477.375734	0.273435
477.745691	0.266819
478.115588	0.263489
478.485427	0.256720
478.855207	0.243888
479.224928	0.225965
479.594591	0.214581
479.964194	0.217774
480.333739	0.218859
480.703226	0.220413
481.072653	0.218714
481.442022	0.214595
481.811333	0.211429
482.180584	0.214569
482.549777	0.220132
482.918912	0.223596
483.287988	0.223104
483.657005	0.222799
484.025964	0.229055
484.394864	0.226402
484.763706	0.227247
485.132489	0.232339
485.501213	0.232881
485.869879	0.231397
486.238487	0.234349
486.607036	0.232266
486.975527	0.237212
487.343959	0.232726
487.712333	0.232045
488.080648	0.233425
488.448905	0.232686
488.817104	0.234016
489.185244	0.228486
489.553326	0.225330
489.921350	0.215303
490.289315	0.197463
490.657222	0.192541
491.025070	0.194011
491.392861	0.195598
491.760593	0.201608
492.128267	0.207516
492.495883	0.212677
492.863440	0.219330
493.230939	0.225557
493.598380	0.226969
493.965763	0.229006
494.333088	0.231403
494.700354	0.232929
495.067563	0.231878
495.434713	0.235180
495.801805	0.233076
496.168839	0.234629
496.535815	0.236323
496.902733	0.236243
497.269593	0.237634
497.636395	0.235344
498.003139	0.235709
498.369825	0.238576
498.736453	0.235287
499.103023	0.237180
499.469535	0.236177
499.835989	0.236724
500.202385	0.237524
500.568723	0.240619
500.935003	0.236011
501.301226	0.240386
501.667390	0.234907
502.033497	0.232715
502.399546	0.235843
502.765537	0.237800
503.131470	0.236371
503.497345	0.232906
503.863163	0.241328
504.228923	0.234406
504.594625	0.233507
504.960269	0.239046
505.325856	0.234638
505.691385	0.239217
506.056856	0.236043
506.422270	0.235438
506.787625	0.238033
507.152924	0.235674
507.518164	0.236315
507.883347	0.238199
508.248472	0.240407
508.613540	0.235599
508.978550	0.238353
509.343503	0.238906
509.708398	0.237222
510.073236	0.235002
510.438016	0.235006
510.802738	0.236583
511.167403	0.235897
511.532010	0.238375
511.896561	0.234171
512.261053	0.233126
512.625488	0.235967
512.989866	0.236471
513.354186	0.237151
513.718449	0.239826
514.082655	0.236871
514.446803	0.239486
514.810894	0.237733
515.174927	0.241160
515.538904	0.241150
515.902822	0.238876
516.266684	0.241838
516.630488	0.243691
516.994235	0.243357
517.357925	0.243291
517.721558	0.241985
518.085133	0.242315
518.448651	0.243224
518.812112	0.246416
519.175516	0.246982
519.538863	0.245401
519.902152	0.248405
520.265385	0.246480
520.628560	0.248873
520.991678	0.250838
521.354739	0.250366
521.717743	0.252477
522.080690	0.254095
522.443580	0.253410
522.806413	0.255434
523.169189	0.256430
523.531908	0.256571
523.894569	0.261595
524.257174	0.262673
524.619722	0.262273
524.982213	0.264430
525.344647	0.265691
525.707025	0.267965
526.069345	0.267820
526.431608	0.271747
526.793815	0.271584
527.155964	0.277215
527.518057	0.277859
527.880093	0.280731
528.242072	0.281580
528.603995	0.285736
528.965860	0.289258
529.327669	0.290309
529.689421	0.293214
530.051117	0.296237
530.412755	0.296811
530.774337	0.300798
531.135862	0.304535
531.497331	0.305376
531.858743	0.311221
532.220098	0.310665
532.581396	0.315570
532.942638	0.318218
533.303824	0.322082
533.664953	0.325223
534.026025	0.329193
534.387040	0.330821
534.747999	0.333148
535.108902	0.335641
535.469748	0.342935
535.830537	0.343815
536.191270	0.347798
536.551947	0.350720
536.912567	0.353860
537.273131	0.358334
537.633638	0.362430
537.994089	0.366356
538.354483	0.370483
538.714821	0.370871
539.075103	0.374258
539.435328	0.378882
539.795497	0.384601
540.155609	0.386703
540.515665	0.388105
540.875665	0.396515
541.235609	0.399877
541.595496	0.403046
541.955328	0.404677
542.315102	0.410315
542.674821	0.414898
543.034483	0.418741
543.394090	0.422453
543.753640	0.427960
544.113134	0.428525
544.472571	0.435343
544.831953	0.437334
545.191278	0.444723
545.550548	0.447900
545.909761	0.449014
546.268918	0.454735
546.628019	0.457343
546.987064	0.463962
547.346053	0.468472
547.704986	0.471949
548.063863	0.475801
548.422684	0.479805
548.781449	0.486084
549.140158	0.488799
549.498811	0.495120
549.857408	0.500736
550.215949	0.502889
550.574434	0.509477
550.932864	0.513517
551.291237	0.515209
551.649555	0.522764
552.007817	0.526190
552.366022	0.530605
552.724173	0.535840
553.082267	0.539864
553.440305	0.543995
553.798288	0.548957
554.156215	0.553625
554.514086	0.558742
554.871902	0.564510
555.229661	0.568481
555.587365	0.573340
555.945014	0.578662
556.302606	0.582828
556.660143	0.588016
557.017625	0.592059
557.375050	0.596565
557.732421	0.600249
558.089735	0.606180
558.446994	0.609480
558.804197	0.614590
559.161345	0.618622
559.518437	0.624086
559.875474	0.629191
560.232455	0.633244
560.589381	0.637622
560.946251	0.643477
561.303065	0.644662
561.659825	0.651576
562.016528	0.656290
562.373177	0.660642
562.729770	0.665335
563.086307	0.669341
563.442789	0.672436
563.799216	0.680235
564.155587	0.683105
564.511904	0.688147
564.868164	0.691207
565.224370	0.695482
565.580520	0.701990
565.936615	0.703844
566.292654	0.711250
566.648638	0.713431
567.004567	0.718449
567.360441	0.723375
567.716260	0.727900
568.072023	0.730787
568.427732	0.736392
568.783385	0.739449
569.138982	0.744710
569.494525	0.747938
569.850013	0.753227
570.205445	0.756904
570.560823	0.759913
570.916145	0.765594
571.271412	0.768984
571.626625	0.773754
571.981782	0.776561
572.336884	0.782071
572.691931	0.784157
573.046923	0.790490
573.401860	0.793067
573.756743	0.797798
574.111570	0.800505
574.466342	0.804672
574.821059	0.807329
575.175722	0.811359
575.530330	0.815181
575.884882	0.818179
576.239380	0.822187
576.593823	0.825230
576.948211	0.828620
577.302544	0.832066
577.656823	0.836210
578.011047	0.838151
578.365216	0.842850
578.719330	0.846260
579.073389	0.848110
579.427394	0.851545
579.781344	0.854170
580.135239	0.856424
580.489080	0.860364
580.842866	0.864134
581.196597	0.865743
581.550273	0.867769
581.903895	0.871660
582.257463	0.873306
582.610975	0.876665
582.964434	0.878848
583.317837	0.882021
583.671186	0.883527
584.024481	0.886059
584.377721	0.888226
584.730906	0.891845
585.084037	0.894346
585.437113	0.895966
585.790135	0.898405
586.143103	0.901415
586.496016	0.903159
586.848874	0.905029
587.201679	0.906976
587.554428	0.909327
587.907124	0.911937
588.259765	0.913573
588.612352	0.916152
588.964884	0.917023
589.317362	0.919155
589.669786	0.919961
590.022155	0.921166
590.374470	0.924052
590.726731	0.924891
591.078937	0.927845
591.431090	0.929915
591.783188	0.931244
592.135232	0.934475
592.487222	0.935028
592.839157	0.936617
593.191038	0.937566
593.542866	0.939358
593.894639	0.940119
594.246358	0.942610
594.598022	0.943816
594.949633	0.945759
595.301190	0.946870
595.652692	0.948056
596.004141	0.949671
596.355535	0.950820
596.706876	0.952472
597.058162	0.953734
597.409395	0.954795
597.760573	0.955520
598.111698	0.956566
598.462768	0.957021
598.813785	0.959056
599.164748	0.960005
599.515657	0.960651
599.866511	0.962711
600.217312	0.963157
600.568060	0.963355
600.918753	0.965246
601.269392	0.966220
601.619978	0.966700
601.970510	0.967119
602.320988	0.967723
602.671412	0.968750
603.021783	0.969983
603.372100	0.970493
603.722363	0.971809
604.072572	0.972133
604.422728	0.972061
604.772830	0.972563
605.122878	0.973814
605.472872	0.975003
605.822813	0.974774
606.172701	0.976315
606.522534	0.976245
606.872314	0.977559
607.222041	0.977181
607.571714	0.978207
607.921333	0.978707
608.270899	0.978606
608.620411	0.979092
608.969870	0.980169
609.319276	0.980017
609.668627	0.980341
610.017926	0.980335
610.367171	0.981413
610.716362	0.981769
611.065500	0.981941
611.414585	0.982373
611.763616	0.982722
612.112594	0.982549
612.461518	0.982087
612.810389	0.983987
613.159207	0.983846
613.507971	0.983165
613.856682	0.985516
614.205340	0.984422
614.553945	0.985299
614.902496	0.984924
615.250994	0.985098
615.599439	0.986012
615.947830	0.986376
616.296169	0.985730
616.644454	0.986366
616.992686	0.986260
617.340864	0.986049
617.688990	0.986916
618.037063	0.986934
618.385082	0.986748
618.733048	0.986834
619.080961	0.987169
619.428821	0.988001
619.776628	0.987219
620.124382	0.988486
620.472083	0.987836
620.819731	0.989243
621.167326	0.988754
621.514868	0.988557
621.862357	0.989303
622.209793	0.988812
622.557176	0.989115
622.904506	0.989502
623.251783	0.989312
623.599007	0.990289
623.946179	0.989227
624.293297	0.990565
624.640363	0.991245
624.987376	0.989303
625.334336	0.990023
625.681243	0.990451
626.028097	0.990374
626.374899	0.990982
626.721647	0.991404
627.068343	0.990768
627.414987	0.991010
627.761577	0.990188
628.108115	0.991069
628.454600	0.991761
628.801032	0.991843
629.147412	0.991841
629.493739	0.992141
629.840014	0.991109
630.186236	0.991461
630.532405	0.991678
630.878521	0.990793
631.224585	0.991261
631.570597	0.990963
631.916556	0.992228
632.262462	0.990131
632.608316	0.991989
632.954117	0.991947
633.299866	0.991347
633.645562	0.991437
633.991206	0.991550
634.336797	0.991591
634.682336	0.992495
635.027823	0.992374
635.373257	0.992371
635.718639	0.991981
636.063968	0.991885
636.409245	0.991721
636.754470	0.992952
637.099642	0.992649
637.444762	0.993406
637.789829	0.992487
638.134845	0.992681
638.479808	0.992984
638.824719	0.992454
639.169577	0.993039
639.514383	0.993862
639.859137	0.993253
640.203839	0.992175
640.548489	0.992530
640.893086	0.992243
641.237632	0.993212
641.582125	0.992854
641.926566	0.993988
642.270955	0.992769
642.615292	0.993796
642.959576	0.992740
643.303809	0.993569
643.647990	0.993568
643.992118	0.993504
644.336195	0.992627
644.680219	0.992932
645.024192	0.992789
645.368112	0.992251
645.711981	0.993234
646.055797	0.993318
646.399562	0.992277
646.743274	0.993825
647.086935	0.992624
647.430544	0.992755
647.774101	0.992578
648.117606	0.992871
648.461059	0.994139
648.804460	0.992911
649.147810	0.992515
649.491108	0.992695
649.834354	0.992207
650.177548	0.992964
650.520690	0.992166
650.863781	0.992531
651.206820	0.993259
651.549807	0.993166
651.892742	0.993916
652.235626	0.993415
652.578458	0.993508
652.921238	0.993073
653.263967	0.993800
653.606644	0.992969
653.949269	0.994308
654.291843	0.992630
654.634365	0.993946
654.976836	0.993441
655.319255	0.993583
655.661622	0.994266
656.003938	0.992851
656.346203	0.992863
656.688416	0.994223
657.030577	0.992699
657.372687	0.993618
657.714746	0.993171
658.056753	0.992624
658.398708	0.993301
658.740612	0.994474
659.082465	0.993567
659.424266	0.993730
659.766016	0.992899
660.107715	0.994029
660.449362	0.993802
660.790958	0.993151
661.132503	0.994195
661.473996	0.992883
661.815438	0.994099
662.156829	0.994223
662.498168	0.994083
662.839456	0.992746
663.180693	0.994041
663.521879	0.993512
663.863013	0.993816
664.204097	0.992871
664.545129	0.993190
664.886110	0.992862
665.227040	0.993379
665.567918	0.992191
665.908746	0.992552
666.249522	0.992723
666.590248	0.993599
666.930922	0.992618
667.271545	0.992475
667.612118	0.993827
667.952639	0.993110
668.293109	0.992881
668.633528	0.992611
668.973896	0.993833
669.314213	0.992478
669.654480	0.993685
669.994695	0.992013
670.334859	0.993522
670.674973	0.992984
671.015035	0.993328
671.355047	0.992716
671.695008	0.992906
672.034918	0.993356
672.374777	0.992921
672.714585	0.993008
673.054342	0.992918
673.394049	0.991836
673.733705	0.993557
674.073310	0.992361
674.412864	0.992876
674.752368	0.991965
675.091820	0.993301
675.431223	0.993324
675.770574	0.992599
676.109875	0.993076
676.449125	0.992566
676.788324	0.993128
677.127473	0.993006
677.466571	0.993122
677.805619	0.992825
678.144616	0.993211
678.483562	0.993400
678.822458	0.993860
679.161303	0.992507
679.500098	0.992913
679.838842	0.993749
680.177535	0.992666
680.516179	0.992374
680.854771	0.992440
681.193314	0.993198
681.531805	0.992947
681.870247	0.994132
682.208638	0.993556
682.546978	0.992408
682.885268	0.992821
683.223508	0.991947
683.561697	0.992075
683.899836	0.993290
684.237925	0.993045
684.575963	0.992594
684.913951	0.992649
685.251889	0.992329
685.589776	0.992934
685.927614	0.992462
686.265401	0.992737
686.603137	0.991888
686.940824	0.992542
687.278460	0.993977
687.616046	0.992626
687.953582	0.992652
688.291068	0.993187
688.628504	0.992791
688.965889	0.992369
689.303224	0.991014
689.640510	0.992830
689.977745	0.992099
690.314930	0.992086
690.652065	0.992452
690.989150	0.992556
691.326185	0.993427
691.663170	0.992195
692.000105	0.992898
692.336990	0.992985
692.673825	0.993461
693.010610	0.992664
693.347345	0.993409
693.684030	0.992786
694.020665	0.993111
694.357251	0.992597
694.693786	0.992832
695.030272	0.992550
695.366707	0.993036
695.703093	0.993394
696.039429	0.992556
696.375716	0.993693
696.711952	0.992773
697.048139	0.994328
697.384276	0.993248
697.720363	0.993954
698.056400	0.992871
698.392388	0.991472
698.728326	0.992907
699.064214	0.995079
699.400053	0.992872
699.735842	0.993723
700.071581	0.992924
700.407270	0.993239
700.742910	0.994288
701.078501	0.993314
701.414042	0.994656
701.749533	0.991494
702.084974	0.993809
702.420366	0.994256
702.755709	0.992633
703.091002	0.993917
703.426246	0.994684
703.761440	0.994138
704.096584	0.993265
704.431679	0.992929
704.766725	0.993843
705.101721	0.993724
705.436668	0.994558
705.771565	0.993390
706.106413	0.992318
706.441212	0.993655
706.775961	0.994525
707.110661	0.993466
707.445311	0.995118
707.779913	0.993536
708.114465	0.993862
708.448967	0.994059
708.783421	0.993695
709.117825	0.993790
709.452180	0.993353
709.786485	0.993435
710.120742	0.992248
710.454949	0.992238
710.789107	0.992494
711.123216	0.992214
711.457275	0.991879
711.791286	0.992658
712.125247	0.993806
712.459159	0.992114
712.793023	0.991917
713.126837	0.993036
713.460602	0.992089
713.794318	0.992104
714.127985	0.991771
714.461602	0.993237
714.795171	0.992713
715.128691	0.991969
715.462162	0.992893
715.795584	0.992816
716.128957	0.993178
716.462281	0.993070
716.795556	0.992695
717.128782	0.993171
717.461960	0.993319
717.795088	0.993685
718.128167	0.993975
718.461198	0.993929
718.794180	0.994252
719.127113	0.993448
719.459997	0.992926
719.792833	0.993323
720.125619	0.993175
720.458357	0.993534
720.791046	0.994529
721.123686	0.993084
721.456278	0.994620
721.788821	0.994353
722.121315	0.994928
722.453761	0.994471
722.786158	0.993077
723.118506	0.994879
723.450805	0.993599
723.783056	0.993799
724.115259	0.992598
724.447412	0.993819
724.779518	0.993797
725.111574	0.992956
725.443582	0.994082
725.775542	0.993496
726.107453	0.993672
726.439315	0.994485
726.771129	0.993524
727.102895	0.993608
727.434612	0.993989
727.766281	0.993615
728.097901	0.993137
728.429473	0.993453
728.760996	0.992463
729.092471	0.993377
729.423897	0.993338
729.755276	0.993627
730.086606	0.993164
730.417887	0.994040
730.749120	0.993559
731.080305	0.992939
731.411442	0.992149
731.742530	0.991079
732.073570	0.992274
732.404562	0.992613
732.735506	0.992410
733.066401	0.992053
733.397249	0.992855
733.728048	0.992893
734.058798	0.993530
734.389501	0.994354
734.720156	0.994541
735.050762	0.993761
735.381320	0.993535
735.711831	0.993341
736.042293	0.993232
736.372707	0.995008
736.703073	0.992707
737.033391	0.993672
737.363661	0.993826
737.693883	0.992776
738.024056	0.993247
738.354182	0.994738
738.684260	0.993520
739.014290	0.992771
739.344272	0.993217
739.674207	0.994030
740.004093	0.993151
740.333931	0.993118
740.663722	0.993437
740.993464	0.993729
741.323159	0.993680
741.652806	0.992967
741.982405	0.993130
742.311956	0.993059
742.641460	0.993736
742.970915	0.992169
743.300323	0.992769
743.629683	0.993276
743.958996	0.994945
744.288260	0.993120
744.617477	0.993640
744.946647	0.994585
745.275768	0.994537
745.604842	0.993719
745.933869	0.994276
746.262847	0.995021
746.591778	0.992142
746.920662	0.994417
747.249498	0.994889
747.578286	0.995403
747.907027	0.994625
748.235720	0.994693
748.564365	0.994121
748.892963	0.993895
749.221514	0.994535
749.550017	0.994380
749.878473	0.993632
750.206881	0.994854
750.535242	0.993490
750.863555	0.993572
751.191821	0.994228
751.520039	0.994149
751.848210	0.992888
752.176334	0.993253
752.504411	0.994184
752.832440	0.994130
753.160421	0.994107
753.488356	0.994568
753.816243	0.993703
754.144082	0.993141
754.471875	0.994032
754.799620	0.994783
755.127318	0.994126
755.454969	0.994475
755.782572	0.995877
756.110129	0.993644
756.437638	0.996022
756.765100	0.994793
757.092515	0.994415
757.419882	0.993650
757.747203	0.994671
758.074477	0.995121
758.401703	0.994200
758.728882	0.993811
759.056014	0.993926
759.383099	0.994071
759.710138	0.993502
760.037129	0.994184
760.364073	0.995160
760.690970	0.993738
761.017820	0.994142
761.344623	0.993877
761.671379	0.994550
761.998088	0.993024
762.324751	0.994374
762.651366	0.993157
762.977935	0.990514
763.304456	0.990431
763.630931	0.987504
763.957359	0.987840
764.283740	0.989063
764.610074	0.990932
764.936362	0.990738
765.262602	0.991928
765.588796	0.992554
765.914943	0.993292
766.241044	0.993117
766.567097	0.993855
766.893104	0.995072
767.219064	0.993667
767.544978	0.994840
767.870845	0.995252
768.196665	0.995208
768.522438	0.996194
768.848165	0.995464
769.173846	0.995127
769.499479	0.996354
769.825066	0.995715
770.150607	0.996524
770.476101	0.995544
770.801548	0.996571
771.126949	0.996004
771.452303	0.995301
771.777611	0.996073
772.102872	0.996020
772.428087	0.994874
772.753256	0.996984
773.078378	0.996718
773.403453	0.995473
773.728482	0.997054
774.053465	0.995981
774.378401	0.996934
774.703291	0.996104
775.028135	0.997520
775.352932	0.995552
775.677683	0.997733
776.002388	0.996233
776.327046	0.995105
776.651658	0.997757
776.976224	0.996167
777.300743	0.995889
777.625216	0.995786
777.949643	0.996833
778.274024	0.996707
778.598359	0.997425
778.922647	0.996026
779.246889	0.996532
779.571086	0.996792
779.895236	0.996092
780.219339	0.997716
780.543397	0.995919
780.867409	0.997570
781.191374	0.996603
781.515294	0.997458
781.839167	0.996889
782.162995	0.996752
782.486776	0.996658
782.810511	0.997901
783.134201	0.997553
783.457844	0.997252
783.781441	0.996412
784.104993	0.996345
784.428498	0.997755
784.751958	0.997970
785.075372	0.997810
785.398739	0.996757
785.722061	0.996593
786.045337	0.995691
786.368568	0.995780
786.691752	0.996278
787.014891	0.996073
787.337983	0.995612
787.661030	0.995967
787.984031	0.995861
788.306987	0.995060
788.629897	0.993748
788.952760	0.995125
789.275579	0.995310
789.598351	0.995985
789.921078	0.997227
790.243759	0.995946
790.566395	0.995356
790.888984	0.996763
791.211529	0.996337
791.534027	0.997114
791.856480	0.995969
792.178888	0.996404
792.501249	0.995795
792.823566	0.997943
793.145836	0.997429
793.468062	0.998379
793.790241	0.997981
794.112375	0.996290
794.434464	0.996384
794.756507	0.996175
795.078505	0.996451
795.400457	0.996403
795.722364	0.996141
796.044226	0.995348
796.366042	0.995692
796.687812	0.994793
797.009538	0.995456
797.331218	0.996402
797.652852	0.997319
797.974442	0.995256
798.295986	0.997546
798.617484	0.995815
798.938938	0.996788
799.260346	0.995395
799.581709	0.996396
799.903026	0.997111
800.224299	0.995986
800.545526	0.996472
800.866708	0.995809
801.187845	0.996967
801.508936	0.996913
801.829983	0.997146
802.150984	0.996943
802.471940	0.997566
802.792851	0.996986
803.113717	0.997928
803.434538	0.998014
803.755314	0.997701
804.076045	0.997011
804.396731	0.997050
804.717372	0.995039
805.037967	0.997104
805.358518	0.997701
805.679024	0.996021
805.999485	0.998385
806.319901	0.996748
806.640272	0.998497
806.960598	0.997783
807.280879	0.997224
807.601115	0.997002
807.921306	0.997590
808.241453	0.996018
808.561554	0.997192
808.881611	0.996944
809.201623	0.996178
809.521590	0.997148
809.841513	0.997198
810.161390	0.995002
810.481223	0.996417
810.801011	0.996748
811.120755	0.998585
811.440453	0.996251
811.760107	0.997484
812.079716	0.996387
812.399281	0.997255
812.718801	0.997831
813.038276	0.997205
813.357707	0.998339
813.677093	0.997831
813.996434	0.996905
814.315731	0.998366
814.634983	0.997643
814.954191	0.996992
815.273354	0.996953
815.592473	0.997197
815.911547	0.997198
816.230577	0.996976
816.549562	0.997420
816.868502	0.995752
817.187399	0.997232
817.506250	0.996966
817.825058	0.995906
818.143821	0.996299
818.462539	0.996970
818.781213	0.995725
819.099843	0.996016
819.418429	0.994457
819.736970	0.994656
820.055466	0.992100
820.373919	0.992071
820.692327	0.990113
821.010691	0.989779
821.329011	0.985791
821.647286	0.981692
821.965517	0.979108
822.283704	0.974654
822.601847	0.972922
822.919945	0.973205
823.237999	0.974415
823.556010	0.976718
823.873976	0.980042
824.191897	0.982699
824.509775	0.984842
824.827609	0.985916
825.145398	0.987682
825.463144	0.986538
825.780845	0.987172
826.098502	0.986927
826.416116	0.985944
826.733685	0.982995
827.051210	0.980434
827.368692	0.982487
827.686129	0.983527
828.003522	0.986706
828.320872	0.987555
828.638177	0.989323
828.955439	0.992478
829.272656	0.992728
829.589830	0.993903
829.906960	0.994994
830.224046	0.993933
830.541088	0.994530
830.858086	0.995280
831.175041	0.996734
831.491952	0.995182
831.808819	0.995459
832.125642	0.995286
832.442421	0.994959
832.759157	0.994643
833.075849	0.991607
833.392497	0.989132
833.709101	0.986579
834.025662	0.987207
834.342179	0.988452
834.658653	0.990312
834.975083	0.991899
835.291469	0.991623
835.607811	0.993611
835.924110	0.994337
836.240366	0.996976
836.556578	0.997149
836.872746	0.996831
837.188871	0.995921
837.504952	0.996696
837.820990	0.999004
838.136984	0.997797
838.452935	0.997306
838.768842	0.997355
839.084706	0.997435
839.400526	0.996739
839.716303	0.995280
840.032037	0.993485
840.347727	0.993582
840.663373	0.994154
840.978977	0.995174
841.294537	0.995988
841.610054	0.997511
841.925527	0.998783
842.240957	0.997137
842.556344	0.996402
842.871687	0.997696
843.186987	0.997678
843.502244	0.997708
843.817458	0.998197
844.132629	0.997725
844.447756	0.999153
844.762840	0.998760
845.077881	1.000208
845.392879	0.997983
845.707833	0.999201
846.022745	0.999898
846.337613	0.999307
846.652438	0.998496
846.967221	0.999016
847.281960	0.999615
847.596656	1.000082
847.911309	0.999170
848.225919	0.998549
848.540485	0.999701
848.855009	1.000237
849.169490	0.999464
849.483928	0.999274
849.798323	0.998770
850.112675	1.000910
850.426984	0.999246
850.741251	0.999886
851.055474	0.999102
851.369654	0.999305
851.683792	0.998630
851.997887	0.998689
852.311938	0.999919
852.625947	0.998318
852.939914	0.999049
853.253837	0.999960
853.567718	1.000505
853.881555	0.999391
854.195350	0.999800
854.509103	0.999916
854.822812	0.999268
855.136479	1.000006
855.450103	0.999997
855.763685	1.000606
856.077224	0.999283
856.390720	0.999479
856.704173	0.999512
857.017584	1.000404
857.330953	1.000936
857.644278	0.999379
857.957561	0.999663
858.270802	0.999553
858.584000	0.999473
858.897155	0.998811
859.210268	0.999610
859.523339	1.000065
859.836367	1.000268
860.149352	0.998740
860.462295	0.999878
860.775195	1.000152
861.088054	0.998077
861.400869	0.999065
861.713642	0.998461
862.026373	1.000398
862.339062	0.999770
862.651708	0.998862
862.964312	0.998822
863.276873	0.999340
863.589392	0.999541
863.901869	0.998534
864.214303	0.999593
864.526696	0.999448
864.839045	0.999459
865.151353	0.999160
865.463619	0.998810
865.775842	0.999053
866.088023	0.998996
866.400162	0.998630
866.712258	0.999763
867.024313	0.999197
867.336325	1.000061
867.648296	0.999311
867.960224	0.999220
868.272110	0.999922
868.583954	0.999049
868.895755	1.000124
869.207515	0.998849
869.519233	0.999257
869.830909	0.997113
870.142542	0.997476
870.454134	0.998612
870.765684	0.998574
871.077191	0.998762
871.388657	0.998254
871.700081	0.999488
872.011463	0.999508
872.322803	0.999426
872.634101	0.997513
872.945357	0.998308
873.256571	0.997989
873.567744	0.998060
873.878874	0.998592
874.189963	0.997647
874.501010	0.999856
874.812015	0.998084
875.122979	0.998623
875.433900	0.998523
875.744780	0.999123
876.055618	0.997124
876.366415	0.998183
876.677169	0.997480
876.987882	0.997286
877.298554	0.998854
877.609183	0.997184
877.919771	0.997959
878.230317	0.997421
878.540822	0.996304
878.851285	0.996579
879.161707	0.996887
879.472087	0.995528
879.782425	0.993509
880.092722	0.991213
880.402977	0.987960
880.713191	0.984807
881.023363	0.978504
881.333494	0.975752
881.643583	0.976807
881.953631	0.976605
882.263637	0.976158
882.573602	0.977760
882.883526	0.979100
883.193408	0.982725
883.503248	0.984018
883.813048	0.984297
884.122806	0.987632
884.432522	0.989194
884.742197	0.990617
885.051831	0.991201
885.361424	0.991978
885.670975	0.994573
885.980485	0.993775
886.289954	0.995365
886.599382	0.994911
886.908768	0.996715
887.218113	0.995572
887.527417	0.996382
887.836680	0.997362
888.145901	0.997136
888.455082	0.998830
888.764221	0.998492
889.073319	0.996956
889.382376	0.997696
889.691392	0.995594
890.000366	0.998869
890.309300	0.997436
890.618193	0.997753
890.927044	0.996501
891.235855	0.997431
891.544625	0.996736
891.853353	0.997532
892.162041	0.996901
892.470687	0.997776
892.779293	0.996370
893.087858	0.994813
893.396381	0.995015
893.704864	0.993630
894.013306	0.993043
894.321707	0.990122
894.630068	0.987655
894.938387	0.987188
895.246665	0.987834
895.554903	0.988041
895.863100	0.990713
896.171256	0.991636
896.479371	0.992563
896.787446	0.991763
897.095480	0.994118
897.403473	0.995492
897.711425	0.995076
898.019336	0.996330
898.327207	0.996855
898.635038	0.995013
898.942827	0.997496
899.250576	0.996621
899.558284	0.997329
899.865952	0.996740
900.173579	0.998297
900.481165	0.997277
900.788711	0.997213
901.096216	0.997806
901.403681	0.998647
901.711105	0.997442
902.018489	0.996936
902.325832	0.998593
902.633135	0.997067
902.940397	0.997911
903.247619	0.997095
903.554800	0.993653
903.861941	0.990950
904.169041	0.987092
904.476101	0.985432
904.783121	0.984586
905.090100	0.985585
905.397039	0.988513
905.703938	0.990840
906.010796	0.991921
906.317614	0.993334
906.624391	0.995061
906.931129	0.996166
907.237826	0.997170
907.544483	0.997532
907.851099	0.997418
908.157675	0.997874
908.464211	0.998046
908.770707	0.997106
909.077163	0.997553
909.383578	0.999115
909.689954	0.998838
909.996289	0.999414
910.302584	0.999144
910.608839	1.000500
910.915054	0.999657
911.221229	1.000273
911.527363	0.998967
911.833458	0.998891
912.139513	0.999982
912.445527	0.999594
912.751502	0.998431
913.057436	0.998573
913.363331	0.999740
913.669186	0.998957
913.975000	0.998269
914.280775	0.997379
914.586510	0.996137
914.892205	0.994318
915.197859	0.992757
915.503475	0.991560
915.809050	0.986984
916.114585	0.985209
916.420081	0.985324
916.725536	0.985636
917.030952	0.987148
917.336328	0.988463
917.641665	0.988842
917.946961	0.990497
918.252218	0.991467
918.557435	0.993127
918.862612	0.994024
919.167750	0.994740
919.472848	0.995312
919.777906	0.996843
920.082925	0.997017
920.387904	0.998028
920.692843	0.997550
920.997743	0.997430
921.302603	0.997979
921.607423	0.997465
921.912204	0.998423
922.216946	0.999540
922.521647	0.998629
922.826310	0.998256
923.130932	0.998922
923.435516	0.999354
923.740059	0.998157
924.044564	0.998153
924.349028	0.998438
924.653454	0.999911
924.957840	0.998721
925.262186	0.999855
925.566493	0.999519
925.870761	1.000144
926.174989	0.999301
926.479178	1.000008
926.783328	1.000205
927.087438	1.000064
927.391509	0.999971
927.695541	0.998913
927.999533	1.001083
928.303486	1.000054
928.607400	0.999701
928.911275	1.000202
929.215110	1.000592
929.518906	1.001295
929.822663	1.000707
930.126381	1.002096
930.430060	0.999881
930.733699	1.000833
931.037299	1.000543
931.340861	1.001470
931.644383	0.999371
931.947866	1.000438
932.251309	1.001341
932.554714	1.000153
932.858080	1.001175
933.161407	1.000275
933.464694	0.999764
933.767943	1.001209
934.071153	1.000837
934.374323	1.001539
934.677455	0.999716
934.980548	1.000001
935.283602	1.000858
935.586617	1.000308
935.889593	1.001062
936.192530	1.002233
936.495428	1.000579
936.798287	0.999048
937.101108	1.000566
937.403890	0.999976
937.706632	1.000081
938.009336	1.001415
938.312002	0.998991
938.614628	1.000105
938.917216	0.998761
939.219765	0.998645
939.522275	0.999575
939.824747	0.999704
940.127179	0.999245
940.429573	1.000392
940.731929	0.998342
941.034246	0.999082
941.336524	0.998248
941.638763	1.000250
941.940964	1.000015
942.243126	0.999939
942.545250	1.000987
942.847335	0.999912
943.149381	1.000383
943.451389	1.000022
943.753359	0.999332
944.055290	1.001283
944.357182	1.001034
944.659036	1.000822
944.960851	0.999904
945.262628	1.000135
945.564367	1.000066
945.866067	0.999794
946.167729	0.999555
946.469352	1.000716
946.770937	0.998276
947.072484	1.001880
947.373992	1.001234
947.675462	1.000983
947.976893	0.999464
948.278286	1.001984
948.579641	1.001290
948.880958	0.999048
949.182236	1.000362
949.483476	1.000614
949.784678	1.000635
950.085841	1.000539
950.386967	0.999833
950.688054	1.000166
950.989103	0.999757
951.290114	0.998934
951.591087	1.000513
951.892021	0.999208
952.192917	1.000688
952.493776	1.000195
952.794596	0.999707
953.095378	0.999521
953.396122	0.999865
953.696828	1.000356
953.997496	1.000865
954.298126	1.001440
954.598718	1.000592
954.899272	1.001247
955.199788	1.000267
955.500266	1.001891
955.800706	1.000306
956.101108	1.000610
956.401472	1.003357
956.701798	1.002169
957.002087	1.000374
957.302337	1.001417
957.602550	1.000665
957.902724	1.000649
958.202861	1.000700
958.502960	1.001071
958.803022	1.001289
959.103045	1.001954
959.403031	1.001955
959.702979	1.001303
960.002889	1.001612
960.302762	1.001353
960.602596	1.002030
960.902393	1.001398
961.202153	1.002479
961.501875	1.001972
961.801559	1.001656
962.101205	1.001064
962.400814	1.002109
962.700385	1.001998
962.999918	1.002510
963.299414	1.001038
963.598873	1.001664
963.898293	1.001574
964.197677	1.000798
964.497022	1.002811
964.796331	1.001678
965.095601	1.001965
965.394835	1.001027
965.694030	1.001696
965.993189	1.000481
966.292309	1.001093
966.591393	1.000531
966.890439	1.001748
967.189447	1.001844
967.488419	1.001130
967.787353	1.001181
968.086249	1.001871
968.385108	1.000602
968.683930	1.002449
968.982714	1.002012
969.281462	1.001440
969.580172	1.002464
969.878844	1.001902
970.177480	1.002092
970.476078	1.003474
970.774639	1.001456
971.073162	1.001633
971.371649	1.002149
971.670098	1.001553
971.968510	1.002495
972.266885	1.001413
972.565223	1.000664
972.863524	1.000900
973.161788	1.001700
973.460014	1.000786
973.758204	1.001296
974.056356	1.001611
974.354471	1.001081
974.652550	1.001534
974.950591	1.001660
975.248595	1.000804
975.546563	1.002369
975.844493	1.002064
976.142386	1.000915
976.440243	1.001704
976.738062	1.001326
977.035845	1.001242
977.333590	1.002407
977.631299	1.000867
977.928971	1.001180
978.226606	1.001411
978.524204	1.000486
978.821765	1.002010
979.119290	1.002036
979.416777	1.003017
979.714228	1.001302
980.011642	1.002381
980.309020	1.001345
980.606360	1.001507
980.903664	1.001309
981.200931	1.001293
981.498162	1.000646
981.795356	1.001541
982.092513	1.001197
982.389633	1.001621
982.686717	0.999816
982.983764	1.000022
983.280775	1.000488
983.577749	1.001871
983.874686	0.999687
984.171587	1.000554
984.468451	1.000140
984.765279	1.002130
985.062070	1.001595
985.358824	1.001005
985.655543	1.000766
985.952224	1.001431
986.248869	1.001354
986.545478	1.003206
986.842050	1.001277
987.138586	1.002773
987.435086	1.001473
987.731549	1.002045
988.027975	1.002462
988.324366	1.001564
988.620719	1.002361
988.917037	1.001237
989.213318	1.002939
989.509563	1.000830
989.805772	1.002265
990.101944	1.002026
990.398080	1.000596
990.694180	1.003207
990.990244	1.000640
991.286271	1.001244
991.582262	1.001169
991.878217	1.000881
992.174136	1.003306
992.470019	1.002894
992.765865	1.003529
993.061676	1.002112
993.357450	1.002066
993.653188	1.003848
993.948890	1.001551
994.244556	1.001658
994.540186	1.001884
994.835780	1.001500
995.131337	1.001245
995.426859	1.001902
995.722345	1.000785
996.017795	1.000548
996.313208	1.000964
996.608586	1.001329
996.903928	1.002304
997.199234	1.001085
997.494504	1.002693
997.789738	1.000694
998.084936	1.001891
998.380099	1.000395
998.675225	1.002509
998.970316	1.002603
999.265371	1.002264
999.560390	1.002045
999.855373	1.002397
1000.150320	1.001676
1000.445232	1.001020
1000.740108	1.001645
1001.034948	1.000435
1001.329752	1.002622
1001.624521	1.003151
1001.919254	1.001734
1002.213951	1.002072
1002.508613	1.001727
1002.803239	1.000408
1003.097829	1.000854
1003.392384	1.001725
1003.686903	1.002949
1003.981386	1.000841
1004.275834	1.003252
1004.570246	1.000016
1004.864623	1.002733
1005.158964	1.002184
1005.453270	1.001296
1005.747540	1.001640
1006.041775	1.002447
1006.335974	1.002038
1006.630138	1.002561
1006.924266	1.001324
1007.218359	1.000059
1007.512416	1.002303
1007.806438	1.002805
1008.100425	1.002352
1008.394376	1.001791
1008.688292	1.000544
1008.982172	1.001528
1009.276017	1.003806
1009.569827	1.002445
1009.863602	1.001191
1010.157341	1.001745
1010.451045	1.001467
1010.744714	1.002626
1011.038347	1.002349
1011.331945	1.001111
1011.625508	1.002347
1011.919036	1.000675
1012.212528	1.002789
1012.505986	1.000798
1012.799408	1.002519
1013.092795	1.001740
1013.386147	1.001509
1013.679464	1.003068
1013.972745	1.001883
1014.265992	1.000817
1014.559204	1.000462
1014.852380	1.002787
1015.145521	1.001898
1015.438628	1.002090
1015.731699	1.001996
1016.024736	1.003361
1016.317737	1.002728
1016.610703	1.002810
1016.903635	1.002984
1017.196531	1.001298
1017.489393	1.002396
1017.782219	1.001260
1018.075011	1.001267
1018.367768	1.001453
1018.660490	1.002583
1018.953177	1.002583
1019.245829	1.002583
