Dividing Wavelength (nm)	Counts (n)	Blue Motor Position (mm): 9.600000	Red Motor Position (mm): 0.000000	
326.493990	1.004368
326.888308	1.004368
327.282561	1.004368
327.676750	1.004883
328.070874	1.005453
328.464933	1.005525
328.858929	1.005419
329.252859	1.004531
329.646726	1.003455
330.040528	1.003926
330.434265	1.003014
330.827938	1.004754
331.221547	1.005163
331.615091	1.004784
332.008571	1.005272
332.401986	1.004481
332.795338	1.004371
333.188625	1.004418
333.581847	1.004213
333.975006	1.004810
334.368100	1.005036
334.761129	1.003423
335.154095	1.004673
335.546996	1.002827
335.939833	0.998795
336.332606	0.999146
336.725315	0.998985
337.117960	0.999475
337.510540	0.998195
337.903056	0.999454
338.295508	0.999337
338.687896	0.999903
339.080220	0.998330
339.472480	0.998710
339.864676	1.000233
340.256807	0.998101
340.648875	0.998806
341.040879	0.997819
341.432818	0.999912
341.824694	0.998085
342.216506	1.000775
342.608253	0.999049
342.999937	0.998508
343.391557	0.999111
343.783113	1.000229
344.174605	0.999650
344.566033	0.997691
344.957397	0.999414
345.348697	0.998313
345.739934	0.999862
346.131106	0.998578
346.522215	0.997443
346.913260	0.998756
347.304241	0.997791
347.695159	0.999337
348.086012	0.998224
348.476802	0.997852
348.867528	0.998041
349.258191	0.999379
349.648789	0.997776
350.039324	0.998871
350.429796	0.996927
350.820203	0.997642
351.210548	0.997397
351.600828	0.998688
351.991045	0.997823
352.381198	0.999253
352.771288	0.997994
353.161314	0.998992
353.551276	0.996992
353.941175	0.995995
354.331010	0.998051
354.720782	0.997791
355.110490	0.998467
355.500135	0.997776
355.889717	0.997230
356.279235	0.996690
356.668689	0.998651
357.058080	0.998043
357.447408	0.996207
357.836672	0.997796
358.225873	0.997933
358.615010	0.997537
359.004084	0.996775
359.393095	0.997445
359.782043	0.997311
360.170927	0.997654
360.559748	0.998132
360.948505	0.997260
361.337199	0.996355
361.725830	0.998179
362.114398	0.996698
362.502903	0.995581
362.891344	0.995833
363.279722	0.996386
363.668037	0.997284
364.056289	0.996241
364.444478	0.997302
364.832603	0.996086
365.220665	0.996827
365.608665	0.995983
365.996601	0.996281
366.384474	0.995151
366.772284	0.994838
367.160031	0.994553
367.547715	0.995356
367.935336	0.994897
368.322893	0.993902
368.710388	0.991771
369.097820	0.989588
369.485189	0.987730
369.872495	0.987544
370.259738	0.984434
370.646918	0.982073
371.034035	0.978702
371.421090	0.976572
371.808081	0.970971
372.195010	0.969242
372.581875	0.963290
372.968678	0.958896
373.355418	0.956055
373.742096	0.947501
374.128710	0.943657
374.515262	0.939188
374.901751	0.934025
375.288177	0.926915
375.674540	0.921947
376.060841	0.915475
376.447079	0.908714
376.833254	0.902622
377.219367	0.897612
377.605417	0.886396
377.991404	0.882718
378.377329	0.876915
378.763191	0.869909
379.148991	0.861256
379.534727	0.852798
379.920402	0.845244
380.306013	0.841024
380.691563	0.829691
381.077049	0.821728
381.462474	0.819000
381.847835	0.807399
382.233134	0.801736
382.618371	0.801908
383.003545	0.785149
383.388657	0.782501
383.773706	0.775510
384.158693	0.770731
384.543618	0.766205
384.928480	0.757569
385.313280	0.747310
385.698017	0.747037
386.082692	0.735452
386.467305	0.732746
386.851856	0.728899
387.236344	0.723549
387.620770	0.717099
388.005133	0.710803
388.389435	0.705801
388.773674	0.703434
389.157851	0.695423
389.541965	0.692723
389.926018	0.699568
390.310008	0.686956
390.693936	0.683426
391.077802	0.675070
391.461606	0.676889
391.845348	0.666174
392.229027	0.665879
392.612645	0.663699
392.996200	0.650655
393.379694	0.644022
393.763125	0.634192
394.146494	0.638827
394.529801	0.629691
394.913047	0.620651
395.296230	0.627240
395.679351	0.618732
396.062410	0.615935
396.445408	0.618717
396.828343	0.612440
397.211217	0.608845
397.594028	0.619816
397.976778	0.611380
398.359466	0.606903
398.742092	0.603026
399.124656	0.614797
399.507158	0.603019
399.889598	0.599982
400.271977	0.591493
400.654294	0.594826
401.036549	0.594606
401.418742	0.598265
401.800874	0.584551
402.182944	0.581091
402.564952	0.573232
402.946898	0.575071
403.328783	0.575449
403.710606	0.586889
404.092367	0.561856
404.474067	0.566390
404.855705	0.565736
405.237282	0.574517
405.618797	0.560748
406.000250	0.556312
406.381642	0.546833
406.762972	0.551899
407.144240	0.550118
407.525447	0.549559
407.906593	0.543190
408.287677	0.538140
408.668700	0.546465
409.049661	0.540454
409.430560	0.535938
409.811399	0.543922
410.192176	0.526095
410.572891	0.533280
410.953545	0.521339
411.334138	0.534879
411.714669	0.527099
412.095139	0.539414
412.475547	0.523472
412.855894	0.525786
413.236180	0.524390
413.616405	0.529794
413.996568	0.520280
414.376670	0.526156
414.756711	0.531664
415.136691	0.527928
415.516609	0.519541
415.896466	0.516188
416.276262	0.512296
416.655997	0.514298
417.035670	0.494940
417.415283	0.487337
417.794834	0.491586
418.174324	0.497134
418.553753	0.506098
418.933121	0.488583
419.312428	0.482905
419.691674	0.488343
420.070859	0.476794
420.449983	0.485147
420.829045	0.472930
421.208047	0.482831
421.586988	0.475549
421.965867	0.474379
422.344686	0.463373
422.723444	0.475520
423.102141	0.492644
423.480777	0.465176
423.859352	0.486106
424.237866	0.463525
424.616319	0.464392
424.994712	0.455356
425.373044	0.465570
425.751314	0.453924
426.129524	0.470185
426.507673	0.453610
426.885762	0.447216
427.263789	0.452526
427.641756	0.462078
428.019662	0.452043
428.397508	0.452217
428.775292	0.456236
429.153016	0.448072
429.530679	0.454441
429.908282	0.447455
430.285824	0.457549
430.663305	0.436209
431.040726	0.457344
431.418086	0.457101
431.795385	0.449087
432.172624	0.447655
432.549802	0.448573
432.926920	0.447176
433.303977	0.446513
433.680974	0.443810
434.057910	0.442321
434.434786	0.441294
434.811601	0.444747
435.188355	0.426636
435.565050	0.436131
435.941683	0.436953
436.318257	0.421357
436.694770	0.422131
437.071222	0.419953
437.447614	0.424488
437.823946	0.431261
438.200218	0.420395
438.576429	0.430040
438.952580	0.423768
439.328670	0.420098
439.704700	0.426720
440.080670	0.428029
440.456580	0.409148
440.832429	0.417296
441.208218	0.427611
441.583947	0.417348
441.959616	0.416157
442.335224	0.421921
442.710773	0.412534
443.086261	0.410725
443.461689	0.424486
443.837057	0.414696
444.212365	0.404397
444.587612	0.411465
444.962800	0.401094
445.337927	0.403347
445.712995	0.428996
446.088002	0.390790
446.462949	0.401724
446.837837	0.406216
447.212664	0.394957
447.587431	0.386586
447.962139	0.357174
448.336786	0.315784
448.711374	0.326217
449.085901	0.371070
449.460369	0.375263
449.834776	0.378835
450.209124	0.357755
450.583412	0.350487
450.957640	0.342970
451.331808	0.355218
451.705917	0.378414
452.079965	0.382957
452.453954	0.371295
452.827883	0.377611
453.201752	0.372592
453.575562	0.383623
453.949311	0.372569
454.323001	0.378185
454.696632	0.374250
455.070202	0.366978
455.443713	0.358694
455.817164	0.353980
456.190556	0.349762
456.563888	0.346306
456.937160	0.343818
457.310373	0.360865
457.683526	0.359890
458.056619	0.365765
458.429653	0.366037
458.802628	0.369834
459.175542	0.364023
459.548398	0.346417
459.921194	0.339120
460.293930	0.339469
460.666607	0.316465
461.039224	0.304994
461.411782	0.300230
461.784280	0.299558
462.156719	0.303490
462.529099	0.307984
462.901419	0.324312
463.273680	0.328729
463.645882	0.327870
464.018024	0.333902
464.390106	0.326989
464.762130	0.311294
465.134094	0.294367
465.505999	0.263383
465.877845	0.233549
466.249631	0.220476
466.621358	0.228123
466.993026	0.241719
467.364634	0.247947
467.736184	0.256710
468.107674	0.265954
468.479105	0.264745
468.850477	0.271788
469.221790	0.278413
469.593043	0.288977
469.964238	0.293607
470.335373	0.293162
470.706449	0.290990
471.077467	0.291426
471.448425	0.254068
471.819324	0.229385
472.190164	0.228888
472.560945	0.257726
472.931667	0.280024
473.302330	0.284433
473.672934	0.295905
474.043479	0.284014
474.413965	0.285913
474.784393	0.289451
475.154761	0.283953
475.525070	0.281479
475.895321	0.287050
476.265513	0.281480
476.635645	0.276722
477.005719	0.276593
477.375734	0.272975
477.745691	0.266422
478.115588	0.262748
478.485427	0.256386
478.855207	0.243236
479.224928	0.225759
479.594591	0.213899
479.964194	0.217222
480.333739	0.218491
480.703226	0.220047
481.072653	0.218005
481.442022	0.214059
481.811333	0.210681
482.180584	0.213918
482.549777	0.219508
482.918912	0.222694
483.287988	0.222289
483.657005	0.222052
484.025964	0.228518
484.394864	0.225995
484.763706	0.226448
485.132489	0.231463
485.501213	0.232264
485.869879	0.230697
486.238487	0.233561
486.607036	0.231564
486.975527	0.236194
487.343959	0.232126
487.712333	0.231202
488.080648	0.232472
488.448905	0.231849
488.817104	0.232717
489.185244	0.227467
489.553326	0.224191
489.921350	0.214414
490.289315	0.196819
490.657222	0.191747
491.025070	0.193193
491.392861	0.195013
491.760593	0.200759
492.128267	0.206461
492.495883	0.211972
492.863440	0.218275
493.230939	0.224594
493.598380	0.226018
493.965763	0.228363
494.333088	0.230422
494.700354	0.232021
495.067563	0.231323
495.434713	0.234379
495.801805	0.232285
496.168839	0.233383
496.535815	0.235162
496.902733	0.234890
497.269593	0.236590
497.636395	0.234162
498.003139	0.234507
498.369825	0.237538
498.736453	0.234225
499.103023	0.235710
499.469535	0.234845
499.835989	0.235282
500.202385	0.236030
500.568723	0.239368
500.935003	0.234528
501.301226	0.238652
501.667390	0.233188
502.033497	0.231248
502.399546	0.233956
502.765537	0.235915
503.131470	0.234695
503.497345	0.230690
503.863163	0.239220
504.228923	0.232308
504.594625	0.231211
504.960269	0.236459
505.325856	0.232001
505.691385	0.236062
506.056856	0.233139
506.422270	0.232419
506.787625	0.234846
507.152924	0.232325
507.518164	0.232757
507.883347	0.234009
508.248472	0.236106
508.613540	0.230845
508.978550	0.233834
509.343503	0.234114
509.708398	0.231645
510.073236	0.229179
510.438016	0.228822
510.802738	0.230253
511.167403	0.228843
511.532010	0.231369
511.896561	0.226619
512.261053	0.224971
512.625488	0.227491
512.989866	0.227656
513.354186	0.227970
513.718449	0.230179
514.082655	0.226212
514.446803	0.228451
514.810894	0.226005
515.174927	0.228877
515.538904	0.228364
515.902822	0.225143
516.266684	0.227554
516.630488	0.228619
516.994235	0.227791
517.357925	0.226203
517.721558	0.224509
518.085133	0.224211
518.448651	0.224120
518.812112	0.226290
519.175516	0.225894
519.538863	0.223629
519.902152	0.225549
520.265385	0.222135
520.628560	0.223827
520.991678	0.224324
521.354739	0.223198
521.717743	0.224492
522.080690	0.224635
522.443580	0.222142
522.806413	0.223210
523.169189	0.222236
523.531908	0.221341
523.894569	0.224905
524.257174	0.224863
524.619722	0.222702
524.982213	0.223805
525.344647	0.222376
525.707025	0.223462
526.069345	0.221601
526.431608	0.223432
526.793815	0.221136
527.155964	0.225651
527.518057	0.224632
527.880093	0.225255
528.242072	0.224044
528.603995	0.226002
528.965860	0.227676
529.327669	0.226519
529.689421	0.227431
530.051117	0.228278
530.412755	0.225910
530.774337	0.228260
531.135862	0.228808
531.497331	0.228168
531.858743	0.231126
532.220098	0.227576
532.581396	0.230393
532.942638	0.230535
533.303824	0.231711
533.664953	0.231327
534.026025	0.233523
534.387040	0.231369
534.747999	0.231340
535.108902	0.229853
535.469748	0.235369
535.830537	0.233029
536.191270	0.233512
536.551947	0.232952
536.912567	0.233222
537.273131	0.234911
537.633638	0.235180
537.994089	0.235543
538.354483	0.236381
538.714821	0.233534
539.075103	0.233349
539.435328	0.233845
539.795497	0.237781
540.155609	0.234466
540.515665	0.232510
540.875665	0.238039
541.235609	0.236614
541.595496	0.236636
541.955328	0.233632
542.315102	0.236135
542.674821	0.237132
543.034483	0.237261
543.394090	0.237003
543.753640	0.238662
544.113134	0.233408
544.472571	0.237158
544.831953	0.234068
545.191278	0.238209
545.550548	0.237617
545.909761	0.234414
546.268918	0.235091
546.628019	0.233843
546.987064	0.236274
547.346053	0.238046
547.704986	0.235619
548.063863	0.236062
548.422684	0.236422
548.781449	0.238142
549.140158	0.235965
549.498811	0.238757
549.857408	0.241522
550.215949	0.236482
550.574434	0.239654
550.932864	0.237892
551.291237	0.236141
551.649555	0.237985
552.007817	0.237390
552.366022	0.238359
552.724173	0.238328
553.082267	0.238811
553.440305	0.235942
553.798288	0.239774
554.156215	0.236876
554.514086	0.237231
554.871902	0.240653
555.229661	0.239632
555.587365	0.240464
555.945014	0.242705
556.302606	0.239736
556.660143	0.242112
557.017625	0.238834
557.375050	0.240935
557.732421	0.238171
558.089735	0.240251
558.446994	0.239902
558.804197	0.239529
559.161345	0.239314
559.518437	0.242641
559.875474	0.240710
560.232455	0.240097
560.589381	0.241214
560.946251	0.241311
561.303065	0.238696
561.659825	0.239924
562.016528	0.242015
562.373177	0.244599
562.729770	0.241697
563.086307	0.243717
563.442789	0.241845
563.799216	0.244545
564.155587	0.243128
564.511904	0.244624
564.868164	0.244627
565.224370	0.244266
565.580520	0.245998
565.936615	0.245716
566.292654	0.248721
566.648638	0.245806
567.004567	0.246930
567.360441	0.247224
567.716260	0.249295
568.072023	0.247166
568.427732	0.247759
568.783385	0.250310
569.138982	0.248271
569.494525	0.248108
569.850013	0.250946
570.205445	0.249699
570.560823	0.251751
570.916145	0.253987
571.271412	0.252160
571.626625	0.253386
571.981782	0.254003
572.336884	0.254943
572.691931	0.254536
573.046923	0.256144
573.401860	0.256892
573.756743	0.259099
574.111570	0.257883
574.466342	0.258385
574.821059	0.257310
575.175722	0.260208
575.530330	0.260116
575.884882	0.259911
576.239380	0.262019
576.593823	0.262496
576.948211	0.262155
577.302544	0.265096
577.656823	0.265228
578.011047	0.264717
578.365216	0.266147
578.719330	0.268045
579.073389	0.267517
579.427394	0.268490
579.781344	0.269535
580.135239	0.270558
580.489080	0.270759
580.842866	0.273666
581.196597	0.273846
581.550273	0.272203
581.903895	0.273299
582.257463	0.271281
582.610975	0.274841
582.964434	0.273966
583.317837	0.276213
583.671186	0.277106
584.024481	0.277232
584.377721	0.279463
584.730906	0.280138
585.084037	0.279572
585.437113	0.281338
585.790135	0.280714
586.143103	0.283683
586.496016	0.284620
586.848874	0.282552
587.201679	0.282838
587.554428	0.286043
587.907124	0.285073
588.259765	0.285632
588.612352	0.286225
588.964884	0.290133
589.317362	0.289519
589.669786	0.289624
590.022155	0.287765
590.374470	0.287427
590.726731	0.289353
591.078937	0.294665
591.431090	0.290450
591.783188	0.294813
592.135232	0.295137
592.487222	0.295053
592.839157	0.293425
593.191038	0.295686
593.542866	0.297309
593.894639	0.301128
594.246358	0.299449
594.598022	0.298911
594.949633	0.302516
595.301190	0.303425
595.652692	0.302251
596.004141	0.298121
596.355535	0.306310
596.706876	0.307020
597.058162	0.309391
597.409395	0.306578
597.760573	0.304336
598.111698	0.307689
598.462768	0.307981
598.813785	0.309433
599.164748	0.310457
599.515657	0.311140
599.866511	0.314594
600.217312	0.309740
600.568060	0.315048
600.918753	0.311489
601.269392	0.312112
601.619978	0.315288
601.970510	0.313406
602.320988	0.313528
602.671412	0.311358
603.021783	0.313794
603.372100	0.314844
603.722363	0.314826
604.072572	0.315733
604.422728	0.315250
604.772830	0.317294
605.122878	0.317483
605.472872	0.317636
605.822813	0.316022
606.172701	0.318752
606.522534	0.316126
606.872314	0.316411
607.222041	0.317035
607.571714	0.315167
607.921333	0.317193
608.270899	0.316203
608.620411	0.313031
608.969870	0.317073
609.319276	0.317295
609.668627	0.317258
610.017926	0.315812
610.367171	0.314356
610.716362	0.314862
611.065500	0.314939
611.414585	0.313897
611.763616	0.314380
612.112594	0.315103
612.461518	0.314419
612.810389	0.312409
613.159207	0.314210
613.507971	0.316414
613.856682	0.312186
614.205340	0.313325
614.553945	0.310683
614.902496	0.314547
615.250994	0.312384
615.599439	0.313249
615.947830	0.312835
616.296169	0.313902
616.644454	0.313232
616.992686	0.313248
617.340864	0.311198
617.688990	0.314651
618.037063	0.311620
618.385082	0.312855
618.733048	0.310631
619.080961	0.312734
619.428821	0.312209
619.776628	0.311734
620.124382	0.314025
620.472083	0.314558
620.819731	0.313770
621.167326	0.318340
621.514868	0.317753
621.862357	0.321896
622.209793	0.321371
622.557176	0.323914
622.904506	0.324866
623.251783	0.327177
623.599007	0.329838
623.946179	0.329094
624.293297	0.331579
624.640363	0.335149
624.987376	0.335363
625.334336	0.338051
625.681243	0.340643
626.028097	0.340937
626.374899	0.342522
626.721647	0.342899
627.068343	0.345806
627.414987	0.347334
627.761577	0.348839
628.108115	0.347413
628.454600	0.352915
628.801032	0.350637
629.147412	0.352077
629.493739	0.353530
629.840014	0.356248
630.186236	0.353218
630.532405	0.359541
630.878521	0.356757
631.224585	0.359095
631.570597	0.362966
631.916556	0.362037
632.262462	0.361533
632.608316	0.364219
632.954117	0.365509
633.299866	0.366222
633.645562	0.366514
633.991206	0.371219
634.336797	0.373727
634.682336	0.376206
635.027823	0.378186
635.373257	0.378448
635.718639	0.382926
636.063968	0.381507
636.409245	0.387420
636.754470	0.388236
637.099642	0.390842
637.444762	0.394345
637.789829	0.393653
638.134845	0.396968
638.479808	0.398130
638.824719	0.398310
639.169577	0.402795
639.514383	0.402073
639.859137	0.406193
640.203839	0.406034
640.548489	0.406776
640.893086	0.407455
641.237632	0.410225
641.582125	0.408455
641.926566	0.411245
642.270955	0.410838
642.615292	0.411358
642.959576	0.411012
643.303809	0.411636
643.647990	0.412247
643.992118	0.412532
644.336195	0.415872
644.680219	0.414916
645.024192	0.415751
645.368112	0.409952
645.711981	0.409047
646.055797	0.405176
646.399562	0.407699
646.743274	0.401271
647.086935	0.398019
647.430544	0.399047
647.774101	0.398159
648.117606	0.398447
648.461059	0.399462
648.804460	0.401508
649.147810	0.406587
649.491108	0.409081
649.834354	0.410612
650.177548	0.416448
650.520690	0.421745
650.863781	0.423285
651.206820	0.422875
651.549807	0.427562
651.892742	0.432369
652.235626	0.431909
652.578458	0.433418
652.921238	0.440275
653.263967	0.438021
653.606644	0.441726
653.949269	0.442368
654.291843	0.446478
654.634365	0.444355
654.976836	0.447523
655.319255	0.448433
655.661622	0.450223
656.003938	0.451316
656.346203	0.453801
656.688416	0.452627
657.030577	0.455675
657.372687	0.458845
657.714746	0.459365
658.056753	0.457021
658.398708	0.461232
658.740612	0.462719
659.082465	0.459793
659.424266	0.460642
659.766016	0.460829
660.107715	0.464304
660.449362	0.463699
660.790958	0.464702
661.132503	0.466731
661.473996	0.464380
661.815438	0.465669
662.156829	0.466684
662.498168	0.468270
662.839456	0.469078
663.180693	0.468579
663.521879	0.468343
663.863013	0.469483
664.204097	0.469606
664.545129	0.466944
664.886110	0.468125
665.227040	0.466688
665.567918	0.468856
665.908746	0.468420
666.249522	0.468564
666.590248	0.469838
666.930922	0.468948
667.271545	0.469427
667.612118	0.469683
667.952639	0.471224
668.293109	0.471423
668.633528	0.474860
668.973896	0.474403
669.314213	0.475730
669.654480	0.479070
669.994695	0.478323
670.334859	0.479280
670.674973	0.482119
671.015035	0.481917
671.355047	0.483125
671.695008	0.484660
672.034918	0.486114
672.374777	0.486845
672.714585	0.488945
673.054342	0.489551
673.394049	0.490203
673.733705	0.489563
674.073310	0.491536
674.412864	0.493625
674.752368	0.495988
675.091820	0.497080
675.431223	0.500535
675.770574	0.502018
676.109875	0.505459
676.449125	0.505773
676.788324	0.507914
677.127473	0.513968
677.466571	0.514574
677.805619	0.516433
678.144616	0.518809
678.483562	0.521306
678.822458	0.524119
679.161303	0.525542
679.500098	0.526727
679.838842	0.528814
680.177535	0.528857
680.516179	0.527988
680.854771	0.528631
681.193314	0.523458
681.531805	0.517079
681.870247	0.509501
682.208638	0.504330
682.546978	0.503490
682.885268	0.506006
683.223508	0.512354
683.561697	0.517148
683.899836	0.519937
684.237925	0.524158
684.575963	0.526629
684.913951	0.529408
685.251889	0.528368
685.589776	0.530121
685.927614	0.532153
686.265401	0.530242
686.603137	0.530913
686.940824	0.528326
687.278460	0.528126
687.616046	0.528346
687.953582	0.525353
688.291068	0.527540
688.628504	0.525711
688.965889	0.527762
689.303224	0.531334
689.640510	0.535943
689.977745	0.541694
690.314930	0.548816
690.652065	0.552801
690.989150	0.558789
691.326185	0.566150
691.663170	0.571768
692.000105	0.577712
692.336990	0.582736
692.673825	0.587986
693.010610	0.593069
693.347345	0.597121
693.684030	0.601792
694.020665	0.605627
694.357251	0.612105
694.693786	0.613921
695.030272	0.617507
695.366707	0.621378
695.703093	0.624246
696.039429	0.623847
696.375716	0.628229
696.711952	0.629455
697.048139	0.630712
697.384276	0.633946
697.720363	0.634416
698.056400	0.635012
698.392388	0.639289
698.728326	0.641264
699.064214	0.644721
699.400053	0.645906
699.735842	0.651226
700.071581	0.653251
700.407270	0.656263
700.742910	0.659029
701.078501	0.664509
701.414042	0.667108
701.749533	0.669226
702.084974	0.675225
702.420366	0.671904
702.755709	0.678639
703.091002	0.684187
703.426246	0.682651
703.761440	0.683917
704.096584	0.687254
704.431679	0.688299
704.766725	0.690980
705.101721	0.693424
705.436668	0.692214
705.771565	0.694942
706.106413	0.692495
706.441212	0.693495
706.775961	0.694151
707.110661	0.692895
707.445311	0.690580
707.779913	0.692933
708.114465	0.691279
708.448967	0.687900
708.783421	0.684110
709.117825	0.681089
709.452180	0.681185
709.786485	0.676281
710.120742	0.671013
710.454949	0.671478
710.789107	0.666963
711.123216	0.661493
711.457275	0.662023
711.791286	0.658668
712.125247	0.660083
712.459159	0.663975
712.793023	0.658383
713.126837	0.668338
713.460602	0.668019
713.794318	0.670966
714.127985	0.673130
714.461602	0.683882
714.795171	0.683575
715.128691	0.690363
715.462162	0.697770
715.795584	0.702859
716.128957	0.706750
716.462281	0.708472
716.795556	0.713010
717.128782	0.719155
717.461960	0.725547
717.795088	0.726400
718.128167	0.731723
718.461198	0.735660
718.794180	0.737164
719.127113	0.741412
719.459997	0.744478
719.792833	0.747643
720.125619	0.748809
720.458357	0.755105
720.791046	0.756174
721.123686	0.758618
721.456278	0.763079
721.788821	0.762229
722.121315	0.766827
722.453761	0.768098
722.786158	0.769529
723.118506	0.767560
723.450805	0.770573
723.783056	0.770162
724.115259	0.770782
724.447412	0.771969
724.779518	0.770257
725.111574	0.770796
725.443582	0.769208
725.775542	0.772142
726.107453	0.767281
726.439315	0.768337
726.771129	0.764479
727.102895	0.760637
727.434612	0.758576
727.766281	0.756651
728.097901	0.755648
728.429473	0.757362
728.760996	0.756508
729.092471	0.756975
729.423897	0.761403
729.755276	0.762395
730.086606	0.761331
730.417887	0.758006
730.749120	0.752881
731.080305	0.750263
731.411442	0.747959
731.742530	0.748888
732.073570	0.749241
732.404562	0.747405
732.735506	0.748778
733.066401	0.751122
733.397249	0.757809
733.728048	0.765656
734.058798	0.777021
734.389501	0.784552
734.720156	0.788816
735.050762	0.794470
735.381320	0.798283
735.711831	0.800866
736.042293	0.805785
736.372707	0.805588
736.703073	0.807146
737.033391	0.807656
737.363661	0.807088
737.693883	0.806430
738.024056	0.804584
738.354182	0.803904
738.684260	0.799223
739.014290	0.796360
739.344272	0.796099
739.674207	0.794080
740.004093	0.793232
740.333931	0.793025
740.663722	0.795489
740.993464	0.795529
741.323159	0.797842
741.652806	0.802499
741.982405	0.806080
742.311956	0.810390
742.641460	0.811129
742.970915	0.815065
743.300323	0.819322
743.629683	0.822588
743.958996	0.826698
744.288260	0.829464
744.617477	0.834137
744.946647	0.834958
745.275768	0.840713
745.604842	0.839819
745.933869	0.844143
746.262847	0.845822
746.591778	0.844666
746.920662	0.847827
747.249498	0.849700
747.578286	0.848479
747.907027	0.845145
748.235720	0.842299
748.564365	0.842361
748.892963	0.843852
749.221514	0.845310
749.550017	0.846872
749.878473	0.848290
750.206881	0.853608
750.535242	0.852950
750.863555	0.854328
751.191821	0.855430
751.520039	0.855492
751.848210	0.857098
752.176334	0.857238
752.504411	0.858139
752.832440	0.860447
753.160421	0.861431
753.488356	0.862875
753.816243	0.863093
754.144082	0.865610
754.471875	0.867405
754.799620	0.867456
755.127318	0.867338
755.454969	0.867661
755.782572	0.870372
756.110129	0.869520
756.437638	0.871920
756.765100	0.871368
757.092515	0.871100
757.419882	0.870433
757.747203	0.871922
758.074477	0.873022
758.401703	0.871293
758.728882	0.869961
759.056014	0.869566
759.383099	0.869267
759.710138	0.867012
760.037129	0.866144
760.364073	0.867345
760.690970	0.867590
761.017820	0.868428
761.344623	0.868361
761.671379	0.865642
761.998088	0.861323
762.324751	0.849984
762.651366	0.826181
762.977935	0.788303
763.304456	0.764600
763.630931	0.764458
763.957359	0.783948
764.283740	0.807497
764.610074	0.824883
764.936362	0.841935
765.262602	0.853252
765.588796	0.864406
765.914943	0.872531
766.241044	0.880109
766.567097	0.884222
766.893104	0.889929
767.219064	0.892786
767.544978	0.896907
767.870845	0.901169
768.196665	0.903110
768.522438	0.905397
768.848165	0.907990
769.173846	0.910241
769.499479	0.911577
769.825066	0.913688
770.150607	0.916431
770.476101	0.916903
770.801548	0.916913
771.126949	0.921398
771.452303	0.922185
771.777611	0.924339
772.102872	0.923994
772.428087	0.925693
772.753256	0.927383
773.078378	0.928566
773.403453	0.931127
773.728482	0.934471
774.053465	0.932486
774.378401	0.934351
774.703291	0.936846
775.028135	0.938199
775.352932	0.936997
775.677683	0.939877
776.002388	0.940289
776.327046	0.940309
776.651658	0.943936
776.976224	0.944290
777.300743	0.944000
777.625216	0.944577
777.949643	0.945508
778.274024	0.945462
778.598359	0.946819
778.922647	0.945977
779.246889	0.947498
779.571086	0.947501
779.895236	0.948768
780.219339	0.949117
780.543397	0.946598
780.867409	0.947672
781.191374	0.947023
781.515294	0.948939
781.839167	0.949659
782.162995	0.948785
782.486776	0.949151
782.810511	0.949367
783.134201	0.951690
783.457844	0.951636
783.781441	0.951983
784.104993	0.952813
784.428498	0.954542
784.751958	0.954954
785.075372	0.955060
785.398739	0.955285
785.722061	0.954631
786.045337	0.954752
786.368568	0.954153
786.691752	0.955583
787.014891	0.952104
787.337983	0.947659
787.661030	0.941723
787.984031	0.935990
788.306987	0.931848
788.629897	0.932073
788.952760	0.935922
789.275579	0.940465
789.598351	0.944101
789.921078	0.949545
790.243759	0.951279
790.566395	0.953532
790.888984	0.956578
791.211529	0.957581
791.534027	0.960137
791.856480	0.961317
792.178888	0.961545
792.501249	0.962590
792.823566	0.964872
793.145836	0.964086
793.468062	0.965544
793.790241	0.965846
794.112375	0.963907
794.434464	0.964047
794.756507	0.963347
795.078505	0.961565
795.400457	0.959649
795.722364	0.955748
796.044226	0.953079
796.366042	0.951146
796.687812	0.951615
797.009538	0.952453
797.331218	0.956289
797.652852	0.956989
797.974442	0.957910
798.295986	0.959912
798.617484	0.959124
798.938938	0.962199
799.260346	0.962737
799.581709	0.962479
799.903026	0.965615
800.224299	0.965227
800.545526	0.966392
800.866708	0.967045
801.187845	0.968948
801.508936	0.969954
801.829983	0.969244
802.150984	0.970731
802.471940	0.972126
802.792851	0.970636
803.113717	0.972682
803.434538	0.971602
803.755314	0.972157
804.076045	0.972462
804.396731	0.972667
804.717372	0.971644
805.037967	0.972868
805.358518	0.972998
805.679024	0.970791
805.999485	0.970847
806.319901	0.969799
806.640272	0.973108
806.960598	0.970880
807.280879	0.970137
807.601115	0.970482
807.921306	0.971897
808.241453	0.970285
808.561554	0.970904
808.881611	0.971245
809.201623	0.970531
809.521590	0.971681
809.841513	0.972484
810.161390	0.971942
810.481223	0.973516
810.801011	0.974084
811.120755	0.975495
811.440453	0.974224
811.760107	0.974901
812.079716	0.974637
812.399281	0.976531
812.718801	0.976694
813.038276	0.976914
813.357707	0.977833
813.677093	0.978271
813.996434	0.977462
814.315731	0.979568
814.634983	0.979210
814.954191	0.978714
815.273354	0.977134
815.592473	0.976550
815.911547	0.977288
816.230577	0.976683
816.549562	0.976182
816.868502	0.974880
817.187399	0.976091
817.506250	0.975238
817.825058	0.973807
818.143821	0.973609
818.462539	0.972625
818.781213	0.970434
819.099843	0.968820
819.418429	0.963045
819.736970	0.958307
820.055466	0.951716
820.373919	0.947902
820.692327	0.941375
821.010691	0.930673
821.329011	0.900771
821.647286	0.849010
821.965517	0.796608
822.283704	0.776221
822.601847	0.780861
822.919945	0.805843
823.237999	0.832340
823.556010	0.854712
823.873976	0.874540
824.191897	0.893366
824.509775	0.908334
824.827609	0.919705
825.145398	0.926635
825.463144	0.925792
825.780845	0.922897
826.098502	0.917363
826.416116	0.902656
826.733685	0.885774
827.051210	0.881708
827.368692	0.890455
827.686129	0.905712
828.003522	0.922106
828.320872	0.933341
828.638177	0.945583
828.955439	0.953377
829.272656	0.959363
829.589830	0.964264
829.906960	0.968436
830.224046	0.971079
830.541088	0.974085
830.858086	0.974851
831.175041	0.976699
831.491952	0.976329
831.808819	0.976064
832.125642	0.975366
832.442421	0.974273
832.759157	0.966949
833.075849	0.952995
833.392497	0.937252
833.709101	0.927443
834.025662	0.928869
834.342179	0.937618
834.658653	0.949257
834.975083	0.957860
835.291469	0.964448
835.607811	0.970639
835.924110	0.975109
836.240366	0.978851
836.556578	0.980212
836.872746	0.981937
837.188871	0.983601
837.504952	0.984024
837.820990	0.986270
838.136984	0.986403
838.452935	0.986371
838.768842	0.987941
839.084706	0.985617
839.400526	0.981097
839.716303	0.968971
840.032037	0.962868
840.347727	0.964593
840.663373	0.970338
840.978977	0.976072
841.294537	0.981903
841.610054	0.985250
841.925527	0.987663
842.240957	0.987233
842.556344	0.988986
842.871687	0.990010
843.186987	0.990982
843.502244	0.992128
843.817458	0.990895
844.132629	0.992715
844.447756	0.992782
844.762840	0.993516
845.077881	0.995247
845.392879	0.992820
845.707833	0.994518
846.022745	0.995941
846.337613	0.995054
846.652438	0.994568
846.967221	0.994611
847.281960	0.995969
847.596656	0.995125
847.911309	0.995878
848.225919	0.995211
848.540485	0.995146
848.855009	0.996525
849.169490	0.995575
849.483928	0.995570
849.798323	0.994097
850.112675	0.996052
850.426984	0.996898
850.741251	0.995604
851.055474	0.995640
851.369654	0.996685
851.683792	0.994696
851.997887	0.995242
852.311938	0.995604
852.625947	0.994860
852.939914	0.994257
853.253837	0.996692
853.567718	0.998152
853.881555	0.995517
854.195350	0.995473
854.509103	0.996981
854.822812	0.996010
855.136479	0.996155
855.450103	0.996148
855.763685	0.996244
856.077224	0.996074
856.390720	0.995445
856.704173	0.997514
857.017584	0.995657
857.330953	0.996743
857.644278	0.995349
857.957561	0.995605
858.270802	0.995614
858.584000	0.995802
858.897155	0.995046
859.210268	0.995223
859.523339	0.996533
859.836367	0.996549
860.149352	0.995799
860.462295	0.996135
860.775195	0.995764
861.088054	0.994652
861.400869	0.996200
861.713642	0.995869
862.026373	0.996163
862.339062	0.996209
862.651708	0.995686
862.964312	0.995869
863.276873	0.995263
863.589392	0.995579
863.901869	0.994398
864.214303	0.995587
864.526696	0.995577
864.839045	0.994629
865.151353	0.994466
865.463619	0.993702
865.775842	0.995228
866.088023	0.995743
866.400162	0.995265
866.712258	0.995985
867.024313	0.995675
867.336325	0.996358
867.648296	0.995718
867.960224	0.995306
868.272110	0.995678
868.583954	0.995241
868.895755	0.995885
869.207515	0.994004
869.519233	0.996403
869.830909	0.994132
870.142542	0.994740
870.454134	0.994639
870.765684	0.995162
871.077191	0.994715
871.388657	0.993841
871.700081	0.994716
872.011463	0.994804
872.322803	0.993728
872.634101	0.993139
872.945357	0.992629
873.256571	0.991983
873.567744	0.992805
873.878874	0.993142
874.189963	0.992022
874.501010	0.992703
874.812015	0.992436
875.122979	0.993184
875.433900	0.992871
875.744780	0.993667
876.055618	0.992127
876.366415	0.992618
876.677169	0.993031
876.987882	0.992252
877.298554	0.993273
877.609183	0.992541
877.919771	0.991891
878.230317	0.991781
878.540822	0.989405
878.851285	0.989664
879.161707	0.988575
879.472087	0.988222
879.782425	0.982080
880.092722	0.975497
880.402977	0.965342
880.713191	0.947400
881.023363	0.924178
881.333494	0.911944
881.643583	0.908842
881.953631	0.913577
882.263637	0.921116
882.573602	0.930784
882.883526	0.938873
883.193408	0.947761
883.503248	0.954240
883.813048	0.960311
884.122806	0.965603
884.432522	0.970741
884.742197	0.976045
885.051831	0.978155
885.361424	0.979747
885.670975	0.983041
885.980485	0.984250
886.289954	0.986130
886.599382	0.986461
886.908768	0.988115
887.218113	0.988874
887.527417	0.989671
887.836680	0.990543
888.145901	0.992460
888.455082	0.993534
888.764221	0.993029
889.073319	0.991933
889.382376	0.993270
889.691392	0.991926
890.000366	0.994140
890.309300	0.994030
890.618193	0.993409
890.927044	0.992790
891.235855	0.992576
891.544625	0.992825
891.853353	0.991820
892.162041	0.991139
892.470687	0.992491
892.779293	0.990143
893.087858	0.986954
893.396381	0.987008
893.704864	0.985316
894.013306	0.979494
894.321707	0.975695
894.630068	0.970856
894.938387	0.969034
895.246665	0.970135
895.554903	0.972624
895.863100	0.976832
896.171256	0.979108
896.479371	0.982424
896.787446	0.984706
897.095480	0.987570
897.403473	0.988124
897.711425	0.988830
898.019336	0.989656
898.327207	0.991200
898.635038	0.989501
898.942827	0.990494
899.250576	0.990436
899.558284	0.992283
899.865952	0.992700
900.173579	0.992545
900.481165	0.993324
900.788711	0.993271
901.096216	0.993557
901.403681	0.994512
901.711105	0.994059
902.018489	0.993476
902.325832	0.994604
902.633135	0.993252
902.940397	0.993960
903.247619	0.989648
903.554800	0.985724
903.861941	0.977290
904.169041	0.967708
904.476101	0.963692
904.783121	0.962752
905.090100	0.967200
905.397039	0.971492
905.703938	0.977119
906.010796	0.982779
906.317614	0.985052
906.624391	0.988940
906.931129	0.990138
907.237826	0.991497
907.544483	0.993053
907.851099	0.993173
908.157675	0.993362
908.464211	0.995437
908.770707	0.994868
909.077163	0.996721
909.383578	0.996977
909.689954	0.996524
909.996289	0.997205
910.302584	0.997358
910.608839	0.998869
910.915054	0.997302
911.221229	0.998143
911.527363	0.996828
911.833458	0.996324
912.139513	0.997190
912.445527	0.997373
912.751502	0.995642
913.057436	0.995268
913.363331	0.995465
913.669186	0.995852
913.975000	0.994363
914.280775	0.992638
914.586510	0.989696
914.892205	0.986981
915.197859	0.983069
915.503475	0.978289
915.809050	0.973991
916.114585	0.968644
916.420081	0.968969
916.725536	0.969851
917.030952	0.971739
917.336328	0.975018
917.641665	0.977161
917.946961	0.980179
918.252218	0.982848
918.557435	0.984532
918.862612	0.987921
919.167750	0.989750
919.472848	0.989931
919.777906	0.993063
920.082925	0.993004
920.387904	0.993382
920.692843	0.993715
920.997743	0.994107
921.302603	0.994569
921.607423	0.994287
921.912204	0.995484
922.216946	0.997227
922.521647	0.996916
922.826310	0.996084
923.130932	0.998023
923.435516	0.997438
923.740059	0.997111
924.044564	0.997094
924.349028	0.997200
924.653454	0.997923
924.957840	0.998681
925.262186	0.997975
925.566493	0.999284
925.870761	0.998167
926.174989	0.997430
926.479178	0.999086
926.783328	0.998809
927.087438	0.998646
927.391509	0.999393
927.695541	0.998885
927.999533	0.997780
928.303486	0.998330
928.607400	0.999357
928.911275	0.999526
929.215110	0.999907
929.518906	1.000749
929.822663	1.001597
930.126381	1.000679
930.430060	0.998908
930.733699	0.999780
931.037299	0.999264
931.340861	0.999041
931.644383	0.998761
931.947866	1.000688
932.251309	1.000149
932.554714	0.998797
932.858080	0.999548
933.161407	0.998977
933.464694	1.000149
933.767943	0.999395
934.071153	0.999652
934.374323	1.001137
934.677455	0.999820
934.980548	0.999780
935.283602	1.000541
935.586617	0.999530
935.889593	1.000754
936.192530	1.000552
936.495428	0.999486
936.798287	0.998820
937.101108	0.999794
937.403890	0.999771
937.706632	1.000711
938.009336	1.000237
938.312002	0.998541
938.614628	0.998981
938.917216	0.998318
939.219765	0.998257
939.522275	0.997830
939.824747	0.998720
940.127179	0.998552
940.429573	0.999277
940.731929	0.997332
941.034246	0.998164
941.336524	0.997112
941.638763	0.998016
941.940964	0.997958
942.243126	0.998053
942.545250	0.998755
942.847335	0.998817
943.149381	0.999631
943.451389	0.998407
943.753359	0.999681
944.055290	1.000229
944.357182	0.999738
944.659036	1.000347
944.960851	0.998500
945.262628	1.000146
945.564367	0.999966
945.866067	0.998745
946.167729	0.999680
946.469352	0.999766
946.770937	0.997654
947.072484	1.000258
947.373992	0.999901
947.675462	0.998582
947.976893	0.999569
948.278286	1.001295
948.579641	1.000639
948.880958	0.999663
949.182236	0.999647
949.483476	1.000393
949.784678	0.999310
950.085841	0.998116
950.386967	1.000080
950.688054	1.000060
950.989103	0.998123
951.290114	0.998370
951.591087	1.000001
951.892021	0.999693
952.192917	0.998528
952.493776	0.999334
952.794596	0.998645
953.095378	0.999829
953.396122	0.998607
953.696828	0.999894
953.997496	0.999504
954.298126	0.999985
954.598718	0.999204
954.899272	1.000090
955.199788	0.998858
955.500266	1.002141
955.800706	1.000778
956.101108	0.999613
956.401472	1.002032
956.701798	0.999337
957.002087	1.000485
957.302337	1.000485
957.602550	1.000933
957.902724	1.000865
958.202861	1.000874
958.502960	1.000522
958.803022	1.001719
959.103045	1.000624
959.403031	1.001351
959.702979	1.001214
960.002889	1.001247
960.302762	1.000975
960.602596	1.002090
960.902393	1.001316
961.202153	1.002006
961.501875	1.001629
961.801559	1.002875
962.101205	1.001395
962.400814	1.001804
962.700385	1.001909
962.999918	1.001450
963.299414	1.000234
963.598873	1.002496
963.898293	1.001029
964.197677	1.000051
964.497022	1.001663
964.796331	1.002032
965.095601	1.003161
965.394835	1.002353
965.694030	1.002678
965.993189	1.002271
966.292309	1.002068
966.591393	1.000941
966.890439	1.002116
967.189447	1.001430
967.488419	1.001521
967.787353	1.001515
968.086249	1.001333
968.385108	1.002434
968.683930	1.002050
968.982714	1.001433
969.281462	1.002184
969.580172	1.000705
969.878844	1.002947
970.177480	1.002328
970.476078	1.002498
970.774639	1.002393
971.073162	1.001555
971.371649	1.000400
971.670098	1.001481
971.968510	1.002106
972.266885	1.000498
972.565223	1.001308
972.863524	1.000865
973.161788	1.001690
973.460014	1.003099
973.758204	1.000883
974.056356	1.002354
974.354471	1.000847
974.652550	1.002014
974.950591	1.001024
975.248595	1.000831
975.546563	1.001826
975.844493	1.002585
976.142386	1.001431
976.440243	1.002725
976.738062	1.001911
977.035845	1.001597
977.333590	1.002009
977.631299	1.001541
977.928971	1.002355
978.226606	1.001889
978.524204	0.999960
978.821765	1.002553
979.119290	1.002834
979.416777	1.001728
979.714228	1.003070
980.011642	1.002304
980.309020	1.001215
980.606360	1.001347
980.903664	1.002858
981.200931	1.001318
981.498162	1.001464
981.795356	1.001248
982.092513	1.001542
982.389633	1.002334
982.686717	1.000147
982.983764	0.999764
983.280775	1.000738
983.577749	1.001727
983.874686	0.999973
984.171587	1.000225
984.468451	1.001447
984.765279	1.002288
985.062070	1.002092
985.358824	1.001056
985.655543	1.002198
985.952224	1.003402
986.248869	1.002991
986.545478	1.002278
986.842050	1.002562
987.138586	1.001303
987.435086	1.001753
987.731549	1.004226
988.027975	1.002148
988.324366	1.002356
988.620719	1.003493
988.917037	1.002085
989.213318	1.003218
989.509563	1.002883
989.805772	1.003749
990.101944	1.002556
990.398080	1.002659
990.694180	1.003209
990.990244	1.001289
991.286271	1.002570
991.582262	1.003690
991.878217	1.001816
992.174136	1.002921
992.470019	1.002794
992.765865	1.003780
993.061676	1.002142
993.357450	1.002882
993.653188	1.002849
993.948890	1.001464
994.244556	1.002300
994.540186	1.001817
994.835780	1.002831
995.131337	1.002712
995.426859	1.001886
995.722345	1.002657
996.017795	1.001786
996.313208	1.001952
996.608586	1.002167
996.903928	1.001440
997.199234	1.002612
997.494504	1.003726
997.789738	1.001077
998.084936	1.003449
998.380099	1.001875
998.675225	1.002295
998.970316	1.002917
999.265371	1.001827
999.560390	1.003134
999.855373	1.002710
1000.150320	1.003066
1000.445232	1.003955
1000.740108	1.002989
1001.034948	1.001566
1001.329752	1.003255
1001.624521	1.002875
1001.919254	1.001399
1002.213951	1.003694
1002.508613	1.001674
1002.803239	1.002765
1003.097829	1.003133
1003.392384	1.003541
1003.686903	1.003554
1003.981386	1.003096
1004.275834	1.003784
1004.570246	1.001698
1004.864623	1.003892
1005.158964	1.003836
1005.453270	1.002454
1005.747540	1.003697
1006.041775	1.003133
1006.335974	1.003234
1006.630138	1.003232
1006.924266	1.003110
1007.218359	1.001792
1007.512416	1.003816
1007.806438	1.002434
1008.100425	1.003187
1008.394376	1.003131
1008.688292	1.002658
1008.982172	1.002358
1009.276017	1.002214
1009.569827	1.003630
1009.863602	1.002119
1010.157341	1.003933
1010.451045	1.003050
1010.744714	1.003630
1011.038347	1.003621
1011.331945	1.001735
1011.625508	1.003033
1011.919036	1.002576
1012.212528	1.001895
1012.505986	1.002583
1012.799408	1.003254
1013.092795	1.003908
1013.386147	1.003613
1013.679464	1.004262
1013.972745	1.002734
1014.265992	1.003037
1014.559204	1.003536
1014.852380	1.003914
1015.145521	1.004001
1015.438628	1.002468
1015.731699	1.003108
1016.024736	1.003863
1016.317737	1.003305
1016.610703	1.003845
1016.903635	1.003203
1017.196531	1.002007
1017.489393	1.002892
1017.782219	1.002480
1018.075011	1.002639
1018.367768	1.002092
1018.660490	1.004211
1018.953177	1.004211
1019.245829	1.004211
