Dividing Wavelength (nm)	Counts (n)	Blue Motor Position (mm): 0.800000	Red Motor Position (mm): 0.000000	
326.493990	1.006393
326.888308	1.006393
327.282561	1.006393
327.676750	1.009010
328.070874	1.007238
328.464933	1.007757
328.858929	1.008064
329.252859	1.008311
329.646726	1.007175
330.040528	1.007732
330.434265	1.006927
330.827938	1.007624
331.221547	1.006972
331.615091	1.008704
332.008571	1.008176
332.401986	1.006585
332.795338	1.007603
333.188625	1.007131
333.581847	1.006587
333.975006	1.008154
334.368100	1.008062
334.761129	1.007289
335.154095	1.007694
335.546996	1.006114
335.939833	0.999550
336.332606	1.000936
336.725315	0.999534
337.117960	1.001005
337.510540	0.999398
337.903056	0.999276
338.295508	1.001293
338.687896	1.000634
339.080220	1.000504
339.472480	1.000259
339.864676	0.999718
340.256807	0.999705
340.648875	1.001509
341.040879	1.000710
341.432818	0.999930
341.824694	1.000679
342.216506	1.001634
342.608253	0.998960
342.999937	0.999677
343.391557	0.999205
343.783113	1.001143
344.174605	1.000965
344.566033	0.999255
344.957397	1.000957
345.348697	0.999880
345.739934	1.000702
346.131106	1.000992
346.522215	0.999303
346.913260	0.999649
347.304241	0.998634
347.695159	1.000765
348.086012	0.998359
348.476802	1.000535
348.867528	0.999966
349.258191	1.000278
349.648789	0.999399
350.039324	1.000255
350.429796	0.999793
350.820203	0.997986
351.210548	0.998774
351.600828	0.999909
351.991045	0.999118
352.381198	0.998560
352.771288	1.000498
353.161314	0.999444
353.551276	0.999434
353.941175	0.998314
354.331010	0.999323
354.720782	0.999029
355.110490	0.998074
355.500135	1.000444
355.889717	0.997805
356.279235	0.999047
356.668689	0.999670
357.058080	0.999366
357.447408	0.998066
357.836672	0.999787
358.225873	0.999663
358.615010	0.999169
359.004084	0.997561
359.393095	0.999752
359.782043	0.998900
360.170927	0.999299
360.559748	0.999817
360.948505	0.998070
361.337199	0.997901
361.725830	0.999145
362.114398	0.998165
362.502903	0.998572
362.891344	0.997641
363.279722	0.997685
363.668037	0.998824
364.056289	0.998142
364.444478	0.998742
364.832603	0.998433
365.220665	0.997811
365.608665	0.998400
365.996601	0.997771
366.384474	0.996434
366.772284	0.998035
367.160031	0.996918
367.547715	0.996193
367.935336	0.995007
368.322893	0.994683
368.710388	0.993623
369.097820	0.992067
369.485189	0.989161
369.872495	0.988382
370.259738	0.986069
370.646918	0.982511
371.034035	0.980499
371.421090	0.978147
371.808081	0.972675
372.195010	0.970202
372.581875	0.964833
372.968678	0.961193
373.355418	0.956396
373.742096	0.949061
374.128710	0.944774
374.515262	0.941230
374.901751	0.934895
375.288177	0.930088
375.674540	0.923438
376.060841	0.916567
376.447079	0.909517
376.833254	0.904944
377.219367	0.898910
377.605417	0.887314
377.991404	0.883751
378.377329	0.877811
378.763191	0.871432
379.148991	0.862789
379.534727	0.853938
379.920402	0.846526
380.306013	0.842866
380.691563	0.829766
381.077049	0.823462
381.462474	0.819279
381.847835	0.808540
382.233134	0.803772
382.618371	0.803957
383.003545	0.786637
383.388657	0.784158
383.773706	0.776351
384.158693	0.772638
384.543618	0.767124
384.928480	0.757910
385.313280	0.749023
385.698017	0.747987
386.082692	0.737126
386.467305	0.734557
386.851856	0.729290
387.236344	0.724635
387.620770	0.717471
388.005133	0.713227
388.389435	0.706623
388.773674	0.704110
389.157851	0.695973
389.541965	0.694054
389.926018	0.699678
390.310008	0.686924
390.693936	0.683758
391.077802	0.676477
391.461606	0.677319
391.845348	0.666631
392.229027	0.666492
392.612645	0.664468
392.996200	0.651655
393.379694	0.644625
393.763125	0.634959
394.146494	0.639855
394.529801	0.630344
394.913047	0.622764
395.296230	0.628041
395.679351	0.619658
396.062410	0.616732
396.445408	0.619457
396.828343	0.614184
397.211217	0.609368
397.594028	0.621997
397.976778	0.611593
398.359466	0.608599
398.742092	0.603925
399.124656	0.615879
399.507158	0.603561
399.889598	0.601098
400.271977	0.592798
400.654294	0.595685
401.036549	0.595508
401.418742	0.599327
401.800874	0.585335
402.182944	0.582290
402.564952	0.574287
402.946898	0.575308
403.328783	0.576392
403.710606	0.587565
404.092367	0.562333
404.474067	0.567956
404.855705	0.565660
405.237282	0.575344
405.618797	0.561907
406.000250	0.557299
406.381642	0.547279
406.762972	0.552666
407.144240	0.550608
407.525447	0.550568
407.906593	0.543851
408.287677	0.539240
408.668700	0.547223
409.049661	0.541775
409.430560	0.536898
409.811399	0.544696
410.192176	0.526902
410.572891	0.534464
410.953545	0.522052
411.334138	0.536102
411.714669	0.528485
412.095139	0.540062
412.475547	0.524708
412.855894	0.526291
413.236180	0.525291
413.616405	0.530001
413.996568	0.520894
414.376670	0.527335
414.756711	0.532149
415.136691	0.528789
415.516609	0.520284
415.896466	0.516114
416.276262	0.513402
416.655997	0.514185
417.035670	0.496327
417.415283	0.487582
417.794834	0.492833
418.174324	0.497737
418.553753	0.507198
418.933121	0.489163
419.312428	0.483236
419.691674	0.488881
420.070859	0.476760
420.449983	0.485209
420.829045	0.474196
421.208047	0.483545
421.586988	0.475879
421.965867	0.475152
422.344686	0.464096
422.723444	0.476620
423.102141	0.493388
423.480777	0.466504
423.859352	0.487301
424.237866	0.464589
424.616319	0.465570
424.994712	0.455735
425.373044	0.466495
425.751314	0.454590
426.129524	0.470735
426.507673	0.454377
426.885762	0.447772
427.263789	0.453378
427.641756	0.463288
428.019662	0.453688
428.397508	0.453378
428.775292	0.456728
429.153016	0.448879
429.530679	0.454843
429.908282	0.448479
430.285824	0.458498
430.663305	0.436552
431.040726	0.457959
431.418086	0.457972
431.795385	0.449894
432.172624	0.448682
432.549802	0.448812
432.926920	0.448224
433.303977	0.447290
433.680974	0.444461
434.057910	0.443095
434.434786	0.441936
434.811601	0.445438
435.188355	0.427274
435.565050	0.437133
435.941683	0.438200
436.318257	0.421771
436.694770	0.423097
437.071222	0.421038
437.447614	0.425274
437.823946	0.431803
438.200218	0.421094
438.576429	0.430663
438.952580	0.424304
439.328670	0.420718
439.704700	0.426878
440.080670	0.428726
440.456580	0.409796
440.832429	0.418070
441.208218	0.428861
441.583947	0.417837
441.959616	0.416717
442.335224	0.422795
442.710773	0.413301
443.086261	0.411296
443.461689	0.425251
443.837057	0.414973
444.212365	0.404717
444.587612	0.411866
444.962800	0.401929
445.337927	0.403453
445.712995	0.430007
446.088002	0.391596
446.462949	0.401858
446.837837	0.406841
447.212664	0.395236
447.587431	0.386797
447.962139	0.357199
448.336786	0.316467
448.711374	0.326893
449.085901	0.371320
449.460369	0.375819
449.834776	0.379025
450.209124	0.358401
450.583412	0.350968
450.957640	0.343556
451.331808	0.355845
451.705917	0.378611
452.079965	0.383347
452.453954	0.371733
452.827883	0.378035
453.201752	0.373050
453.575562	0.384668
453.949311	0.373316
454.323001	0.378811
454.696632	0.375413
455.070202	0.367732
455.443713	0.359337
455.817164	0.353806
456.190556	0.349962
456.563888	0.346607
456.937160	0.344156
457.310373	0.361497
457.683526	0.360455
458.056619	0.366464
458.429653	0.366989
458.802628	0.370455
459.175542	0.364284
459.548398	0.346723
459.921194	0.339148
460.293930	0.339638
460.666607	0.317191
461.039224	0.305171
461.411782	0.300655
461.784280	0.300067
462.156719	0.304534
462.529099	0.308330
462.901419	0.324905
463.273680	0.329161
463.645882	0.328743
464.018024	0.334848
464.390106	0.327412
464.762130	0.311850
465.134094	0.294765
465.505999	0.263622
465.877845	0.234068
466.249631	0.220738
466.621358	0.228435
466.993026	0.242268
467.364634	0.248852
467.736184	0.257449
468.107674	0.266447
468.479105	0.265453
468.850477	0.272257
469.221790	0.278960
469.593043	0.289188
469.964238	0.293834
470.335373	0.293150
470.706449	0.291385
471.077467	0.292276
471.448425	0.253880
471.819324	0.229474
472.190164	0.229271
472.560945	0.257913
472.931667	0.280544
473.302330	0.284667
473.672934	0.296563
474.043479	0.284429
474.413965	0.286412
474.784393	0.289857
475.154761	0.284797
475.525070	0.281880
475.895321	0.287575
476.265513	0.281783
476.635645	0.277052
477.005719	0.277027
477.375734	0.273693
477.745691	0.266750
478.115588	0.263346
478.485427	0.256647
478.855207	0.243669
479.224928	0.226083
479.594591	0.214099
479.964194	0.217754
480.333739	0.218747
480.703226	0.220270
481.072653	0.218505
481.442022	0.214382
481.811333	0.210691
482.180584	0.214465
482.549777	0.219564
482.918912	0.223119
483.287988	0.222888
483.657005	0.222139
484.025964	0.228668
484.394864	0.226172
484.763706	0.226930
485.132489	0.232119
485.501213	0.232616
485.869879	0.231000
486.238487	0.234061
486.607036	0.232053
486.975527	0.236846
487.343959	0.232711
487.712333	0.231365
488.080648	0.232908
488.448905	0.232035
488.817104	0.233475
489.185244	0.227830
489.553326	0.224671
489.921350	0.214674
490.289315	0.196894
490.657222	0.191923
491.025070	0.193255
491.392861	0.195193
491.760593	0.200782
492.128267	0.206872
492.495883	0.212209
492.863440	0.218417
493.230939	0.225026
493.598380	0.226387
493.965763	0.228617
494.333088	0.230687
494.700354	0.232216
495.067563	0.230974
495.434713	0.234759
495.801805	0.232341
496.168839	0.234153
496.535815	0.235422
496.902733	0.235385
497.269593	0.236800
497.636395	0.234530
498.003139	0.234647
498.369825	0.237877
498.736453	0.234226
499.103023	0.235911
499.469535	0.235196
499.835989	0.235707
500.202385	0.236133
500.568723	0.239344
500.935003	0.234826
501.301226	0.239322
501.667390	0.233369
502.033497	0.231535
502.399546	0.234317
502.765537	0.236142
503.131470	0.234970
503.497345	0.231123
503.863163	0.239782
504.228923	0.232587
504.594625	0.231353
504.960269	0.236796
505.325856	0.232341
505.691385	0.236669
506.056856	0.233280
506.422270	0.232621
506.787625	0.235223
507.152924	0.232541
507.518164	0.232802
507.883347	0.234747
508.248472	0.236309
508.613540	0.231440
508.978550	0.233847
509.343503	0.234316
509.708398	0.231976
510.073236	0.229455
510.438016	0.229200
510.802738	0.230406
511.167403	0.229031
511.532010	0.231601
511.896561	0.226811
512.261053	0.225108
512.625488	0.227723
512.989866	0.228151
513.354186	0.228211
513.718449	0.230081
514.082655	0.226499
514.446803	0.228860
514.810894	0.226307
515.174927	0.229071
515.538904	0.228540
515.902822	0.225546
516.266684	0.227770
516.630488	0.229027
516.994235	0.227912
517.357925	0.226493
517.721558	0.225017
518.085133	0.224540
518.448651	0.224419
518.812112	0.226701
519.175516	0.226217
519.538863	0.223779
519.902152	0.225532
520.265385	0.222498
520.628560	0.224169
520.991678	0.224798
521.354739	0.223605
521.717743	0.224619
522.080690	0.225000
522.443580	0.222398
522.806413	0.223317
523.169189	0.222616
523.531908	0.221522
523.894569	0.225153
524.257174	0.224946
524.619722	0.222911
524.982213	0.223974
525.344647	0.222641
525.707025	0.223552
526.069345	0.221655
526.431608	0.223588
526.793815	0.221249
527.155964	0.225607
527.518057	0.224360
527.880093	0.225553
528.242072	0.224023
528.603995	0.226217
528.965860	0.227496
529.327669	0.226604
529.689421	0.227618
530.051117	0.228300
530.412755	0.226275
530.774337	0.228393
531.135862	0.228975
531.497331	0.228057
531.858743	0.231087
532.220098	0.227710
532.581396	0.230236
532.942638	0.230741
533.303824	0.231707
533.664953	0.231411
534.026025	0.233173
534.387040	0.231182
534.747999	0.230966
535.108902	0.229839
535.469748	0.235005
535.830537	0.232998
536.191270	0.233103
536.551947	0.232707
536.912567	0.232597
537.273131	0.234401
537.633638	0.234715
537.994089	0.235066
538.354483	0.236107
538.714821	0.232981
539.075103	0.233088
539.435328	0.233687
539.795497	0.237640
540.155609	0.233792
540.515665	0.232176
540.875665	0.237819
541.235609	0.236198
541.595496	0.236496
541.955328	0.232815
542.315102	0.235633
542.674821	0.236637
543.034483	0.236829
543.394090	0.236601
543.753640	0.238384
544.113134	0.233019
544.472571	0.236740
544.831953	0.233244
545.191278	0.237719
545.550548	0.236860
545.909761	0.233854
546.268918	0.234823
546.628019	0.232973
546.987064	0.235709
547.346053	0.237134
547.704986	0.235306
548.063863	0.235705
548.422684	0.235483
548.781449	0.237425
549.140158	0.235434
549.498811	0.238058
549.857408	0.240834
550.215949	0.235769
550.574434	0.238915
550.932864	0.236951
551.291237	0.235438
551.649555	0.237063
552.007817	0.236788
552.366022	0.237682
552.724173	0.237708
553.082267	0.238007
553.440305	0.235061
553.798288	0.239148
554.156215	0.235907
554.514086	0.236421
554.871902	0.239770
555.229661	0.238728
555.587365	0.239680
555.945014	0.242229
556.302606	0.239039
556.660143	0.241727
557.017625	0.238162
557.375050	0.240379
557.732421	0.237475
558.089735	0.239247
558.446994	0.239183
558.804197	0.238640
559.161345	0.238200
559.518437	0.241752
559.875474	0.239933
560.232455	0.239398
560.589381	0.240339
560.946251	0.240440
561.303065	0.238157
561.659825	0.239139
562.016528	0.241030
562.373177	0.243627
562.729770	0.240964
563.086307	0.242844
563.442789	0.240892
563.799216	0.243837
564.155587	0.242530
564.511904	0.244153
564.868164	0.243530
565.224370	0.243587
565.580520	0.245437
565.936615	0.245299
566.292654	0.248358
566.648638	0.245414
567.004567	0.246167
567.360441	0.246815
567.716260	0.248818
568.072023	0.246387
568.427732	0.247389
568.783385	0.249767
569.138982	0.247971
569.494525	0.247457
569.850013	0.250582
570.205445	0.249054
570.560823	0.251251
570.916145	0.253222
571.271412	0.251689
571.626625	0.253261
571.981782	0.253605
572.336884	0.254579
572.691931	0.253937
573.046923	0.255571
573.401860	0.256439
573.756743	0.258314
574.111570	0.257085
574.466342	0.257830
574.821059	0.256628
575.175722	0.259584
575.530330	0.259497
575.884882	0.259844
576.239380	0.261566
576.593823	0.262415
576.948211	0.261844
577.302544	0.265090
577.656823	0.264662
578.011047	0.264595
578.365216	0.265536
578.719330	0.267619
579.073389	0.266752
579.427394	0.268129
579.781344	0.269198
580.135239	0.270470
580.489080	0.270547
580.842866	0.273183
581.196597	0.273513
581.550273	0.271621
581.903895	0.272790
582.257463	0.270933
582.610975	0.274108
582.964434	0.273548
583.317837	0.275963
583.671186	0.276631
584.024481	0.276851
584.377721	0.279006
584.730906	0.279975
585.084037	0.279270
585.437113	0.281087
585.790135	0.280407
586.143103	0.283561
586.496016	0.284321
586.848874	0.281898
587.201679	0.282301
587.554428	0.285707
587.907124	0.285024
588.259765	0.285398
588.612352	0.285929
588.964884	0.289952
589.317362	0.289244
589.669786	0.289294
590.022155	0.287686
590.374470	0.287245
590.726731	0.289016
591.078937	0.294206
591.431090	0.290392
591.783188	0.294748
592.135232	0.295090
592.487222	0.294844
592.839157	0.292934
593.191038	0.295536
593.542866	0.297369
593.894639	0.300713
594.246358	0.299241
594.598022	0.298777
594.949633	0.302220
595.301190	0.303099
595.652692	0.301841
596.004141	0.297910
596.355535	0.306098
596.706876	0.306299
597.058162	0.308931
597.409395	0.306272
597.760573	0.303962
598.111698	0.307167
598.462768	0.307661
598.813785	0.308900
599.164748	0.310359
599.515657	0.310191
599.866511	0.314352
600.217312	0.309280
600.568060	0.314710
600.918753	0.310944
601.269392	0.312219
601.619978	0.315341
601.970510	0.312652
602.320988	0.312781
602.671412	0.311063
603.021783	0.313237
603.372100	0.314418
603.722363	0.314482
604.072572	0.315131
604.422728	0.314649
604.772830	0.317155
605.122878	0.316650
605.472872	0.317151
605.822813	0.315778
606.172701	0.318259
606.522534	0.315613
606.872314	0.315418
607.222041	0.316381
607.571714	0.314464
607.921333	0.315861
608.270899	0.315791
608.620411	0.312341
608.969870	0.316764
609.319276	0.316644
609.668627	0.316390
610.017926	0.315244
610.367171	0.313856
610.716362	0.314486
611.065500	0.314042
611.414585	0.313189
611.763616	0.313364
612.112594	0.314256
612.461518	0.313470
612.810389	0.311331
613.159207	0.313576
613.507971	0.314927
613.856682	0.311368
614.205340	0.312362
614.553945	0.309386
614.902496	0.313348
615.250994	0.311331
615.599439	0.312152
615.947830	0.311066
616.296169	0.312456
616.644454	0.312518
616.992686	0.312103
617.340864	0.310106
617.688990	0.313250
618.037063	0.310085
618.385082	0.311979
618.733048	0.308775
619.080961	0.311037
619.428821	0.310316
619.776628	0.310089
620.124382	0.312661
620.472083	0.312842
620.819731	0.312358
621.167326	0.316167
621.514868	0.315903
621.862357	0.320191
622.209793	0.319231
622.557176	0.321816
622.904506	0.322615
623.251783	0.325411
623.599007	0.327898
623.946179	0.326716
624.293297	0.329321
624.640363	0.332968
624.987376	0.333555
625.334336	0.336065
625.681243	0.338593
626.028097	0.338594
626.374899	0.339969
626.721647	0.339881
627.068343	0.343183
627.414987	0.344333
627.761577	0.346697
628.108115	0.344898
628.454600	0.350087
628.801032	0.347642
629.147412	0.349836
629.493739	0.350563
629.840014	0.353169
630.186236	0.349831
630.532405	0.356037
630.878521	0.353253
631.224585	0.355657
631.570597	0.359354
631.916556	0.357670
632.262462	0.357699
632.608316	0.360023
632.954117	0.360921
633.299866	0.361722
633.645562	0.361771
633.991206	0.366297
634.336797	0.368974
634.682336	0.371837
635.027823	0.373325
635.373257	0.373752
635.718639	0.377383
636.063968	0.377108
636.409245	0.382076
636.754470	0.383288
637.099642	0.385294
637.444762	0.388991
637.789829	0.387633
638.134845	0.391764
638.479808	0.392231
638.824719	0.392127
639.169577	0.396625
639.514383	0.395172
639.859137	0.400016
640.203839	0.399184
640.548489	0.399650
640.893086	0.400887
641.237632	0.402802
641.582125	0.401414
641.926566	0.403531
642.270955	0.403063
642.615292	0.402923
642.959576	0.402583
643.303809	0.403093
643.647990	0.402783
643.992118	0.403406
644.336195	0.406253
644.680219	0.405288
645.024192	0.405426
645.368112	0.399471
645.711981	0.397860
646.055797	0.393684
646.399562	0.395868
646.743274	0.388094
647.086935	0.385407
647.430544	0.385321
647.774101	0.384000
648.117606	0.384292
648.461059	0.384915
648.804460	0.386987
649.147810	0.392377
649.491108	0.394098
649.834354	0.395409
650.177548	0.400719
650.520690	0.405685
650.863781	0.407009
651.206820	0.406845
651.549807	0.411087
651.892742	0.415375
652.235626	0.414648
652.578458	0.415327
652.921238	0.422195
653.263967	0.419681
653.606644	0.423286
653.949269	0.423534
654.291843	0.426850
654.634365	0.424395
654.976836	0.426663
655.319255	0.428024
655.661622	0.429031
656.003938	0.429058
656.346203	0.432011
656.688416	0.429552
657.030577	0.433157
657.372687	0.435553
657.714746	0.436032
658.056753	0.432833
658.398708	0.437161
658.740612	0.438095
659.082465	0.433908
659.424266	0.434844
659.766016	0.434469
660.107715	0.437599
660.449362	0.436212
660.790958	0.435849
661.132503	0.438041
661.473996	0.434442
661.815438	0.435977
662.156829	0.436080
662.498168	0.437025
662.839456	0.437920
663.180693	0.435870
663.521879	0.435665
663.863013	0.436671
664.204097	0.434848
664.545129	0.431858
664.886110	0.432628
665.227040	0.430078
665.567918	0.432184
665.908746	0.430279
666.249522	0.430042
666.590248	0.430769
666.930922	0.428869
667.271545	0.428148
667.612118	0.428062
667.952639	0.429959
668.293109	0.428583
668.633528	0.431216
668.973896	0.431203
669.314213	0.431650
669.654480	0.432808
669.994695	0.433137
670.334859	0.434467
670.674973	0.434075
671.015035	0.434420
671.355047	0.434549
671.695008	0.435210
672.034918	0.437376
672.374777	0.436540
672.714585	0.437665
673.054342	0.437934
673.394049	0.438203
673.733705	0.435336
674.073310	0.437140
674.412864	0.439668
674.752368	0.439932
675.091820	0.440182
675.431223	0.445614
675.770574	0.444513
676.109875	0.447484
676.449125	0.447889
676.788324	0.449972
677.127473	0.455748
677.466571	0.455523
677.805619	0.456874
678.144616	0.458122
678.483562	0.460261
678.822458	0.463160
679.161303	0.463263
679.500098	0.463742
679.838842	0.465362
680.177535	0.464269
680.516179	0.462856
680.854771	0.462046
681.193314	0.455893
681.531805	0.446890
681.870247	0.435759
682.208638	0.428240
682.546978	0.427133
682.885268	0.428670
683.223508	0.435481
683.561697	0.439015
683.899836	0.441684
684.237925	0.444732
684.575963	0.447555
684.913951	0.450504
685.251889	0.445636
685.589776	0.448423
685.927614	0.450283
686.265401	0.444717
686.603137	0.445918
686.940824	0.440462
687.278460	0.438982
687.616046	0.437990
687.953582	0.433068
688.291068	0.434657
688.628504	0.429758
688.965889	0.432589
689.303224	0.436150
689.640510	0.440158
689.977745	0.445799
690.314930	0.453378
690.652065	0.458564
690.989150	0.465734
691.326185	0.472606
691.663170	0.476722
692.000105	0.484525
692.336990	0.491135
692.673825	0.494179
693.010610	0.501020
693.347345	0.507196
693.684030	0.507931
694.020665	0.512181
694.357251	0.521285
694.693786	0.520936
695.030272	0.524361
695.366707	0.529244
695.703093	0.532771
696.039429	0.530027
696.375716	0.531854
696.711952	0.534470
697.048139	0.536693
697.384276	0.538750
697.720363	0.537576
698.056400	0.535434
698.392388	0.541006
698.728326	0.544438
699.064214	0.546845
699.400053	0.547630
699.735842	0.551929
700.071581	0.554392
700.407270	0.557988
700.742910	0.559977
701.078501	0.565956
701.414042	0.567130
701.749533	0.569226
702.084974	0.579093
702.420366	0.571601
702.755709	0.578963
703.091002	0.586862
703.426246	0.580349
703.761440	0.586359
704.096584	0.591060
704.431679	0.587789
704.766725	0.590348
705.101721	0.591872
705.436668	0.588070
705.771565	0.595087
706.106413	0.590331
706.441212	0.586249
706.775961	0.586152
707.110661	0.588208
707.445311	0.584619
707.779913	0.582384
708.114465	0.580530
708.448967	0.576866
708.783421	0.568896
709.117825	0.563729
709.452180	0.563290
709.786485	0.557416
710.120742	0.546815
710.454949	0.548599
710.789107	0.541108
711.123216	0.531034
711.457275	0.533185
711.791286	0.524589
712.125247	0.523749
712.459159	0.534120
712.793023	0.525777
713.126837	0.530673
713.460602	0.531327
713.794318	0.540744
714.127985	0.538892
714.461602	0.548943
714.795171	0.552226
715.128691	0.560875
715.462162	0.568493
715.795584	0.573803
716.128957	0.576789
716.462281	0.583854
716.795556	0.587046
717.128782	0.592529
717.461960	0.601724
717.795088	0.600324
718.128167	0.606529
718.461198	0.614962
718.794180	0.615505
719.127113	0.618085
719.459997	0.621559
719.792833	0.628369
720.125619	0.629370
720.458357	0.635587
720.791046	0.635578
721.123686	0.639423
721.456278	0.645992
721.788821	0.642652
722.121315	0.647845
722.453761	0.651766
722.786158	0.649148
723.118506	0.645655
723.450805	0.653238
723.783056	0.650063
724.115259	0.647409
724.447412	0.646647
724.779518	0.648235
725.111574	0.646630
725.443582	0.643112
725.775542	0.644566
726.107453	0.636581
726.439315	0.636973
726.771129	0.634392
727.102895	0.628111
727.434612	0.621511
727.766281	0.618699
728.097901	0.618121
728.429473	0.618201
728.760996	0.616363
729.092471	0.616362
729.423897	0.621005
729.755276	0.619175
730.086606	0.618782
730.417887	0.613992
730.749120	0.604574
731.080305	0.595002
731.411442	0.590957
731.742530	0.595652
732.073570	0.595105
732.404562	0.587657
732.735506	0.589249
733.066401	0.593430
733.397249	0.602471
733.728048	0.614955
734.058798	0.626944
734.389501	0.639326
734.720156	0.648180
735.050762	0.655642
735.381320	0.656907
735.711831	0.665122
736.042293	0.670146
736.372707	0.666514
736.703073	0.670189
737.033391	0.673494
737.363661	0.670186
737.693883	0.665709
738.024056	0.664252
738.354182	0.665190
738.684260	0.653457
739.014290	0.651058
739.344272	0.650562
739.674207	0.644321
740.004093	0.643807
740.333931	0.644158
740.663722	0.644300
740.993464	0.644144
741.323159	0.647790
741.652806	0.653305
741.982405	0.658368
742.311956	0.664135
742.641460	0.664984
742.970915	0.668982
743.300323	0.676707
743.629683	0.682935
743.958996	0.685406
744.288260	0.689224
744.617477	0.695867
744.946647	0.696614
745.275768	0.703197
745.604842	0.702249
745.933869	0.712409
746.262847	0.714165
746.591778	0.706360
746.920662	0.712965
747.249498	0.720195
747.578286	0.711041
747.907027	0.706402
748.235720	0.707237
748.564365	0.702412
748.892963	0.701522
749.221514	0.706010
749.550017	0.709634
749.878473	0.710770
750.206881	0.716913
750.535242	0.716878
750.863555	0.716073
751.191821	0.717418
751.520039	0.720696
751.848210	0.725697
752.176334	0.719677
752.504411	0.717764
752.832440	0.725332
753.160421	0.729425
753.488356	0.727619
753.816243	0.724942
754.144082	0.733735
754.471875	0.738083
754.799620	0.733074
755.127318	0.734108
755.454969	0.735031
755.782572	0.734858
756.110129	0.738280
756.437638	0.741837
756.765100	0.738054
757.092515	0.735415
757.419882	0.734338
757.747203	0.739892
758.074477	0.740309
758.401703	0.736422
758.728882	0.732312
759.056014	0.730689
759.383099	0.730064
759.710138	0.730571
760.037129	0.727306
760.364073	0.721210
760.690970	0.723854
761.017820	0.727745
761.344623	0.725408
761.671379	0.715576
761.998088	0.704759
762.324751	0.680807
762.651366	0.637707
762.977935	0.569802
763.304456	0.518475
763.630931	0.508656
763.957359	0.547959
764.283740	0.591384
764.610074	0.620293
764.936362	0.651940
765.262602	0.679063
765.588796	0.700347
765.914943	0.718064
766.241044	0.736018
766.567097	0.742716
766.893104	0.753301
767.219064	0.759574
767.544978	0.766253
767.870845	0.778503
768.196665	0.783247
768.522438	0.781852
768.848165	0.783821
769.173846	0.792489
769.499479	0.797454
769.825066	0.800968
770.150607	0.804700
770.476101	0.800421
770.801548	0.802892
771.126949	0.814418
771.452303	0.818258
771.777611	0.815445
772.102872	0.815013
772.428087	0.820506
772.753256	0.824494
773.078378	0.826041
773.403453	0.834466
773.728482	0.838819
774.053465	0.832083
774.378401	0.836702
774.703291	0.845344
775.028135	0.845746
775.352932	0.845248
775.677683	0.848955
776.002388	0.851224
776.327046	0.849761
776.651658	0.854599
776.976224	0.855633
777.300743	0.856774
777.625216	0.859295
777.949643	0.861507
778.274024	0.859055
778.598359	0.860900
778.922647	0.859877
779.246889	0.861235
779.571086	0.864010
779.895236	0.867708
780.219339	0.866189
780.543397	0.859854
780.867409	0.859943
781.191374	0.862527
781.515294	0.864037
781.839167	0.863102
782.162995	0.865301
782.486776	0.862668
782.810511	0.863316
783.134201	0.868777
783.457844	0.865432
783.781441	0.868051
784.104993	0.873914
784.428498	0.874676
784.751958	0.870670
785.075372	0.871957
785.398739	0.875972
785.722061	0.870613
786.045337	0.869018
786.368568	0.872772
786.691752	0.874906
787.014891	0.861702
787.337983	0.850597
787.661030	0.844763
787.984031	0.825824
788.306987	0.813596
788.629897	0.814555
788.952760	0.820328
789.275579	0.823535
789.598351	0.841093
789.921078	0.852482
790.243759	0.854860
790.566395	0.859563
790.888984	0.867543
791.211529	0.871645
791.534027	0.874940
791.856480	0.877235
792.178888	0.882463
792.501249	0.884420
792.823566	0.886520
793.145836	0.887645
793.468062	0.889465
793.790241	0.889077
794.112375	0.885540
794.434464	0.882708
794.756507	0.882624
795.078505	0.880338
795.400457	0.876121
795.722364	0.862812
796.044226	0.857989
796.366042	0.855891
796.687812	0.858489
797.009538	0.853323
797.331218	0.858538
797.652852	0.862389
797.974442	0.865668
798.295986	0.869360
798.617484	0.869309
798.938938	0.874252
799.260346	0.878905
799.581709	0.880414
799.903026	0.883561
800.224299	0.883616
800.545526	0.887509
800.866708	0.892364
801.187845	0.897196
801.508936	0.895297
801.829983	0.893544
802.150984	0.898208
802.471940	0.901395
802.792851	0.901184
803.113717	0.902871
803.434538	0.899372
803.755314	0.903081
804.076045	0.903530
804.396731	0.904636
804.717372	0.902532
805.037967	0.906519
805.358518	0.903464
805.679024	0.899956
805.999485	0.901014
806.319901	0.900135
806.640272	0.903266
806.960598	0.900403
807.280879	0.896809
807.601115	0.895302
807.921306	0.899765
808.241453	0.899993
808.561554	0.898145
808.881611	0.898245
809.201623	0.900043
809.521590	0.899832
809.841513	0.902669
810.161390	0.900400
810.481223	0.901083
810.801011	0.904767
811.120755	0.906229
811.440453	0.904413
811.760107	0.904954
812.079716	0.905432
812.399281	0.908606
812.718801	0.910200
813.038276	0.911317
813.357707	0.911375
813.677093	0.909393
813.996434	0.910027
814.315731	0.913448
814.634983	0.914279
814.954191	0.912208
815.273354	0.907628
815.592473	0.905281
815.911547	0.906102
816.230577	0.901946
816.549562	0.899349
816.868502	0.899001
817.187399	0.897529
817.506250	0.891305
817.825058	0.893080
818.143821	0.888834
818.462539	0.884246
818.781213	0.876648
819.099843	0.866067
819.418429	0.849108
819.736970	0.831748
820.055466	0.811630
820.373919	0.784108
820.692327	0.751545
821.010691	0.716751
821.329011	0.635570
821.647286	0.518115
821.965517	0.402855
822.283704	0.359896
822.601847	0.359973
822.919945	0.396242
823.237999	0.430954
823.556010	0.479429
823.873976	0.535252
824.191897	0.587144
824.509775	0.631474
824.827609	0.677955
825.145398	0.700615
825.463144	0.701902
825.780845	0.684963
826.098502	0.666716
826.416116	0.620505
826.733685	0.574962
827.051210	0.565780
827.368692	0.581602
827.686129	0.619055
828.003522	0.674633
828.320872	0.722866
828.638177	0.767607
828.955439	0.800396
829.272656	0.821920
829.589830	0.840180
829.906960	0.856222
830.224046	0.869393
830.541088	0.879822
830.858086	0.885071
831.175041	0.890632
831.491952	0.889279
831.808819	0.885978
832.125642	0.878947
832.442421	0.865942
832.759157	0.841719
833.075849	0.794782
833.392497	0.729154
833.709101	0.687361
834.025662	0.697840
834.342179	0.730771
834.658653	0.769850
834.975083	0.807470
835.291469	0.834300
835.607811	0.856745
835.924110	0.874160
836.240366	0.892002
836.556578	0.903992
836.872746	0.911193
837.188871	0.918595
837.504952	0.924244
837.820990	0.927708
838.136984	0.931421
838.452935	0.934272
838.768842	0.935533
839.084706	0.928423
839.400526	0.903137
839.716303	0.861916
840.032037	0.838916
840.347727	0.842093
840.663373	0.860073
840.978977	0.882724
841.294537	0.906350
841.610054	0.922604
841.925527	0.930761
842.240957	0.936871
842.556344	0.945576
842.871687	0.950155
843.186987	0.953578
843.502244	0.954932
843.817458	0.956259
844.132629	0.961136
844.447756	0.964468
844.762840	0.966121
845.077881	0.966018
845.392879	0.964129
845.707833	0.967251
846.022745	0.969831
846.337613	0.968698
846.652438	0.969865
846.967221	0.969905
847.281960	0.972524
847.596656	0.973430
847.911309	0.972064
848.225919	0.971583
848.540485	0.974055
848.855009	0.974984
849.169490	0.974810
849.483928	0.973811
849.798323	0.973297
850.112675	0.976131
850.426984	0.975222
850.741251	0.975884
851.055474	0.975148
851.369654	0.974983
851.683792	0.974031
851.997887	0.974513
852.311938	0.975498
852.625947	0.973604
852.939914	0.974103
853.253837	0.974903
853.567718	0.976480
853.881555	0.975204
854.195350	0.974972
854.509103	0.974528
854.822812	0.975691
855.136479	0.976914
855.450103	0.974866
855.763685	0.973935
856.077224	0.975721
856.390720	0.976582
856.704173	0.975868
857.017584	0.973320
857.330953	0.973068
857.644278	0.972684
857.957561	0.974145
858.270802	0.974834
858.584000	0.973748
858.897155	0.972943
859.210268	0.972604
859.523339	0.974981
859.836367	0.975942
860.149352	0.974581
860.462295	0.974444
860.775195	0.975388
861.088054	0.973418
861.400869	0.975693
861.713642	0.976171
862.026373	0.977443
862.339062	0.976860
862.651708	0.973926
862.964312	0.973645
863.276873	0.973759
863.589392	0.973515
863.901869	0.971006
864.214303	0.970165
864.526696	0.969326
864.839045	0.968629
865.151353	0.967347
865.463619	0.966145
865.775842	0.967225
866.088023	0.968211
866.400162	0.966421
866.712258	0.968391
867.024313	0.968707
867.336325	0.969928
867.648296	0.968690
867.960224	0.966073
868.272110	0.968000
868.583954	0.968948
868.895755	0.969681
869.207515	0.967630
869.519233	0.966283
869.830909	0.965482
870.142542	0.967160
870.454134	0.967309
870.765684	0.963700
871.077191	0.964819
871.388657	0.964360
871.700081	0.965118
872.011463	0.963895
872.322803	0.961837
872.634101	0.961081
872.945357	0.958200
873.256571	0.957284
873.567744	0.958631
873.878874	0.958467
874.189963	0.957892
874.501010	0.958029
874.812015	0.955031
875.122979	0.955790
875.433900	0.957941
875.744780	0.958966
876.055618	0.955776
876.366415	0.954632
876.677169	0.954468
876.987882	0.954549
877.298554	0.956355
877.609183	0.951395
877.919771	0.948903
878.230317	0.947781
878.540822	0.944164
878.851285	0.939173
879.161707	0.929513
879.472087	0.918979
879.782425	0.901590
880.092722	0.865832
880.402977	0.811999
880.713191	0.747618
881.023363	0.685742
881.333494	0.651810
881.643583	0.624225
881.953631	0.624814
882.263637	0.653070
882.573602	0.693507
882.883526	0.719647
883.193408	0.745562
883.503248	0.768083
883.813048	0.796679
884.122806	0.826287
884.432522	0.850968
884.742197	0.870854
885.051831	0.883198
885.361424	0.893317
885.670975	0.905976
885.980485	0.916342
886.289954	0.921440
886.599382	0.925946
886.908768	0.931733
887.218113	0.936793
887.527417	0.942484
887.836680	0.946067
888.145901	0.947136
888.455082	0.952788
888.764221	0.955467
889.073319	0.956758
889.382376	0.958838
889.691392	0.957546
890.000366	0.957902
890.309300	0.958239
890.618193	0.958151
890.927044	0.955610
891.235855	0.956034
891.544625	0.957233
891.853353	0.956161
892.162041	0.953097
892.470687	0.947030
892.779293	0.942057
893.087858	0.936179
893.396381	0.928710
893.704864	0.914704
894.013306	0.891008
894.321707	0.864098
894.630068	0.848355
894.938387	0.842037
895.246665	0.844286
895.554903	0.857136
895.863100	0.871471
896.171256	0.888854
896.479371	0.908920
896.787446	0.921144
897.095480	0.928680
897.403473	0.931742
897.711425	0.936592
898.019336	0.942605
898.327207	0.948380
898.635038	0.946932
898.942827	0.950075
899.250576	0.952831
899.558284	0.958025
899.865952	0.958791
900.173579	0.960009
900.481165	0.960795
900.788711	0.962254
901.096216	0.966342
901.403681	0.968070
901.711105	0.967360
902.018489	0.968383
902.325832	0.967896
902.633135	0.965447
902.940397	0.961516
903.247619	0.946671
903.554800	0.921071
903.861941	0.879705
904.169041	0.841879
904.476101	0.823874
904.783121	0.825070
905.090100	0.841672
905.397039	0.864386
905.703938	0.885556
906.010796	0.907297
906.317614	0.925401
906.624391	0.937554
906.931129	0.948053
907.237826	0.956670
907.544483	0.964012
907.851099	0.967984
908.157675	0.970379
908.464211	0.974432
908.770707	0.976797
909.077163	0.979344
909.383578	0.980738
909.689954	0.979965
909.996289	0.981629
910.302584	0.983660
910.608839	0.984950
910.915054	0.983996
911.221229	0.983552
911.527363	0.982515
911.833458	0.984044
912.139513	0.982846
912.445527	0.982165
912.751502	0.978937
913.057436	0.977516
913.363331	0.975841
913.669186	0.972299
913.975000	0.966505
914.280775	0.959529
914.586510	0.951650
914.892205	0.937527
915.197859	0.915066
915.503475	0.888703
915.809050	0.866584
916.114585	0.860541
916.420081	0.858965
916.725536	0.855006
917.030952	0.863238
917.336328	0.876295
917.641665	0.892703
917.946961	0.909013
918.252218	0.920202
918.557435	0.929340
918.862612	0.938769
919.167750	0.944656
919.472848	0.950326
919.777906	0.958151
920.082925	0.962863
920.387904	0.965825
920.692843	0.967604
920.997743	0.968587
921.302603	0.971793
921.607423	0.973702
921.912204	0.976814
922.216946	0.978594
922.521647	0.978842
922.826310	0.980030
923.130932	0.981825
923.435516	0.984103
923.740059	0.985440
924.044564	0.982904
924.349028	0.985393
924.653454	0.988430
924.957840	0.988416
925.262186	0.989805
925.566493	0.988767
925.870761	0.990688
926.174989	0.991434
926.479178	0.993399
926.783328	0.993172
927.087438	0.992575
927.391509	0.993843
927.695541	0.993593
927.999533	0.994656
928.303486	0.994939
928.607400	0.995735
928.911275	0.996076
929.215110	0.996194
929.518906	0.997759
929.822663	0.996747
930.126381	0.998739
930.430060	0.996600
930.733699	0.995762
931.037299	0.996321
931.340861	0.996391
931.644383	0.994355
931.947866	0.996312
932.251309	0.996114
932.554714	0.996671
932.858080	0.996511
933.161407	0.996408
933.464694	0.995975
933.767943	0.996916
934.071153	0.997056
934.374323	0.997737
934.677455	0.997824
934.980548	0.996277
935.283602	0.997555
935.586617	0.996992
935.889593	0.998422
936.192530	0.997562
936.495428	0.997498
936.798287	0.995633
937.101108	0.995406
937.403890	0.993969
937.706632	0.994781
938.009336	0.993372
938.312002	0.990462
938.614628	0.990367
938.917216	0.988637
939.219765	0.987265
939.522275	0.988613
939.824747	0.987852
940.127179	0.989382
940.429573	0.990397
940.731929	0.989508
941.034246	0.990198
941.336524	0.989983
941.638763	0.991830
941.940964	0.991912
942.243126	0.992160
942.545250	0.993798
942.847335	0.992878
943.149381	0.994417
943.451389	0.993075
943.753359	0.994982
944.055290	0.995694
944.357182	0.995920
944.659036	0.995328
944.960851	0.995804
945.262628	0.995518
945.564367	0.995564
945.866067	0.994960
946.167729	0.996450
946.469352	0.995440
946.770937	0.994145
947.072484	0.996329
947.373992	0.996060
947.675462	0.995610
947.976893	0.995610
948.278286	0.998213
948.579641	0.998092
948.880958	0.997328
949.182236	0.996239
949.483476	0.997749
949.784678	0.998602
950.085841	0.996419
950.386967	0.996594
950.688054	0.997302
950.989103	0.995248
951.290114	0.995511
951.591087	0.995412
951.892021	0.995533
952.192917	0.995094
952.493776	0.995624
952.794596	0.994152
953.095378	0.992576
953.396122	0.993475
953.696828	0.994701
953.997496	0.994978
954.298126	0.997787
954.598718	0.995356
954.899272	0.996902
955.199788	0.997254
955.500266	0.997669
955.800706	0.998941
956.101108	0.998474
956.401472	1.000057
956.701798	1.000206
957.002087	0.999834
957.302337	0.999880
957.602550	1.001345
957.902724	1.001507
958.202861	1.001755
958.502960	1.000804
958.803022	1.002356
959.103045	1.001934
959.403031	1.002761
959.702979	1.002152
960.002889	1.002223
960.302762	1.001230
960.602596	1.002942
960.902393	1.002315
961.202153	1.002688
961.501875	1.002602
961.801559	1.002686
962.101205	1.002093
962.400814	1.004412
962.700385	1.003361
962.999918	1.004715
963.299414	1.002165
963.598873	1.003989
963.898293	1.003147
964.197677	1.003085
964.497022	1.004058
964.796331	1.002936
965.095601	1.003264
965.394835	1.002997
965.694030	1.003997
965.993189	1.003152
966.292309	1.003034
966.591393	1.001988
966.890439	1.004215
967.189447	1.002666
967.488419	1.003964
967.787353	1.003679
968.086249	1.003002
968.385108	1.002915
968.683930	1.005047
968.982714	1.003672
969.281462	1.003712
969.580172	1.002749
969.878844	1.004161
970.177480	1.003539
970.476078	1.004353
970.774639	1.002611
971.073162	1.003156
971.371649	1.002328
971.670098	1.002530
971.968510	1.003475
972.266885	1.003069
972.565223	1.002824
972.863524	1.001209
973.161788	1.003321
973.460014	1.003742
973.758204	1.002042
974.056356	1.001791
974.354471	1.002815
974.652550	1.002608
974.950591	1.002076
975.248595	1.001164
975.546563	1.004006
975.844493	1.004265
976.142386	1.002852
976.440243	1.003303
976.738062	1.003889
977.035845	1.002466
977.333590	1.004898
977.631299	1.002525
977.928971	1.003130
978.226606	1.003384
978.524204	1.002865
978.821765	1.003110
979.119290	1.004374
979.416777	1.003905
979.714228	1.003049
980.011642	1.003700
980.309020	1.003980
980.606360	1.003030
980.903664	1.002841
981.200931	1.001844
981.498162	1.001996
981.795356	1.002173
982.092513	1.000034
982.389633	1.000223
982.686717	0.997390
982.983764	0.996928
983.280775	0.996996
983.577749	0.998091
983.874686	0.996605
984.171587	0.999021
984.468451	0.999868
984.765279	1.001110
985.062070	1.003325
985.358824	1.001001
985.655543	1.002557
985.952224	1.002702
986.248869	1.003399
986.545478	1.003550
986.842050	1.003718
987.138586	1.003105
987.435086	1.003063
987.731549	1.006166
988.027975	1.005491
988.324366	1.004414
988.620719	1.005142
988.917037	1.004623
989.213318	1.004907
989.509563	1.005195
989.805772	1.004329
990.101944	1.005349
990.398080	1.004758
990.694180	1.004463
990.990244	1.004581
991.286271	1.004166
991.582262	1.005239
991.878217	1.004138
992.174136	1.005792
992.470019	1.004434
992.765865	1.005046
993.061676	1.005424
993.357450	1.004172
993.653188	1.005180
993.948890	1.004211
994.244556	1.004298
994.540186	1.002819
994.835780	1.004384
995.131337	1.004400
995.426859	1.002982
995.722345	1.002818
996.017795	1.002603
996.313208	1.002933
996.608586	1.002384
996.903928	1.003687
997.199234	1.003907
997.494504	1.004338
997.789738	1.002395
998.084936	1.004577
998.380099	1.001849
998.675225	1.003894
998.970316	1.004177
999.265371	1.004132
999.560390	1.003370
999.855373	1.003626
1000.150320	1.004510
1000.445232	1.005286
1000.740108	1.004412
1001.034948	1.004922
1001.329752	1.005227
1001.624521	1.004854
1001.919254	1.004547
1002.213951	1.003784
1002.508613	1.003640
1002.803239	1.005264
1003.097829	1.005093
1003.392384	1.003819
1003.686903	1.005655
1003.981386	1.004687
1004.275834	1.007864
1004.570246	1.003772
1004.864623	1.006731
1005.158964	1.005125
1005.453270	1.004986
1005.747540	1.004867
1006.041775	1.005298
1006.335974	1.005500
1006.630138	1.005883
1006.924266	1.004409
1007.218359	1.004319
1007.512416	1.006257
1007.806438	1.006090
1008.100425	1.006252
1008.394376	1.006831
1008.688292	1.004729
1008.982172	1.005214
1009.276017	1.005870
1009.569827	1.005426
1009.863602	1.004172
1010.157341	1.005581
1010.451045	1.005141
1010.744714	1.006546
1011.038347	1.005214
1011.331945	1.005060
1011.625508	1.005479
1011.919036	1.005520
1012.212528	1.005253
1012.505986	1.005972
1012.799408	1.004986
1013.092795	1.004786
1013.386147	1.005624
1013.679464	1.005755
1013.972745	1.004690
1014.265992	1.004839
1014.559204	1.005441
1014.852380	1.006660
1015.145521	1.004730
1015.438628	1.005673
1015.731699	1.004455
1016.024736	1.006071
1016.317737	1.005132
1016.610703	1.006587
1016.903635	1.005317
1017.196531	1.005184
1017.489393	1.004644
1017.782219	1.005350
1018.075011	1.004738
1018.367768	1.005208
1018.660490	1.005897
1018.953177	1.005897
1019.245829	1.005897
