Dividing Wavelength (nm)	Counts (n)	Blue Motor Position (mm): 23.900000	Red Motor Position (mm): 0.000000	
326.493990	1.000578
326.888308	1.000578
327.282561	1.000578
327.676750	1.000813
328.070874	1.002450
328.464933	1.002964
328.858929	1.002362
329.252859	1.001167
329.646726	1.002063
330.040528	1.001707
330.434265	1.001640
330.827938	1.000059
331.221547	1.002381
331.615091	1.000826
332.008571	1.001721
332.401986	1.000764
332.795338	1.000679
333.188625	1.001252
333.581847	1.001362
333.975006	1.002683
334.368100	1.002762
334.761129	0.999580
335.154095	1.001516
335.546996	0.999737
335.939833	0.999490
336.332606	0.999621
336.725315	0.998088
337.117960	1.000580
337.510540	0.998947
337.903056	0.999964
338.295508	1.000901
338.687896	0.999867
339.080220	0.999479
339.472480	0.998170
339.864676	0.999688
340.256807	0.998099
340.648875	1.000604
341.040879	0.998011
341.432818	1.000023
341.824694	0.999286
342.216506	1.000601
342.608253	0.998595
342.999937	0.998477
343.391557	0.999192
343.783113	0.999497
344.174605	0.999672
344.566033	0.999542
344.957397	0.999891
345.348697	1.000378
345.739934	0.998911
346.131106	1.000158
346.522215	0.999447
346.913260	0.999704
347.304241	0.999570
347.695159	1.000768
348.086012	0.999451
348.476802	0.999073
348.867528	0.997033
349.258191	0.999712
349.648789	0.999078
350.039324	0.999976
350.429796	0.998542
350.820203	0.998642
351.210548	0.999726
351.600828	0.999238
351.991045	0.999286
352.381198	0.998929
352.771288	0.999022
353.161314	0.998660
353.551276	0.998648
353.941175	0.997964
354.331010	0.999760
354.720782	0.998786
355.110490	0.997794
355.500135	0.998171
355.889717	0.998019
356.279235	0.997623
356.668689	0.998806
357.058080	0.998891
357.447408	0.997935
357.836672	0.998200
358.225873	0.997565
358.615010	0.998614
359.004084	0.998677
359.393095	0.999496
359.782043	0.997476
360.170927	0.998043
360.559748	0.997845
360.948505	0.997591
361.337199	0.997264
361.725830	0.997876
362.114398	0.998083
362.502903	0.997954
362.891344	0.996642
363.279722	0.997831
363.668037	0.997989
364.056289	0.996958
364.444478	0.998822
364.832603	0.996282
365.220665	0.997547
365.608665	0.997909
365.996601	0.996890
366.384474	0.996624
366.772284	0.997419
367.160031	0.995837
367.547715	0.997261
367.935336	0.995692
368.322893	0.994092
368.710388	0.993372
369.097820	0.991781
369.485189	0.989027
369.872495	0.987003
370.259738	0.985747
370.646918	0.981763
371.034035	0.980463
371.421090	0.976623
371.808081	0.971889
372.195010	0.970418
372.581875	0.963645
372.968678	0.959256
373.355418	0.956436
373.742096	0.947746
374.128710	0.944270
374.515262	0.939838
374.901751	0.933096
375.288177	0.929272
375.674540	0.921831
376.060841	0.916547
376.447079	0.909684
376.833254	0.902537
377.219367	0.898382
377.605417	0.886760
377.991404	0.883556
378.377329	0.877304
378.763191	0.871003
379.148991	0.861525
379.534727	0.853525
379.920402	0.845511
380.306013	0.842396
380.691563	0.830420
381.077049	0.821839
381.462474	0.819642
381.847835	0.808055
382.233134	0.803024
382.618371	0.803092
383.003545	0.785791
383.388657	0.783745
383.773706	0.776102
384.158693	0.771978
384.543618	0.767291
384.928480	0.756985
385.313280	0.748083
385.698017	0.746178
386.082692	0.736686
386.467305	0.734449
386.851856	0.728713
387.236344	0.724303
387.620770	0.717980
388.005133	0.712756
388.389435	0.706387
388.773674	0.704110
389.157851	0.695638
389.541965	0.693789
389.926018	0.700486
390.310008	0.686607
390.693936	0.684425
391.077802	0.675646
391.461606	0.677793
391.845348	0.667550
392.229027	0.665877
392.612645	0.664370
392.996200	0.651222
393.379694	0.644050
393.763125	0.634431
394.146494	0.639665
394.529801	0.629510
394.913047	0.622332
395.296230	0.627687
395.679351	0.619085
396.062410	0.616155
396.445408	0.618431
396.828343	0.613683
397.211217	0.609371
397.594028	0.621332
397.976778	0.611678
398.359466	0.608465
398.742092	0.602574
399.124656	0.615256
399.507158	0.603847
399.889598	0.600388
400.271977	0.591339
400.654294	0.595673
401.036549	0.595971
401.418742	0.598759
401.800874	0.584791
402.182944	0.582394
402.564952	0.573353
402.946898	0.575263
403.328783	0.576029
403.710606	0.587535
404.092367	0.562087
404.474067	0.567546
404.855705	0.566640
405.237282	0.575113
405.618797	0.561837
406.000250	0.556353
406.381642	0.547164
406.762972	0.552147
407.144240	0.550943
407.525447	0.550486
407.906593	0.543152
408.287677	0.539159
408.668700	0.547523
409.049661	0.541714
409.430560	0.536859
409.811399	0.544706
410.192176	0.526957
410.572891	0.533345
410.953545	0.522184
411.334138	0.535798
411.714669	0.528162
412.095139	0.540102
412.475547	0.524076
412.855894	0.526164
413.236180	0.525592
413.616405	0.530675
413.996568	0.521255
414.376670	0.527915
414.756711	0.531381
415.136691	0.528832
415.516609	0.520224
415.896466	0.516884
416.276262	0.512794
416.655997	0.514427
417.035670	0.495964
417.415283	0.487542
417.794834	0.492533
418.174324	0.497939
418.553753	0.506872
418.933121	0.489203
419.312428	0.483694
419.691674	0.489287
420.070859	0.477268
420.449983	0.485488
420.829045	0.474743
421.208047	0.483407
421.586988	0.476094
421.965867	0.474777
422.344686	0.464633
422.723444	0.476462
423.102141	0.493770
423.480777	0.465935
423.859352	0.487843
424.237866	0.464391
424.616319	0.465555
424.994712	0.455880
425.373044	0.466595
425.751314	0.454481
426.129524	0.471667
426.507673	0.453877
426.885762	0.447690
427.263789	0.454271
427.641756	0.463489
428.019662	0.453798
428.397508	0.452829
428.775292	0.457303
429.153016	0.448941
429.530679	0.455596
429.908282	0.448293
430.285824	0.458856
430.663305	0.437191
431.040726	0.458586
431.418086	0.457942
431.795385	0.450383
432.172624	0.448845
432.549802	0.449363
432.926920	0.448231
433.303977	0.447706
433.680974	0.444495
434.057910	0.443186
434.434786	0.442247
434.811601	0.445581
435.188355	0.427743
435.565050	0.437131
435.941683	0.438339
436.318257	0.421860
436.694770	0.423573
437.071222	0.421640
437.447614	0.425571
437.823946	0.432039
438.200218	0.421809
438.576429	0.431320
438.952580	0.424466
439.328670	0.421367
439.704700	0.427351
440.080670	0.428840
440.456580	0.410111
440.832429	0.418174
441.208218	0.429402
441.583947	0.417960
441.959616	0.417446
442.335224	0.422812
442.710773	0.413381
443.086261	0.412032
443.461689	0.426008
443.837057	0.415751
444.212365	0.405604
444.587612	0.412508
444.962800	0.402882
445.337927	0.404273
445.712995	0.430152
446.088002	0.392218
446.462949	0.402812
446.837837	0.407381
447.212664	0.396504
447.587431	0.388061
447.962139	0.357833
448.336786	0.317283
448.711374	0.327727
449.085901	0.372533
449.460369	0.376403
449.834776	0.379967
450.209124	0.359413
450.583412	0.351645
450.957640	0.344905
451.331808	0.356977
451.705917	0.379794
452.079965	0.384807
452.453954	0.372942
452.827883	0.379744
453.201752	0.374686
453.575562	0.386040
453.949311	0.374556
454.323001	0.380821
454.696632	0.377011
455.070202	0.369472
455.443713	0.361436
455.817164	0.356328
456.190556	0.352076
456.563888	0.349135
456.937160	0.346982
457.310373	0.364600
457.683526	0.363447
458.056619	0.369810
458.429653	0.370623
458.802628	0.374605
459.175542	0.368777
459.548398	0.352230
459.921194	0.345233
460.293930	0.345917
460.666607	0.323986
461.039224	0.313697
461.411782	0.309730
461.784280	0.309447
462.156719	0.314151
462.529099	0.319190
462.901419	0.335949
463.273680	0.340811
463.645882	0.341113
464.018024	0.348314
464.390106	0.341791
464.762130	0.327897
465.134094	0.313058
465.505999	0.284725
465.877845	0.258236
466.249631	0.246346
466.621358	0.254031
466.993026	0.268753
467.364634	0.275932
467.736184	0.286266
468.107674	0.296701
468.479105	0.298189
468.850477	0.306172
469.221790	0.314286
469.593043	0.326058
469.964238	0.333075
470.335373	0.334315
470.706449	0.335444
471.077467	0.338739
471.448425	0.306297
471.819324	0.286443
472.190164	0.287894
472.560945	0.317149
472.931667	0.341588
473.302330	0.348008
473.672934	0.362454
474.043479	0.354433
474.413965	0.359785
474.784393	0.367139
475.154761	0.365903
475.525070	0.367282
475.895321	0.375984
476.265513	0.374741
476.635645	0.374548
477.005719	0.379515
477.375734	0.380791
477.745691	0.379245
478.115588	0.380796
478.485427	0.380559
478.855207	0.375080
479.224928	0.367438
479.594591	0.362439
479.964194	0.370495
480.333739	0.375166
480.703226	0.382893
481.072653	0.387446
481.442022	0.391898
481.811333	0.395018
482.180584	0.403517
482.549777	0.414414
482.918912	0.422918
483.287988	0.429500
483.657005	0.435130
484.025964	0.446766
484.394864	0.451439
484.763706	0.459170
485.132489	0.469069
485.501213	0.476907
485.869879	0.481788
486.238487	0.492194
486.607036	0.496835
486.975527	0.508614
487.343959	0.511849
487.712333	0.519520
488.080648	0.526406
488.448905	0.534933
488.817104	0.542413
489.185244	0.546030
489.553326	0.552826
489.921350	0.554359
490.289315	0.550327
490.657222	0.553669
491.025070	0.563680
491.392861	0.572318
491.760593	0.584403
492.128267	0.596005
492.495883	0.605994
492.863440	0.617824
493.230939	0.629084
493.598380	0.637124
493.965763	0.646612
494.333088	0.653117
494.700354	0.663066
495.067563	0.668193
495.434713	0.678843
495.801805	0.683880
496.168839	0.692488
496.535815	0.700781
496.902733	0.706498
497.269593	0.715430
497.636395	0.720547
498.003139	0.728888
498.369825	0.736413
498.736453	0.741855
499.103023	0.749078
499.469535	0.755959
499.835989	0.762518
500.202385	0.768990
500.568723	0.776430
500.935003	0.780217
501.301226	0.790175
501.667390	0.792622
502.033497	0.799087
502.399546	0.805278
502.765537	0.812088
503.131470	0.817981
503.497345	0.822896
503.863163	0.830421
504.228923	0.834788
504.594625	0.838329
504.960269	0.846437
505.325856	0.850622
505.691385	0.856098
506.056856	0.859919
506.422270	0.864904
506.787625	0.869701
507.152924	0.874798
507.518164	0.878221
507.883347	0.883368
508.248472	0.887774
508.613540	0.890744
508.978550	0.895968
509.343503	0.899806
509.708398	0.903791
510.073236	0.906930
510.438016	0.910279
510.802738	0.913276
511.167403	0.917076
511.532010	0.920717
511.896561	0.923427
512.261053	0.925958
512.625488	0.929730
512.989866	0.932585
513.354186	0.935323
513.718449	0.938594
514.082655	0.940809
514.446803	0.943179
514.810894	0.946031
515.174927	0.949226
515.538904	0.951018
515.902822	0.953105
516.266684	0.954964
516.630488	0.957362
516.994235	0.958606
517.357925	0.961595
517.721558	0.962483
518.085133	0.964036
518.448651	0.965718
518.812112	0.967881
519.175516	0.969120
519.538863	0.970371
519.902152	0.972194
520.265385	0.973287
520.628560	0.974428
520.991678	0.975484
521.354739	0.977469
521.717743	0.978032
522.080690	0.977886
522.443580	0.979870
522.806413	0.979666
523.169189	0.981537
523.531908	0.981195
523.894569	0.983596
524.257174	0.983886
524.619722	0.984201
524.982213	0.985326
525.344647	0.984885
525.707025	0.984945
526.069345	0.986369
526.431608	0.987367
526.793815	0.988129
527.155964	0.988354
527.518057	0.988802
527.880093	0.989261
528.242072	0.989553
528.603995	0.989873
528.965860	0.990363
529.327669	0.990428
529.689421	0.990039
530.051117	0.990854
530.412755	0.991094
530.774337	0.990754
531.135862	0.991885
531.497331	0.991703
531.858743	0.992359
532.220098	0.991220
532.581396	0.992485
532.942638	0.991938
533.303824	0.993273
533.664953	0.992047
534.026025	0.993601
534.387040	0.992745
534.747999	0.992618
535.108902	0.992819
535.469748	0.993913
535.830537	0.993607
536.191270	0.993199
536.551947	0.993298
536.912567	0.993377
537.273131	0.994095
537.633638	0.993163
537.994089	0.994128
538.354483	0.993982
538.714821	0.993217
539.075103	0.994063
539.435328	0.993967
539.795497	0.994338
540.155609	0.994853
540.515665	0.994432
540.875665	0.994051
541.235609	0.994707
541.595496	0.994058
541.955328	0.994564
542.315102	0.994398
542.674821	0.995134
543.034483	0.995337
543.394090	0.994171
543.753640	0.995498
544.113134	0.994038
544.472571	0.995998
544.831953	0.994919
545.191278	0.995217
545.550548	0.994463
545.909761	0.994394
546.268918	0.995365
546.628019	0.995352
546.987064	0.994883
547.346053	0.994506
547.704986	0.995443
548.063863	0.994449
548.422684	0.995037
548.781449	0.995047
549.140158	0.995176
549.498811	0.994720
549.857408	0.994729
550.215949	0.994560
550.574434	0.994988
550.932864	0.995863
551.291237	0.994708
551.649555	0.995596
552.007817	0.995406
552.366022	0.995357
552.724173	0.995770
553.082267	0.995179
553.440305	0.994806
553.798288	0.994219
554.156215	0.995210
554.514086	0.995756
554.871902	0.995603
555.229661	0.994931
555.587365	0.995430
555.945014	0.996279
556.302606	0.995268
556.660143	0.995946
557.017625	0.995514
557.375050	0.995268
557.732421	0.994968
558.089735	0.994824
558.446994	0.994790
558.804197	0.995205
559.161345	0.994763
559.518437	0.995007
559.875474	0.995278
560.232455	0.995246
560.589381	0.995169
560.946251	0.995044
561.303065	0.994996
561.659825	0.995224
562.016528	0.996023
562.373177	0.995262
562.729770	0.995207
563.086307	0.994672
563.442789	0.995282
563.799216	0.994708
564.155587	0.995260
564.511904	0.995593
564.868164	0.994792
565.224370	0.994953
565.580520	0.994727
565.936615	0.994996
566.292654	0.995537
566.648638	0.996141
567.004567	0.995194
567.360441	0.995680
567.716260	0.995191
568.072023	0.994853
568.427732	0.995751
568.783385	0.995338
569.138982	0.995395
569.494525	0.995725
569.850013	0.995599
570.205445	0.995813
570.560823	0.995862
570.916145	0.995072
571.271412	0.995844
571.626625	0.996545
571.981782	0.995170
572.336884	0.995726
572.691931	0.995718
573.046923	0.995947
573.401860	0.995099
573.756743	0.995326
574.111570	0.995492
574.466342	0.996068
574.821059	0.995585
575.175722	0.995604
575.530330	0.994993
575.884882	0.995013
576.239380	0.995691
576.593823	0.994996
576.948211	0.995563
577.302544	0.995530
577.656823	0.995886
578.011047	0.995394
578.365216	0.996113
578.719330	0.995657
579.073389	0.995081
579.427394	0.995465
579.781344	0.996160
580.135239	0.994206
580.489080	0.995823
580.842866	0.995262
581.196597	0.994811
581.550273	0.995306
581.903895	0.995735
582.257463	0.995156
582.610975	0.995215
582.964434	0.995013
583.317837	0.995918
583.671186	0.995682
584.024481	0.995556
584.377721	0.995041
584.730906	0.996000
585.084037	0.995837
585.437113	0.996025
585.790135	0.995735
586.143103	0.995770
586.496016	0.994942
586.848874	0.995590
587.201679	0.995429
587.554428	0.994979
587.907124	0.996028
588.259765	0.995437
588.612352	0.995825
588.964884	0.995877
589.317362	0.995225
589.669786	0.994609
590.022155	0.994776
590.374470	0.995588
590.726731	0.994439
591.078937	0.996057
591.431090	0.995598
591.783188	0.995211
592.135232	0.996122
592.487222	0.995721
592.839157	0.995583
593.191038	0.995494
593.542866	0.995435
593.894639	0.994464
594.246358	0.995914
594.598022	0.995516
594.949633	0.995439
595.301190	0.994848
595.652692	0.994466
596.004141	0.995376
596.355535	0.995512
596.706876	0.995767
597.058162	0.995105
597.409395	0.995696
597.760573	0.995248
598.111698	0.995297
598.462768	0.994529
598.813785	0.994589
599.164748	0.994948
599.515657	0.995356
599.866511	0.995535
600.217312	0.996505
600.568060	0.995251
600.918753	0.995657
601.269392	0.995906
601.619978	0.995525
601.970510	0.995155
602.320988	0.995543
602.671412	0.994668
603.021783	0.995347
603.372100	0.996231
603.722363	0.995794
604.072572	0.995925
604.422728	0.995008
604.772830	0.995077
605.122878	0.995154
605.472872	0.996047
605.822813	0.995587
606.172701	0.995700
606.522534	0.996170
606.872314	0.995613
607.222041	0.995450
607.571714	0.995792
607.921333	0.995389
608.270899	0.994760
608.620411	0.995339
608.969870	0.996256
609.319276	0.995096
609.668627	0.996111
610.017926	0.995758
610.367171	0.995687
610.716362	0.995447
611.065500	0.994931
611.414585	0.994958
611.763616	0.994591
612.112594	0.994846
612.461518	0.995012
612.810389	0.995683
613.159207	0.995482
613.507971	0.994901
613.856682	0.996423
614.205340	0.994748
614.553945	0.994925
614.902496	0.995156
615.250994	0.996170
615.599439	0.995057
615.947830	0.994982
616.296169	0.994965
616.644454	0.995070
616.992686	0.995480
617.340864	0.995790
617.688990	0.994691
618.037063	0.995528
618.385082	0.994773
618.733048	0.994994
619.080961	0.994998
619.428821	0.995384
619.776628	0.994933
620.124382	0.995107
620.472083	0.995577
620.819731	0.995289
621.167326	0.995740
621.514868	0.995829
621.862357	0.995076
622.209793	0.995512
622.557176	0.994610
622.904506	0.994838
623.251783	0.995068
623.599007	0.994959
623.946179	0.994262
624.293297	0.995402
624.640363	0.995541
624.987376	0.994683
625.334336	0.995106
625.681243	0.995347
626.028097	0.995597
626.374899	0.994830
626.721647	0.996136
627.068343	0.995728
627.414987	0.995222
627.761577	0.994948
628.108115	0.994544
628.454600	0.995649
628.801032	0.996007
629.147412	0.995446
629.493739	0.996201
629.840014	0.994951
630.186236	0.995054
630.532405	0.995426
630.878521	0.995318
631.224585	0.996325
631.570597	0.995103
631.916556	0.994947
632.262462	0.994480
632.608316	0.995832
632.954117	0.995106
633.299866	0.994570
633.645562	0.995176
633.991206	0.995720
634.336797	0.995979
634.682336	0.996415
635.027823	0.995340
635.373257	0.995311
635.718639	0.995519
636.063968	0.994854
636.409245	0.995354
636.754470	0.995498
637.099642	0.995090
637.444762	0.995546
637.789829	0.995197
638.134845	0.995126
638.479808	0.995351
638.824719	0.995915
639.169577	0.995286
639.514383	0.995446
639.859137	0.995986
640.203839	0.996133
640.548489	0.995616
640.893086	0.995499
641.237632	0.995485
641.582125	0.994926
641.926566	0.996499
642.270955	0.995700
642.615292	0.995126
642.959576	0.995506
643.303809	0.995845
643.647990	0.995166
643.992118	0.995516
644.336195	0.994529
644.680219	0.995839
645.024192	0.995821
645.368112	0.995185
645.711981	0.994317
646.055797	0.995931
646.399562	0.994918
646.743274	0.996531
647.086935	0.994816
647.430544	0.995499
647.774101	0.995060
648.117606	0.995818
648.461059	0.996204
648.804460	0.994790
649.147810	0.995108
649.491108	0.995071
649.834354	0.995366
650.177548	0.994531
650.520690	0.994996
650.863781	0.995509
651.206820	0.995931
651.549807	0.995441
651.892742	0.995572
652.235626	0.995518
652.578458	0.995707
652.921238	0.995062
653.263967	0.995694
653.606644	0.995598
653.949269	0.996134
654.291843	0.994728
654.634365	0.995529
654.976836	0.994701
655.319255	0.996489
655.661622	0.995431
656.003938	0.994756
656.346203	0.994771
656.688416	0.995434
657.030577	0.995720
657.372687	0.995975
657.714746	0.995004
658.056753	0.995737
658.398708	0.994734
658.740612	0.996123
659.082465	0.996172
659.424266	0.995865
659.766016	0.994914
660.107715	0.995961
660.449362	0.995046
660.790958	0.994890
661.132503	0.995916
661.473996	0.995240
661.815438	0.995727
662.156829	0.995593
662.498168	0.995728
662.839456	0.994750
663.180693	0.995554
663.521879	0.995394
663.863013	0.995414
664.204097	0.995373
664.545129	0.994725
664.886110	0.995250
665.227040	0.995253
665.567918	0.995141
665.908746	0.994726
666.249522	0.995237
666.590248	0.995424
666.930922	0.994857
667.271545	0.995376
667.612118	0.995052
667.952639	0.994669
668.293109	0.994757
668.633528	0.994724
668.973896	0.995835
669.314213	0.993952
669.654480	0.994817
669.994695	0.994577
670.334859	0.995540
670.674973	0.995087
671.015035	0.995330
671.355047	0.995029
671.695008	0.994685
672.034918	0.994774
672.374777	0.995132
672.714585	0.995380
673.054342	0.995343
673.394049	0.994264
673.733705	0.994563
674.073310	0.994857
674.412864	0.994512
674.752368	0.994636
675.091820	0.995276
675.431223	0.995931
675.770574	0.994631
676.109875	0.994869
676.449125	0.994310
676.788324	0.994218
677.127473	0.995697
677.466571	0.994864
677.805619	0.994502
678.144616	0.994731
678.483562	0.994863
678.822458	0.996080
679.161303	0.994967
679.500098	0.995763
679.838842	0.995276
680.177535	0.995575
680.516179	0.994984
680.854771	0.994733
681.193314	0.994744
681.531805	0.995174
681.870247	0.994853
682.208638	0.995514
682.546978	0.994664
682.885268	0.994567
683.223508	0.994276
683.561697	0.994968
683.899836	0.994918
684.237925	0.993054
684.575963	0.994278
684.913951	0.994598
685.251889	0.995158
685.589776	0.994662
685.927614	0.994224
686.265401	0.994435
686.603137	0.994303
686.940824	0.994519
687.278460	0.995151
687.616046	0.993529
687.953582	0.994552
688.291068	0.994930
688.628504	0.994669
688.965889	0.993721
689.303224	0.992577
689.640510	0.993882
689.977745	0.994033
690.314930	0.993962
690.652065	0.994769
690.989150	0.993753
691.326185	0.994137
691.663170	0.994403
692.000105	0.995757
692.336990	0.994657
692.673825	0.994315
693.010610	0.995056
693.347345	0.994834
693.684030	0.994188
694.020665	0.994252
694.357251	0.994901
694.693786	0.995285
695.030272	0.993493
695.366707	0.995001
695.703093	0.994350
696.039429	0.994340
696.375716	0.995228
696.711952	0.994558
697.048139	0.995391
697.384276	0.995182
697.720363	0.995064
698.056400	0.994134
698.392388	0.993985
698.728326	0.994932
699.064214	0.995729
699.400053	0.994206
699.735842	0.996069
700.071581	0.994259
700.407270	0.993958
700.742910	0.995621
701.078501	0.995298
701.414042	0.995742
701.749533	0.994436
702.084974	0.995548
702.420366	0.995474
702.755709	0.995244
703.091002	0.994559
703.426246	0.995356
703.761440	0.995351
704.096584	0.994780
704.431679	0.994851
704.766725	0.994993
705.101721	0.996059
705.436668	0.995070
705.771565	0.994887
706.106413	0.994192
706.441212	0.995724
706.775961	0.996312
707.110661	0.994786
707.445311	0.994540
707.779913	0.995782
708.114465	0.995935
708.448967	0.995515
708.783421	0.995719
709.117825	0.994700
709.452180	0.994602
709.786485	0.995445
710.120742	0.994043
710.454949	0.994032
710.789107	0.994986
711.123216	0.994129
711.457275	0.993213
711.791286	0.994056
712.125247	0.995540
712.459159	0.994602
712.793023	0.995028
713.126837	0.994942
713.460602	0.994150
713.794318	0.993406
714.127985	0.993900
714.461602	0.994147
714.795171	0.993673
715.128691	0.994248
715.462162	0.995295
715.795584	0.995068
716.128957	0.995289
716.462281	0.995322
716.795556	0.994013
717.128782	0.996177
717.461960	0.994158
717.795088	0.994944
718.128167	0.996428
718.461198	0.995735
718.794180	0.995659
719.127113	0.995156
719.459997	0.994857
719.792833	0.995292
720.125619	0.994713
720.458357	0.994787
720.791046	0.996026
721.123686	0.995012
721.456278	0.995165
721.788821	0.995592
722.121315	0.996147
722.453761	0.995311
722.786158	0.995005
723.118506	0.995250
723.450805	0.995101
723.783056	0.995178
724.115259	0.994587
724.447412	0.995816
724.779518	0.996175
725.111574	0.995577
725.443582	0.996052
725.775542	0.995142
726.107453	0.996181
726.439315	0.995682
726.771129	0.995195
727.102895	0.995234
727.434612	0.995109
727.766281	0.994618
728.097901	0.994129
728.429473	0.995513
728.760996	0.994519
729.092471	0.994453
729.423897	0.995717
729.755276	0.994995
730.086606	0.994196
730.417887	0.995038
730.749120	0.995482
731.080305	0.995274
731.411442	0.994653
731.742530	0.993022
732.073570	0.993956
732.404562	0.995300
732.735506	0.994576
733.066401	0.995361
733.397249	0.994361
733.728048	0.994927
734.058798	0.995075
734.389501	0.995715
734.720156	0.994954
735.050762	0.995418
735.381320	0.995843
735.711831	0.994840
736.042293	0.995146
736.372707	0.996169
736.703073	0.994689
737.033391	0.995060
737.363661	0.996012
737.693883	0.995001
738.024056	0.994641
738.354182	0.996131
738.684260	0.995252
739.014290	0.995233
739.344272	0.994767
739.674207	0.995909
740.004093	0.995228
740.333931	0.994709
740.663722	0.995165
740.993464	0.995206
741.323159	0.994371
741.652806	0.995496
741.982405	0.995592
742.311956	0.996163
742.641460	0.995672
742.970915	0.995251
743.300323	0.994097
743.629683	0.995009
743.958996	0.996106
744.288260	0.994921
744.617477	0.995878
744.946647	0.995744
745.275768	0.995459
745.604842	0.994827
745.933869	0.996366
746.262847	0.995887
746.591778	0.994765
746.920662	0.995687
747.249498	0.996670
747.578286	0.996677
747.907027	0.996304
748.235720	0.995958
748.564365	0.996005
748.892963	0.994091
749.221514	0.996505
749.550017	0.994816
749.878473	0.995779
750.206881	0.996713
750.535242	0.995474
750.863555	0.994936
751.191821	0.995521
751.520039	0.995333
751.848210	0.994411
752.176334	0.995567
752.504411	0.996282
752.832440	0.995135
753.160421	0.996197
753.488356	0.995978
753.816243	0.996214
754.144082	0.995560
754.471875	0.995689
754.799620	0.995672
755.127318	0.995859
755.454969	0.994853
755.782572	0.997503
756.110129	0.995144
756.437638	0.997274
756.765100	0.997356
757.092515	0.996340
757.419882	0.996185
757.747203	0.995416
758.074477	0.996429
758.401703	0.996468
758.728882	0.995209
759.056014	0.995177
759.383099	0.995769
759.710138	0.994698
760.037129	0.995413
760.364073	0.995986
760.690970	0.994258
761.017820	0.994688
761.344623	0.996245
761.671379	0.996478
761.998088	0.995492
762.324751	0.994904
762.651366	0.994750
762.977935	0.993054
763.304456	0.993249
763.630931	0.991137
763.957359	0.990940
764.283740	0.991591
764.610074	0.994056
764.936362	0.994123
765.262602	0.993828
765.588796	0.995138
765.914943	0.994930
766.241044	0.995793
766.567097	0.995750
766.893104	0.995657
767.219064	0.994877
767.544978	0.995427
767.870845	0.996298
768.196665	0.996225
768.522438	0.996627
768.848165	0.997129
769.173846	0.997143
769.499479	0.997852
769.825066	0.996858
770.150607	0.997824
770.476101	0.996315
770.801548	0.997117
771.126949	0.997291
771.452303	0.996783
771.777611	0.997499
772.102872	0.996817
772.428087	0.996216
772.753256	0.997168
773.078378	0.996244
773.403453	0.995959
773.728482	0.998533
774.053465	0.996600
774.378401	0.997626
774.703291	0.997885
775.028135	0.999632
775.352932	0.995827
775.677683	0.998113
776.002388	0.996736
776.327046	0.996396
776.651658	0.998970
776.976224	0.998554
777.300743	0.997134
777.625216	0.996983
777.949643	0.997370
778.274024	0.997135
778.598359	0.998281
778.922647	0.997490
779.246889	0.997397
779.571086	0.997188
779.895236	0.998045
780.219339	0.998386
780.543397	0.997479
780.867409	0.997813
781.191374	0.997520
781.515294	0.999033
781.839167	0.997352
782.162995	0.997574
782.486776	0.998397
782.810511	0.997784
783.134201	0.997581
783.457844	0.997838
783.781441	0.997478
784.104993	0.996768
784.428498	0.998455
784.751958	0.998978
785.075372	0.998191
785.398739	0.997720
785.722061	0.997383
786.045337	0.997857
786.368568	0.996974
786.691752	0.997178
787.014891	0.997334
787.337983	0.996409
787.661030	0.996646
787.984031	0.997372
788.306987	0.996866
788.629897	0.994854
788.952760	0.996488
789.275579	0.997090
789.598351	0.996362
789.921078	0.997432
790.243759	0.997338
790.566395	0.997723
790.888984	0.997908
791.211529	0.997417
791.534027	0.998101
791.856480	0.997688
792.178888	0.997792
792.501249	0.997138
792.823566	0.999361
793.145836	0.997686
793.468062	0.998490
793.790241	0.998197
794.112375	0.996985
794.434464	0.998021
794.756507	0.998451
795.078505	0.997260
795.400457	0.999188
795.722364	0.997143
796.044226	0.997281
796.366042	0.995930
796.687812	0.996856
797.009538	0.996823
797.331218	0.997525
797.652852	0.999066
797.974442	0.996443
798.295986	0.997324
798.617484	0.996961
798.938938	0.996640
799.260346	0.995898
799.581709	0.996895
799.903026	0.998464
800.224299	0.997762
800.545526	0.997747
800.866708	0.998177
801.187845	0.998284
801.508936	0.997845
801.829983	0.997556
802.150984	0.998300
802.471940	0.998166
802.792851	0.996903
803.113717	0.999274
803.434538	0.998601
803.755314	0.999027
804.076045	0.999064
804.396731	0.998303
804.717372	0.997206
805.037967	0.998173
805.358518	0.998672
805.679024	0.997805
805.999485	0.998040
806.319901	0.997476
806.640272	0.999196
806.960598	0.998777
807.280879	0.997373
807.601115	0.998010
807.921306	0.998990
808.241453	0.997749
808.561554	0.998133
808.881611	0.998339
809.201623	0.997972
809.521590	0.997344
809.841513	0.998150
810.161390	0.996680
810.481223	0.996561
810.801011	0.997184
811.120755	0.998592
811.440453	0.997194
811.760107	0.999537
812.079716	0.997599
812.399281	0.997720
812.718801	0.997740
813.038276	0.998188
813.357707	0.997879
813.677093	0.998398
813.996434	0.998294
814.315731	0.998535
814.634983	0.998628
814.954191	0.998916
815.273354	0.996842
815.592473	0.997863
815.911547	0.997085
816.230577	0.997735
816.549562	0.997816
816.868502	0.996646
817.187399	0.998641
817.506250	0.998348
817.825058	0.997560
818.143821	0.997006
818.462539	0.997026
818.781213	0.997011
819.099843	0.997654
819.418429	0.996216
819.736970	0.996409
820.055466	0.994107
820.373919	0.994420
820.692327	0.993139
821.010691	0.991952
821.329011	0.989163
821.647286	0.986114
821.965517	0.983798
822.283704	0.979729
822.601847	0.977945
822.919945	0.978624
823.237999	0.981193
823.556010	0.982479
823.873976	0.984595
824.191897	0.986557
824.509775	0.987639
824.827609	0.989348
825.145398	0.990405
825.463144	0.989998
825.780845	0.990465
826.098502	0.989451
826.416116	0.989803
826.733685	0.988263
827.051210	0.985583
827.368692	0.985939
827.686129	0.987512
828.003522	0.990666
828.320872	0.991034
828.638177	0.992644
828.955439	0.993572
829.272656	0.994453
829.589830	0.995084
829.906960	0.996882
830.224046	0.994963
830.541088	0.995849
830.858086	0.996020
831.175041	0.997049
831.491952	0.996328
831.808819	0.996852
832.125642	0.996024
832.442421	0.995956
832.759157	0.996104
833.075849	0.994261
833.392497	0.992624
833.709101	0.990840
834.025662	0.990444
834.342179	0.990276
834.658653	0.993694
834.975083	0.994231
835.291469	0.995026
835.607811	0.996271
835.924110	0.995583
836.240366	0.998482
836.556578	0.997751
836.872746	0.997694
837.188871	0.997065
837.504952	0.997381
837.820990	0.998194
838.136984	0.997970
838.452935	0.999008
838.768842	0.998615
839.084706	0.998414
839.400526	0.998170
839.716303	0.995314
840.032037	0.996159
840.347727	0.994678
840.663373	0.995971
840.978977	0.995753
841.294537	0.997130
841.610054	0.997611
841.925527	0.998669
842.240957	0.998146
842.556344	0.997749
842.871687	0.998725
843.186987	0.999397
843.502244	0.998765
843.817458	0.997748
844.132629	0.998659
844.447756	0.998531
844.762840	0.999355
845.077881	1.000780
845.392879	0.998019
845.707833	0.999837
846.022745	0.998946
846.337613	0.999478
846.652438	1.000254
846.967221	0.999813
847.281960	0.999554
847.596656	0.999552
847.911309	0.999947
848.225919	0.998830
848.540485	0.999377
848.855009	1.000050
849.169490	0.998671
849.483928	1.000332
849.798323	0.998624
850.112675	1.000343
850.426984	0.999893
850.741251	0.999022
851.055474	0.998878
851.369654	1.000145
851.683792	0.999083
851.997887	0.999224
852.311938	0.999248
852.625947	0.998471
852.939914	0.998934
853.253837	1.000115
853.567718	1.000802
853.881555	1.000267
854.195350	0.999967
854.509103	1.000454
854.822812	0.999459
855.136479	1.000638
855.450103	0.999802
855.763685	1.000211
856.077224	1.000054
856.390720	0.999732
856.704173	0.999951
857.017584	1.000726
857.330953	0.999270
857.644278	0.999524
857.957561	0.999575
858.270802	0.999551
858.584000	0.999243
858.897155	0.999485
859.210268	0.999433
859.523339	1.000282
859.836367	0.999920
860.149352	0.999205
860.462295	0.999346
860.775195	0.999252
861.088054	0.998372
861.400869	0.999291
861.713642	0.997763
862.026373	1.000069
862.339062	1.001130
862.651708	0.999783
862.964312	0.998785
863.276873	0.999427
863.589392	0.999137
863.901869	1.000378
864.214303	0.998829
864.526696	0.999197
864.839045	0.999349
865.151353	0.999390
865.463619	0.998096
865.775842	0.999146
866.088023	0.999590
866.400162	0.999810
866.712258	1.001392
867.024313	1.000090
867.336325	0.999951
867.648296	1.000475
867.960224	0.999995
868.272110	1.000046
868.583954	0.999279
868.895755	0.999538
869.207515	0.999310
869.519233	0.999801
869.830909	0.998644
870.142542	0.998547
870.454134	0.998373
870.765684	0.998932
871.077191	0.999064
871.388657	0.999162
871.700081	0.999750
872.011463	1.000027
872.322803	0.998622
872.634101	0.998834
872.945357	0.998448
873.256571	0.998234
873.567744	0.998734
873.878874	0.999071
874.189963	0.998766
874.501010	0.998972
874.812015	0.998904
875.122979	0.999141
875.433900	0.997598
875.744780	0.998990
876.055618	0.997364
876.366415	0.998215
876.677169	0.997406
876.987882	0.998107
877.298554	0.998961
877.609183	0.997592
877.919771	0.998475
878.230317	0.998215
878.540822	0.996463
878.851285	0.997107
879.161707	0.997501
879.472087	0.997890
879.782425	0.993755
880.092722	0.993837
880.402977	0.990552
880.713191	0.987314
881.023363	0.982744
881.333494	0.980862
881.643583	0.981215
881.953631	0.980637
882.263637	0.981396
882.573602	0.981968
882.883526	0.983908
883.193408	0.986499
883.503248	0.986752
883.813048	0.988692
884.122806	0.990559
884.432522	0.990318
884.742197	0.993642
885.051831	0.992613
885.361424	0.994301
885.670975	0.995715
885.980485	0.994923
886.289954	0.996155
886.599382	0.995927
886.908768	0.997109
887.218113	0.996184
887.527417	0.997971
887.836680	0.997480
888.145901	0.998375
888.455082	0.998990
888.764221	0.997808
889.073319	0.998764
889.382376	0.999728
889.691392	0.997356
890.000366	0.999000
890.309300	0.998549
890.618193	0.997969
890.927044	0.998614
891.235855	0.997138
891.544625	0.997935
891.853353	0.998470
892.162041	0.998279
892.470687	0.998047
892.779293	0.997067
893.087858	0.996051
893.396381	0.996661
893.704864	0.994935
894.013306	0.994692
894.321707	0.993290
894.630068	0.990475
894.938387	0.990861
895.246665	0.990929
895.554903	0.990220
895.863100	0.993225
896.171256	0.993135
896.479371	0.994028
896.787446	0.994826
897.095480	0.995445
897.403473	0.996501
897.711425	0.996661
898.019336	0.997542
898.327207	0.997896
898.635038	0.996979
898.942827	0.998309
899.250576	0.997376
899.558284	0.997966
899.865952	0.997065
900.173579	0.998931
900.481165	0.998206
900.788711	0.997661
901.096216	0.997542
901.403681	1.000051
901.711105	0.998424
902.018489	0.997810
902.325832	0.998135
902.633135	0.998362
902.940397	0.999043
903.247619	0.996924
903.554800	0.994997
903.861941	0.994903
904.169041	0.989697
904.476101	0.988401
904.783121	0.988080
905.090100	0.989619
905.397039	0.990593
905.703938	0.992183
906.010796	0.994722
906.317614	0.994354
906.624391	0.995799
906.931129	0.997747
907.237826	0.996624
907.544483	0.997781
907.851099	0.997878
908.157675	0.998338
908.464211	0.999712
908.770707	0.997775
909.077163	1.000318
909.383578	0.999302
909.689954	0.998360
909.996289	0.998321
910.302584	0.999155
910.608839	1.000529
910.915054	1.000442
911.221229	1.000814
911.527363	0.997636
911.833458	0.999524
912.139513	0.999045
912.445527	0.999721
912.751502	0.998404
913.057436	0.997845
913.363331	0.997911
913.669186	0.998748
913.975000	0.998151
914.280775	0.997694
914.586510	0.996740
914.892205	0.995602
915.197859	0.993496
915.503475	0.992776
915.809050	0.991200
916.114585	0.987886
916.420081	0.988857
916.725536	0.990146
917.030952	0.989674
917.336328	0.991690
917.641665	0.991166
917.946961	0.991277
918.252218	0.993009
918.557435	0.993540
918.862612	0.995614
919.167750	0.995697
919.472848	0.997256
919.777906	0.997244
920.082925	0.998573
920.387904	0.998237
920.692843	0.996564
920.997743	0.997223
921.302603	0.998340
921.607423	0.998101
921.912204	0.998376
922.216946	1.000704
922.521647	0.999261
922.826310	0.998550
923.130932	0.999508
923.435516	0.999759
923.740059	0.998861
924.044564	0.998943
924.349028	0.999187
924.653454	1.000180
924.957840	0.999540
925.262186	0.999332
925.566493	0.998840
925.870761	0.997849
926.174989	0.999698
926.479178	0.999496
926.783328	1.000352
927.087438	0.999600
927.391509	0.998606
927.695541	1.000554
927.999533	1.001241
928.303486	0.999392
928.607400	1.001304
928.911275	1.000118
929.215110	1.000694
929.518906	1.000928
929.822663	1.000976
930.126381	1.001866
930.430060	0.999935
930.733699	1.001034
931.037299	1.000800
931.340861	1.001815
931.644383	0.999801
931.947866	0.999599
932.251309	1.000961
932.554714	0.999850
932.858080	1.001168
933.161407	0.998933
933.464694	1.000683
933.767943	1.000893
934.071153	0.999833
934.374323	1.002117
934.677455	1.000870
934.980548	1.000793
935.283602	1.001045
935.586617	1.000384
935.889593	1.001545
936.192530	1.001743
936.495428	0.999622
936.798287	0.999831
937.101108	1.000015
937.403890	1.000040
937.706632	1.001681
938.009336	0.999710
938.312002	0.998621
938.614628	0.999218
938.917216	0.998595
939.219765	0.998838
939.522275	1.000049
939.824747	0.999502
940.127179	0.999592
940.429573	1.001202
940.731929	0.999494
941.034246	0.999530
941.336524	0.999026
941.638763	0.999607
941.940964	0.998659
942.243126	0.999306
942.545250	1.000414
942.847335	0.999697
943.149381	1.001128
943.451389	0.999411
943.753359	0.999950
944.055290	1.001856
944.357182	1.000479
944.659036	1.000400
944.960851	0.999518
945.262628	0.999831
945.564367	1.000266
945.866067	0.999691
946.167729	1.000053
946.469352	1.001049
946.770937	0.998632
947.072484	1.001543
947.373992	0.999889
947.675462	0.999222
947.976893	0.999745
948.278286	1.001373
948.579641	0.999917
948.880958	1.000365
949.182236	1.000741
949.483476	1.001210
949.784678	1.001207
950.085841	0.999301
950.386967	0.999529
950.688054	1.000298
950.989103	0.999453
951.290114	0.998639
951.591087	0.999344
951.892021	1.000816
952.192917	1.001070
952.493776	1.000113
952.794596	0.999696
953.095378	1.001023
953.396122	0.998684
953.696828	1.001576
953.997496	0.999839
954.298126	1.000110
954.598718	0.999090
954.899272	1.000161
955.199788	0.999713
955.500266	1.001078
955.800706	1.000745
956.101108	1.000045
956.401472	1.002608
956.701798	1.000718
957.002087	0.999867
957.302337	1.000817
957.602550	1.000308
957.902724	1.001035
958.202861	1.000471
958.502960	1.000420
958.803022	1.002130
959.103045	1.000569
959.403031	1.001328
959.702979	1.002683
960.002889	1.000447
960.302762	0.998793
960.602596	1.001409
960.902393	1.001423
961.202153	1.001266
961.501875	1.001633
961.801559	1.000645
962.101205	1.001709
962.400814	1.001103
962.700385	1.001043
962.999918	1.000957
963.299414	0.999621
963.598873	1.002201
963.898293	0.999964
964.197677	1.000844
964.497022	1.001321
964.796331	1.000546
965.095601	1.001256
965.394835	1.000714
965.694030	1.001395
965.993189	1.000230
966.292309	1.000945
966.591393	1.000626
966.890439	1.001665
967.189447	1.001320
967.488419	0.999773
967.787353	1.000904
968.086249	1.001406
968.385108	1.001276
968.683930	1.002240
968.982714	1.000761
969.281462	1.001274
969.580172	1.001208
969.878844	1.002708
970.177480	1.001145
970.476078	1.001852
970.774639	1.002517
971.073162	1.001653
971.371649	1.001117
971.670098	1.000124
971.968510	1.001856
972.266885	1.000651
972.565223	1.001121
972.863524	0.999452
973.161788	1.000244
973.460014	1.001764
973.758204	1.000722
974.056356	1.000537
974.354471	0.999898
974.652550	1.001063
974.950591	1.000057
975.248595	0.999390
975.546563	1.001196
975.844493	1.001736
976.142386	1.000726
976.440243	1.001642
976.738062	1.000883
977.035845	0.999776
977.333590	1.002255
977.631299	1.000528
977.928971	1.001659
978.226606	1.001130
978.524204	1.000506
978.821765	1.001604
979.119290	1.001868
979.416777	1.000297
979.714228	1.000484
980.011642	1.001623
980.309020	1.001415
980.606360	1.001161
980.903664	1.000765
981.200931	1.000608
981.498162	1.001227
981.795356	1.000998
982.092513	1.000843
982.389633	1.001477
982.686717	1.000158
982.983764	1.000742
983.280775	1.000533
983.577749	1.001681
983.874686	0.999256
984.171587	0.999382
984.468451	1.001067
984.765279	1.000915
985.062070	1.001745
985.358824	0.999955
985.655543	1.001407
985.952224	1.000700
986.248869	1.000292
986.545478	1.002453
986.842050	1.000828
987.138586	1.000163
987.435086	1.000925
987.731549	1.001502
988.027975	1.001738
988.324366	1.001261
988.620719	1.002334
988.917037	1.001367
989.213318	1.001985
989.509563	1.001513
989.805772	1.001262
990.101944	1.001921
990.398080	1.001800
990.694180	1.002021
990.990244	1.000450
991.286271	1.000873
991.582262	1.002159
991.878217	1.000100
992.174136	1.002043
992.470019	1.000578
992.765865	1.002629
993.061676	1.002088
993.357450	1.001708
993.653188	1.002400
993.948890	1.001305
994.244556	1.000687
994.540186	1.001079
994.835780	1.001637
995.131337	1.001430
995.426859	1.000015
995.722345	0.999745
996.017795	1.000762
996.313208	1.000759
996.608586	1.001147
996.903928	1.001022
997.199234	1.000142
997.494504	1.001957
997.789738	0.999126
998.084936	1.000799
998.380099	1.000153
998.675225	1.000984
998.970316	1.001781
999.265371	1.001796
999.560390	1.000479
999.855373	1.001057
1000.150320	1.000847
1000.445232	1.001372
1000.740108	1.000849
1001.034948	1.000600
1001.329752	1.002933
1001.624521	1.000509
1001.919254	1.000596
1002.213951	1.001094
1002.508613	1.000624
1002.803239	1.000344
1003.097829	1.003240
1003.392384	1.000223
1003.686903	1.002160
1003.981386	1.001345
1004.275834	1.003031
1004.570246	0.999866
1004.864623	1.000761
1005.158964	1.001425
1005.453270	1.001398
1005.747540	1.001294
1006.041775	1.001586
1006.335974	1.001107
1006.630138	1.001788
1006.924266	1.000070
1007.218359	0.999411
1007.512416	1.002211
1007.806438	1.001548
1008.100425	1.001083
1008.394376	1.002682
1008.688292	1.001073
1008.982172	1.000550
1009.276017	1.001212
1009.569827	1.001630
1009.863602	1.000414
1010.157341	1.002248
1010.451045	1.000804
1010.744714	1.002493
1011.038347	1.001989
1011.331945	1.001229
1011.625508	0.999542
1011.919036	0.999913
1012.212528	1.001521
1012.505986	1.000529
1012.799408	1.001519
1013.092795	1.001960
1013.386147	1.000412
1013.679464	1.001772
1013.972745	1.000043
1014.265992	1.001204
1014.559204	1.000941
1014.852380	1.001510
1015.145521	1.001015
1015.438628	1.000282
1015.731699	1.001772
1016.024736	1.002350
1016.317737	1.001024
1016.610703	1.001649
1016.903635	1.001977
1017.196531	1.001313
1017.489393	1.000819
1017.782219	1.001697
1018.075011	1.000752
1018.367768	1.000634
1018.660490	1.001356
1018.953177	1.001356
1019.245829	1.001356
