Dividing Wavelength (nm)	Counts (n)	Blue Motor Position (mm): 3.200000	Red Motor Position (mm): 0.000000	
326.493990	1.005884
326.888308	1.005884
327.282561	1.005884
327.676750	1.006714
328.070874	1.007879
328.464933	1.007537
328.858929	1.007012
329.252859	1.006926
329.646726	1.006446
330.040528	1.006351
330.434265	1.007732
330.827938	1.006180
331.221547	1.006533
331.615091	1.006557
332.008571	1.007820
332.401986	1.006165
332.795338	1.005603
333.188625	1.007261
333.581847	1.006079
333.975006	1.006367
334.368100	1.006521
334.761129	1.005568
335.154095	1.005855
335.546996	1.004283
335.939833	0.999217
336.332606	0.999920
336.725315	0.998758
337.117960	0.999453
337.510540	0.998436
337.903056	1.000985
338.295508	1.000597
338.687896	0.999246
339.080220	0.998388
339.472480	1.000170
339.864676	0.999244
340.256807	0.998447
340.648875	1.000357
341.040879	0.999786
341.432818	0.999813
341.824694	0.999509
342.216506	0.999423
342.608253	0.998509
342.999937	0.998470
343.391557	0.998178
343.783113	1.000163
344.174605	0.999259
344.566033	0.999045
344.957397	1.000167
345.348697	1.000281
345.739934	1.000828
346.131106	0.999483
346.522215	0.998960
346.913260	0.999394
347.304241	0.998234
347.695159	0.998512
348.086012	0.998465
348.476802	0.998539
348.867528	0.998490
349.258191	0.999278
349.648789	0.999993
350.039324	1.000181
350.429796	0.998626
350.820203	0.997929
351.210548	0.999496
351.600828	0.999291
351.991045	0.998341
352.381198	0.999875
352.771288	0.997966
353.161314	0.998818
353.551276	0.998455
353.941175	0.997479
354.331010	0.999562
354.720782	0.998979
355.110490	0.997681
355.500135	0.998929
355.889717	0.997696
356.279235	0.998045
356.668689	0.998305
357.058080	0.997877
357.447408	0.996771
357.836672	0.998799
358.225873	0.998041
358.615010	0.997953
359.004084	0.998110
359.393095	0.998846
359.782043	0.998007
360.170927	0.998396
360.559748	0.998613
360.948505	0.995808
361.337199	0.997412
361.725830	0.998146
362.114398	0.997890
362.502903	0.997197
362.891344	0.996476
363.279722	0.997397
363.668037	0.998739
364.056289	0.997355
364.444478	0.998159
364.832603	0.997481
365.220665	0.996977
365.608665	0.996345
365.996601	0.997598
366.384474	0.995953
366.772284	0.996639
367.160031	0.995053
367.547715	0.996270
367.935336	0.994710
368.322893	0.993728
368.710388	0.993636
369.097820	0.990717
369.485189	0.987783
369.872495	0.988016
370.259738	0.984263
370.646918	0.981697
371.034035	0.979552
371.421090	0.976244
371.808081	0.972141
372.195010	0.969202
372.581875	0.963507
372.968678	0.958634
373.355418	0.955393
373.742096	0.948664
374.128710	0.944478
374.515262	0.939390
374.901751	0.933482
375.288177	0.928925
375.674540	0.922332
376.060841	0.915896
376.447079	0.909473
376.833254	0.903852
377.219367	0.897212
377.605417	0.885596
377.991404	0.883255
378.377329	0.877504
378.763191	0.870734
379.148991	0.861220
379.534727	0.854001
379.920402	0.845937
380.306013	0.842321
380.691563	0.830138
381.077049	0.822843
381.462474	0.818784
381.847835	0.807703
382.233134	0.802732
382.618371	0.802606
383.003545	0.785044
383.388657	0.783532
383.773706	0.776346
384.158693	0.771626
384.543618	0.766504
384.928480	0.757262
385.313280	0.747511
385.698017	0.747589
386.082692	0.735677
386.467305	0.733722
386.851856	0.728936
387.236344	0.723845
387.620770	0.717933
388.005133	0.711492
388.389435	0.706546
388.773674	0.704825
389.157851	0.696209
389.541965	0.693606
389.926018	0.699561
390.310008	0.686534
390.693936	0.683583
391.077802	0.675849
391.461606	0.677274
391.845348	0.666531
392.229027	0.665600
392.612645	0.664369
392.996200	0.651009
393.379694	0.644118
393.763125	0.634808
394.146494	0.639612
394.529801	0.629078
394.913047	0.621160
395.296230	0.627336
395.679351	0.618913
396.062410	0.616323
396.445408	0.618317
396.828343	0.613496
397.211217	0.608345
397.594028	0.621340
397.976778	0.611363
398.359466	0.607574
398.742092	0.602844
399.124656	0.615033
399.507158	0.602657
399.889598	0.600516
400.271977	0.591781
400.654294	0.595634
401.036549	0.594619
401.418742	0.598704
401.800874	0.584924
402.182944	0.581548
402.564952	0.572881
402.946898	0.575805
403.328783	0.575990
403.710606	0.587161
404.092367	0.561517
404.474067	0.567526
404.855705	0.564979
405.237282	0.574808
405.618797	0.561093
406.000250	0.557171
406.381642	0.546649
406.762972	0.552123
407.144240	0.550550
407.525447	0.550389
407.906593	0.543453
408.287677	0.538828
408.668700	0.546443
409.049661	0.541000
409.430560	0.536257
409.811399	0.544725
410.192176	0.526200
410.572891	0.533824
410.953545	0.521167
411.334138	0.535152
411.714669	0.527941
412.095139	0.539669
412.475547	0.523725
412.855894	0.526278
413.236180	0.524463
413.616405	0.530401
413.996568	0.520848
414.376670	0.526647
414.756711	0.531882
415.136691	0.528373
415.516609	0.519935
415.896466	0.516172
416.276262	0.512638
416.655997	0.514247
417.035670	0.495316
417.415283	0.486998
417.794834	0.491828
418.174324	0.497636
418.553753	0.506682
418.933121	0.489118
419.312428	0.482486
419.691674	0.488690
420.070859	0.476970
420.449983	0.484739
420.829045	0.473782
421.208047	0.482611
421.586988	0.476256
421.965867	0.474484
422.344686	0.463232
422.723444	0.476167
423.102141	0.493210
423.480777	0.465811
423.859352	0.486619
424.237866	0.463959
424.616319	0.464817
424.994712	0.455733
425.373044	0.466175
425.751314	0.454479
426.129524	0.470356
426.507673	0.454247
426.885762	0.447317
427.263789	0.453118
427.641756	0.462587
428.019662	0.453292
428.397508	0.452275
428.775292	0.456120
429.153016	0.448526
429.530679	0.454746
429.908282	0.447565
430.285824	0.458157
430.663305	0.437047
431.040726	0.457608
431.418086	0.457569
431.795385	0.449493
432.172624	0.448512
432.549802	0.449047
432.926920	0.447796
433.303977	0.446939
433.680974	0.443989
434.057910	0.442712
434.434786	0.441932
434.811601	0.444804
435.188355	0.427347
435.565050	0.436596
435.941683	0.437724
436.318257	0.421417
436.694770	0.422806
437.071222	0.420608
437.447614	0.425256
437.823946	0.432048
438.200218	0.421110
438.576429	0.430268
438.952580	0.424026
439.328670	0.419951
439.704700	0.426518
440.080670	0.428193
440.456580	0.409351
440.832429	0.417459
441.208218	0.428131
441.583947	0.417388
441.959616	0.416439
442.335224	0.421928
442.710773	0.412987
443.086261	0.411587
443.461689	0.425114
443.837057	0.414506
444.212365	0.404799
444.587612	0.411698
444.962800	0.401892
445.337927	0.403378
445.712995	0.429538
446.088002	0.391064
446.462949	0.401967
446.837837	0.406707
447.212664	0.395333
447.587431	0.386892
447.962139	0.357245
448.336786	0.316149
448.711374	0.326509
449.085901	0.371251
449.460369	0.374706
449.834776	0.378731
450.209124	0.358180
450.583412	0.350703
450.957640	0.343538
451.331808	0.355137
451.705917	0.378428
452.079965	0.382904
452.453954	0.371519
452.827883	0.378071
453.201752	0.372724
453.575562	0.384324
453.949311	0.372836
454.323001	0.378697
454.696632	0.374690
455.070202	0.367029
455.443713	0.359144
455.817164	0.353421
456.190556	0.349444
456.563888	0.346190
456.937160	0.343953
457.310373	0.361410
457.683526	0.360221
458.056619	0.365836
458.429653	0.366354
458.802628	0.369588
459.175542	0.364220
459.548398	0.347172
459.921194	0.339210
460.293930	0.339730
460.666607	0.316620
461.039224	0.305165
461.411782	0.300634
461.784280	0.299740
462.156719	0.304177
462.529099	0.308302
462.901419	0.324249
463.273680	0.328831
463.645882	0.328419
464.018024	0.334333
464.390106	0.327037
464.762130	0.311622
465.134094	0.294764
465.505999	0.263512
465.877845	0.233738
466.249631	0.220847
466.621358	0.228286
466.993026	0.242339
467.364634	0.248377
467.736184	0.256902
468.107674	0.265969
468.479105	0.265148
468.850477	0.271753
469.221790	0.278633
469.593043	0.288845
469.964238	0.293605
470.335373	0.293456
470.706449	0.291616
471.077467	0.291999
471.448425	0.253868
471.819324	0.229568
472.190164	0.229056
472.560945	0.258187
472.931667	0.280253
473.302330	0.284303
473.672934	0.296305
474.043479	0.284381
474.413965	0.286351
474.784393	0.289611
475.154761	0.284642
475.525070	0.281713
475.895321	0.287534
476.265513	0.281660
476.635645	0.277062
477.005719	0.276602
477.375734	0.273481
477.745691	0.266488
478.115588	0.262957
478.485427	0.256510
478.855207	0.243236
479.224928	0.225628
479.594591	0.214206
479.964194	0.217583
480.333739	0.218620
480.703226	0.219923
481.072653	0.218465
481.442022	0.213973
481.811333	0.210766
482.180584	0.214059
482.549777	0.219723
482.918912	0.222764
483.287988	0.222422
483.657005	0.222266
484.025964	0.228634
484.394864	0.226100
484.763706	0.226569
485.132489	0.231607
485.501213	0.232453
485.869879	0.230851
486.238487	0.233740
486.607036	0.231741
486.975527	0.236542
487.343959	0.232353
487.712333	0.231517
488.080648	0.232516
488.448905	0.231963
488.817104	0.232889
489.185244	0.227944
489.553326	0.224606
489.921350	0.214560
490.289315	0.196781
490.657222	0.191695
491.025070	0.193229
491.392861	0.195091
491.760593	0.200813
492.128267	0.206219
492.495883	0.212107
492.863440	0.218268
493.230939	0.224814
493.598380	0.226221
493.965763	0.228424
494.333088	0.230426
494.700354	0.232436
495.067563	0.231064
495.434713	0.234739
495.801805	0.232001
496.168839	0.233683
496.535815	0.235411
496.902733	0.235215
497.269593	0.236580
497.636395	0.234402
498.003139	0.234561
498.369825	0.237614
498.736453	0.234326
499.103023	0.235495
499.469535	0.235018
499.835989	0.235267
500.202385	0.236180
500.568723	0.239582
500.935003	0.234853
501.301226	0.239205
501.667390	0.233079
502.033497	0.231083
502.399546	0.234108
502.765537	0.236082
503.131470	0.234653
503.497345	0.230922
503.863163	0.239600
504.228923	0.232250
504.594625	0.231003
504.960269	0.236642
505.325856	0.231975
505.691385	0.236256
506.056856	0.233012
506.422270	0.232379
506.787625	0.234888
507.152924	0.232403
507.518164	0.232615
507.883347	0.234122
508.248472	0.236552
508.613540	0.231255
508.978550	0.233806
509.343503	0.234261
509.708398	0.231771
510.073236	0.229372
510.438016	0.229140
510.802738	0.230190
511.167403	0.229314
511.532010	0.231418
511.896561	0.226442
512.261053	0.225353
512.625488	0.227474
512.989866	0.227788
513.354186	0.228055
513.718449	0.229946
514.082655	0.226390
514.446803	0.228653
514.810894	0.226318
515.174927	0.229022
515.538904	0.228499
515.902822	0.225409
516.266684	0.227618
516.630488	0.228751
516.994235	0.227817
517.357925	0.226337
517.721558	0.224843
518.085133	0.224060
518.448651	0.224185
518.812112	0.226554
519.175516	0.226026
519.538863	0.223825
519.902152	0.225387
520.265385	0.222121
520.628560	0.223947
520.991678	0.224502
521.354739	0.223296
521.717743	0.224558
522.080690	0.224809
522.443580	0.222425
522.806413	0.222997
523.169189	0.222505
523.531908	0.221486
523.894569	0.224943
524.257174	0.224821
524.619722	0.222541
524.982213	0.223491
525.344647	0.222522
525.707025	0.223407
526.069345	0.221627
526.431608	0.223371
526.793815	0.221601
527.155964	0.225613
527.518057	0.224272
527.880093	0.225422
528.242072	0.223908
528.603995	0.225692
528.965860	0.227421
529.327669	0.226637
529.689421	0.227359
530.051117	0.228046
530.412755	0.226033
530.774337	0.228350
531.135862	0.228623
531.497331	0.227968
531.858743	0.230998
532.220098	0.227409
532.581396	0.230228
532.942638	0.230497
533.303824	0.231601
533.664953	0.231198
534.026025	0.232965
534.387040	0.230811
534.747999	0.230773
535.108902	0.229572
535.469748	0.234970
535.830537	0.232693
536.191270	0.233014
536.551947	0.232481
536.912567	0.232631
537.273131	0.234134
537.633638	0.234639
537.994089	0.234858
538.354483	0.235884
538.714821	0.232736
539.075103	0.232509
539.435328	0.233502
539.795497	0.237372
540.155609	0.233906
540.515665	0.231878
540.875665	0.237667
541.235609	0.236128
541.595496	0.236169
541.955328	0.232858
542.315102	0.235319
542.674821	0.236523
543.034483	0.236629
543.394090	0.236257
543.753640	0.238042
544.113134	0.232965
544.472571	0.236360
544.831953	0.233389
545.191278	0.237504
545.550548	0.236727
545.909761	0.233669
546.268918	0.234544
546.628019	0.232672
546.987064	0.235537
547.346053	0.237109
547.704986	0.234781
548.063863	0.235385
548.422684	0.235652
548.781449	0.237227
549.140158	0.235059
549.498811	0.237834
549.857408	0.240642
550.215949	0.235626
550.574434	0.238682
550.932864	0.236627
551.291237	0.235151
551.649555	0.237056
552.007817	0.236571
552.366022	0.237662
552.724173	0.237720
553.082267	0.237748
553.440305	0.234573
553.798288	0.239074
554.156215	0.235635
554.514086	0.236263
554.871902	0.239956
555.229661	0.238845
555.587365	0.239239
555.945014	0.241799
556.302606	0.239030
556.660143	0.241353
557.017625	0.238117
557.375050	0.240260
557.732421	0.237336
558.089735	0.239086
558.446994	0.239216
558.804197	0.238159
559.161345	0.237953
559.518437	0.241315
559.875474	0.239767
560.232455	0.239030
560.589381	0.240336
560.946251	0.240190
561.303065	0.237914
561.659825	0.239312
562.016528	0.241105
562.373177	0.243315
562.729770	0.240923
563.086307	0.242740
563.442789	0.240984
563.799216	0.243465
564.155587	0.242227
564.511904	0.243754
564.868164	0.243682
565.224370	0.243541
565.580520	0.245162
565.936615	0.245097
566.292654	0.247947
566.648638	0.245184
567.004567	0.246028
567.360441	0.246374
567.716260	0.248422
568.072023	0.246094
568.427732	0.246954
568.783385	0.249333
569.138982	0.247668
569.494525	0.247358
569.850013	0.250474
570.205445	0.248643
570.560823	0.251213
570.916145	0.253189
571.271412	0.251337
571.626625	0.252971
571.981782	0.253439
572.336884	0.253880
572.691931	0.254056
573.046923	0.255429
573.401860	0.256270
573.756743	0.258169
574.111570	0.256839
574.466342	0.257747
574.821059	0.256282
575.175722	0.259737
575.530330	0.259105
575.884882	0.259621
576.239380	0.261258
576.593823	0.261785
576.948211	0.261584
577.302544	0.264707
577.656823	0.264393
578.011047	0.263868
578.365216	0.265346
578.719330	0.267302
579.073389	0.266686
579.427394	0.268137
579.781344	0.269126
580.135239	0.270258
580.489080	0.270130
580.842866	0.272956
581.196597	0.272564
581.550273	0.271682
581.903895	0.272587
582.257463	0.270886
582.610975	0.274077
582.964434	0.273421
583.317837	0.275609
583.671186	0.276262
584.024481	0.276464
584.377721	0.278820
584.730906	0.279771
585.084037	0.278897
585.437113	0.280842
585.790135	0.279884
586.143103	0.283234
586.496016	0.283990
586.848874	0.281695
587.201679	0.282393
587.554428	0.285739
587.907124	0.284426
588.259765	0.284919
588.612352	0.285643
588.964884	0.289839
589.317362	0.289224
589.669786	0.288926
590.022155	0.287467
590.374470	0.286858
590.726731	0.288873
591.078937	0.293881
591.431090	0.290489
591.783188	0.294618
592.135232	0.294999
592.487222	0.294708
592.839157	0.292973
593.191038	0.295192
593.542866	0.297178
593.894639	0.300127
594.246358	0.298792
594.598022	0.297964
594.949633	0.301819
595.301190	0.302759
595.652692	0.301376
596.004141	0.297643
596.355535	0.305723
596.706876	0.306632
597.058162	0.308776
597.409395	0.305873
597.760573	0.303923
598.111698	0.306987
598.462768	0.307579
598.813785	0.308919
599.164748	0.309940
599.515657	0.310567
599.866511	0.314190
600.217312	0.309261
600.568060	0.314546
600.918753	0.310547
601.269392	0.311364
601.619978	0.315132
601.970510	0.312357
602.320988	0.312632
602.671412	0.310632
603.021783	0.313070
603.372100	0.314193
603.722363	0.313949
604.072572	0.314823
604.422728	0.314389
604.772830	0.316822
605.122878	0.316461
605.472872	0.316587
605.822813	0.315015
606.172701	0.318014
606.522534	0.315003
606.872314	0.315634
607.222041	0.316232
607.571714	0.314106
607.921333	0.316135
608.270899	0.315471
608.620411	0.312380
608.969870	0.316060
609.319276	0.316333
609.668627	0.316496
610.017926	0.314657
610.367171	0.313607
610.716362	0.314135
611.065500	0.313991
611.414585	0.313075
611.763616	0.313426
612.112594	0.314392
612.461518	0.313179
612.810389	0.310865
613.159207	0.313198
613.507971	0.315188
613.856682	0.311096
614.205340	0.311954
614.553945	0.309557
614.902496	0.313008
615.250994	0.311165
615.599439	0.311771
615.947830	0.311190
616.296169	0.312232
616.644454	0.312238
616.992686	0.311736
617.340864	0.309784
617.688990	0.313289
618.037063	0.310428
618.385082	0.311844
618.733048	0.308436
619.080961	0.310758
619.428821	0.310277
619.776628	0.309885
620.124382	0.312517
620.472083	0.312637
620.819731	0.312082
621.167326	0.315566
621.514868	0.315492
621.862357	0.319502
622.209793	0.319280
622.557176	0.321569
622.904506	0.322694
623.251783	0.325145
623.599007	0.327453
623.946179	0.326774
624.293297	0.329224
624.640363	0.332666
624.987376	0.333296
625.334336	0.335529
625.681243	0.338103
626.028097	0.338818
626.374899	0.339625
626.721647	0.340311
627.068343	0.343204
627.414987	0.344542
627.761577	0.346095
628.108115	0.344363
628.454600	0.349549
628.801032	0.347282
629.147412	0.349084
629.493739	0.349715
629.840014	0.353059
630.186236	0.349674
630.532405	0.355974
630.878521	0.352684
631.224585	0.355446
631.570597	0.359029
631.916556	0.357444
632.262462	0.357171
632.608316	0.359645
632.954117	0.360147
633.299866	0.361571
633.645562	0.361616
633.991206	0.366092
634.336797	0.368881
634.682336	0.371506
635.027823	0.372717
635.373257	0.373467
635.718639	0.377432
636.063968	0.376527
636.409245	0.382019
636.754470	0.382483
637.099642	0.385012
637.444762	0.388352
637.789829	0.387387
638.134845	0.390784
638.479808	0.391903
638.824719	0.392132
639.169577	0.396503
639.514383	0.395121
639.859137	0.399572
640.203839	0.398693
640.548489	0.399302
640.893086	0.400898
641.237632	0.402259
641.582125	0.400974
641.926566	0.403331
642.270955	0.402637
642.615292	0.402825
642.959576	0.402233
643.303809	0.403004
643.647990	0.402615
643.992118	0.402736
644.336195	0.405954
644.680219	0.404767
645.024192	0.404840
645.368112	0.398992
645.711981	0.397970
646.055797	0.393002
646.399562	0.395482
646.743274	0.388271
647.086935	0.384976
647.430544	0.385407
647.774101	0.383765
648.117606	0.383418
648.461059	0.384646
648.804460	0.386732
649.147810	0.391852
649.491108	0.393472
649.834354	0.395134
650.177548	0.400455
650.520690	0.406083
650.863781	0.406509
651.206820	0.406733
651.549807	0.411054
651.892742	0.414651
652.235626	0.414364
652.578458	0.415805
652.921238	0.422284
653.263967	0.419276
653.606644	0.422704
653.949269	0.423421
654.291843	0.426816
654.634365	0.424132
654.976836	0.426785
655.319255	0.427598
655.661622	0.428532
656.003938	0.428496
656.346203	0.431833
656.688416	0.429512
657.030577	0.432948
657.372687	0.434776
657.714746	0.435736
658.056753	0.432630
658.398708	0.436743
658.740612	0.438415
659.082465	0.433853
659.424266	0.434930
659.766016	0.433893
660.107715	0.436769
660.449362	0.435694
660.790958	0.436199
661.132503	0.437406
661.473996	0.434021
661.815438	0.435722
662.156829	0.435795
662.498168	0.436592
662.839456	0.437594
663.180693	0.435468
663.521879	0.435173
663.863013	0.436521
664.204097	0.434885
664.545129	0.431465
664.886110	0.432190
665.227040	0.429728
665.567918	0.431636
665.908746	0.429718
666.249522	0.429900
666.590248	0.430679
666.930922	0.428617
667.271545	0.427731
667.612118	0.427707
667.952639	0.429209
668.293109	0.428067
668.633528	0.430626
668.973896	0.430573
669.314213	0.431043
669.654480	0.433046
669.994695	0.432517
670.334859	0.434009
670.674973	0.434423
671.015035	0.433998
671.355047	0.434468
671.695008	0.435266
672.034918	0.437259
672.374777	0.436327
672.714585	0.437168
673.054342	0.437782
673.394049	0.437414
673.733705	0.435518
674.073310	0.436898
674.412864	0.439539
674.752368	0.439450
675.091820	0.440082
675.431223	0.444519
675.770574	0.444230
676.109875	0.447105
676.449125	0.447441
676.788324	0.450050
677.127473	0.455143
677.466571	0.454974
677.805619	0.456812
678.144616	0.458239
678.483562	0.460471
678.822458	0.462325
679.161303	0.462468
679.500098	0.463016
679.838842	0.464753
680.177535	0.464247
680.516179	0.462737
680.854771	0.462152
681.193314	0.455445
681.531805	0.446600
681.870247	0.435404
682.208638	0.427661
682.546978	0.427083
682.885268	0.428214
683.223508	0.434857
683.561697	0.438639
683.899836	0.441226
684.237925	0.444623
684.575963	0.447584
684.913951	0.450541
685.251889	0.445900
685.589776	0.447911
685.927614	0.450101
686.265401	0.444577
686.603137	0.446171
686.940824	0.440097
687.278460	0.438752
687.616046	0.436918
687.953582	0.432504
688.291068	0.433616
688.628504	0.429337
688.965889	0.432064
689.303224	0.435280
689.640510	0.439513
689.977745	0.445062
690.314930	0.453555
690.652065	0.458314
690.989150	0.464913
691.326185	0.472368
691.663170	0.476358
692.000105	0.483950
692.336990	0.490937
692.673825	0.493224
693.010610	0.500355
693.347345	0.506365
693.684030	0.507102
694.020665	0.512261
694.357251	0.520725
694.693786	0.520552
695.030272	0.524040
695.366707	0.528758
695.703093	0.532158
696.039429	0.529381
696.375716	0.531938
696.711952	0.534508
697.048139	0.536204
697.384276	0.538271
697.720363	0.536809
698.056400	0.534860
698.392388	0.540650
698.728326	0.543731
699.064214	0.546958
699.400053	0.546980
699.735842	0.551049
700.071581	0.553065
700.407270	0.557119
700.742910	0.560514
701.078501	0.565538
701.414042	0.566743
701.749533	0.569492
702.084974	0.578626
702.420366	0.570850
702.755709	0.578509
703.091002	0.586145
703.426246	0.579891
703.761440	0.584592
704.096584	0.590452
704.431679	0.587309
704.766725	0.590131
705.101721	0.590979
705.436668	0.587180
705.771565	0.594642
706.106413	0.590960
706.441212	0.585928
706.775961	0.585560
707.110661	0.586879
707.445311	0.584533
707.779913	0.581173
708.114465	0.579699
708.448967	0.576667
708.783421	0.568611
709.117825	0.563236
709.452180	0.562399
709.786485	0.557461
710.120742	0.546541
710.454949	0.548424
710.789107	0.540883
711.123216	0.531628
711.457275	0.532474
711.791286	0.524206
712.125247	0.523420
712.459159	0.534367
712.793023	0.525101
713.126837	0.530431
713.460602	0.530633
713.794318	0.539698
714.127985	0.538810
714.461602	0.549616
714.795171	0.552381
715.128691	0.560696
715.462162	0.567918
715.795584	0.573536
716.128957	0.576430
716.462281	0.583237
716.795556	0.586664
717.128782	0.591830
717.461960	0.600936
717.795088	0.599715
718.128167	0.606324
718.461198	0.614212
718.794180	0.615692
719.127113	0.617817
719.459997	0.620850
719.792833	0.628341
720.125619	0.629044
720.458357	0.634899
720.791046	0.634567
721.123686	0.638548
721.456278	0.645271
721.788821	0.641607
722.121315	0.647383
722.453761	0.650842
722.786158	0.648259
723.118506	0.644986
723.450805	0.652759
723.783056	0.649850
724.115259	0.646206
724.447412	0.645665
724.779518	0.647548
725.111574	0.645051
725.443582	0.641187
725.775542	0.644717
726.107453	0.636473
726.439315	0.636734
726.771129	0.634637
727.102895	0.627545
727.434612	0.621049
727.766281	0.618537
728.097901	0.617151
728.429473	0.616689
728.760996	0.615326
729.092471	0.616407
729.423897	0.620639
729.755276	0.618420
730.086606	0.618312
730.417887	0.613112
730.749120	0.604292
731.080305	0.595120
731.411442	0.591112
731.742530	0.594953
732.073570	0.594953
732.404562	0.587274
732.735506	0.588059
733.066401	0.592942
733.397249	0.602279
733.728048	0.613851
734.058798	0.626899
734.389501	0.637980
734.720156	0.648096
735.050762	0.655305
735.381320	0.655805
735.711831	0.664250
736.042293	0.669043
736.372707	0.666285
736.703073	0.670193
737.033391	0.672214
737.363661	0.669911
737.693883	0.664651
738.024056	0.663422
738.354182	0.664143
738.684260	0.652977
739.014290	0.650468
739.344272	0.650413
739.674207	0.644499
740.004093	0.643720
740.333931	0.644272
740.663722	0.643315
740.993464	0.643823
741.323159	0.647867
741.652806	0.653171
741.982405	0.657478
742.311956	0.662589
742.641460	0.664578
742.970915	0.668071
743.300323	0.676174
743.629683	0.681971
743.958996	0.685578
744.288260	0.688535
744.617477	0.694733
744.946647	0.696345
745.275768	0.701943
745.604842	0.701706
745.933869	0.711462
746.262847	0.712883
746.591778	0.705809
746.920662	0.712972
747.249498	0.719263
747.578286	0.709743
747.907027	0.706321
748.235720	0.706316
748.564365	0.702051
748.892963	0.701253
749.221514	0.705258
749.550017	0.709144
749.878473	0.710246
750.206881	0.716666
750.535242	0.716359
750.863555	0.716105
751.191821	0.717575
751.520039	0.721135
751.848210	0.724011
752.176334	0.718074
752.504411	0.716653
752.832440	0.725717
753.160421	0.730194
753.488356	0.726625
753.816243	0.725956
754.144082	0.733020
754.471875	0.736293
754.799620	0.732930
755.127318	0.734388
755.454969	0.735453
755.782572	0.734765
756.110129	0.737993
756.437638	0.741307
756.765100	0.737836
757.092515	0.735217
757.419882	0.734147
757.747203	0.739508
758.074477	0.740374
758.401703	0.736375
758.728882	0.731441
759.056014	0.729407
759.383099	0.729395
759.710138	0.730258
760.037129	0.725881
760.364073	0.720531
760.690970	0.722613
761.017820	0.727261
761.344623	0.724629
761.671379	0.715796
761.998088	0.704454
762.324751	0.680228
762.651366	0.637446
762.977935	0.569543
763.304456	0.517329
763.630931	0.507813
763.957359	0.547716
764.283740	0.591811
764.610074	0.620152
764.936362	0.651272
765.262602	0.678864
765.588796	0.700170
765.914943	0.716841
766.241044	0.735367
766.567097	0.742385
766.893104	0.752445
767.219064	0.759448
767.544978	0.765871
767.870845	0.778756
768.196665	0.782816
768.522438	0.781845
768.848165	0.782024
769.173846	0.791327
769.499479	0.797036
769.825066	0.799784
770.150607	0.804377
770.476101	0.800643
770.801548	0.801568
771.126949	0.813804
771.452303	0.818381
771.777611	0.815384
772.102872	0.813724
772.428087	0.819937
772.753256	0.823502
773.078378	0.825140
773.403453	0.834756
773.728482	0.839471
774.053465	0.831765
774.378401	0.836120
774.703291	0.844729
775.028135	0.845261
775.352932	0.844820
775.677683	0.849617
776.002388	0.850270
776.327046	0.848004
776.651658	0.854057
776.976224	0.855153
777.300743	0.855420
777.625216	0.857329
777.949643	0.860469
778.274024	0.858941
778.598359	0.861511
778.922647	0.859383
779.246889	0.860572
779.571086	0.863384
779.895236	0.867875
780.219339	0.864251
780.543397	0.859289
780.867409	0.858904
781.191374	0.861528
781.515294	0.864072
781.839167	0.862799
782.162995	0.864433
782.486776	0.862273
782.810511	0.862924
783.134201	0.867546
783.457844	0.865003
783.781441	0.868748
784.104993	0.873596
784.428498	0.873038
784.751958	0.869494
785.075372	0.871586
785.398739	0.875262
785.722061	0.870808
786.045337	0.866987
786.368568	0.870601
786.691752	0.875092
787.014891	0.859735
787.337983	0.851280
787.661030	0.844016
787.984031	0.825356
788.306987	0.813326
788.629897	0.813791
788.952760	0.819051
789.275579	0.823059
789.598351	0.839958
789.921078	0.852504
790.243759	0.854081
790.566395	0.858622
790.888984	0.866886
791.211529	0.870996
791.534027	0.874216
791.856480	0.877052
792.178888	0.881603
792.501249	0.884405
792.823566	0.886839
793.145836	0.886641
793.468062	0.887796
793.790241	0.888589
794.112375	0.885480
794.434464	0.882646
794.756507	0.881600
795.078505	0.879123
795.400457	0.873818
795.722364	0.863155
796.044226	0.856154
796.366042	0.854161
796.687812	0.857795
797.009538	0.854111
797.331218	0.857110
797.652852	0.861794
797.974442	0.865795
798.295986	0.868303
798.617484	0.868434
798.938938	0.873305
799.260346	0.878475
799.581709	0.879535
799.903026	0.883301
800.224299	0.884051
800.545526	0.886216
800.866708	0.890523
801.187845	0.895207
801.508936	0.894650
801.829983	0.892044
802.150984	0.895436
802.471940	0.901323
802.792851	0.899821
803.113717	0.901705
803.434538	0.898220
803.755314	0.902669
804.076045	0.902982
804.396731	0.903374
804.717372	0.901606
805.037967	0.906039
805.358518	0.903116
805.679024	0.898116
805.999485	0.899828
806.319901	0.898975
806.640272	0.902076
806.960598	0.900148
807.280879	0.896896
807.601115	0.894974
807.921306	0.899652
808.241453	0.899321
808.561554	0.897999
808.881611	0.897239
809.201623	0.898266
809.521590	0.899214
809.841513	0.901021
810.161390	0.899689
810.481223	0.900467
810.801011	0.903097
811.120755	0.906176
811.440453	0.905046
811.760107	0.905391
812.079716	0.903881
812.399281	0.906298
812.718801	0.909868
813.038276	0.910456
813.357707	0.909831
813.677093	0.907848
813.996434	0.910056
814.315731	0.912739
814.634983	0.914517
814.954191	0.912572
815.273354	0.908134
815.592473	0.904216
815.911547	0.905675
816.230577	0.901502
816.549562	0.899096
816.868502	0.898784
817.187399	0.896520
817.506250	0.890852
817.825058	0.892320
818.143821	0.889151
818.462539	0.883626
818.781213	0.873907
819.099843	0.864438
819.418429	0.848014
819.736970	0.831333
820.055466	0.810030
820.373919	0.784199
820.692327	0.750587
821.010691	0.714140
821.329011	0.634366
821.647286	0.516716
821.965517	0.402782
822.283704	0.359427
822.601847	0.360036
822.919945	0.395765
823.237999	0.430229
823.556010	0.479102
823.873976	0.535253
824.191897	0.587341
824.509775	0.630368
824.827609	0.676561
825.145398	0.700005
825.463144	0.701081
825.780845	0.684704
826.098502	0.666072
826.416116	0.620234
826.733685	0.574713
827.051210	0.565095
827.368692	0.580726
827.686129	0.619036
828.003522	0.673934
828.320872	0.721770
828.638177	0.766313
828.955439	0.800301
829.272656	0.822229
829.589830	0.840328
829.906960	0.856611
830.224046	0.869152
830.541088	0.879598
830.858086	0.884033
831.175041	0.891366
831.491952	0.888758
831.808819	0.885142
832.125642	0.878276
832.442421	0.864674
832.759157	0.841560
833.075849	0.792498
833.392497	0.728684
833.709101	0.687570
834.025662	0.697876
834.342179	0.729694
834.658653	0.769604
834.975083	0.806220
835.291469	0.833730
835.607811	0.856129
835.924110	0.873428
836.240366	0.891071
836.556578	0.902998
836.872746	0.911992
837.188871	0.917211
837.504952	0.922765
837.820990	0.926757
838.136984	0.929315
838.452935	0.933494
838.768842	0.935184
839.084706	0.927806
839.400526	0.902727
839.716303	0.860163
840.032037	0.838002
840.347727	0.840912
840.663373	0.860250
840.978977	0.882104
841.294537	0.905773
841.610054	0.921768
841.925527	0.930077
842.240957	0.936923
842.556344	0.943659
842.871687	0.949963
843.186987	0.953375
843.502244	0.955120
843.817458	0.956288
844.132629	0.959580
844.447756	0.963968
844.762840	0.964410
845.077881	0.966198
845.392879	0.962655
845.707833	0.966458
846.022745	0.969006
846.337613	0.969158
846.652438	0.970063
846.967221	0.970069
847.281960	0.971881
847.596656	0.971849
847.911309	0.971871
848.225919	0.971466
848.540485	0.972346
848.855009	0.974445
849.169490	0.972361
849.483928	0.974221
849.798323	0.972324
850.112675	0.976003
850.426984	0.973833
850.741251	0.974351
851.055474	0.973884
851.369654	0.974181
851.683792	0.972570
851.997887	0.974838
852.311938	0.975197
852.625947	0.973609
852.939914	0.971556
853.253837	0.973750
853.567718	0.975470
853.881555	0.975553
854.195350	0.973437
854.509103	0.973980
854.822812	0.975494
855.136479	0.975744
855.450103	0.974379
855.763685	0.974059
856.077224	0.974312
856.390720	0.975813
856.704173	0.973816
857.017584	0.972678
857.330953	0.972796
857.644278	0.971335
857.957561	0.974085
858.270802	0.973305
858.584000	0.972837
858.897155	0.970705
859.210268	0.971149
859.523339	0.973743
859.836367	0.974608
860.149352	0.973952
860.462295	0.975362
860.775195	0.974321
861.088054	0.973156
861.400869	0.975376
861.713642	0.974499
862.026373	0.976643
862.339062	0.975519
862.651708	0.974003
862.964312	0.973801
863.276873	0.972803
863.589392	0.972804
863.901869	0.970845
864.214303	0.968905
864.526696	0.967672
864.839045	0.967827
865.151353	0.967012
865.463619	0.965585
865.775842	0.967768
866.088023	0.966709
866.400162	0.967003
866.712258	0.967891
867.024313	0.968453
867.336325	0.969612
867.648296	0.968436
867.960224	0.965670
868.272110	0.967058
868.583954	0.969035
868.895755	0.968828
869.207515	0.966572
869.519233	0.965154
869.830909	0.964214
870.142542	0.965865
870.454134	0.967214
870.765684	0.964446
871.077191	0.963625
871.388657	0.962617
871.700081	0.963289
872.011463	0.963761
872.322803	0.963031
872.634101	0.961512
872.945357	0.957678
873.256571	0.955845
873.567744	0.957696
873.878874	0.958177
874.189963	0.956749
874.501010	0.957763
874.812015	0.953750
875.122979	0.953732
875.433900	0.956338
875.744780	0.957905
876.055618	0.954153
876.366415	0.952736
876.677169	0.953530
876.987882	0.954777
877.298554	0.955400
877.609183	0.951716
877.919771	0.949199
878.230317	0.945914
878.540822	0.943115
878.851285	0.938672
879.161707	0.929476
879.472087	0.917645
879.782425	0.900470
880.092722	0.864870
880.402977	0.810571
880.713191	0.747605
881.023363	0.685947
881.333494	0.651841
881.643583	0.623234
881.953631	0.624633
882.263637	0.652519
882.573602	0.693103
882.883526	0.719398
883.193408	0.744141
883.503248	0.767793
883.813048	0.796065
884.122806	0.827710
884.432522	0.851705
884.742197	0.871364
885.051831	0.881835
885.361424	0.892541
885.670975	0.906137
885.980485	0.915896
886.289954	0.921743
886.599382	0.925649
886.908768	0.930749
887.218113	0.936217
887.527417	0.942132
887.836680	0.944944
888.145901	0.947831
888.455082	0.950696
888.764221	0.955382
889.073319	0.955720
889.382376	0.957681
889.691392	0.955964
890.000366	0.956979
890.309300	0.957782
890.618193	0.956025
890.927044	0.955382
891.235855	0.955418
891.544625	0.956105
891.853353	0.956631
892.162041	0.951492
892.470687	0.947275
892.779293	0.941721
893.087858	0.935749
893.396381	0.928247
893.704864	0.915060
894.013306	0.890069
894.321707	0.863518
894.630068	0.848041
894.938387	0.841784
895.246665	0.843823
895.554903	0.856978
895.863100	0.871261
896.171256	0.888052
896.479371	0.907160
896.787446	0.921993
897.095480	0.927627
897.403473	0.930314
897.711425	0.936783
898.019336	0.942968
898.327207	0.947826
898.635038	0.947328
898.942827	0.949247
899.250576	0.952388
899.558284	0.956562
899.865952	0.958067
900.173579	0.958746
900.481165	0.959158
900.788711	0.962290
901.096216	0.964904
901.403681	0.967391
901.711105	0.966093
902.018489	0.966901
902.325832	0.966441
902.633135	0.964507
902.940397	0.960192
903.247619	0.945476
903.554800	0.920473
903.861941	0.878738
904.169041	0.840713
904.476101	0.823549
904.783121	0.824283
905.090100	0.840675
905.397039	0.863584
905.703938	0.886147
906.010796	0.907561
906.317614	0.924424
906.624391	0.938342
906.931129	0.947100
907.237826	0.955100
907.544483	0.962475
907.851099	0.967940
908.157675	0.970419
908.464211	0.975094
908.770707	0.975752
909.077163	0.978892
909.383578	0.980168
909.689954	0.979289
909.996289	0.981016
910.302584	0.982376
910.608839	0.984942
910.915054	0.982528
911.221229	0.983799
911.527363	0.981272
911.833458	0.982509
912.139513	0.981474
912.445527	0.980601
912.751502	0.979635
913.057436	0.975860
913.363331	0.975902
913.669186	0.970860
913.975000	0.965800
914.280775	0.958984
914.586510	0.952075
914.892205	0.938600
915.197859	0.914145
915.503475	0.887127
915.809050	0.865995
916.114585	0.860297
916.420081	0.856986
916.725536	0.854476
917.030952	0.861961
917.336328	0.875403
917.641665	0.891181
917.946961	0.909072
918.252218	0.919627
918.557435	0.928948
918.862612	0.937667
919.167750	0.944333
919.472848	0.950548
919.777906	0.956543
920.082925	0.963168
920.387904	0.965102
920.692843	0.966214
920.997743	0.967119
921.302603	0.971328
921.607423	0.973160
921.912204	0.976199
922.216946	0.977334
922.521647	0.978837
922.826310	0.979578
923.130932	0.981337
923.435516	0.983948
923.740059	0.984299
924.044564	0.983754
924.349028	0.985479
924.653454	0.987310
924.957840	0.988797
925.262186	0.988863
925.566493	0.988729
925.870761	0.988638
926.174989	0.990120
926.479178	0.993005
926.783328	0.993362
927.087438	0.992663
927.391509	0.993263
927.695541	0.993565
927.999533	0.994324
928.303486	0.994581
928.607400	0.997096
928.911275	0.994882
929.215110	0.996441
929.518906	0.995502
929.822663	0.996342
930.126381	0.996595
930.430060	0.994647
930.733699	0.995361
931.037299	0.996403
931.340861	0.995749
931.644383	0.993081
931.947866	0.994912
932.251309	0.996076
932.554714	0.995439
932.858080	0.995673
933.161407	0.994833
933.464694	0.995348
933.767943	0.996954
934.071153	0.995540
934.374323	0.996473
934.677455	0.996262
934.980548	0.996724
935.283602	0.996176
935.586617	0.995807
935.889593	0.996218
936.192530	0.996865
936.495428	0.995759
936.798287	0.996520
937.101108	0.995369
937.403890	0.994345
937.706632	0.994914
938.009336	0.991071
938.312002	0.989729
938.614628	0.989374
938.917216	0.987703
939.219765	0.987667
939.522275	0.988014
939.824747	0.987500
940.127179	0.988059
940.429573	0.990369
940.731929	0.989578
941.034246	0.989707
941.336524	0.988944
941.638763	0.991105
941.940964	0.989740
942.243126	0.991440
942.545250	0.993062
942.847335	0.992172
943.149381	0.993025
943.451389	0.992569
943.753359	0.994622
944.055290	0.995491
944.357182	0.994419
944.659036	0.995031
944.960851	0.994811
945.262628	0.994814
945.564367	0.994390
945.866067	0.993988
946.167729	0.995834
946.469352	0.995344
946.770937	0.992687
947.072484	0.995280
947.373992	0.994668
947.675462	0.995376
947.976893	0.995230
948.278286	0.996763
948.579641	0.997194
948.880958	0.995799
949.182236	0.996248
949.483476	0.997106
949.784678	0.997332
950.085841	0.996128
950.386967	0.995827
950.688054	0.996309
950.989103	0.994653
951.290114	0.993944
951.591087	0.995039
951.892021	0.993356
952.192917	0.994061
952.493776	0.993770
952.794596	0.993663
953.095378	0.992974
953.396122	0.993247
953.696828	0.993489
953.997496	0.994467
954.298126	0.997201
954.598718	0.993887
954.899272	0.995340
955.199788	0.995611
955.500266	0.997061
955.800706	0.997537
956.101108	0.998058
956.401472	0.999451
956.701798	0.999398
957.002087	0.998791
957.302337	0.999857
957.602550	0.999434
957.902724	1.001085
958.202861	0.999518
958.502960	0.999691
958.803022	1.001404
959.103045	1.000579
959.403031	1.002116
959.702979	1.002538
960.002889	1.001014
960.302762	1.001252
960.602596	1.003133
960.902393	1.002916
961.202153	1.002304
961.501875	1.001786
961.801559	1.001750
962.101205	1.002478
962.400814	1.001845
962.700385	1.002012
962.999918	1.001224
963.299414	1.001776
963.598873	1.002181
963.898293	1.003610
964.197677	1.002181
964.497022	1.002395
964.796331	1.002698
965.095601	1.003041
965.394835	1.001140
965.694030	1.003409
965.993189	1.001811
966.292309	1.003178
966.591393	1.000867
966.890439	1.003360
967.189447	1.003240
967.488419	1.002129
967.787353	1.003027
968.086249	1.002238
968.385108	1.002809
968.683930	1.003307
968.982714	1.001217
969.281462	1.002787
969.580172	1.003051
969.878844	1.002694
970.177480	1.003173
970.476078	1.003856
970.774639	1.002191
971.073162	1.001581
971.371649	1.001704
971.670098	1.001028
971.968510	1.003236
972.266885	1.001310
972.565223	1.001042
972.863524	1.001916
973.161788	1.001396
973.460014	1.002574
973.758204	1.002760
974.056356	1.002037
974.354471	1.002502
974.652550	1.002437
974.950591	1.002088
975.248595	1.000628
975.546563	1.001927
975.844493	1.002745
976.142386	1.000896
976.440243	1.002707
976.738062	1.001843
977.035845	1.002783
977.333590	1.004075
977.631299	1.001214
977.928971	1.002595
978.226606	1.003680
978.524204	1.001989
978.821765	1.004562
979.119290	1.004271
979.416777	1.003793
979.714228	1.002923
980.011642	1.004120
980.309020	1.003516
980.606360	1.001531
980.903664	1.002389
981.200931	1.001621
981.498162	1.001351
981.795356	1.001119
982.092513	0.999159
982.389633	0.999830
982.686717	0.996874
982.983764	0.996432
983.280775	0.996329
983.577749	0.996007
983.874686	0.996438
984.171587	0.997888
984.468451	0.997770
984.765279	0.999744
985.062070	0.999097
985.358824	1.000381
985.655543	1.001318
985.952224	1.001797
986.248869	1.002213
986.545478	1.003243
986.842050	1.002478
987.138586	1.002413
987.435086	1.002185
987.731549	1.005335
988.027975	1.004806
988.324366	1.003426
988.620719	1.003866
988.917037	1.003477
989.213318	1.004091
989.509563	1.003663
989.805772	1.003443
990.101944	1.004284
990.398080	1.004203
990.694180	1.004267
990.990244	1.002533
991.286271	1.003515
991.582262	1.005131
991.878217	1.004326
992.174136	1.003333
992.470019	1.003451
992.765865	1.004818
993.061676	1.003515
993.357450	1.004103
993.653188	1.004590
993.948890	1.003370
994.244556	1.003766
994.540186	1.003394
994.835780	1.003127
995.131337	1.004865
995.426859	1.002377
995.722345	1.002159
996.017795	1.001125
996.313208	1.002459
996.608586	1.001899
996.903928	1.002389
997.199234	1.000969
997.494504	1.003034
997.789738	1.001868
998.084936	1.001947
998.380099	1.002734
998.675225	1.003379
998.970316	1.004294
999.265371	1.003076
999.560390	1.002939
999.855373	1.004270
1000.150320	1.004447
1000.445232	1.004652
1000.740108	1.003832
1001.034948	1.003885
1001.329752	1.006370
1001.624521	1.003982
1001.919254	1.003779
1002.213951	1.005064
1002.508613	1.004035
1002.803239	1.003981
1003.097829	1.004102
1003.392384	1.004660
1003.686903	1.004676
1003.981386	1.004901
1004.275834	1.004677
1004.570246	1.003330
1004.864623	1.004588
1005.158964	1.004221
1005.453270	1.004624
1005.747540	1.004775
1006.041775	1.005033
1006.335974	1.005051
1006.630138	1.005420
1006.924266	1.002874
1007.218359	1.002855
1007.512416	1.005736
1007.806438	1.004835
1008.100425	1.004610
1008.394376	1.005763
1008.688292	1.004532
1008.982172	1.004104
1009.276017	1.004311
1009.569827	1.005298
1009.863602	1.004031
1010.157341	1.005906
1010.451045	1.004036
1010.744714	1.005511
1011.038347	1.005454
1011.331945	1.002688
1011.625508	1.004737
1011.919036	1.005092
1012.212528	1.004773
1012.505986	1.004058
1012.799408	1.005792
1013.092795	1.004087
1013.386147	1.005581
1013.679464	1.004851
1013.972745	1.004652
1014.265992	1.004945
1014.559204	1.003907
1014.852380	1.004735
1015.145521	1.004132
1015.438628	1.004437
1015.731699	1.004444
1016.024736	1.004296
1016.317737	1.005816
1016.610703	1.004683
1016.903635	1.004628
1017.196531	1.004757
1017.489393	1.005390
1017.782219	1.004369
1018.075011	1.004474
1018.367768	1.004265
1018.660490	1.004957
1018.953177	1.004957
1019.245829	1.004957
