Dividing Wavelength (nm)	Counts (n)	Blue Motor Position (mm): 4.000000	Red Motor Position (mm): 0.000000	
326.493990	1.005373
326.888308	1.005373
327.282561	1.005373
327.676750	1.007127
328.070874	1.006431
328.464933	1.006355
328.858929	1.006160
329.252859	1.006468
329.646726	1.006530
330.040528	1.006513
330.434265	1.007893
330.827938	1.005572
331.221547	1.005691
331.615091	1.006696
332.008571	1.005633
332.401986	1.005329
332.795338	1.005868
333.188625	1.006810
333.581847	1.005817
333.975006	1.008041
334.368100	1.006770
334.761129	1.005366
335.154095	1.006105
335.546996	1.004417
335.939833	0.998100
336.332606	0.999170
336.725315	0.998535
337.117960	0.999363
337.510540	0.998043
337.903056	0.999136
338.295508	1.000845
338.687896	0.999041
339.080220	0.999142
339.472480	0.998940
339.864676	0.999794
340.256807	0.997460
340.648875	0.999925
341.040879	0.999138
341.432818	0.999922
341.824694	0.997865
342.216506	1.000608
342.608253	0.998671
342.999937	0.998407
343.391557	0.998938
343.783113	1.000284
344.174605	0.999556
344.566033	0.998763
344.957397	1.000618
345.348697	0.998983
345.739934	0.999957
346.131106	0.998762
346.522215	0.999166
346.913260	0.999839
347.304241	0.997964
347.695159	0.999747
348.086012	0.997869
348.476802	0.998680
348.867528	0.999438
349.258191	0.999696
349.648789	0.999370
350.039324	0.999073
350.429796	0.998388
350.820203	0.997890
351.210548	0.998363
351.600828	0.997911
351.991045	0.998375
352.381198	0.998558
352.771288	0.998967
353.161314	0.999298
353.551276	0.997857
353.941175	0.996239
354.331010	0.998293
354.720782	0.997761
355.110490	0.998902
355.500135	0.999358
355.889717	0.997465
356.279235	0.997345
356.668689	0.999468
357.058080	0.998390
357.447408	0.997429
357.836672	0.998940
358.225873	0.997396
358.615010	0.998019
359.004084	0.997442
359.393095	0.998436
359.782043	0.998489
360.170927	0.998866
360.559748	0.997838
360.948505	0.997016
361.337199	0.997539
361.725830	0.997896
362.114398	0.996729
362.502903	0.997245
362.891344	0.996406
363.279722	0.997762
363.668037	0.996939
364.056289	0.995957
364.444478	0.997890
364.832603	0.995679
365.220665	0.997408
365.608665	0.995593
365.996601	0.996733
366.384474	0.995969
366.772284	0.996650
367.160031	0.994618
367.547715	0.995524
367.935336	0.995121
368.322893	0.993454
368.710388	0.992579
369.097820	0.990433
369.485189	0.988220
369.872495	0.988144
370.259738	0.984782
370.646918	0.982080
371.034035	0.979225
371.421090	0.977010
371.808081	0.971282
372.195010	0.970107
372.581875	0.964363
372.968678	0.959109
373.355418	0.955923
373.742096	0.949493
374.128710	0.944821
374.515262	0.938781
374.901751	0.933948
375.288177	0.928169
375.674540	0.923110
376.060841	0.915479
376.447079	0.909898
376.833254	0.903526
377.219367	0.898366
377.605417	0.885889
377.991404	0.883150
378.377329	0.876529
378.763191	0.870267
379.148991	0.861415
379.534727	0.854353
379.920402	0.845993
380.306013	0.842253
380.691563	0.829383
381.077049	0.823227
381.462474	0.819210
381.847835	0.807195
382.233134	0.802585
382.618371	0.802163
383.003545	0.784896
383.388657	0.783440
383.773706	0.775441
384.158693	0.771912
384.543618	0.766044
384.928480	0.757448
385.313280	0.747553
385.698017	0.746769
386.082692	0.735811
386.467305	0.733074
386.851856	0.728206
387.236344	0.722889
387.620770	0.717591
388.005133	0.711884
388.389435	0.705623
388.773674	0.703587
389.157851	0.695754
389.541965	0.692830
389.926018	0.699934
390.310008	0.686338
390.693936	0.683511
391.077802	0.675822
391.461606	0.677258
391.845348	0.666210
392.229027	0.665613
392.612645	0.663968
392.996200	0.650927
393.379694	0.644120
393.763125	0.634591
394.146494	0.638909
394.529801	0.629675
394.913047	0.621360
395.296230	0.627176
395.679351	0.618602
396.062410	0.615926
396.445408	0.618313
396.828343	0.613381
397.211217	0.608408
397.594028	0.620045
397.976778	0.611303
398.359466	0.607848
398.742092	0.603138
399.124656	0.615132
399.507158	0.603097
399.889598	0.600795
400.271977	0.591467
400.654294	0.595013
401.036549	0.594714
401.418742	0.598287
401.800874	0.584748
402.182944	0.581242
402.564952	0.572925
402.946898	0.574719
403.328783	0.575553
403.710606	0.586886
404.092367	0.561986
404.474067	0.567079
404.855705	0.566216
405.237282	0.574614
405.618797	0.560997
406.000250	0.557038
406.381642	0.546821
406.762972	0.552027
407.144240	0.550432
407.525447	0.550264
407.906593	0.543178
408.287677	0.538485
408.668700	0.546883
409.049661	0.541138
409.430560	0.535502
409.811399	0.544635
410.192176	0.526393
410.572891	0.533766
410.953545	0.521610
411.334138	0.534511
411.714669	0.526932
412.095139	0.539080
412.475547	0.523787
412.855894	0.526430
413.236180	0.524606
413.616405	0.529798
413.996568	0.520707
414.376670	0.526369
414.756711	0.531141
415.136691	0.527818
415.516609	0.519297
415.896466	0.515866
416.276262	0.512176
416.655997	0.514630
417.035670	0.495400
417.415283	0.487249
417.794834	0.492323
418.174324	0.497349
418.553753	0.506120
418.933121	0.488554
419.312428	0.482950
419.691674	0.488517
420.070859	0.476748
420.449983	0.484379
420.829045	0.474158
421.208047	0.482744
421.586988	0.476253
421.965867	0.474810
422.344686	0.463239
422.723444	0.476531
423.102141	0.492487
423.480777	0.465613
423.859352	0.486759
424.237866	0.463477
424.616319	0.464638
424.994712	0.455466
425.373044	0.465770
425.751314	0.453968
426.129524	0.470262
426.507673	0.453990
426.885762	0.447678
427.263789	0.452537
427.641756	0.463231
428.019662	0.452598
428.397508	0.451952
428.775292	0.456145
429.153016	0.448722
429.530679	0.454793
429.908282	0.447761
430.285824	0.457720
430.663305	0.436579
431.040726	0.457518
431.418086	0.457614
431.795385	0.448783
432.172624	0.448359
432.549802	0.448345
432.926920	0.447489
433.303977	0.446717
433.680974	0.444172
434.057910	0.442701
434.434786	0.441948
434.811601	0.444589
435.188355	0.426645
435.565050	0.436374
435.941683	0.437555
436.318257	0.421099
436.694770	0.422490
437.071222	0.420751
437.447614	0.425050
437.823946	0.431209
438.200218	0.420789
438.576429	0.430622
438.952580	0.423378
439.328670	0.420441
439.704700	0.426255
440.080670	0.427663
440.456580	0.409373
440.832429	0.417462
441.208218	0.427923
441.583947	0.417438
441.959616	0.416626
442.335224	0.422301
442.710773	0.412747
443.086261	0.411050
443.461689	0.424696
443.837057	0.414435
444.212365	0.404380
444.587612	0.411977
444.962800	0.401701
445.337927	0.403379
445.712995	0.429078
446.088002	0.390905
446.462949	0.401460
446.837837	0.406526
447.212664	0.395567
447.587431	0.386699
447.962139	0.357015
448.336786	0.316051
448.711374	0.326608
449.085901	0.370663
449.460369	0.375122
449.834776	0.378588
450.209124	0.357680
450.583412	0.350399
450.957640	0.343470
451.331808	0.355000
451.705917	0.378706
452.079965	0.383204
452.453954	0.371273
452.827883	0.377936
453.201752	0.372992
453.575562	0.383887
453.949311	0.372505
454.323001	0.378414
454.696632	0.375003
455.070202	0.367178
455.443713	0.358727
455.817164	0.353438
456.190556	0.349401
456.563888	0.346456
456.937160	0.343762
457.310373	0.361029
457.683526	0.359947
458.056619	0.365541
458.429653	0.365988
458.802628	0.369677
459.175542	0.364267
459.548398	0.346587
459.921194	0.339333
460.293930	0.339057
460.666607	0.316769
461.039224	0.304801
461.411782	0.300698
461.784280	0.299802
462.156719	0.304024
462.529099	0.308377
462.901419	0.324285
463.273680	0.328860
463.645882	0.328214
464.018024	0.334525
464.390106	0.326986
464.762130	0.311430
465.134094	0.294701
465.505999	0.263369
465.877845	0.233553
466.249631	0.220652
466.621358	0.228173
466.993026	0.242069
467.364634	0.248129
467.736184	0.256594
468.107674	0.265704
468.479105	0.265198
468.850477	0.271760
469.221790	0.278735
469.593043	0.288858
469.964238	0.293690
470.335373	0.292835
470.706449	0.291272
471.077467	0.291670
471.448425	0.253775
471.819324	0.229449
472.190164	0.228660
472.560945	0.257731
472.931667	0.279951
473.302330	0.284276
473.672934	0.295918
474.043479	0.284185
474.413965	0.286145
474.784393	0.289365
475.154761	0.284353
475.525070	0.281749
475.895321	0.287582
476.265513	0.281358
476.635645	0.276792
477.005719	0.276600
477.375734	0.273386
477.745691	0.266611
478.115588	0.262730
478.485427	0.256378
478.855207	0.243332
479.224928	0.225431
479.594591	0.213918
479.964194	0.217147
480.333739	0.218473
480.703226	0.220031
481.072653	0.218288
481.442022	0.213911
481.811333	0.210746
482.180584	0.214072
482.549777	0.219419
482.918912	0.222735
483.287988	0.222354
483.657005	0.222230
484.025964	0.228581
484.394864	0.225865
484.763706	0.226351
485.132489	0.231607
485.501213	0.232335
485.869879	0.230531
486.238487	0.233818
486.607036	0.231564
486.975527	0.236314
487.343959	0.232342
487.712333	0.231305
488.080648	0.232465
488.448905	0.231844
488.817104	0.233091
489.185244	0.227549
489.553326	0.224582
489.921350	0.214232
490.289315	0.196622
490.657222	0.191551
491.025070	0.193117
491.392861	0.195178
491.760593	0.200680
492.128267	0.206586
492.495883	0.211944
492.863440	0.218301
493.230939	0.224665
493.598380	0.226373
493.965763	0.228233
494.333088	0.230463
494.700354	0.232223
495.067563	0.231025
495.434713	0.234370
495.801805	0.232140
496.168839	0.233637
496.535815	0.235121
496.902733	0.235123
497.269593	0.236527
497.636395	0.234125
498.003139	0.234578
498.369825	0.237771
498.736453	0.233826
499.103023	0.235679
499.469535	0.234967
499.835989	0.235116
500.202385	0.236127
500.568723	0.239488
500.935003	0.234575
501.301226	0.239027
501.667390	0.233107
502.033497	0.231107
502.399546	0.234012
502.765537	0.235912
503.131470	0.234323
503.497345	0.230901
503.863163	0.239340
504.228923	0.232435
504.594625	0.231280
504.960269	0.236521
505.325856	0.232310
505.691385	0.236391
506.056856	0.232918
506.422270	0.232274
506.787625	0.234903
507.152924	0.232276
507.518164	0.232797
507.883347	0.234184
508.248472	0.236294
508.613540	0.230859
508.978550	0.233831
509.343503	0.234048
509.708398	0.231908
510.073236	0.229391
510.438016	0.228977
510.802738	0.229996
511.167403	0.229172
511.532010	0.231271
511.896561	0.226507
512.261053	0.225152
512.625488	0.227262
512.989866	0.227676
513.354186	0.227819
513.718449	0.230107
514.082655	0.226060
514.446803	0.228521
514.810894	0.226135
515.174927	0.228838
515.538904	0.228370
515.902822	0.225067
516.266684	0.227320
516.630488	0.228722
516.994235	0.227688
517.357925	0.226487
517.721558	0.224687
518.085133	0.224024
518.448651	0.224146
518.812112	0.226621
519.175516	0.226385
519.538863	0.223696
519.902152	0.225298
520.265385	0.222115
520.628560	0.223899
520.991678	0.224420
521.354739	0.223544
521.717743	0.224479
522.080690	0.224615
522.443580	0.222238
522.806413	0.222769
523.169189	0.222570
523.531908	0.221293
523.894569	0.224827
524.257174	0.224813
524.619722	0.222378
524.982213	0.223649
525.344647	0.222400
525.707025	0.223227
526.069345	0.221589
526.431608	0.223408
526.793815	0.221311
527.155964	0.225418
527.518057	0.224347
527.880093	0.225296
528.242072	0.223925
528.603995	0.225829
528.965860	0.227549
529.327669	0.226523
529.689421	0.227415
530.051117	0.228231
530.412755	0.226015
530.774337	0.228170
531.135862	0.228565
531.497331	0.227873
531.858743	0.230665
532.220098	0.227425
532.581396	0.229784
532.942638	0.230387
533.303824	0.231367
533.664953	0.231236
534.026025	0.233132
534.387040	0.230978
534.747999	0.230645
535.108902	0.229676
535.469748	0.234548
535.830537	0.232741
536.191270	0.232917
536.551947	0.232473
536.912567	0.232317
537.273131	0.234098
537.633638	0.234524
537.994089	0.234852
538.354483	0.235698
538.714821	0.232912
539.075103	0.232582
539.435328	0.233432
539.795497	0.237167
540.155609	0.233627
540.515665	0.231830
540.875665	0.237512
541.235609	0.236058
541.595496	0.235962
541.955328	0.232735
542.315102	0.235425
542.674821	0.236448
543.034483	0.236669
543.394090	0.236134
543.753640	0.238087
544.113134	0.232729
544.472571	0.236456
544.831953	0.233118
545.191278	0.237446
545.550548	0.236659
545.909761	0.233727
546.268918	0.234419
546.628019	0.232277
546.987064	0.235704
547.346053	0.237043
547.704986	0.234857
548.063863	0.235173
548.422684	0.235369
548.781449	0.237423
549.140158	0.235054
549.498811	0.237640
549.857408	0.240948
550.215949	0.235119
550.574434	0.238388
550.932864	0.236587
551.291237	0.235335
551.649555	0.236857
552.007817	0.236363
552.366022	0.237563
552.724173	0.237199
553.082267	0.237657
553.440305	0.234708
553.798288	0.238973
554.156215	0.235792
554.514086	0.236363
554.871902	0.239477
555.229661	0.238574
555.587365	0.239598
555.945014	0.241630
556.302606	0.238722
556.660143	0.241646
557.017625	0.237981
557.375050	0.240117
557.732421	0.236903
558.089735	0.238884
558.446994	0.239051
558.804197	0.238339
559.161345	0.238012
559.518437	0.241505
559.875474	0.239487
560.232455	0.238857
560.589381	0.240148
560.946251	0.240151
561.303065	0.237718
561.659825	0.239033
562.016528	0.240690
562.373177	0.243492
562.729770	0.240903
563.086307	0.242718
563.442789	0.240864
563.799216	0.243583
564.155587	0.242500
564.511904	0.243412
564.868164	0.243543
565.224370	0.243332
565.580520	0.244956
565.936615	0.244886
566.292654	0.248088
566.648638	0.245027
567.004567	0.245982
567.360441	0.246355
567.716260	0.248339
568.072023	0.246078
568.427732	0.247216
568.783385	0.249075
569.138982	0.247587
569.494525	0.247339
569.850013	0.250145
570.205445	0.248587
570.560823	0.251032
570.916145	0.252975
571.271412	0.251145
571.626625	0.252880
571.981782	0.253459
572.336884	0.254175
572.691931	0.253727
573.046923	0.255347
573.401860	0.256427
573.756743	0.258100
574.111570	0.256860
574.466342	0.257485
574.821059	0.256491
575.175722	0.259306
575.530330	0.259296
575.884882	0.259367
576.239380	0.261299
576.593823	0.261850
576.948211	0.261311
577.302544	0.264309
577.656823	0.264411
578.011047	0.264128
578.365216	0.265190
578.719330	0.267364
579.073389	0.266738
579.427394	0.268062
579.781344	0.268831
580.135239	0.270080
580.489080	0.269817
580.842866	0.273127
581.196597	0.272428
581.550273	0.271504
581.903895	0.272504
582.257463	0.270820
582.610975	0.274006
582.964434	0.273453
583.317837	0.275917
583.671186	0.276104
584.024481	0.276533
584.377721	0.278688
584.730906	0.279515
585.084037	0.278742
585.437113	0.280762
585.790135	0.279998
586.143103	0.283003
586.496016	0.283955
586.848874	0.281575
587.201679	0.282246
587.554428	0.285653
587.907124	0.284650
588.259765	0.285075
588.612352	0.285793
588.964884	0.289594
589.317362	0.288704
589.669786	0.288999
590.022155	0.287282
590.374470	0.286511
590.726731	0.288910
591.078937	0.294101
591.431090	0.290202
591.783188	0.293874
592.135232	0.294517
592.487222	0.294511
592.839157	0.292759
593.191038	0.294955
593.542866	0.296645
593.894639	0.300368
594.246358	0.298781
594.598022	0.298159
594.949633	0.301829
595.301190	0.302541
595.652692	0.301683
596.004141	0.297473
596.355535	0.305648
596.706876	0.306136
597.058162	0.309009
597.409395	0.305755
597.760573	0.303784
598.111698	0.306936
598.462768	0.307534
598.813785	0.308640
599.164748	0.309853
599.515657	0.310230
599.866511	0.313927
600.217312	0.309244
600.568060	0.314703
600.918753	0.310395
601.269392	0.311379
601.619978	0.314615
601.970510	0.312719
602.320988	0.312564
602.671412	0.310206
603.021783	0.313051
603.372100	0.313992
603.722363	0.313525
604.072572	0.314709
604.422728	0.314327
604.772830	0.316656
605.122878	0.316345
605.472872	0.317108
605.822813	0.314928
606.172701	0.317774
606.522534	0.315305
606.872314	0.315308
607.222041	0.316522
607.571714	0.314188
607.921333	0.316084
608.270899	0.315257
608.620411	0.312212
608.969870	0.316263
609.319276	0.316396
609.668627	0.316268
610.017926	0.314828
610.367171	0.313525
610.716362	0.313824
611.065500	0.314153
611.414585	0.313022
611.763616	0.313056
612.112594	0.313721
612.461518	0.312814
612.810389	0.311079
613.159207	0.313202
613.507971	0.315112
613.856682	0.310603
614.205340	0.311863
614.553945	0.309568
614.902496	0.312820
615.250994	0.311140
615.599439	0.311771
615.947830	0.311202
616.296169	0.312027
616.644454	0.311833
616.992686	0.311891
617.340864	0.309672
617.688990	0.313267
618.037063	0.309765
618.385082	0.311671
618.733048	0.308562
619.080961	0.310770
619.428821	0.310135
619.776628	0.309999
620.124382	0.312017
620.472083	0.312359
620.819731	0.311846
621.167326	0.315575
621.514868	0.315565
621.862357	0.319841
622.209793	0.318654
622.557176	0.321217
622.904506	0.322342
623.251783	0.325027
623.599007	0.327362
623.946179	0.326504
624.293297	0.328859
624.640363	0.332794
624.987376	0.333264
625.334336	0.335558
625.681243	0.337991
626.028097	0.338725
626.374899	0.339427
626.721647	0.339951
627.068343	0.342881
627.414987	0.344172
627.761577	0.346283
628.108115	0.344376
628.454600	0.349786
628.801032	0.347313
629.147412	0.349306
629.493739	0.349718
629.840014	0.352841
630.186236	0.349621
630.532405	0.355795
630.878521	0.352706
631.224585	0.355251
631.570597	0.358884
631.916556	0.357537
632.262462	0.357146
632.608316	0.359915
632.954117	0.360162
633.299866	0.360869
633.645562	0.361691
633.991206	0.366171
634.336797	0.368883
634.682336	0.371310
635.027823	0.372562
635.373257	0.373249
635.718639	0.377683
636.063968	0.376277
636.409245	0.381888
636.754470	0.382241
637.099642	0.384526
637.444762	0.388235
637.789829	0.387599
638.134845	0.391195
638.479808	0.391791
638.824719	0.392068
639.169577	0.395803
639.514383	0.395321
639.859137	0.399227
640.203839	0.398024
640.548489	0.399263
640.893086	0.400195
641.237632	0.401993
641.582125	0.400775
641.926566	0.403005
642.270955	0.402910
642.615292	0.402840
642.959576	0.402061
643.303809	0.402292
643.647990	0.402364
643.992118	0.402804
644.336195	0.406023
644.680219	0.404083
645.024192	0.405320
645.368112	0.398498
645.711981	0.397659
646.055797	0.393361
646.399562	0.395637
646.743274	0.388395
647.086935	0.384722
647.430544	0.385124
647.774101	0.383401
648.117606	0.383790
648.461059	0.384601
648.804460	0.386477
649.147810	0.391618
649.491108	0.393417
649.834354	0.395156
650.177548	0.400367
650.520690	0.405780
650.863781	0.406748
651.206820	0.406389
651.549807	0.410601
651.892742	0.414882
652.235626	0.414490
652.578458	0.415269
652.921238	0.421888
653.263967	0.419099
653.606644	0.422918
653.949269	0.423175
654.291843	0.427210
654.634365	0.424037
654.976836	0.426662
655.319255	0.427352
655.661622	0.428733
656.003938	0.428514
656.346203	0.431756
656.688416	0.429433
657.030577	0.432619
657.372687	0.435166
657.714746	0.435973
658.056753	0.432457
658.398708	0.436495
658.740612	0.437611
659.082465	0.433685
659.424266	0.434631
659.766016	0.433711
660.107715	0.437284
660.449362	0.435252
660.790958	0.436156
661.132503	0.437133
661.473996	0.434613
661.815438	0.435751
662.156829	0.435541
662.498168	0.436332
662.839456	0.437660
663.180693	0.435116
663.521879	0.434914
663.863013	0.436444
664.204097	0.434621
664.545129	0.431444
664.886110	0.432077
665.227040	0.429287
665.567918	0.431387
665.908746	0.429673
666.249522	0.429531
666.590248	0.430635
666.930922	0.428635
667.271545	0.427823
667.612118	0.427483
667.952639	0.429656
668.293109	0.427985
668.633528	0.430772
668.973896	0.430613
669.314213	0.431291
669.654480	0.432483
669.994695	0.432629
670.334859	0.433445
670.674973	0.434160
671.015035	0.434138
671.355047	0.433759
671.695008	0.435052
672.034918	0.437136
672.374777	0.436348
672.714585	0.437560
673.054342	0.437499
673.394049	0.437410
673.733705	0.435161
674.073310	0.436034
674.412864	0.439146
674.752368	0.439662
675.091820	0.440145
675.431223	0.445004
675.770574	0.444297
676.109875	0.447703
676.449125	0.447039
676.788324	0.449786
677.127473	0.454824
677.466571	0.454818
677.805619	0.456615
678.144616	0.457387
678.483562	0.459319
678.822458	0.461874
679.161303	0.462392
679.500098	0.463272
679.838842	0.464794
680.177535	0.463629
680.516179	0.462688
680.854771	0.461833
681.193314	0.455510
681.531805	0.446380
681.870247	0.435280
682.208638	0.427547
682.546978	0.426814
682.885268	0.428172
683.223508	0.434484
683.561697	0.438566
683.899836	0.441245
684.237925	0.443982
684.575963	0.446656
684.913951	0.450511
685.251889	0.446034
685.589776	0.448017
685.927614	0.450070
686.265401	0.444655
686.603137	0.446181
686.940824	0.440035
687.278460	0.438307
687.616046	0.437555
687.953582	0.432679
688.291068	0.433400
688.628504	0.429216
688.965889	0.431874
689.303224	0.435767
689.640510	0.439223
689.977745	0.444909
690.314930	0.453403
690.652065	0.457982
690.989150	0.465572
691.326185	0.472282
691.663170	0.476729
692.000105	0.484237
692.336990	0.490520
692.673825	0.493395
693.010610	0.500429
693.347345	0.505974
693.684030	0.507201
694.020665	0.512257
694.357251	0.520021
694.693786	0.520257
695.030272	0.523982
695.366707	0.528460
695.703093	0.531905
696.039429	0.528870
696.375716	0.531544
696.711952	0.534246
697.048139	0.535853
697.384276	0.537715
697.720363	0.535888
698.056400	0.535030
698.392388	0.540528
698.728326	0.543561
699.064214	0.546565
699.400053	0.546866
699.735842	0.550807
700.071581	0.553475
700.407270	0.557696
700.742910	0.559870
701.078501	0.565984
701.414042	0.566903
701.749533	0.569757
702.084974	0.578120
702.420366	0.570622
702.755709	0.578333
703.091002	0.586061
703.426246	0.579485
703.761440	0.585483
704.096584	0.589632
704.431679	0.587188
704.766725	0.589399
705.101721	0.591064
705.436668	0.587429
705.771565	0.594267
706.106413	0.590352
706.441212	0.585992
706.775961	0.585412
707.110661	0.586944
707.445311	0.583691
707.779913	0.581307
708.114465	0.579833
708.448967	0.576754
708.783421	0.568855
709.117825	0.562623
709.452180	0.562697
709.786485	0.556740
710.120742	0.546391
710.454949	0.548066
710.789107	0.540031
711.123216	0.531384
711.457275	0.532799
711.791286	0.524474
712.125247	0.523622
712.459159	0.534037
712.793023	0.525101
713.126837	0.530130
713.460602	0.530887
713.794318	0.538847
714.127985	0.538368
714.461602	0.549096
714.795171	0.552249
715.128691	0.560341
715.462162	0.567294
715.795584	0.573416
716.128957	0.576638
716.462281	0.583421
716.795556	0.586711
717.128782	0.591136
717.461960	0.600482
717.795088	0.599675
718.128167	0.606563
718.461198	0.613803
718.794180	0.615093
719.127113	0.617920
719.459997	0.621511
719.792833	0.627008
720.125619	0.628820
720.458357	0.634367
720.791046	0.633752
721.123686	0.638414
721.456278	0.645245
721.788821	0.641798
722.121315	0.648470
722.453761	0.650908
722.786158	0.648666
723.118506	0.644716
723.450805	0.652885
723.783056	0.649408
724.115259	0.646673
724.447412	0.646069
724.779518	0.647384
725.111574	0.645536
725.443582	0.641170
725.775542	0.643777
726.107453	0.635688
726.439315	0.635997
726.771129	0.634323
727.102895	0.627713
727.434612	0.620182
727.766281	0.618450
728.097901	0.617973
728.429473	0.617050
728.760996	0.615469
729.092471	0.615597
729.423897	0.619452
729.755276	0.618381
730.086606	0.618843
730.417887	0.613219
730.749120	0.604049
731.080305	0.594707
731.411442	0.590776
731.742530	0.594505
732.073570	0.594909
732.404562	0.586950
732.735506	0.588273
733.066401	0.593652
733.397249	0.602144
733.728048	0.613540
734.058798	0.626517
734.389501	0.637795
734.720156	0.647041
735.050762	0.655406
735.381320	0.656407
735.711831	0.664786
736.042293	0.669573
736.372707	0.666210
736.703073	0.669922
737.033391	0.672482
737.363661	0.669959
737.693883	0.665440
738.024056	0.663648
738.354182	0.664658
738.684260	0.653320
739.014290	0.649467
739.344272	0.650551
739.674207	0.643658
740.004093	0.642685
740.333931	0.643398
740.663722	0.643367
740.993464	0.643959
741.323159	0.647922
741.652806	0.653599
741.982405	0.657057
742.311956	0.663063
742.641460	0.664603
742.970915	0.667995
743.300323	0.675314
743.629683	0.681911
743.958996	0.684873
744.288260	0.688143
744.617477	0.694459
744.946647	0.697260
745.275768	0.701731
745.604842	0.701427
745.933869	0.711388
746.262847	0.712714
746.591778	0.705660
746.920662	0.711729
747.249498	0.719326
747.578286	0.710089
747.907027	0.705748
748.235720	0.706951
748.564365	0.701226
748.892963	0.701138
749.221514	0.704385
749.550017	0.709151
749.878473	0.709345
750.206881	0.716481
750.535242	0.715994
750.863555	0.716221
751.191821	0.717262
751.520039	0.720653
751.848210	0.724069
752.176334	0.717300
752.504411	0.716790
752.832440	0.725762
753.160421	0.728528
753.488356	0.726585
753.816243	0.724046
754.144082	0.732649
754.471875	0.737065
754.799620	0.733207
755.127318	0.733471
755.454969	0.734568
755.782572	0.733457
756.110129	0.737351
756.437638	0.741422
756.765100	0.736674
757.092515	0.734405
757.419882	0.734729
757.747203	0.739052
758.074477	0.739424
758.401703	0.735100
758.728882	0.730885
759.056014	0.729388
759.383099	0.729046
759.710138	0.729843
760.037129	0.726695
760.364073	0.720424
760.690970	0.723049
761.017820	0.726877
761.344623	0.724286
761.671379	0.715544
761.998088	0.703831
762.324751	0.679594
762.651366	0.637023
762.977935	0.569371
763.304456	0.517359
763.630931	0.507826
763.957359	0.547189
764.283740	0.591725
764.610074	0.619626
764.936362	0.650690
765.262602	0.679790
765.588796	0.699867
765.914943	0.717355
766.241044	0.735669
766.567097	0.741516
766.893104	0.752172
767.219064	0.758651
767.544978	0.765154
767.870845	0.778176
768.196665	0.782610
768.522438	0.780817
768.848165	0.782768
769.173846	0.791962
769.499479	0.796561
769.825066	0.799422
770.150607	0.804611
770.476101	0.800367
770.801548	0.802054
771.126949	0.812872
771.452303	0.817182
771.777611	0.815850
772.102872	0.814589
772.428087	0.819956
772.753256	0.823719
773.078378	0.825804
773.403453	0.834051
773.728482	0.839147
774.053465	0.832150
774.378401	0.834515
774.703291	0.844635
775.028135	0.844266
775.352932	0.843204
775.677683	0.849330
776.002388	0.848521
776.327046	0.848397
776.651658	0.853092
776.976224	0.854599
777.300743	0.854948
777.625216	0.856599
777.949643	0.859527
778.274024	0.858531
778.598359	0.860693
778.922647	0.858591
779.246889	0.860466
779.571086	0.863750
779.895236	0.866106
780.219339	0.864310
780.543397	0.859899
780.867409	0.860363
781.191374	0.861230
781.515294	0.862760
781.839167	0.861915
782.162995	0.864566
782.486776	0.861557
782.810511	0.863874
783.134201	0.866903
783.457844	0.865833
783.781441	0.867310
784.104993	0.873413
784.428498	0.873300
784.751958	0.869876
785.075372	0.871874
785.398739	0.876314
785.722061	0.870331
786.045337	0.868337
786.368568	0.871453
786.691752	0.873453
787.014891	0.860016
787.337983	0.850619
787.661030	0.843479
787.984031	0.824891
788.306987	0.813272
788.629897	0.813967
788.952760	0.818648
789.275579	0.823640
789.598351	0.838685
789.921078	0.852428
790.243759	0.853585
790.566395	0.858964
790.888984	0.866224
791.211529	0.870688
791.534027	0.874757
791.856480	0.877281
792.178888	0.882212
792.501249	0.883938
792.823566	0.885868
793.145836	0.886073
793.468062	0.887407
793.790241	0.888630
794.112375	0.885430
794.434464	0.881906
794.756507	0.881377
795.078505	0.879515
795.400457	0.874444
795.722364	0.862238
796.044226	0.856320
796.366042	0.853942
796.687812	0.857532
797.009538	0.853025
797.331218	0.858060
797.652852	0.860898
797.974442	0.865490
798.295986	0.867387
798.617484	0.868772
798.938938	0.873377
799.260346	0.878265
799.581709	0.879681
799.903026	0.882943
800.224299	0.883525
800.545526	0.886840
800.866708	0.891362
801.187845	0.895429
801.508936	0.893959
801.829983	0.891835
802.150984	0.896721
802.471940	0.901393
802.792851	0.900943
803.113717	0.902102
803.434538	0.898219
803.755314	0.902036
804.076045	0.903252
804.396731	0.902426
804.717372	0.901261
805.037967	0.905165
805.358518	0.902700
805.679024	0.897982
805.999485	0.900358
806.319901	0.899018
806.640272	0.902350
806.960598	0.899079
807.280879	0.896126
807.601115	0.894665
807.921306	0.897732
808.241453	0.898781
808.561554	0.897806
808.881611	0.897070
809.201623	0.898083
809.521590	0.899647
809.841513	0.901269
810.161390	0.898383
810.481223	0.900691
810.801011	0.904424
811.120755	0.906668
811.440453	0.903606
811.760107	0.905127
812.079716	0.903743
812.399281	0.907327
812.718801	0.909269
813.038276	0.910602
813.357707	0.909350
813.677093	0.907990
813.996434	0.910322
814.315731	0.912295
814.634983	0.913004
814.954191	0.912423
815.273354	0.907074
815.592473	0.904061
815.911547	0.903495
816.230577	0.901218
816.549562	0.898421
816.868502	0.897779
817.187399	0.896088
817.506250	0.891398
817.825058	0.891791
818.143821	0.888846
818.462539	0.883723
818.781213	0.875337
819.099843	0.865016
819.418429	0.848221
819.736970	0.829907
820.055466	0.810229
820.373919	0.783980
820.692327	0.750236
821.010691	0.715091
821.329011	0.634483
821.647286	0.517352
821.965517	0.402297
822.283704	0.359290
822.601847	0.359667
822.919945	0.395840
823.237999	0.430700
823.556010	0.478958
823.873976	0.535596
824.191897	0.586886
824.509775	0.630503
824.827609	0.675908
825.145398	0.699346
825.463144	0.700935
825.780845	0.683982
826.098502	0.665583
826.416116	0.619936
826.733685	0.574116
827.051210	0.565044
827.368692	0.581012
827.686129	0.618693
828.003522	0.673850
828.320872	0.722142
828.638177	0.765960
828.955439	0.799913
829.272656	0.822150
829.589830	0.839557
829.906960	0.855360
830.224046	0.868611
830.541088	0.878330
830.858086	0.884098
831.175041	0.890709
831.491952	0.889105
831.808819	0.885180
832.125642	0.878454
832.442421	0.864884
832.759157	0.840756
833.075849	0.793534
833.392497	0.728968
833.709101	0.686995
834.025662	0.696381
834.342179	0.729472
834.658653	0.769619
834.975083	0.806406
835.291469	0.832772
835.607811	0.856172
835.924110	0.873680
836.240366	0.889844
836.556578	0.903010
836.872746	0.910780
837.188871	0.917938
837.504952	0.923395
837.820990	0.926259
838.136984	0.930352
838.452935	0.933702
838.768842	0.934605
839.084706	0.928711
839.400526	0.902279
839.716303	0.859949
840.032037	0.838755
840.347727	0.841566
840.663373	0.858755
840.978977	0.881764
841.294537	0.905147
841.610054	0.921065
841.925527	0.928538
842.240957	0.935274
842.556344	0.943240
842.871687	0.949933
843.186987	0.952719
843.502244	0.954303
843.817458	0.955318
844.132629	0.959307
844.447756	0.962985
844.762840	0.964613
845.077881	0.964749
845.392879	0.963398
845.707833	0.966040
846.022745	0.967512
846.337613	0.968233
846.652438	0.968328
846.967221	0.969434
847.281960	0.970116
847.596656	0.971189
847.911309	0.970597
848.225919	0.970491
848.540485	0.972500
848.855009	0.974743
849.169490	0.972814
849.483928	0.973631
849.798323	0.973069
850.112675	0.974978
850.426984	0.975021
850.741251	0.975467
851.055474	0.974554
851.369654	0.972539
851.683792	0.972195
851.997887	0.973707
852.311938	0.975114
852.625947	0.973829
852.939914	0.971891
853.253837	0.974215
853.567718	0.975254
853.881555	0.975503
854.195350	0.973697
854.509103	0.973927
854.822812	0.974949
855.136479	0.975030
855.450103	0.974049
855.763685	0.973912
856.077224	0.973811
856.390720	0.975340
856.704173	0.974597
857.017584	0.972936
857.330953	0.972866
857.644278	0.971398
857.957561	0.972974
858.270802	0.973775
858.584000	0.972915
858.897155	0.971570
859.210268	0.971431
859.523339	0.973589
859.836367	0.974658
860.149352	0.973993
860.462295	0.973660
860.775195	0.974635
861.088054	0.972975
861.400869	0.974767
861.713642	0.974274
862.026373	0.975635
862.339062	0.975234
862.651708	0.972002
862.964312	0.972242
863.276873	0.974296
863.589392	0.971737
863.901869	0.970086
864.214303	0.968890
864.526696	0.968521
864.839045	0.967054
865.151353	0.965921
865.463619	0.965852
865.775842	0.966875
866.088023	0.966972
866.400162	0.966005
866.712258	0.967140
867.024313	0.966749
867.336325	0.969188
867.648296	0.968214
867.960224	0.965638
868.272110	0.966570
868.583954	0.969315
868.895755	0.968141
869.207515	0.966504
869.519233	0.964301
869.830909	0.964883
870.142542	0.967039
870.454134	0.965892
870.765684	0.963601
871.077191	0.963765
871.388657	0.962150
871.700081	0.963538
872.011463	0.963269
872.322803	0.962458
872.634101	0.959883
872.945357	0.957674
873.256571	0.956475
873.567744	0.957025
873.878874	0.957726
874.189963	0.956657
874.501010	0.957136
874.812015	0.953624
875.122979	0.954499
875.433900	0.957356
875.744780	0.957652
876.055618	0.954582
876.366415	0.953240
876.677169	0.953637
876.987882	0.954761
877.298554	0.954120
877.609183	0.950146
877.919771	0.948356
878.230317	0.946817
878.540822	0.943969
878.851285	0.938690
879.161707	0.929140
879.472087	0.917765
879.782425	0.899055
880.092722	0.864501
880.402977	0.810585
880.713191	0.746845
881.023363	0.686091
881.333494	0.651161
881.643583	0.624164
881.953631	0.624661
882.263637	0.652361
882.573602	0.693040
882.883526	0.718779
883.193408	0.743614
883.503248	0.767734
883.813048	0.795434
884.122806	0.826799
884.432522	0.850860
884.742197	0.870283
885.051831	0.881058
885.361424	0.893009
885.670975	0.905972
885.980485	0.914887
886.289954	0.922193
886.599382	0.924900
886.908768	0.931016
887.218113	0.936250
887.527417	0.941938
887.836680	0.945215
888.145901	0.946375
888.455082	0.950964
888.764221	0.953913
889.073319	0.955165
889.382376	0.956619
889.691392	0.954527
890.000366	0.956325
890.309300	0.957964
890.618193	0.956968
890.927044	0.955042
891.235855	0.954716
891.544625	0.955514
891.853353	0.954907
892.162041	0.951434
892.470687	0.945813
892.779293	0.942002
893.087858	0.936205
893.396381	0.927932
893.704864	0.914701
894.013306	0.889970
894.321707	0.863737
894.630068	0.847257
894.938387	0.841851
895.246665	0.844482
895.554903	0.855518
895.863100	0.870972
896.171256	0.887406
896.479371	0.908427
896.787446	0.919330
897.095480	0.927269
897.403473	0.930385
897.711425	0.935674
898.019336	0.942306
898.327207	0.946731
898.635038	0.946903
898.942827	0.948197
899.250576	0.951515
899.558284	0.955855
899.865952	0.957202
900.173579	0.957701
900.481165	0.960164
900.788711	0.961810
901.096216	0.964035
901.403681	0.966566
901.711105	0.964918
902.018489	0.966104
902.325832	0.966296
902.633135	0.963230
902.940397	0.959480
903.247619	0.945266
903.554800	0.920038
903.861941	0.878748
904.169041	0.841170
904.476101	0.822566
904.783121	0.824636
905.090100	0.840652
905.397039	0.862360
905.703938	0.886878
906.010796	0.905854
906.317614	0.923509
906.624391	0.937528
906.931129	0.947191
907.237826	0.955601
907.544483	0.962392
907.851099	0.966953
908.157675	0.969936
908.464211	0.973979
908.770707	0.975960
909.077163	0.979018
909.383578	0.979749
909.689954	0.979850
909.996289	0.980666
910.302584	0.982723
910.608839	0.984254
910.915054	0.982525
911.221229	0.983845
911.527363	0.981006
911.833458	0.982570
912.139513	0.982044
912.445527	0.980262
912.751502	0.979640
913.057436	0.975755
913.363331	0.974608
913.669186	0.971308
913.975000	0.965599
914.280775	0.958085
914.586510	0.951029
914.892205	0.936852
915.197859	0.914043
915.503475	0.886366
915.809050	0.865445
916.114585	0.860594
916.420081	0.856521
916.725536	0.854747
917.030952	0.862552
917.336328	0.876287
917.641665	0.891607
917.946961	0.907658
918.252218	0.918508
918.557435	0.928912
918.862612	0.937689
919.167750	0.943562
919.472848	0.950121
919.777906	0.956466
920.082925	0.962224
920.387904	0.964555
920.692843	0.966824
920.997743	0.967039
921.302603	0.971032
921.607423	0.972275
921.912204	0.975571
922.216946	0.977940
922.521647	0.977397
922.826310	0.978992
923.130932	0.981912
923.435516	0.983472
923.740059	0.983960
924.044564	0.983168
924.349028	0.985164
924.653454	0.987348
924.957840	0.987888
925.262186	0.988766
925.566493	0.988296
925.870761	0.990030
926.174989	0.990663
926.479178	0.992948
926.783328	0.992410
927.087438	0.992346
927.391509	0.991732
927.695541	0.992971
927.999533	0.995403
928.303486	0.993794
928.607400	0.994348
928.911275	0.995576
929.215110	0.996738
929.518906	0.995172
929.822663	0.996105
930.126381	0.995343
930.430060	0.994972
930.733699	0.995823
931.037299	0.995460
931.340861	0.994740
931.644383	0.992927
931.947866	0.994712
932.251309	0.995730
932.554714	0.994741
932.858080	0.994931
933.161407	0.994488
933.464694	0.995173
933.767943	0.995135
934.071153	0.996082
934.374323	0.996871
934.677455	0.995785
934.980548	0.994253
935.283602	0.997001
935.586617	0.995589
935.889593	0.996176
936.192530	0.996322
936.495428	0.995327
936.798287	0.996019
937.101108	0.995232
937.403890	0.993645
937.706632	0.994371
938.009336	0.991795
938.312002	0.989395
938.614628	0.989412
938.917216	0.986639
939.219765	0.987460
939.522275	0.986264
939.824747	0.986738
940.127179	0.987284
940.429573	0.989788
940.731929	0.987875
941.034246	0.988521
941.336524	0.989331
941.638763	0.990706
941.940964	0.990508
942.243126	0.990565
942.545250	0.993094
942.847335	0.991887
943.149381	0.993071
943.451389	0.993151
943.753359	0.993762
944.055290	0.994499
944.357182	0.994329
944.659036	0.995602
944.960851	0.995162
945.262628	0.994949
945.564367	0.994046
945.866067	0.994180
946.167729	0.994882
946.469352	0.995182
946.770937	0.993160
947.072484	0.995154
947.373992	0.994985
947.675462	0.994275
947.976893	0.993202
948.278286	0.997795
948.579641	0.996583
948.880958	0.995781
949.182236	0.996709
949.483476	0.996716
949.784678	0.996187
950.085841	0.997658
950.386967	0.995809
950.688054	0.997568
950.989103	0.994541
951.290114	0.993442
951.591087	0.994176
951.892021	0.993142
952.192917	0.994403
952.493776	0.993221
952.794596	0.992846
953.095378	0.992820
953.396122	0.991924
953.696828	0.993468
953.997496	0.994586
954.298126	0.995725
954.598718	0.995050
954.899272	0.995354
955.199788	0.994089
955.500266	0.997398
955.800706	0.996404
956.101108	0.998169
956.401472	0.999479
956.701798	0.998049
957.002087	0.998569
957.302337	0.998206
957.602550	1.000053
957.902724	1.000280
958.202861	0.999751
958.502960	0.999401
958.803022	0.999811
959.103045	1.001510
959.403031	1.001004
959.702979	1.001945
960.002889	1.000800
960.302762	1.001537
960.602596	1.001738
960.902393	1.002256
961.202153	1.002405
961.501875	1.001604
961.801559	1.001722
962.101205	1.001221
962.400814	1.003042
962.700385	1.002795
962.999918	1.001832
963.299414	1.000499
963.598873	1.002809
963.898293	1.001722
964.197677	1.001791
964.497022	1.001664
964.796331	1.002806
965.095601	1.003072
965.394835	1.002079
965.694030	1.002081
965.993189	1.002942
966.292309	1.002668
966.591393	1.001105
966.890439	1.003110
967.189447	1.001829
967.488419	1.002417
967.787353	1.002625
968.086249	1.003045
968.385108	1.001846
968.683930	1.003586
968.982714	1.001734
969.281462	1.002066
969.580172	1.001864
969.878844	1.002868
970.177480	1.001993
970.476078	1.003310
970.774639	1.001399
971.073162	1.001517
971.371649	1.001184
971.670098	1.002034
971.968510	1.001701
972.266885	1.000410
972.565223	1.002624
972.863524	1.000179
973.161788	1.001658
973.460014	1.002985
973.758204	1.000472
974.056356	1.001492
974.354471	1.000794
974.652550	1.001725
974.950591	1.000749
975.248595	0.999849
975.546563	1.001641
975.844493	1.002350
976.142386	1.001075
976.440243	1.003107
976.738062	1.002811
977.035845	1.002085
977.333590	1.003731
977.631299	1.001611
977.928971	1.002263
978.226606	1.001986
978.524204	1.001975
978.821765	1.003153
979.119290	1.003435
979.416777	1.002721
979.714228	1.002744
980.011642	1.003816
980.309020	1.002618
980.606360	1.001636
980.903664	1.001922
981.200931	1.001662
981.498162	1.001003
981.795356	1.000456
982.092513	0.999012
982.389633	0.999426
982.686717	0.996551
982.983764	0.995998
983.280775	0.996003
983.577749	0.996202
983.874686	0.995998
984.171587	0.997028
984.468451	0.999010
984.765279	1.000253
985.062070	1.000392
985.358824	1.000299
985.655543	1.000975
985.952224	1.001836
986.248869	1.002532
986.545478	1.004073
986.842050	1.001888
987.138586	1.000562
987.435086	1.002777
987.731549	1.003385
988.027975	1.003932
988.324366	1.002599
988.620719	1.004031
988.917037	1.003566
989.213318	1.003027
989.509563	1.003706
989.805772	1.004642
990.101944	1.004670
990.398080	1.004579
990.694180	1.004356
990.990244	1.003241
991.286271	1.003002
991.582262	1.005144
991.878217	1.002904
992.174136	1.003723
992.470019	1.003721
992.765865	1.004324
993.061676	1.004680
993.357450	1.003864
993.653188	1.005555
993.948890	1.003553
994.244556	1.003404
994.540186	1.002866
994.835780	1.001078
995.131337	1.003677
995.426859	1.002368
995.722345	1.002040
996.017795	1.001419
996.313208	1.002085
996.608586	1.001469
996.903928	1.002425
997.199234	1.002068
997.494504	1.002065
997.789738	1.000907
998.084936	1.003621
998.380099	1.002367
998.675225	1.002939
998.970316	1.002781
999.265371	1.003030
999.560390	1.004600
999.855373	1.003407
1000.150320	1.004104
1000.445232	1.003442
1000.740108	1.002926
1001.034948	1.003652
1001.329752	1.004537
1001.624521	1.002661
1001.919254	1.003044
1002.213951	1.004835
1002.508613	1.003455
1002.803239	1.003817
1003.097829	1.004745
1003.392384	1.003458
1003.686903	1.004216
1003.981386	1.002807
1004.275834	1.005330
1004.570246	1.003365
1004.864623	1.004971
1005.158964	1.004376
1005.453270	1.002649
1005.747540	1.004277
1006.041775	1.005104
1006.335974	1.004170
1006.630138	1.003006
1006.924266	1.002753
1007.218359	1.003160
1007.512416	1.005450
1007.806438	1.004370
1008.100425	1.005662
1008.394376	1.004798
1008.688292	1.004167
1008.982172	1.003301
1009.276017	1.004124
1009.569827	1.004603
1009.863602	1.003717
1010.157341	1.004499
1010.451045	1.003504
1010.744714	1.005184
1011.038347	1.005677
1011.331945	1.004047
1011.625508	1.005085
1011.919036	1.004156
1012.212528	1.004621
1012.505986	1.004096
1012.799408	1.003623
1013.092795	1.004763
1013.386147	1.004172
1013.679464	1.005133
1013.972745	1.004882
1014.265992	1.004613
1014.559204	1.004589
1014.852380	1.004110
1015.145521	1.004760
1015.438628	1.003361
1015.731699	1.004408
1016.024736	1.005083
1016.317737	1.004745
1016.610703	1.005092
1016.903635	1.005905
1017.196531	1.003765
1017.489393	1.004416
1017.782219	1.003778
1018.075011	1.004591
1018.367768	1.003764
1018.660490	1.004177
1018.953177	1.004177
1019.245829	1.004177
