Dividing Wavelength (nm)	Counts (n)	Blue Motor Position (mm): 6.800000	Red Motor Position (mm): 0.000000	
326.493990	1.004843
326.888308	1.004843
327.282561	1.004843
327.676750	1.005916
328.070874	1.006074
328.464933	1.006233
328.858929	1.006191
329.252859	1.005599
329.646726	1.005077
330.040528	1.004810
330.434265	1.005273
330.827938	1.005299
331.221547	1.004863
331.615091	1.006255
332.008571	1.007190
332.401986	1.004706
332.795338	1.004482
333.188625	1.005995
333.581847	1.005714
333.975006	1.006330
334.368100	1.005142
334.761129	1.005168
335.154095	1.005786
335.546996	1.003183
335.939833	0.997984
336.332606	0.998923
336.725315	0.997005
337.117960	1.000342
337.510540	0.997759
337.903056	0.999138
338.295508	0.999461
338.687896	0.999873
339.080220	0.998846
339.472480	0.998482
339.864676	0.998691
340.256807	0.997949
340.648875	0.997954
341.040879	0.999308
341.432818	0.998706
341.824694	0.998019
342.216506	0.999727
342.608253	0.998452
342.999937	0.998452
343.391557	0.999073
343.783113	0.998699
344.174605	0.999095
344.566033	0.998389
344.957397	0.999188
345.348697	0.998548
345.739934	0.999105
346.131106	0.998096
346.522215	0.998172
346.913260	0.998660
347.304241	0.996971
347.695159	0.999149
348.086012	0.997918
348.476802	0.998178
348.867528	0.997719
349.258191	0.999317
349.648789	0.997926
350.039324	0.997626
350.429796	0.997969
350.820203	0.997250
351.210548	0.997647
351.600828	0.997412
351.991045	0.997482
352.381198	0.998846
352.771288	0.997883
353.161314	0.999219
353.551276	0.997404
353.941175	0.996492
354.331010	0.998539
354.720782	0.998621
355.110490	0.998195
355.500135	0.998717
355.889717	0.996368
356.279235	0.998361
356.668689	0.998510
357.058080	0.998437
357.447408	0.997863
357.836672	0.997109
358.225873	0.998445
358.615010	0.996811
359.004084	0.996810
359.393095	0.996316
359.782043	0.998039
360.170927	0.998536
360.559748	0.996395
360.948505	0.996845
361.337199	0.997304
361.725830	0.997133
362.114398	0.997060
362.502903	0.996211
362.891344	0.995266
363.279722	0.996570
363.668037	0.996205
364.056289	0.995942
364.444478	0.998379
364.832603	0.997183
365.220665	0.996592
365.608665	0.996396
365.996601	0.995755
366.384474	0.995450
366.772284	0.995896
367.160031	0.994845
367.547715	0.994491
367.935336	0.993989
368.322893	0.993585
368.710388	0.991410
369.097820	0.990529
369.485189	0.987653
369.872495	0.986946
370.259738	0.985235
370.646918	0.982076
371.034035	0.979276
371.421090	0.975386
371.808081	0.971084
372.195010	0.969216
372.581875	0.963146
372.968678	0.959487
373.355418	0.956011
373.742096	0.948425
374.128710	0.943190
374.515262	0.938622
374.901751	0.932929
375.288177	0.927914
375.674540	0.921445
376.060841	0.915509
376.447079	0.909201
376.833254	0.901911
377.219367	0.897487
377.605417	0.885976
377.991404	0.882532
378.377329	0.875897
378.763191	0.869765
379.148991	0.861313
379.534727	0.853598
379.920402	0.845564
380.306013	0.840544
380.691563	0.828579
381.077049	0.822091
381.462474	0.819110
381.847835	0.806354
382.233134	0.802470
382.618371	0.801800
383.003545	0.784937
383.388657	0.783029
383.773706	0.775192
384.158693	0.771108
384.543618	0.765678
384.928480	0.757105
385.313280	0.747617
385.698017	0.746012
386.082692	0.735097
386.467305	0.733205
386.851856	0.728228
387.236344	0.722332
387.620770	0.716639
388.005133	0.711757
388.389435	0.705676
388.773674	0.703148
389.157851	0.695233
389.541965	0.692988
389.926018	0.699498
390.310008	0.686022
390.693936	0.682432
391.077802	0.675853
391.461606	0.676039
391.845348	0.665942
392.229027	0.665705
392.612645	0.663725
392.996200	0.650580
393.379694	0.643942
393.763125	0.634300
394.146494	0.638902
394.529801	0.629112
394.913047	0.621206
395.296230	0.627459
395.679351	0.618114
396.062410	0.615221
396.445408	0.618162
396.828343	0.613428
397.211217	0.608344
397.594028	0.620074
397.976778	0.610761
398.359466	0.606801
398.742092	0.603051
399.124656	0.614140
399.507158	0.602467
399.889598	0.600355
400.271977	0.591859
400.654294	0.595718
401.036549	0.594641
401.418742	0.598617
401.800874	0.584330
402.182944	0.581454
402.564952	0.573104
402.946898	0.574691
403.328783	0.575101
403.710606	0.586099
404.092367	0.561524
404.474067	0.566419
404.855705	0.565135
405.237282	0.574435
405.618797	0.560807
406.000250	0.556255
406.381642	0.546824
406.762972	0.551324
407.144240	0.550287
407.525447	0.549709
407.906593	0.542199
408.287677	0.537847
408.668700	0.546940
409.049661	0.541133
409.430560	0.536041
409.811399	0.544429
410.192176	0.525899
410.572891	0.533325
410.953545	0.521371
411.334138	0.535040
411.714669	0.527196
412.095139	0.539973
412.475547	0.523656
412.855894	0.525903
413.236180	0.524459
413.616405	0.529953
413.996568	0.520491
414.376670	0.526391
414.756711	0.531727
415.136691	0.527963
415.516609	0.519659
415.896466	0.515170
416.276262	0.511782
416.655997	0.513760
417.035670	0.495108
417.415283	0.486860
417.794834	0.491417
418.174324	0.497547
418.553753	0.505887
418.933121	0.488656
419.312428	0.482231
419.691674	0.488286
420.070859	0.475920
420.449983	0.484122
420.829045	0.473137
421.208047	0.482881
421.586988	0.475753
421.965867	0.474376
422.344686	0.463012
422.723444	0.475767
423.102141	0.492957
423.480777	0.465458
423.859352	0.486528
424.237866	0.463656
424.616319	0.464332
424.994712	0.455335
425.373044	0.465715
425.751314	0.453141
426.129524	0.470465
426.507673	0.453403
426.885762	0.446904
427.263789	0.452973
427.641756	0.461562
428.019662	0.452698
428.397508	0.451702
428.775292	0.456416
429.153016	0.448319
429.530679	0.453974
429.908282	0.447372
430.285824	0.457791
430.663305	0.436342
431.040726	0.457276
431.418086	0.457324
431.795385	0.449244
432.172624	0.447874
432.549802	0.448101
432.926920	0.447090
433.303977	0.447059
433.680974	0.443351
434.057910	0.442566
434.434786	0.441946
434.811601	0.444674
435.188355	0.427163
435.565050	0.436134
435.941683	0.437084
436.318257	0.421324
436.694770	0.422955
437.071222	0.420256
437.447614	0.424879
437.823946	0.431370
438.200218	0.420406
438.576429	0.430151
438.952580	0.423639
439.328670	0.420023
439.704700	0.426180
440.080670	0.427921
440.456580	0.408888
440.832429	0.417220
441.208218	0.427859
441.583947	0.416902
441.959616	0.416384
442.335224	0.421836
442.710773	0.412726
443.086261	0.410613
443.461689	0.424600
443.837057	0.414275
444.212365	0.404160
444.587612	0.411508
444.962800	0.401288
445.337927	0.402842
445.712995	0.428649
446.088002	0.390780
446.462949	0.401477
446.837837	0.406289
447.212664	0.394672
447.587431	0.386163
447.962139	0.356823
448.336786	0.315906
448.711374	0.326413
449.085901	0.370671
449.460369	0.374364
449.834776	0.378493
450.209124	0.357690
450.583412	0.350665
450.957640	0.343267
451.331808	0.355030
451.705917	0.378059
452.079965	0.382907
452.453954	0.371231
452.827883	0.377682
453.201752	0.372447
453.575562	0.383864
453.949311	0.372562
454.323001	0.378298
454.696632	0.374520
455.070202	0.367063
455.443713	0.358739
455.817164	0.353897
456.190556	0.349055
456.563888	0.346479
456.937160	0.343347
457.310373	0.361042
457.683526	0.359729
458.056619	0.365650
458.429653	0.366004
458.802628	0.369494
459.175542	0.364172
459.548398	0.346179
459.921194	0.338993
460.293930	0.339076
460.666607	0.316671
461.039224	0.304683
461.411782	0.300329
461.784280	0.299660
462.156719	0.303448
462.529099	0.308107
462.901419	0.324269
463.273680	0.328583
463.645882	0.327771
464.018024	0.334052
464.390106	0.326495
464.762130	0.311373
465.134094	0.294164
465.505999	0.263608
465.877845	0.233611
466.249631	0.220466
466.621358	0.228051
466.993026	0.241755
467.364634	0.248373
467.736184	0.257247
468.107674	0.265807
468.479105	0.264755
468.850477	0.271684
469.221790	0.278381
469.593043	0.288806
469.964238	0.293404
470.335373	0.292770
470.706449	0.290966
471.077467	0.291675
471.448425	0.253831
471.819324	0.229135
472.190164	0.229135
472.560945	0.257598
472.931667	0.280014
473.302330	0.284149
473.672934	0.296203
474.043479	0.283802
474.413965	0.285821
474.784393	0.289315
475.154761	0.284128
475.525070	0.281223
475.895321	0.287279
476.265513	0.281500
476.635645	0.276890
477.005719	0.276704
477.375734	0.273045
477.745691	0.266608
478.115588	0.262749
478.485427	0.256433
478.855207	0.243477
479.224928	0.225560
479.594591	0.213938
479.964194	0.217064
480.333739	0.218506
480.703226	0.219932
481.072653	0.218704
481.442022	0.213899
481.811333	0.210637
482.180584	0.214091
482.549777	0.219669
482.918912	0.222437
483.287988	0.222375
483.657005	0.221890
484.025964	0.228568
484.394864	0.225974
484.763706	0.226287
485.132489	0.231357
485.501213	0.232164
485.869879	0.230589
486.238487	0.233333
486.607036	0.231730
486.975527	0.236299
487.343959	0.232033
487.712333	0.231476
488.080648	0.232460
488.448905	0.231862
488.817104	0.232968
489.185244	0.227422
489.553326	0.224337
489.921350	0.214152
490.289315	0.196843
490.657222	0.191439
491.025070	0.192930
491.392861	0.195091
491.760593	0.200895
492.128267	0.206482
492.495883	0.211804
492.863440	0.218181
493.230939	0.224457
493.598380	0.226156
493.965763	0.228044
494.333088	0.230378
494.700354	0.232114
495.067563	0.230911
495.434713	0.234263
495.801805	0.232007
496.168839	0.233441
496.535815	0.235116
496.902733	0.235081
497.269593	0.236352
497.636395	0.234122
498.003139	0.234143
498.369825	0.237743
498.736453	0.233896
499.103023	0.235764
499.469535	0.234815
499.835989	0.235144
500.202385	0.235935
500.568723	0.239287
500.935003	0.234366
501.301226	0.238602
501.667390	0.232656
502.033497	0.230885
502.399546	0.233961
502.765537	0.235991
503.131470	0.234407
503.497345	0.230678
503.863163	0.239268
504.228923	0.232173
504.594625	0.230910
504.960269	0.236460
505.325856	0.231793
505.691385	0.236500
506.056856	0.233027
506.422270	0.232322
506.787625	0.234735
507.152924	0.232207
507.518164	0.232573
507.883347	0.234259
508.248472	0.235899
508.613540	0.231007
508.978550	0.233567
509.343503	0.233723
509.708398	0.231801
510.073236	0.229172
510.438016	0.228976
510.802738	0.229899
511.167403	0.229023
511.532010	0.231314
511.896561	0.226554
512.261053	0.225142
512.625488	0.227223
512.989866	0.227665
513.354186	0.227829
513.718449	0.229705
514.082655	0.226107
514.446803	0.228215
514.810894	0.226061
515.174927	0.228763
515.538904	0.228129
515.902822	0.225164
516.266684	0.227417
516.630488	0.228836
516.994235	0.227296
517.357925	0.226188
517.721558	0.224548
518.085133	0.224195
518.448651	0.223876
518.812112	0.226642
519.175516	0.225990
519.538863	0.223231
519.902152	0.225303
520.265385	0.222097
520.628560	0.223411
520.991678	0.224106
521.354739	0.223102
521.717743	0.224178
522.080690	0.224627
522.443580	0.222054
522.806413	0.223014
523.169189	0.222541
523.531908	0.221284
523.894569	0.224786
524.257174	0.224673
524.619722	0.222391
524.982213	0.223349
525.344647	0.222247
525.707025	0.223307
526.069345	0.221438
526.431608	0.223080
526.793815	0.220939
527.155964	0.225418
527.518057	0.224260
527.880093	0.225006
528.242072	0.223917
528.603995	0.225740
528.965860	0.227425
529.327669	0.226446
529.689421	0.226927
530.051117	0.228033
530.412755	0.225840
530.774337	0.228002
531.135862	0.228581
531.497331	0.227743
531.858743	0.230594
532.220098	0.227173
532.581396	0.229922
532.942638	0.230356
533.303824	0.231603
533.664953	0.231221
534.026025	0.233002
534.387040	0.230822
534.747999	0.230573
535.108902	0.229658
535.469748	0.234777
535.830537	0.232442
536.191270	0.232914
536.551947	0.232100
536.912567	0.232500
537.273131	0.233970
537.633638	0.234514
537.994089	0.234818
538.354483	0.235818
538.714821	0.232924
539.075103	0.232442
539.435328	0.233167
539.795497	0.236961
540.155609	0.233410
540.515665	0.231707
540.875665	0.237369
541.235609	0.235902
541.595496	0.235910
541.955328	0.232760
542.315102	0.235228
542.674821	0.236520
543.034483	0.236167
543.394090	0.236027
543.753640	0.237815
544.113134	0.232644
544.472571	0.236249
544.831953	0.232923
545.191278	0.237280
545.550548	0.236395
545.909761	0.233346
546.268918	0.234456
546.628019	0.232526
546.987064	0.235449
547.346053	0.237031
547.704986	0.235152
548.063863	0.235121
548.422684	0.235470
548.781449	0.237393
549.140158	0.235205
549.498811	0.237594
549.857408	0.240608
550.215949	0.235376
550.574434	0.238524
550.932864	0.236915
551.291237	0.235101
551.649555	0.236835
552.007817	0.236522
552.366022	0.237278
552.724173	0.237611
553.082267	0.237917
553.440305	0.234663
553.798288	0.238962
554.156215	0.235634
554.514086	0.236271
554.871902	0.239555
555.229661	0.238693
555.587365	0.239265
555.945014	0.241674
556.302606	0.238976
556.660143	0.241398
557.017625	0.237963
557.375050	0.240204
557.732421	0.237324
558.089735	0.239007
558.446994	0.238863
558.804197	0.238555
559.161345	0.238088
559.518437	0.241646
559.875474	0.239917
560.232455	0.238951
560.589381	0.240225
560.946251	0.240378
561.303065	0.237863
561.659825	0.239375
562.016528	0.240963
562.373177	0.243465
562.729770	0.241055
563.086307	0.242568
563.442789	0.240573
563.799216	0.243520
564.155587	0.242263
564.511904	0.243540
564.868164	0.243772
565.224370	0.243464
565.580520	0.245135
565.936615	0.245122
566.292654	0.247951
566.648638	0.245262
567.004567	0.245699
567.360441	0.246195
567.716260	0.248485
568.072023	0.245908
568.427732	0.247272
568.783385	0.249309
569.138982	0.247571
569.494525	0.247105
569.850013	0.250001
570.205445	0.248636
570.560823	0.250981
570.916145	0.253231
571.271412	0.251566
571.626625	0.253021
571.981782	0.253079
572.336884	0.254242
572.691931	0.253977
573.046923	0.255477
573.401860	0.256435
573.756743	0.258247
574.111570	0.256758
574.466342	0.257784
574.821059	0.256364
575.175722	0.259557
575.530330	0.259275
575.884882	0.259426
576.239380	0.261176
576.593823	0.262371
576.948211	0.261336
577.302544	0.264670
577.656823	0.264300
578.011047	0.264124
578.365216	0.265053
578.719330	0.267188
579.073389	0.266577
579.427394	0.268021
579.781344	0.268668
580.135239	0.270039
580.489080	0.269847
580.842866	0.272794
581.196597	0.272805
581.550273	0.271598
581.903895	0.272729
582.257463	0.270489
582.610975	0.273807
582.964434	0.273408
583.317837	0.275862
583.671186	0.276630
584.024481	0.276101
584.377721	0.278844
584.730906	0.279372
585.084037	0.278749
585.437113	0.281011
585.790135	0.279891
586.143103	0.282994
586.496016	0.284046
586.848874	0.281678
587.201679	0.282009
587.554428	0.285680
587.907124	0.284626
588.259765	0.284715
588.612352	0.285519
588.964884	0.289496
589.317362	0.289081
589.669786	0.288989
590.022155	0.287325
590.374470	0.286575
590.726731	0.288690
591.078937	0.293857
591.431090	0.290371
591.783188	0.294225
592.135232	0.294772
592.487222	0.294649
592.839157	0.292799
593.191038	0.295229
593.542866	0.297011
593.894639	0.300029
594.246358	0.298643
594.598022	0.298234
594.949633	0.301732
595.301190	0.302459
595.652692	0.301114
596.004141	0.297608
596.355535	0.305296
596.706876	0.306250
597.058162	0.308929
597.409395	0.305685
597.760573	0.303645
598.111698	0.306917
598.462768	0.307057
598.813785	0.308269
599.164748	0.309759
599.515657	0.310228
599.866511	0.313985
600.217312	0.309289
600.568060	0.314422
600.918753	0.310570
601.269392	0.311750
601.619978	0.314968
601.970510	0.312368
602.320988	0.312039
602.671412	0.310032
603.021783	0.313180
603.372100	0.313777
603.722363	0.313970
604.072572	0.314782
604.422728	0.314221
604.772830	0.316408
605.122878	0.316248
605.472872	0.316565
605.822813	0.314989
606.172701	0.317823
606.522534	0.315143
606.872314	0.315211
607.222041	0.316149
607.571714	0.314023
607.921333	0.315707
608.270899	0.315352
608.620411	0.312057
608.969870	0.316161
609.319276	0.316143
609.668627	0.316195
610.017926	0.314567
610.367171	0.312859
610.716362	0.313834
611.065500	0.313928
611.414585	0.312676
611.763616	0.313114
612.112594	0.313926
612.461518	0.312984
612.810389	0.310901
613.159207	0.312901
613.507971	0.314793
613.856682	0.311030
614.205340	0.311870
614.553945	0.309517
614.902496	0.312566
615.250994	0.310865
615.599439	0.311631
615.947830	0.311021
616.296169	0.312188
616.644454	0.311670
616.992686	0.311749
617.340864	0.309477
617.688990	0.313022
618.037063	0.309387
618.385082	0.311439
618.733048	0.308395
619.080961	0.310664
619.428821	0.310276
619.776628	0.309999
620.124382	0.311814
620.472083	0.312472
620.819731	0.311789
621.167326	0.315773
621.514868	0.315365
621.862357	0.319348
622.209793	0.319013
622.557176	0.321630
622.904506	0.322349
623.251783	0.324943
623.599007	0.326747
623.946179	0.326242
624.293297	0.328923
624.640363	0.332686
624.987376	0.333303
625.334336	0.335399
625.681243	0.337853
626.028097	0.338479
626.374899	0.339398
626.721647	0.339901
627.068343	0.342845
627.414987	0.344187
627.761577	0.346425
628.108115	0.344355
628.454600	0.349476
628.801032	0.347311
629.147412	0.349074
629.493739	0.349825
629.840014	0.352727
630.186236	0.349841
630.532405	0.355828
630.878521	0.352571
631.224585	0.355172
631.570597	0.358718
631.916556	0.357294
632.262462	0.357418
632.608316	0.359381
632.954117	0.360262
633.299866	0.361379
633.645562	0.361833
633.991206	0.366019
634.336797	0.368075
634.682336	0.371357
635.027823	0.372733
635.373257	0.373101
635.718639	0.377051
636.063968	0.375979
636.409245	0.382003
636.754470	0.382692
637.099642	0.384706
637.444762	0.388288
637.789829	0.387584
638.134845	0.390927
638.479808	0.391455
638.824719	0.391516
639.169577	0.395994
639.514383	0.394816
639.859137	0.399184
640.203839	0.398727
640.548489	0.399029
640.893086	0.400417
641.237632	0.402223
641.582125	0.400526
641.926566	0.402714
642.270955	0.402398
642.615292	0.402601
642.959576	0.401676
643.303809	0.402484
643.647990	0.402364
643.992118	0.402572
644.336195	0.406431
644.680219	0.404642
645.024192	0.405074
645.368112	0.398448
645.711981	0.397651
646.055797	0.393078
646.399562	0.395353
646.743274	0.387857
647.086935	0.384842
647.430544	0.385191
647.774101	0.384091
648.117606	0.383749
648.461059	0.384262
648.804460	0.386752
649.147810	0.391697
649.491108	0.393294
649.834354	0.395220
650.177548	0.399871
650.520690	0.405681
650.863781	0.406514
651.206820	0.405947
651.549807	0.411025
651.892742	0.415006
652.235626	0.414588
652.578458	0.415436
652.921238	0.421950
653.263967	0.419358
653.606644	0.423428
653.949269	0.422952
654.291843	0.426850
654.634365	0.423751
654.976836	0.426478
655.319255	0.427533
655.661622	0.428559
656.003938	0.428950
656.346203	0.431122
656.688416	0.429568
657.030577	0.432894
657.372687	0.435571
657.714746	0.435793
658.056753	0.432484
658.398708	0.436079
658.740612	0.437675
659.082465	0.433661
659.424266	0.434191
659.766016	0.433960
660.107715	0.436704
660.449362	0.435723
660.790958	0.436002
661.132503	0.437171
661.473996	0.434399
661.815438	0.435285
662.156829	0.436014
662.498168	0.436340
662.839456	0.437642
663.180693	0.435678
663.521879	0.435041
663.863013	0.436218
664.204097	0.434131
664.545129	0.431694
664.886110	0.432022
665.227040	0.429410
665.567918	0.432226
665.908746	0.429838
666.249522	0.429679
666.590248	0.430664
666.930922	0.428669
667.271545	0.427489
667.612118	0.427544
667.952639	0.429290
668.293109	0.428166
668.633528	0.430540
668.973896	0.430306
669.314213	0.431403
669.654480	0.433105
669.994695	0.433151
670.334859	0.433940
670.674973	0.434169
671.015035	0.434258
671.355047	0.434365
671.695008	0.435081
672.034918	0.437681
672.374777	0.436410
672.714585	0.437470
673.054342	0.437967
673.394049	0.437814
673.733705	0.435624
674.073310	0.436553
674.412864	0.439573
674.752368	0.439694
675.091820	0.440315
675.431223	0.444848
675.770574	0.444867
676.109875	0.447296
676.449125	0.447053
676.788324	0.449942
677.127473	0.455468
677.466571	0.455232
677.805619	0.456986
678.144616	0.457880
678.483562	0.460261
678.822458	0.462888
679.161303	0.463215
679.500098	0.463651
679.838842	0.465171
680.177535	0.464094
680.516179	0.463059
680.854771	0.461938
681.193314	0.455869
681.531805	0.447170
681.870247	0.436098
682.208638	0.428663
682.546978	0.427296
682.885268	0.429101
683.223508	0.435163
683.561697	0.439501
683.899836	0.441796
684.237925	0.445167
684.575963	0.447936
684.913951	0.451098
685.251889	0.446800
685.589776	0.448779
685.927614	0.451550
686.265401	0.445499
686.603137	0.446540
686.940824	0.441304
687.278460	0.440308
687.616046	0.438453
687.953582	0.434014
688.291068	0.435297
688.628504	0.430746
688.965889	0.433346
689.303224	0.437091
689.640510	0.440765
689.977745	0.446900
690.314930	0.454159
690.652065	0.459600
690.989150	0.466605
691.326185	0.473513
691.663170	0.478312
692.000105	0.485501
692.336990	0.492407
692.673825	0.494591
693.010610	0.501010
693.347345	0.507555
693.684030	0.509148
694.020665	0.513644
694.357251	0.522277
694.693786	0.522252
695.030272	0.525279
695.366707	0.529261
695.703093	0.533247
696.039429	0.530614
696.375716	0.534040
696.711952	0.535937
697.048139	0.537725
697.384276	0.540014
697.720363	0.538440
698.056400	0.537374
698.392388	0.542915
698.728326	0.545891
699.064214	0.548343
699.400053	0.548792
699.735842	0.552993
700.071581	0.554937
700.407270	0.558589
700.742910	0.561890
701.078501	0.567437
701.414042	0.568603
701.749533	0.571611
702.084974	0.580669
702.420366	0.572910
702.755709	0.580070
703.091002	0.587672
703.426246	0.582096
703.761440	0.587280
704.096584	0.591395
704.431679	0.589097
704.766725	0.591603
705.101721	0.593272
705.436668	0.589900
705.771565	0.596741
706.106413	0.592237
706.441212	0.588719
706.775961	0.587639
707.110661	0.590070
707.445311	0.586653
707.779913	0.584517
708.114465	0.582866
708.448967	0.579688
708.783421	0.571687
709.117825	0.566263
709.452180	0.565869
709.786485	0.560572
710.120742	0.549907
710.454949	0.552333
710.789107	0.544439
711.123216	0.536227
711.457275	0.537241
711.791286	0.528835
712.125247	0.528670
712.459159	0.538820
712.793023	0.530330
713.126837	0.535725
713.460602	0.535150
713.794318	0.544873
714.127985	0.543226
714.461602	0.553406
714.795171	0.557382
715.128691	0.564708
715.462162	0.573038
715.795584	0.578330
716.128957	0.582006
716.462281	0.587947
716.795556	0.590962
717.128782	0.596612
717.461960	0.606067
717.795088	0.604374
718.128167	0.610622
718.461198	0.618219
718.794180	0.620287
719.127113	0.623063
719.459997	0.625327
719.792833	0.632246
720.125619	0.633924
720.458357	0.639015
720.791046	0.639041
721.123686	0.643116
721.456278	0.649369
721.788821	0.646790
722.121315	0.652057
722.453761	0.655979
722.786158	0.653533
723.118506	0.649713
723.450805	0.656767
723.783056	0.654474
724.115259	0.651616
724.447412	0.651281
724.779518	0.652508
725.111574	0.651225
725.443582	0.647200
725.775542	0.649588
726.107453	0.641475
726.439315	0.642256
726.771129	0.639682
727.102895	0.633982
727.434612	0.627411
727.766281	0.625557
728.097901	0.623593
728.429473	0.623728
728.760996	0.622384
729.092471	0.623524
729.423897	0.626401
729.755276	0.626112
730.086606	0.625771
730.417887	0.620403
730.749120	0.611257
731.080305	0.603085
731.411442	0.599211
731.742530	0.602879
732.073570	0.602506
732.404562	0.595801
732.735506	0.596962
733.066401	0.601150
733.397249	0.609957
733.728048	0.621888
734.058798	0.634360
734.389501	0.644620
734.720156	0.654597
735.050762	0.662750
735.381320	0.663630
735.711831	0.671698
736.042293	0.676852
736.372707	0.674145
736.703073	0.677453
737.033391	0.679646
737.363661	0.676895
737.693883	0.672712
738.024056	0.671270
738.354182	0.672223
738.684260	0.661549
739.014290	0.657980
739.344272	0.658536
739.674207	0.652807
740.004093	0.652461
740.333931	0.652907
740.663722	0.652160
740.993464	0.653427
741.323159	0.657380
741.652806	0.662417
741.982405	0.666879
742.311956	0.671829
742.641460	0.674424
742.970915	0.677560
743.300323	0.684445
743.629683	0.690605
743.958996	0.693645
744.288260	0.696547
744.617477	0.702849
744.946647	0.704948
745.275768	0.710680
745.604842	0.710467
745.933869	0.719905
746.262847	0.721201
746.591778	0.715141
746.920662	0.721024
747.249498	0.727631
747.578286	0.719692
747.907027	0.716376
748.235720	0.715591
748.564365	0.711335
748.892963	0.710531
749.221514	0.714587
749.550017	0.718531
749.878473	0.719475
750.206881	0.725148
750.535242	0.726460
750.863555	0.725004
751.191821	0.727136
751.520039	0.730104
751.848210	0.734498
752.176334	0.727660
752.504411	0.727416
752.832440	0.735240
753.160421	0.739125
753.488356	0.736929
753.816243	0.734882
754.144082	0.743084
754.471875	0.745947
754.799620	0.742008
755.127318	0.743183
755.454969	0.744610
755.782572	0.744468
756.110129	0.747659
756.437638	0.750824
756.765100	0.748123
757.092515	0.745381
757.419882	0.744121
757.747203	0.749059
758.074477	0.749283
758.401703	0.747493
758.728882	0.742071
759.056014	0.740604
759.383099	0.739984
759.710138	0.739705
760.037129	0.736977
760.364073	0.732068
760.690970	0.734465
761.017820	0.738698
761.344623	0.735044
761.671379	0.727640
761.998088	0.716369
762.324751	0.693120
762.651366	0.652144
762.977935	0.586420
763.304456	0.538207
763.630931	0.530540
763.957359	0.567316
764.283740	0.609650
764.610074	0.637109
764.936362	0.668340
765.262602	0.694419
765.588796	0.714799
765.914943	0.730025
766.241044	0.747700
766.567097	0.754881
766.893104	0.764437
767.219064	0.769635
767.544978	0.776107
767.870845	0.788399
768.196665	0.793117
768.522438	0.791457
768.848165	0.792324
769.173846	0.801064
769.499479	0.805956
769.825066	0.809504
770.150607	0.813779
770.476101	0.810015
770.801548	0.811100
771.126949	0.823112
771.452303	0.826282
771.777611	0.824499
772.102872	0.823915
772.428087	0.829475
772.753256	0.832189
773.078378	0.835099
773.403453	0.843056
773.728482	0.846936
774.053465	0.841409
774.378401	0.843396
774.703291	0.852597
775.028135	0.854000
775.352932	0.852956
775.677683	0.857106
776.002388	0.857455
776.327046	0.857117
776.651658	0.861176
776.976224	0.864169
777.300743	0.862906
777.625216	0.864914
777.949643	0.867111
778.274024	0.866228
778.598359	0.869558
778.922647	0.867510
779.246889	0.869503
779.571086	0.871769
779.895236	0.874360
780.219339	0.872144
780.543397	0.868410
780.867409	0.867538
781.191374	0.869263
781.515294	0.871930
781.839167	0.870570
782.162995	0.872348
782.486776	0.870215
782.810511	0.871099
783.134201	0.875711
783.457844	0.872933
783.781441	0.876430
784.104993	0.880535
784.428498	0.881225
784.751958	0.878313
785.075372	0.878978
785.398739	0.882154
785.722061	0.878747
786.045337	0.876621
786.368568	0.879107
786.691752	0.881536
787.014891	0.869348
787.337983	0.859495
787.661030	0.853177
787.984031	0.836491
788.306987	0.824282
788.629897	0.824560
788.952760	0.830985
789.275579	0.835471
789.598351	0.849088
789.921078	0.862778
790.243759	0.864554
790.566395	0.868568
790.888984	0.875961
791.211529	0.880093
791.534027	0.883092
791.856480	0.885276
792.178888	0.888672
792.501249	0.890615
792.823566	0.894948
793.145836	0.894221
793.468062	0.894808
793.790241	0.895803
794.112375	0.893616
794.434464	0.889577
794.756507	0.889791
795.078505	0.888004
795.400457	0.883381
795.722364	0.871848
796.044226	0.866307
796.366042	0.865097
796.687812	0.866728
797.009538	0.862555
797.331218	0.868561
797.652852	0.873062
797.974442	0.875147
798.295986	0.876988
798.617484	0.878112
798.938938	0.883349
799.260346	0.886879
799.581709	0.888885
799.903026	0.891532
800.224299	0.892994
800.545526	0.894115
800.866708	0.900157
801.187845	0.903208
801.508936	0.903550
801.829983	0.899945
802.150984	0.903842
802.471940	0.907993
802.792851	0.906783
803.113717	0.909659
803.434538	0.907218
803.755314	0.909917
804.076045	0.909344
804.396731	0.910228
804.717372	0.910672
805.037967	0.912454
805.358518	0.909456
805.679024	0.906475
805.999485	0.908437
806.319901	0.906741
806.640272	0.909283
806.960598	0.907182
807.280879	0.903664
807.601115	0.903984
807.921306	0.907676
808.241453	0.907153
808.561554	0.905738
808.881611	0.905568
809.201623	0.906525
809.521590	0.907867
809.841513	0.909001
810.161390	0.907419
810.481223	0.908669
810.801011	0.911237
811.120755	0.914306
811.440453	0.912680
811.760107	0.912705
812.079716	0.911643
812.399281	0.914346
812.718801	0.918019
813.038276	0.917417
813.357707	0.918292
813.677093	0.916050
813.996434	0.917794
814.315731	0.920504
814.634983	0.920378
814.954191	0.919311
815.273354	0.916063
815.592473	0.913845
815.911547	0.912620
816.230577	0.909880
816.549562	0.908166
816.868502	0.906597
817.187399	0.907000
817.506250	0.902189
817.825058	0.902528
818.143821	0.898246
818.462539	0.895549
818.781213	0.886687
819.099843	0.877255
819.418429	0.861523
819.736970	0.845860
820.055466	0.827488
820.373919	0.803587
820.692327	0.774552
821.010691	0.741577
821.329011	0.664762
821.647286	0.551449
821.965517	0.442218
822.283704	0.398783
822.601847	0.402091
822.919945	0.441241
823.237999	0.479135
823.556010	0.523717
823.873976	0.577806
824.191897	0.627046
824.509775	0.668175
824.827609	0.709486
825.145398	0.731795
825.463144	0.732986
825.780845	0.716510
826.098502	0.698483
826.416116	0.655299
826.733685	0.612641
827.051210	0.605271
827.368692	0.619975
827.686129	0.656873
828.003522	0.708032
828.320872	0.752325
828.638177	0.792272
828.955439	0.822683
829.272656	0.841686
829.589830	0.857154
829.906960	0.872198
830.224046	0.882595
830.541088	0.892838
830.858086	0.898029
831.175041	0.903549
831.491952	0.902025
831.808819	0.899263
832.125642	0.891550
832.442421	0.880944
832.759157	0.859902
833.075849	0.815212
833.392497	0.754162
833.709101	0.717283
834.025662	0.728533
834.342179	0.759030
834.658653	0.795295
834.975083	0.828167
835.291469	0.852737
835.607811	0.873572
835.924110	0.888008
836.240366	0.903769
836.556578	0.915777
836.872746	0.921953
837.188871	0.927489
837.504952	0.932193
837.820990	0.935695
838.136984	0.938618
838.452935	0.940667
838.768842	0.943314
839.084706	0.936019
839.400526	0.913216
839.716303	0.873999
840.032037	0.854599
840.347727	0.858434
840.663373	0.875836
840.978977	0.895733
841.294537	0.917147
841.610054	0.930830
841.925527	0.937931
842.240957	0.943671
842.556344	0.951096
842.871687	0.955248
843.186987	0.959070
843.502244	0.960053
843.817458	0.961298
844.132629	0.965157
844.447756	0.968636
844.762840	0.969426
845.077881	0.970371
845.392879	0.967753
845.707833	0.970702
846.022745	0.972877
846.337613	0.971858
846.652438	0.973035
846.967221	0.973314
847.281960	0.973523
847.596656	0.975112
847.911309	0.975089
848.225919	0.974755
848.540485	0.976478
848.855009	0.976580
849.169490	0.976964
849.483928	0.975147
849.798323	0.975659
850.112675	0.979110
850.426984	0.978113
850.741251	0.978680
851.055474	0.977794
851.369654	0.977506
851.683792	0.977110
851.997887	0.976976
852.311938	0.978137
852.625947	0.977809
852.939914	0.976008
853.253837	0.977859
853.567718	0.978023
853.881555	0.978176
854.195350	0.977276
854.509103	0.977423
854.822812	0.977307
855.136479	0.978222
855.450103	0.978205
855.763685	0.977093
856.077224	0.977590
856.390720	0.978167
856.704173	0.978378
857.017584	0.976657
857.330953	0.975951
857.644278	0.974478
857.957561	0.976050
858.270802	0.977227
858.584000	0.976296
858.897155	0.975485
859.210268	0.975276
859.523339	0.977544
859.836367	0.979216
860.149352	0.979161
860.462295	0.977949
860.775195	0.978544
861.088054	0.976324
861.400869	0.977693
861.713642	0.978218
862.026373	0.980524
862.339062	0.978684
862.651708	0.977227
862.964312	0.977611
863.276873	0.977192
863.589392	0.977219
863.901869	0.975544
864.214303	0.974166
864.526696	0.973866
864.839045	0.972543
865.151353	0.971837
865.463619	0.971838
865.775842	0.972355
866.088023	0.973367
866.400162	0.970942
866.712258	0.972759
867.024313	0.972771
867.336325	0.974448
867.648296	0.972148
867.960224	0.971657
868.272110	0.972499
868.583954	0.973911
868.895755	0.973230
869.207515	0.971295
869.519233	0.970987
869.830909	0.970935
870.142542	0.971023
870.454134	0.971596
870.765684	0.969460
871.077191	0.969152
871.388657	0.968024
871.700081	0.970366
872.011463	0.969048
872.322803	0.967554
872.634101	0.966777
872.945357	0.963518
873.256571	0.962843
873.567744	0.963871
873.878874	0.965663
874.189963	0.965301
874.501010	0.964185
874.812015	0.961183
875.122979	0.962204
875.433900	0.965134
875.744780	0.966581
876.055618	0.961760
876.366415	0.961508
876.677169	0.961252
876.987882	0.961566
877.298554	0.963470
877.609183	0.960698
877.919771	0.958229
878.230317	0.956444
878.540822	0.953685
878.851285	0.950200
879.161707	0.943686
879.472087	0.934500
879.782425	0.918617
880.092722	0.887947
880.402977	0.839605
880.713191	0.780342
881.023363	0.722082
881.333494	0.688396
881.643583	0.664379
881.953631	0.665994
882.263637	0.694575
882.573602	0.733792
882.883526	0.758193
883.193408	0.782120
883.503248	0.803307
883.813048	0.828665
884.122806	0.855150
884.432522	0.875646
884.742197	0.893024
885.051831	0.903393
885.361424	0.912728
885.670975	0.923418
885.980485	0.930594
886.289954	0.937008
886.599382	0.939964
886.908768	0.943776
887.218113	0.948221
887.527417	0.952725
887.836680	0.954937
888.145901	0.957308
888.455082	0.960700
888.764221	0.963864
889.073319	0.963767
889.382376	0.966097
889.691392	0.964490
890.000366	0.966639
890.309300	0.965421
890.618193	0.965480
890.927044	0.964175
891.235855	0.964590
891.544625	0.963764
891.853353	0.964276
892.162041	0.961274
892.470687	0.957567
892.779293	0.952184
893.087858	0.947467
893.396381	0.939838
893.704864	0.928913
894.013306	0.908606
894.321707	0.883964
894.630068	0.871603
894.938387	0.867189
895.246665	0.870225
895.554903	0.881144
895.863100	0.894865
896.171256	0.909439
896.479371	0.925761
896.787446	0.937574
897.095480	0.940904
897.403473	0.943847
897.711425	0.949049
898.019336	0.954490
898.327207	0.958513
898.635038	0.957972
898.942827	0.958165
899.250576	0.961145
899.558284	0.964807
899.865952	0.965812
900.173579	0.967429
900.481165	0.968527
900.788711	0.970489
901.096216	0.970941
901.403681	0.973853
901.711105	0.972342
902.018489	0.973944
902.325832	0.972032
902.633135	0.971714
902.940397	0.967520
903.247619	0.956502
903.554800	0.935668
903.861941	0.899550
904.169041	0.866316
904.476101	0.851322
904.783121	0.852936
905.090100	0.868171
905.397039	0.888774
905.703938	0.909251
906.010796	0.925802
906.317614	0.939422
906.624391	0.950199
906.931129	0.958238
907.237826	0.964261
907.544483	0.968449
907.851099	0.973367
908.157675	0.976562
908.464211	0.979320
908.770707	0.980326
909.077163	0.984775
909.383578	0.982725
909.689954	0.983081
909.996289	0.985264
910.302584	0.985872
910.608839	0.987700
910.915054	0.985715
911.221229	0.986589
911.527363	0.984457
911.833458	0.986912
912.139513	0.984817
912.445527	0.984911
912.751502	0.982521
913.057436	0.981036
913.363331	0.980564
913.669186	0.977128
913.975000	0.972725
914.280775	0.967377
914.586510	0.960748
914.892205	0.949191
915.197859	0.929035
915.503475	0.906273
915.809050	0.887883
916.114585	0.883515
916.420081	0.880036
916.725536	0.879683
917.030952	0.887698
917.336328	0.898800
917.641665	0.911828
917.946961	0.926092
918.252218	0.935403
918.557435	0.942509
918.862612	0.951002
919.167750	0.954849
919.472848	0.960334
919.777906	0.965281
920.082925	0.971296
920.387904	0.972123
920.692843	0.973182
920.997743	0.972490
921.302603	0.978212
921.607423	0.978577
921.912204	0.981285
922.216946	0.981984
922.521647	0.981867
922.826310	0.983390
923.130932	0.985344
923.435516	0.986833
923.740059	0.987607
924.044564	0.987364
924.349028	0.988013
924.653454	0.989554
924.957840	0.991322
925.262186	0.991322
925.566493	0.991611
925.870761	0.992480
926.174989	0.992216
926.479178	0.993850
926.783328	0.994517
927.087438	0.993734
927.391509	0.992912
927.695541	0.994416
927.999533	0.995963
928.303486	0.995275
928.607400	0.996778
928.911275	0.996166
929.215110	0.996710
929.518906	0.996637
929.822663	0.997111
930.126381	0.996705
930.430060	0.996240
930.733699	0.996338
931.037299	0.996104
931.340861	0.996307
931.644383	0.994739
931.947866	0.995759
932.251309	0.997158
932.554714	0.996031
932.858080	0.996208
933.161407	0.994856
933.464694	0.996954
933.767943	0.997226
934.071153	0.996726
934.374323	0.997461
934.677455	0.997430
934.980548	0.996836
935.283602	0.998235
935.586617	0.997103
935.889593	0.998029
936.192530	0.997029
936.495428	0.997273
936.798287	0.996982
937.101108	0.996160
937.403890	0.994343
937.706632	0.995049
938.009336	0.993606
938.312002	0.991196
938.614628	0.990777
938.917216	0.990263
939.219765	0.989065
939.522275	0.989982
939.824747	0.989781
940.127179	0.990852
940.429573	0.992663
940.731929	0.990834
941.034246	0.991401
941.336524	0.991043
941.638763	0.992241
941.940964	0.991988
942.243126	0.994355
942.545250	0.995330
942.847335	0.993812
943.149381	0.995174
943.451389	0.993839
943.753359	0.994904
944.055290	0.996248
944.357182	0.996591
944.659036	0.996415
944.960851	0.996349
945.262628	0.995397
945.564367	0.996382
945.866067	0.995182
946.167729	0.997242
946.469352	0.996592
946.770937	0.994234
947.072484	0.998072
947.373992	0.996471
947.675462	0.995711
947.976893	0.995634
948.278286	0.997810
948.579641	0.998549
948.880958	0.996248
949.182236	0.997523
949.483476	0.997143
949.784678	0.997847
950.085841	0.997055
950.386967	0.996884
950.688054	0.997170
950.989103	0.995731
951.290114	0.996084
951.591087	0.996172
951.892021	0.994908
952.192917	0.994698
952.493776	0.995292
952.794596	0.994414
953.095378	0.994657
953.396122	0.994300
953.696828	0.995653
953.997496	0.996558
954.298126	0.996861
954.598718	0.996729
954.899272	0.997674
955.199788	0.996425
955.500266	0.998999
955.800706	0.997702
956.101108	0.997156
956.401472	0.999957
956.701798	0.999073
957.002087	0.999511
957.302337	0.998969
957.602550	0.999663
957.902724	0.999298
958.202861	1.000066
958.502960	0.998971
958.803022	1.001089
959.103045	1.001865
959.403031	1.001593
959.702979	1.001210
960.002889	1.001080
960.302762	1.000999
960.602596	1.001783
960.902393	1.001776
961.202153	1.001903
961.501875	1.001729
961.801559	1.001870
962.101205	1.000806
962.400814	1.002410
962.700385	1.001211
962.999918	1.001231
963.299414	1.001451
963.598873	1.002420
963.898293	1.002660
964.197677	1.000796
964.497022	1.002794
964.796331	1.001649
965.095601	1.004057
965.394835	1.001765
965.694030	1.003068
965.993189	1.001808
966.292309	1.002321
966.591393	1.000027
966.890439	1.003082
967.189447	1.001922
967.488419	1.002079
967.787353	1.001182
968.086249	1.002768
968.385108	1.001343
968.683930	1.003050
968.982714	1.001822
969.281462	1.002871
969.580172	1.002746
969.878844	1.001584
970.177480	1.001143
970.476078	1.002671
970.774639	1.002263
971.073162	1.001103
971.371649	1.001952
971.670098	1.000155
971.968510	1.001892
972.266885	1.001053
972.565223	1.001071
972.863524	0.999489
973.161788	1.000840
973.460014	1.002732
973.758204	1.000756
974.056356	1.001111
974.354471	1.000653
974.652550	1.002770
974.950591	1.000524
975.248595	1.001057
975.546563	1.001923
975.844493	1.002709
976.142386	1.002171
976.440243	1.003092
976.738062	1.001915
977.035845	1.000643
977.333590	1.002785
977.631299	1.001319
977.928971	1.002204
978.226606	1.001969
978.524204	1.001593
978.821765	1.002610
979.119290	1.003202
979.416777	1.002996
979.714228	1.001998
980.011642	1.002832
980.309020	1.001599
980.606360	1.001584
980.903664	1.002115
981.200931	1.001809
981.498162	1.000627
981.795356	1.001501
982.092513	0.999726
982.389633	1.000055
982.686717	0.997242
982.983764	0.996608
983.280775	0.997527
983.577749	0.998455
983.874686	0.996956
984.171587	0.997670
984.468451	0.998234
984.765279	1.001004
985.062070	1.000720
985.358824	1.000866
985.655543	1.002473
985.952224	1.001470
986.248869	1.001677
986.545478	1.004513
986.842050	1.002405
987.138586	1.001178
987.435086	1.003623
987.731549	1.004208
988.027975	1.003495
988.324366	1.001070
988.620719	1.003198
988.917037	1.002999
989.213318	1.003918
989.509563	1.002658
989.805772	1.003166
990.101944	1.004229
990.398080	1.004033
990.694180	1.002846
990.990244	1.003265
991.286271	1.002769
991.582262	1.004082
991.878217	1.002432
992.174136	1.003119
992.470019	1.003223
992.765865	1.004582
993.061676	1.003050
993.357450	1.004085
993.653188	1.004314
993.948890	1.002952
994.244556	1.003918
994.540186	1.002603
994.835780	1.002548
995.131337	1.003431
995.426859	1.003678
995.722345	1.001399
996.017795	1.001700
996.313208	1.001533
996.608586	1.001996
996.903928	1.003572
997.199234	1.001861
997.494504	1.002738
997.789738	1.001611
998.084936	1.002618
998.380099	1.001385
998.675225	1.003253
998.970316	1.002359
999.265371	1.002958
999.560390	1.002356
999.855373	1.003540
1000.150320	1.002696
1000.445232	1.004176
1000.740108	1.003068
1001.034948	1.002160
1001.329752	1.004323
1001.624521	1.002432
1001.919254	1.003115
1002.213951	1.004233
1002.508613	1.002965
1002.803239	1.003182
1003.097829	1.003633
1003.392384	1.003211
1003.686903	1.002630
1003.981386	1.002321
1004.275834	1.005032
1004.570246	1.003323
1004.864623	1.003718
1005.158964	1.004145
1005.453270	1.003337
1005.747540	1.002190
1006.041775	1.003396
1006.335974	1.004211
1006.630138	1.003897
1006.924266	1.002391
1007.218359	1.001957
1007.512416	1.004657
1007.806438	1.002936
1008.100425	1.003419
1008.394376	1.004191
1008.688292	1.004146
1008.982172	1.003174
1009.276017	1.004300
1009.569827	1.004553
1009.863602	1.001960
1010.157341	1.005308
1010.451045	1.003830
1010.744714	1.005385
1011.038347	1.004023
1011.331945	1.002662
1011.625508	1.003403
1011.919036	1.004051
1012.212528	1.004209
1012.505986	1.002652
1012.799408	1.004358
1013.092795	1.003859
1013.386147	1.003533
1013.679464	1.003810
1013.972745	1.003104
1014.265992	1.003714
1014.559204	1.002679
1014.852380	1.003953
1015.145521	1.004016
1015.438628	1.004640
1015.731699	1.003251
1016.024736	1.004276
1016.317737	1.004157
1016.610703	1.003682
1016.903635	1.004354
1017.196531	1.002968
1017.489393	1.003769
1017.782219	1.004035
1018.075011	1.003225
1018.367768	1.003512
1018.660490	1.004342
1018.953177	1.004342
1019.245829	1.004342
