Dividing Wavelength (nm)	Counts (n)	Blue Motor Position (mm): 17.800000	Red Motor Position (mm): 0.000000	
326.493990	1.001846
326.888308	1.001846
327.282561	1.001846
327.676750	1.002936
328.070874	1.002547
328.464933	1.002941
328.858929	1.003400
329.252859	1.003130
329.646726	1.001456
330.040528	1.002084
330.434265	1.001291
330.827938	1.002112
331.221547	1.002423
331.615091	1.003426
332.008571	1.003934
332.401986	1.001665
332.795338	1.002110
333.188625	1.001597
333.581847	1.002132
333.975006	1.002848
334.368100	1.002234
334.761129	1.000358
335.154095	1.002174
335.546996	1.001640
335.939833	0.997540
336.332606	1.000187
336.725315	0.997248
337.117960	0.999557
337.510540	0.997734
337.903056	0.998854
338.295508	1.000732
338.687896	0.999662
339.080220	0.998761
339.472480	0.998543
339.864676	0.998620
340.256807	0.998139
340.648875	0.999617
341.040879	0.999724
341.432818	0.999831
341.824694	0.998745
342.216506	0.999516
342.608253	0.997440
342.999937	0.998403
343.391557	0.997880
343.783113	0.999944
344.174605	0.998658
344.566033	0.997649
344.957397	0.998962
345.348697	0.999545
345.739934	0.999546
346.131106	0.998457
346.522215	0.998182
346.913260	0.999725
347.304241	0.998469
347.695159	0.998816
348.086012	0.998646
348.476802	0.997515
348.867528	0.998991
349.258191	0.998259
349.648789	0.998942
350.039324	0.998220
350.429796	0.998196
350.820203	0.996745
351.210548	0.998314
351.600828	0.997583
351.991045	0.996835
352.381198	0.998218
352.771288	0.997769
353.161314	0.998454
353.551276	0.998065
353.941175	0.996208
354.331010	0.999261
354.720782	0.997017
355.110490	0.998189
355.500135	0.998393
355.889717	0.997331
356.279235	0.997522
356.668689	0.997954
357.058080	0.997726
357.447408	0.996355
357.836672	0.997605
358.225873	0.997682
358.615010	0.997090
359.004084	0.996936
359.393095	0.997548
359.782043	0.996891
360.170927	0.997877
360.559748	0.997276
360.948505	0.997569
361.337199	0.997999
361.725830	0.998158
362.114398	0.996791
362.502903	0.995989
362.891344	0.995309
363.279722	0.996830
363.668037	0.996782
364.056289	0.995657
364.444478	0.997882
364.832603	0.996487
365.220665	0.996113
365.608665	0.996740
365.996601	0.996634
366.384474	0.995423
366.772284	0.996233
367.160031	0.994871
367.547715	0.994483
367.935336	0.994729
368.322893	0.992979
368.710388	0.993151
369.097820	0.990584
369.485189	0.987208
369.872495	0.986977
370.259738	0.984664
370.646918	0.981855
371.034035	0.979054
371.421090	0.976893
371.808081	0.971624
372.195010	0.968557
372.581875	0.963475
372.968678	0.960267
373.355418	0.956356
373.742096	0.947701
374.128710	0.943142
374.515262	0.939632
374.901751	0.933431
375.288177	0.928039
375.674540	0.921633
376.060841	0.916412
376.447079	0.909249
376.833254	0.902732
377.219367	0.898065
377.605417	0.886454
377.991404	0.883113
378.377329	0.877291
378.763191	0.870373
379.148991	0.861493
379.534727	0.853708
379.920402	0.845644
380.306013	0.841877
380.691563	0.829502
381.077049	0.822158
381.462474	0.818721
381.847835	0.806166
382.233134	0.801462
382.618371	0.802596
383.003545	0.784853
383.388657	0.783080
383.773706	0.775530
384.158693	0.770811
384.543618	0.766247
384.928480	0.757676
385.313280	0.747370
385.698017	0.747225
386.082692	0.735392
386.467305	0.732691
386.851856	0.728670
387.236344	0.723354
387.620770	0.717566
388.005133	0.711845
388.389435	0.706473
388.773674	0.703914
389.157851	0.695292
389.541965	0.692949
389.926018	0.699960
390.310008	0.685667
390.693936	0.683476
391.077802	0.675350
391.461606	0.676834
391.845348	0.666885
392.229027	0.666354
392.612645	0.663933
392.996200	0.651093
393.379694	0.643901
393.763125	0.634461
394.146494	0.638644
394.529801	0.629486
394.913047	0.621432
395.296230	0.627587
395.679351	0.618255
396.062410	0.615700
396.445408	0.618284
396.828343	0.613381
397.211217	0.608566
397.594028	0.620416
397.976778	0.610932
398.359466	0.607236
398.742092	0.602971
399.124656	0.615097
399.507158	0.603081
399.889598	0.600241
400.271977	0.592029
400.654294	0.594919
401.036549	0.594765
401.418742	0.599049
401.800874	0.584393
402.182944	0.581399
402.564952	0.572740
402.946898	0.574970
403.328783	0.575725
403.710606	0.587143
404.092367	0.561500
404.474067	0.567264
404.855705	0.565053
405.237282	0.574685
405.618797	0.560608
406.000250	0.556768
406.381642	0.545956
406.762972	0.551440
407.144240	0.550712
407.525447	0.549907
407.906593	0.543016
408.287677	0.538162
408.668700	0.546220
409.049661	0.540901
409.430560	0.536242
409.811399	0.544430
410.192176	0.525963
410.572891	0.533323
410.953545	0.521698
411.334138	0.534856
411.714669	0.527520
412.095139	0.539641
412.475547	0.523554
412.855894	0.526324
413.236180	0.523618
413.616405	0.529767
413.996568	0.520348
414.376670	0.527051
414.756711	0.531064
415.136691	0.528252
415.516609	0.519448
415.896466	0.516155
416.276262	0.512137
416.655997	0.513573
417.035670	0.495198
417.415283	0.486755
417.794834	0.491933
418.174324	0.497123
418.553753	0.507079
418.933121	0.488947
419.312428	0.482751
419.691674	0.488446
420.070859	0.476510
420.449983	0.484583
420.829045	0.473514
421.208047	0.482562
421.586988	0.475569
421.965867	0.474763
422.344686	0.464187
422.723444	0.476229
423.102141	0.492831
423.480777	0.465998
423.859352	0.486505
424.237866	0.463903
424.616319	0.464493
424.994712	0.455703
425.373044	0.465352
425.751314	0.453341
426.129524	0.470113
426.507673	0.454037
426.885762	0.447044
427.263789	0.452934
427.641756	0.462434
428.019662	0.452837
428.397508	0.451999
428.775292	0.455632
429.153016	0.447943
429.530679	0.454863
429.908282	0.447962
430.285824	0.458042
430.663305	0.436112
431.040726	0.457896
431.418086	0.457030
431.795385	0.449008
432.172624	0.448156
432.549802	0.448794
432.926920	0.447539
433.303977	0.446907
433.680974	0.444053
434.057910	0.442535
434.434786	0.442044
434.811601	0.444942
435.188355	0.426986
435.565050	0.436243
435.941683	0.437441
436.318257	0.421495
436.694770	0.422891
437.071222	0.420753
437.447614	0.424758
437.823946	0.431417
438.200218	0.420792
438.576429	0.430224
438.952580	0.423279
439.328670	0.420026
439.704700	0.426753
440.080670	0.428290
440.456580	0.408978
440.832429	0.417105
441.208218	0.428447
441.583947	0.417379
441.959616	0.416460
442.335224	0.422477
442.710773	0.413138
443.086261	0.411078
443.461689	0.424461
443.837057	0.414804
444.212365	0.404719
444.587612	0.411829
444.962800	0.401365
445.337927	0.403234
445.712995	0.429029
446.088002	0.391123
446.462949	0.401476
446.837837	0.406367
447.212664	0.395199
447.587431	0.387001
447.962139	0.357178
448.336786	0.315929
448.711374	0.326654
449.085901	0.371000
449.460369	0.375130
449.834776	0.378230
450.209124	0.357832
450.583412	0.350393
450.957640	0.343450
451.331808	0.354831
451.705917	0.378235
452.079965	0.382755
452.453954	0.371094
452.827883	0.378341
453.201752	0.372851
453.575562	0.384295
453.949311	0.372766
454.323001	0.378681
454.696632	0.374338
455.070202	0.367682
455.443713	0.359244
455.817164	0.353830
456.190556	0.349734
456.563888	0.346413
456.937160	0.344063
457.310373	0.361332
457.683526	0.360258
458.056619	0.366392
458.429653	0.366240
458.802628	0.369846
459.175542	0.364212
459.548398	0.346732
459.921194	0.339474
460.293930	0.339195
460.666607	0.317205
461.039224	0.304872
461.411782	0.300607
461.784280	0.300038
462.156719	0.303962
462.529099	0.308490
462.901419	0.324699
463.273680	0.328934
463.645882	0.328567
464.018024	0.334371
464.390106	0.327350
464.762130	0.311999
465.134094	0.294754
465.505999	0.263724
465.877845	0.233931
466.249631	0.220835
466.621358	0.228109
466.993026	0.242200
467.364634	0.248537
467.736184	0.257742
468.107674	0.266412
468.479105	0.265309
468.850477	0.272030
469.221790	0.279010
469.593043	0.289130
469.964238	0.293695
470.335373	0.293424
470.706449	0.291366
471.077467	0.292158
471.448425	0.254276
471.819324	0.229736
472.190164	0.229220
472.560945	0.258033
472.931667	0.280525
473.302330	0.284719
473.672934	0.296563
474.043479	0.284494
474.413965	0.286439
474.784393	0.289866
475.154761	0.284957
475.525070	0.281974
475.895321	0.287755
476.265513	0.281917
476.635645	0.277458
477.005719	0.276966
477.375734	0.273939
477.745691	0.267281
478.115588	0.263466
478.485427	0.256999
478.855207	0.243750
479.224928	0.226097
479.594591	0.214319
479.964194	0.217713
480.333739	0.218949
480.703226	0.220488
481.072653	0.218665
481.442022	0.214514
481.811333	0.211253
482.180584	0.214649
482.549777	0.219997
482.918912	0.223592
483.287988	0.222833
483.657005	0.222741
484.025964	0.228997
484.394864	0.226173
484.763706	0.226860
485.132489	0.232022
485.501213	0.233081
485.869879	0.231149
486.238487	0.234192
486.607036	0.232497
486.975527	0.237156
487.343959	0.232908
487.712333	0.231950
488.080648	0.233328
488.448905	0.232517
488.817104	0.233795
489.185244	0.228288
489.553326	0.225268
489.921350	0.215010
490.289315	0.197479
490.657222	0.192233
491.025070	0.193841
491.392861	0.195678
491.760593	0.201766
492.128267	0.207134
492.495883	0.212937
492.863440	0.219173
493.230939	0.225432
493.598380	0.227133
493.965763	0.228943
494.333088	0.231495
494.700354	0.233109
495.067563	0.231872
495.434713	0.235507
495.801805	0.233162
496.168839	0.234603
496.535815	0.236286
496.902733	0.236150
497.269593	0.237751
497.636395	0.235215
498.003139	0.235447
498.369825	0.238776
498.736453	0.235189
499.103023	0.236877
499.469535	0.236458
499.835989	0.236406
500.202385	0.237187
500.568723	0.240809
500.935003	0.236049
501.301226	0.239855
501.667390	0.234409
502.033497	0.232686
502.399546	0.235505
502.765537	0.237511
503.131470	0.235993
503.497345	0.232452
503.863163	0.241264
504.228923	0.234284
504.594625	0.232875
504.960269	0.238422
505.325856	0.234032
505.691385	0.238229
506.056856	0.235237
506.422270	0.234785
506.787625	0.237540
507.152924	0.234852
507.518164	0.235394
507.883347	0.237201
508.248472	0.239240
508.613540	0.234177
508.978550	0.237081
509.343503	0.237747
509.708398	0.235699
510.073236	0.233450
510.438016	0.233659
510.802738	0.234716
511.167403	0.234005
511.532010	0.236349
511.896561	0.231873
512.261053	0.230911
512.625488	0.233646
512.989866	0.234131
513.354186	0.234631
513.718449	0.237426
514.082655	0.233800
514.446803	0.236443
514.810894	0.234718
515.174927	0.237950
515.538904	0.237978
515.902822	0.235127
516.266684	0.237943
516.630488	0.239993
516.994235	0.239318
517.357925	0.238796
517.721558	0.237578
518.085133	0.237902
518.448651	0.238440
518.812112	0.241245
519.175516	0.242020
519.538863	0.240078
519.902152	0.242768
520.265385	0.240480
520.628560	0.242683
520.991678	0.244600
521.354739	0.244260
521.717743	0.246319
522.080690	0.247289
522.443580	0.246187
522.806413	0.247672
523.169189	0.248503
523.531908	0.248280
523.894569	0.253411
524.257174	0.254160
524.619722	0.253158
524.982213	0.255419
525.344647	0.256067
525.707025	0.258352
526.069345	0.257360
526.431608	0.261530
526.793815	0.260177
527.155964	0.266337
527.518057	0.266196
527.880093	0.268879
528.242072	0.269244
528.603995	0.272898
528.965860	0.276482
529.327669	0.277145
529.689421	0.279610
530.051117	0.282160
530.412755	0.282867
530.774337	0.286125
531.135862	0.289531
531.497331	0.290544
531.858743	0.295359
532.220098	0.294412
532.581396	0.299422
532.942638	0.301436
533.303824	0.304937
533.664953	0.307547
534.026025	0.311388
534.387040	0.312174
534.747999	0.314228
535.108902	0.316112
535.469748	0.323325
535.830537	0.324023
536.191270	0.327038
536.551947	0.329398
536.912567	0.332479
537.273131	0.336699
537.633638	0.340011
537.994089	0.343712
538.354483	0.347328
538.714821	0.347563
539.075103	0.350805
539.435328	0.354699
539.795497	0.360796
540.155609	0.361947
540.515665	0.363389
540.875665	0.371894
541.235609	0.374363
541.595496	0.377431
541.955328	0.378445
542.315102	0.383931
542.674821	0.388430
543.034483	0.391716
543.394090	0.395140
543.753640	0.400932
544.113134	0.400744
544.472571	0.407064
544.831953	0.408344
545.191278	0.415642
545.550548	0.418095
545.909761	0.419578
546.268918	0.425120
546.628019	0.427299
546.987064	0.434152
547.346053	0.437881
547.704986	0.441835
548.063863	0.445246
548.422684	0.448805
548.781449	0.454854
549.140158	0.457379
549.498811	0.463417
549.857408	0.469290
550.215949	0.470400
550.574434	0.476489
550.932864	0.480088
551.291237	0.482366
551.649555	0.489159
552.007817	0.492384
552.366022	0.496911
552.724173	0.502205
553.082267	0.505426
553.440305	0.509214
553.798288	0.514840
554.156215	0.518492
554.514086	0.523318
554.871902	0.529769
555.229661	0.533040
555.587365	0.538594
555.945014	0.543763
556.302606	0.547172
556.660143	0.552253
557.017625	0.555933
557.375050	0.561007
557.732421	0.563746
558.089735	0.569746
558.446994	0.573808
558.804197	0.578600
559.161345	0.582445
559.518437	0.587820
559.875474	0.593085
560.232455	0.597101
560.589381	0.601491
560.946251	0.607778
561.303065	0.608393
561.659825	0.615244
562.016528	0.619922
562.373177	0.625070
562.729770	0.629648
563.086307	0.634181
563.442789	0.636981
563.799216	0.644413
564.155587	0.647719
564.511904	0.653251
564.868164	0.657015
565.224370	0.660913
565.580520	0.667550
565.936615	0.669420
566.292654	0.676614
566.648638	0.679111
567.004567	0.684065
567.360441	0.687870
567.716260	0.693132
568.072023	0.695677
568.427732	0.701460
568.783385	0.704887
569.138982	0.710059
569.494525	0.712864
569.850013	0.718611
570.205445	0.722658
570.560823	0.725891
570.916145	0.731654
571.271412	0.734696
571.626625	0.739451
571.981782	0.743175
572.336884	0.748344
572.691931	0.750679
573.046923	0.756665
573.401860	0.760167
573.756743	0.765367
574.111570	0.767862
574.466342	0.771978
574.821059	0.775640
575.175722	0.780090
575.530330	0.784227
575.884882	0.786817
576.239380	0.791999
576.593823	0.794683
576.948211	0.799052
577.302544	0.802267
577.656823	0.806691
578.011047	0.808843
578.365216	0.813768
578.719330	0.817032
579.073389	0.819872
579.427394	0.823298
579.781344	0.827392
580.135239	0.830289
580.489080	0.832911
580.842866	0.837086
581.196597	0.840152
581.550273	0.842096
581.903895	0.846217
582.257463	0.847329
582.610975	0.851522
582.964434	0.853338
583.317837	0.857747
583.671186	0.860049
584.024481	0.862752
584.377721	0.864572
584.730906	0.868343
585.084037	0.871531
585.437113	0.874293
585.790135	0.876008
586.143103	0.878729
586.496016	0.881539
586.848874	0.884159
587.201679	0.885704
587.554428	0.888898
587.907124	0.891328
588.259765	0.893342
588.612352	0.896467
588.964884	0.897448
589.317362	0.900091
589.669786	0.902248
590.022155	0.903694
590.374470	0.905497
590.726731	0.907495
591.078937	0.911132
591.431090	0.912573
591.783188	0.913668
592.135232	0.917549
592.487222	0.918166
592.839157	0.919677
593.191038	0.922121
593.542866	0.923490
593.894639	0.925517
594.246358	0.928192
594.598022	0.929147
594.949633	0.931038
595.301190	0.932582
595.652692	0.933287
596.004141	0.935643
596.355535	0.936834
596.706876	0.939319
597.058162	0.941097
597.409395	0.942395
597.760573	0.942954
598.111698	0.944635
598.462768	0.945037
598.813785	0.946283
599.164748	0.948548
599.515657	0.949686
599.866511	0.952006
600.217312	0.952731
600.568060	0.953484
600.918753	0.954610
601.269392	0.955468
601.619978	0.956897
601.970510	0.958176
602.320988	0.958585
602.671412	0.959858
603.021783	0.961223
603.372100	0.962334
603.722363	0.963514
604.072572	0.963968
604.422728	0.964979
604.772830	0.964812
605.122878	0.966406
605.472872	0.967357
605.822813	0.966867
606.172701	0.968944
606.522534	0.969809
606.872314	0.970661
607.222041	0.970337
607.571714	0.972213
607.921333	0.972139
608.270899	0.972910
608.620411	0.973291
608.969870	0.974715
609.319276	0.974674
609.668627	0.975955
610.017926	0.975401
610.367171	0.976040
610.716362	0.976396
611.065500	0.976318
611.414585	0.977634
611.763616	0.977122
612.112594	0.978542
612.461518	0.978282
612.810389	0.978894
613.159207	0.979527
613.507971	0.979842
613.856682	0.980964
614.205340	0.979566
614.553945	0.981135
614.902496	0.981651
615.250994	0.981893
615.599439	0.982719
615.947830	0.982428
616.296169	0.982899
616.644454	0.983272
616.992686	0.983164
617.340864	0.983634
617.688990	0.983479
618.037063	0.983788
618.385082	0.983451
618.733048	0.983913
619.080961	0.984640
619.428821	0.985046
619.776628	0.984754
620.124382	0.985379
620.472083	0.985922
620.819731	0.987009
621.167326	0.986549
621.514868	0.986409
621.862357	0.987391
622.209793	0.986823
622.557176	0.987438
622.904506	0.987028
623.251783	0.987888
623.599007	0.988377
623.946179	0.988110
624.293297	0.988536
624.640363	0.988193
624.987376	0.988720
625.334336	0.988888
625.681243	0.989562
626.028097	0.988992
626.374899	0.989445
626.721647	0.990485
627.068343	0.989633
627.414987	0.989524
627.761577	0.989637
628.108115	0.989331
628.454600	0.990735
628.801032	0.990625
629.147412	0.990923
629.493739	0.991202
629.840014	0.990486
630.186236	0.989853
630.532405	0.990003
630.878521	0.989940
631.224585	0.989990
631.570597	0.990635
631.916556	0.990961
632.262462	0.989773
632.608316	0.991614
632.954117	0.990808
633.299866	0.990606
633.645562	0.990597
633.991206	0.991110
634.336797	0.991040
634.682336	0.992188
635.027823	0.991740
635.373257	0.990769
635.718639	0.992981
636.063968	0.991206
636.409245	0.991628
636.754470	0.992103
637.099642	0.991772
637.444762	0.992801
637.789829	0.991579
638.134845	0.992662
638.479808	0.992348
638.824719	0.992578
639.169577	0.991863
639.514383	0.992971
639.859137	0.993247
640.203839	0.992425
640.548489	0.992265
640.893086	0.992583
641.237632	0.992863
641.582125	0.992552
641.926566	0.992239
642.270955	0.993093
642.615292	0.992374
642.959576	0.992973
643.303809	0.993633
643.647990	0.992880
643.992118	0.993406
644.336195	0.992407
644.680219	0.993364
645.024192	0.992750
645.368112	0.991971
645.711981	0.992703
646.055797	0.992763
646.399562	0.992584
646.743274	0.993790
647.086935	0.992537
647.430544	0.992721
647.774101	0.992554
648.117606	0.992482
648.461059	0.993545
648.804460	0.993711
649.147810	0.992654
649.491108	0.992465
649.834354	0.993260
650.177548	0.992936
650.520690	0.992859
650.863781	0.992522
651.206820	0.993334
651.549807	0.993374
651.892742	0.993344
652.235626	0.993363
652.578458	0.993265
652.921238	0.993611
653.263967	0.993635
653.606644	0.993237
653.949269	0.993634
654.291843	0.992801
654.634365	0.994223
654.976836	0.992741
655.319255	0.994614
655.661622	0.993819
656.003938	0.993248
656.346203	0.993309
656.688416	0.994381
657.030577	0.993090
657.372687	0.992938
657.714746	0.992951
658.056753	0.993572
658.398708	0.992494
658.740612	0.994308
659.082465	0.993775
659.424266	0.993172
659.766016	0.992966
660.107715	0.993954
660.449362	0.993211
660.790958	0.993656
661.132503	0.993777
661.473996	0.993867
661.815438	0.993917
662.156829	0.994462
662.498168	0.993782
662.839456	0.992810
663.180693	0.993450
663.521879	0.993805
663.863013	0.993515
664.204097	0.993483
664.545129	0.993974
664.886110	0.993295
665.227040	0.993315
665.567918	0.992807
665.908746	0.993282
666.249522	0.992653
666.590248	0.992783
666.930922	0.992995
667.271545	0.992971
667.612118	0.992983
667.952639	0.993299
668.293109	0.993584
668.633528	0.993166
668.973896	0.994055
669.314213	0.993723
669.654480	0.993391
669.994695	0.992661
670.334859	0.993433
670.674973	0.993127
671.015035	0.993096
671.355047	0.992561
671.695008	0.992981
672.034918	0.993011
672.374777	0.993056
672.714585	0.993484
673.054342	0.993884
673.394049	0.992864
673.733705	0.993318
674.073310	0.992884
674.412864	0.992797
674.752368	0.993034
675.091820	0.993965
675.431223	0.993766
675.770574	0.992885
676.109875	0.992933
676.449125	0.993338
676.788324	0.992118
677.127473	0.993886
677.466571	0.992836
677.805619	0.993524
678.144616	0.993889
678.483562	0.994083
678.822458	0.994353
679.161303	0.992994
679.500098	0.994178
679.838842	0.993284
680.177535	0.993227
680.516179	0.992871
680.854771	0.993441
681.193314	0.993164
681.531805	0.993631
681.870247	0.993795
682.208638	0.993255
682.546978	0.993079
682.885268	0.992355
683.223508	0.992872
683.561697	0.992731
683.899836	0.992804
684.237925	0.993195
684.575963	0.993064
684.913951	0.993148
685.251889	0.992988
685.589776	0.992379
685.927614	0.992602
686.265401	0.992781
686.603137	0.992736
686.940824	0.992634
687.278460	0.993346
687.616046	0.992240
687.953582	0.992001
688.291068	0.992715
688.628504	0.992721
688.965889	0.993031
689.303224	0.991306
689.640510	0.992558
689.977745	0.992369
690.314930	0.992092
690.652065	0.993120
690.989150	0.991652
691.326185	0.992809
691.663170	0.991984
692.000105	0.993311
692.336990	0.992959
692.673825	0.994223
693.010610	0.993140
693.347345	0.993175
693.684030	0.993894
694.020665	0.992927
694.357251	0.992808
694.693786	0.993679
695.030272	0.992439
695.366707	0.993164
695.703093	0.992567
696.039429	0.992680
696.375716	0.993741
696.711952	0.993407
697.048139	0.993719
697.384276	0.993754
697.720363	0.993529
698.056400	0.992130
698.392388	0.993119
698.728326	0.993432
699.064214	0.993868
699.400053	0.993503
699.735842	0.994560
700.071581	0.993419
700.407270	0.993246
700.742910	0.993758
701.078501	0.993529
701.414042	0.994302
701.749533	0.992931
702.084974	0.993732
702.420366	0.994660
702.755709	0.992171
703.091002	0.994510
703.426246	0.994054
703.761440	0.993258
704.096584	0.992105
704.431679	0.993423
704.766725	0.994148
705.101721	0.994369
705.436668	0.993859
705.771565	0.993158
706.106413	0.992623
706.441212	0.994595
706.775961	0.994218
707.110661	0.993798
707.445311	0.994271
707.779913	0.995283
708.114465	0.993990
708.448967	0.993310
708.783421	0.994894
709.117825	0.993421
709.452180	0.993991
709.786485	0.993734
710.120742	0.992806
710.454949	0.992668
710.789107	0.992995
711.123216	0.992121
711.457275	0.991940
711.791286	0.992115
712.125247	0.994621
712.459159	0.992466
712.793023	0.992460
713.126837	0.993439
713.460602	0.993128
713.794318	0.991514
714.127985	0.993124
714.461602	0.992251
714.795171	0.993223
715.128691	0.992496
715.462162	0.993708
715.795584	0.992388
716.128957	0.993709
716.462281	0.993607
716.795556	0.993183
717.128782	0.994051
717.461960	0.994136
717.795088	0.993254
718.128167	0.994708
718.461198	0.993832
718.794180	0.994086
719.127113	0.993512
719.459997	0.993372
719.792833	0.994494
720.125619	0.992936
720.458357	0.993470
720.791046	0.994902
721.123686	0.993430
721.456278	0.993976
721.788821	0.993528
722.121315	0.995675
722.453761	0.994182
722.786158	0.994055
723.118506	0.993927
723.450805	0.993439
723.783056	0.994477
724.115259	0.993782
724.447412	0.994297
724.779518	0.994072
725.111574	0.993585
725.443582	0.993826
725.775542	0.993316
726.107453	0.994751
726.439315	0.995101
726.771129	0.993611
727.102895	0.994038
727.434612	0.993643
727.766281	0.994069
728.097901	0.992699
728.429473	0.994409
728.760996	0.992674
729.092471	0.992612
729.423897	0.993775
729.755276	0.993230
730.086606	0.992179
730.417887	0.994235
730.749120	0.993718
731.080305	0.993071
731.411442	0.991990
731.742530	0.991990
732.073570	0.992076
732.404562	0.992860
732.735506	0.993501
733.066401	0.992142
733.397249	0.994043
733.728048	0.992371
734.058798	0.994184
734.389501	0.994141
734.720156	0.993481
735.050762	0.994164
735.381320	0.994421
735.711831	0.993210
736.042293	0.993610
736.372707	0.995039
736.703073	0.992397
737.033391	0.993591
737.363661	0.994127
737.693883	0.993240
738.024056	0.993441
738.354182	0.994118
738.684260	0.993857
739.014290	0.993083
739.344272	0.993675
739.674207	0.994485
740.004093	0.993798
740.333931	0.993503
740.663722	0.992911
740.993464	0.994567
741.323159	0.993655
741.652806	0.993301
741.982405	0.994478
742.311956	0.993980
742.641460	0.993547
742.970915	0.992759
743.300323	0.993322
743.629683	0.993507
743.958996	0.994562
744.288260	0.993560
744.617477	0.994127
744.946647	0.994155
745.275768	0.995101
745.604842	0.994012
745.933869	0.994521
746.262847	0.994163
746.591778	0.992998
746.920662	0.995048
747.249498	0.995264
747.578286	0.995467
747.907027	0.994270
748.235720	0.994600
748.564365	0.994939
748.892963	0.993529
749.221514	0.995193
749.550017	0.993278
749.878473	0.994119
750.206881	0.994176
750.535242	0.993627
750.863555	0.993723
751.191821	0.994036
751.520039	0.994018
751.848210	0.993116
752.176334	0.993694
752.504411	0.994211
752.832440	0.993874
753.160421	0.994740
753.488356	0.995384
753.816243	0.994782
754.144082	0.994004
754.471875	0.994285
754.799620	0.994633
755.127318	0.994315
755.454969	0.994834
755.782572	0.996363
756.110129	0.993838
756.437638	0.995416
756.765100	0.995054
757.092515	0.994165
757.419882	0.994822
757.747203	0.994655
758.074477	0.995669
758.401703	0.993941
758.728882	0.994472
759.056014	0.994797
759.383099	0.995249
759.710138	0.994027
760.037129	0.994431
760.364073	0.995617
760.690970	0.993720
761.017820	0.993574
761.344623	0.994618
761.671379	0.995520
761.998088	0.994154
762.324751	0.993217
762.651366	0.993071
762.977935	0.991976
763.304456	0.990702
763.630931	0.988489
763.957359	0.987771
764.283740	0.989765
764.610074	0.991658
764.936362	0.992655
765.262602	0.992874
765.588796	0.994530
765.914943	0.993141
766.241044	0.994465
766.567097	0.993856
766.893104	0.994192
767.219064	0.993827
767.544978	0.994160
767.870845	0.995375
768.196665	0.994346
768.522438	0.995580
768.848165	0.996079
769.173846	0.995912
769.499479	0.996959
769.825066	0.996256
770.150607	0.996440
770.476101	0.996633
770.801548	0.996772
771.126949	0.996302
771.452303	0.995976
771.777611	0.996474
772.102872	0.994966
772.428087	0.995260
772.753256	0.996453
773.078378	0.996760
773.403453	0.996035
773.728482	0.996517
774.053465	0.995764
774.378401	0.996396
774.703291	0.996565
775.028135	0.998065
775.352932	0.995645
775.677683	0.997696
776.002388	0.996816
776.327046	0.995791
776.651658	0.998025
776.976224	0.995361
777.300743	0.996253
777.625216	0.996503
777.949643	0.995775
778.274024	0.995419
778.598359	0.996956
778.922647	0.996864
779.246889	0.997247
779.571086	0.996425
779.895236	0.995918
780.219339	0.997561
780.543397	0.997051
780.867409	0.997105
781.191374	0.995868
781.515294	0.997128
781.839167	0.996628
782.162995	0.996736
782.486776	0.996787
782.810511	0.996407
783.134201	0.997579
783.457844	0.996902
783.781441	0.996206
784.104993	0.996105
784.428498	0.997435
784.751958	0.998856
785.075372	0.998004
785.398739	0.996190
785.722061	0.997042
786.045337	0.997197
786.368568	0.996868
786.691752	0.996051
787.014891	0.996193
787.337983	0.994673
787.661030	0.996267
787.984031	0.996295
788.306987	0.997023
788.629897	0.994079
788.952760	0.995016
789.275579	0.996900
789.598351	0.994798
789.921078	0.996135
790.243759	0.995353
790.566395	0.995727
790.888984	0.996582
791.211529	0.996643
791.534027	0.996699
791.856480	0.997532
792.178888	0.996666
792.501249	0.997028
792.823566	0.998003
793.145836	0.997184
793.468062	0.997774
793.790241	0.996806
794.112375	0.996127
794.434464	0.997543
794.756507	0.998239
795.078505	0.997072
795.400457	0.996174
795.722364	0.996975
796.044226	0.996802
796.366042	0.995535
796.687812	0.995108
797.009538	0.995895
797.331218	0.997202
797.652852	0.997399
797.974442	0.994917
798.295986	0.996338
798.617484	0.996402
798.938938	0.996922
799.260346	0.996396
799.581709	0.996502
799.903026	0.997552
800.224299	0.996111
800.545526	0.996269
800.866708	0.995638
801.187845	0.997053
801.508936	0.997768
801.829983	0.996430
802.150984	0.997839
802.471940	0.997256
802.792851	0.996538
803.113717	0.996986
803.434538	0.997703
803.755314	0.998886
804.076045	0.997405
804.396731	0.996879
804.717372	0.996071
805.037967	0.998705
805.358518	0.997723
805.679024	0.996569
805.999485	0.996530
806.319901	0.998270
806.640272	0.998514
806.960598	0.997548
807.280879	0.997382
807.601115	0.998414
807.921306	0.997642
808.241453	0.996860
808.561554	0.996813
808.881611	0.997582
809.201623	0.996346
809.521590	0.997052
809.841513	0.996588
810.161390	0.996802
810.481223	0.996757
810.801011	0.996987
811.120755	0.997707
811.440453	0.996944
811.760107	0.997932
812.079716	0.996331
812.399281	0.997085
812.718801	0.998204
813.038276	0.997026
813.357707	0.997322
813.677093	0.997838
813.996434	0.996749
814.315731	0.998922
814.634983	0.997273
814.954191	0.998688
815.273354	0.997401
815.592473	0.997817
815.911547	0.997630
816.230577	0.997131
816.549562	0.997536
816.868502	0.995235
817.187399	0.997278
817.506250	0.998667
817.825058	0.995101
818.143821	0.995962
818.462539	0.996779
818.781213	0.995064
819.099843	0.995635
819.418429	0.994857
819.736970	0.995113
820.055466	0.992716
820.373919	0.992975
820.692327	0.991622
821.010691	0.990174
821.329011	0.986735
821.647286	0.983615
821.965517	0.979878
822.283704	0.976082
822.601847	0.973349
822.919945	0.975219
823.237999	0.977152
823.556010	0.978768
823.873976	0.981014
824.191897	0.983258
824.509775	0.985156
824.827609	0.986919
825.145398	0.988578
825.463144	0.987302
825.780845	0.987453
826.098502	0.987562
826.416116	0.987604
826.733685	0.983613
827.051210	0.982525
827.368692	0.982257
827.686129	0.983929
828.003522	0.986922
828.320872	0.987962
828.638177	0.989418
828.955439	0.992005
829.272656	0.992979
829.589830	0.993993
829.906960	0.994931
830.224046	0.994162
830.541088	0.995167
830.858086	0.995639
831.175041	0.996668
831.491952	0.996083
831.808819	0.995040
832.125642	0.995090
832.442421	0.995800
832.759157	0.995649
833.075849	0.992459
833.392497	0.990952
833.709101	0.987331
834.025662	0.987935
834.342179	0.988570
834.658653	0.991506
834.975083	0.991779
835.291469	0.992310
835.607811	0.994723
835.924110	0.994802
836.240366	0.996585
836.556578	0.995442
836.872746	0.997344
837.188871	0.997339
837.504952	0.997748
837.820990	0.998553
838.136984	0.997343
838.452935	0.997289
838.768842	0.998281
839.084706	0.997578
839.400526	0.997808
839.716303	0.994016
840.032037	0.994343
840.347727	0.993356
840.663373	0.994262
840.978977	0.994421
841.294537	0.997468
841.610054	0.996929
841.925527	0.998623
842.240957	0.998791
842.556344	0.997600
842.871687	0.998188
843.186987	0.999492
843.502244	0.998917
843.817458	0.998420
844.132629	0.998587
844.447756	0.999096
844.762840	0.998686
845.077881	1.000452
845.392879	0.997888
845.707833	0.999523
846.022745	0.998734
846.337613	0.998443
846.652438	0.999420
846.967221	0.999416
847.281960	0.998806
847.596656	0.999843
847.911309	0.999078
848.225919	0.998818
848.540485	1.000667
848.855009	1.001298
849.169490	0.999466
849.483928	0.998758
849.798323	0.998155
850.112675	0.999131
850.426984	0.999391
850.741251	0.999996
851.055474	1.000380
851.369654	1.000688
851.683792	0.999102
851.997887	0.999248
852.311938	1.000033
852.625947	0.997881
852.939914	0.998904
853.253837	1.000849
853.567718	1.001259
853.881555	1.000557
854.195350	0.999881
854.509103	0.999286
854.822812	1.000195
855.136479	0.999369
855.450103	1.000080
855.763685	1.000248
856.077224	0.999696
856.390720	1.000549
856.704173	1.000427
857.017584	0.999355
857.330953	0.999905
857.644278	0.999511
857.957561	0.999313
858.270802	1.000212
858.584000	0.999695
858.897155	0.998535
859.210268	0.998919
859.523339	1.000576
859.836367	1.000179
860.149352	0.998927
860.462295	0.999171
860.775195	0.999981
861.088054	0.998222
861.400869	0.998645
861.713642	0.998575
862.026373	1.000230
862.339062	0.999983
862.651708	1.000340
862.964312	0.999527
863.276873	0.998740
863.589392	0.999174
863.901869	1.000089
864.214303	1.000284
864.526696	0.998683
864.839045	0.999213
865.151353	0.998771
865.463619	0.997629
865.775842	0.999433
866.088023	0.999469
866.400162	0.999453
866.712258	1.000463
867.024313	0.999321
867.336325	0.999126
867.648296	0.999137
867.960224	1.000360
868.272110	0.999551
868.583954	0.999145
868.895755	0.999017
869.207515	0.997671
869.519233	0.999192
869.830909	0.997776
870.142542	0.997399
870.454134	0.998213
870.765684	0.999416
871.077191	0.999966
871.388657	0.998682
871.700081	0.999951
872.011463	0.999028
872.322803	0.997413
872.634101	0.997988
872.945357	0.998296
873.256571	0.998276
873.567744	0.999229
873.878874	0.998634
874.189963	0.997602
874.501010	0.999335
874.812015	0.999228
875.122979	0.998647
875.433900	0.998276
875.744780	0.999176
876.055618	0.997023
876.366415	0.998004
876.677169	0.997927
876.987882	0.997683
877.298554	0.998728
877.609183	0.997954
877.919771	0.997826
878.230317	0.998267
878.540822	0.996562
878.851285	0.996222
879.161707	0.995232
879.472087	0.996429
879.782425	0.993043
880.092722	0.992187
880.402977	0.988996
880.713191	0.984151
881.023363	0.979831
881.333494	0.977169
881.643583	0.978875
881.953631	0.977467
882.263637	0.976475
882.573602	0.977920
882.883526	0.980020
883.193408	0.982713
883.503248	0.984460
883.813048	0.985423
884.122806	0.988545
884.432522	0.989524
884.742197	0.992220
885.051831	0.992061
885.361424	0.993731
885.670975	0.994056
885.980485	0.993532
886.289954	0.995413
886.599382	0.994710
886.908768	0.995820
887.218113	0.995930
887.527417	0.996836
887.836680	0.997352
888.145901	0.998593
888.455082	0.998422
888.764221	0.998546
889.073319	0.997577
889.382376	0.998644
889.691392	0.997236
890.000366	0.998254
890.309300	0.998050
890.618193	0.998135
890.927044	0.998353
891.235855	0.998092
891.544625	0.997146
891.853353	0.997094
892.162041	0.997684
892.470687	0.996968
892.779293	0.996164
893.087858	0.995183
893.396381	0.994577
893.704864	0.993624
894.013306	0.993004
894.321707	0.991268
894.630068	0.988144
894.938387	0.987694
895.246665	0.989030
895.554903	0.989019
895.863100	0.991083
896.171256	0.991926
896.479371	0.993372
896.787446	0.993823
897.095480	0.994595
897.403473	0.995587
897.711425	0.995547
898.019336	0.997257
898.327207	0.996821
898.635038	0.995881
898.942827	0.996494
899.250576	0.996631
899.558284	0.997765
899.865952	0.997269
900.173579	0.998306
900.481165	0.998090
900.788711	0.997553
901.096216	0.998537
901.403681	0.997781
901.711105	0.998322
902.018489	0.997540
902.325832	0.998880
902.633135	0.997286
902.940397	0.997617
903.247619	0.995852
903.554800	0.994618
903.861941	0.991461
904.169041	0.987542
904.476101	0.985799
904.783121	0.984913
905.090100	0.986900
905.397039	0.988412
905.703938	0.991172
906.010796	0.992890
906.317614	0.994701
906.624391	0.995741
906.931129	0.996803
907.237826	0.997892
907.544483	0.998175
907.851099	0.998507
908.157675	0.997062
908.464211	0.998406
908.770707	0.997940
909.077163	0.999532
909.383578	0.999012
909.689954	0.998680
909.996289	0.999251
910.302584	0.998978
910.608839	0.999371
910.915054	0.998936
911.221229	1.000468
911.527363	0.997539
911.833458	0.998620
912.139513	0.998955
912.445527	0.999520
912.751502	0.999397
913.057436	0.998350
913.363331	0.999508
913.669186	0.998856
913.975000	0.998475
914.280775	0.996419
914.586510	0.995798
914.892205	0.994574
915.197859	0.992707
915.503475	0.991308
915.809050	0.988244
916.114585	0.986209
916.420081	0.985309
916.725536	0.986318
917.030952	0.987129
917.336328	0.988560
917.641665	0.989971
917.946961	0.990973
918.252218	0.991753
918.557435	0.993349
918.862612	0.994668
919.167750	0.995729
919.472848	0.996109
919.777906	0.996680
920.082925	0.998586
920.387904	0.997859
920.692843	0.997383
920.997743	0.997447
921.302603	0.999001
921.607423	0.997438
921.912204	0.999043
922.216946	0.999485
922.521647	0.997979
922.826310	0.998264
923.130932	0.999430
923.435516	0.999004
923.740059	0.998706
924.044564	0.998467
924.349028	0.998359
924.653454	0.998854
924.957840	0.999547
925.262186	0.999686
925.566493	0.999423
925.870761	1.000021
926.174989	1.000242
926.479178	0.999908
926.783328	0.999631
927.087438	1.000145
927.391509	0.999626
927.695541	1.001273
927.999533	1.001378
928.303486	0.999767
928.607400	1.000648
928.911275	1.000079
929.215110	1.001430
929.518906	1.000406
929.822663	1.001267
930.126381	1.002637
930.430060	1.000231
930.733699	0.999908
931.037299	1.001131
931.340861	1.000899
931.644383	0.999274
931.947866	1.000863
932.251309	1.001451
932.554714	0.999725
932.858080	1.000671
933.161407	0.999930
933.464694	1.000874
933.767943	1.000193
934.071153	1.000095
934.374323	1.001387
934.677455	0.999520
934.980548	0.999951
935.283602	1.001290
935.586617	1.000279
935.889593	1.002440
936.192530	1.001619
936.495428	1.000721
936.798287	1.000574
937.101108	1.000848
937.403890	1.000119
937.706632	1.000508
938.009336	1.000839
938.312002	0.999282
938.614628	0.999573
938.917216	0.998634
939.219765	0.999038
939.522275	1.000657
939.824747	0.999607
940.127179	0.999825
940.429573	1.000068
940.731929	0.999946
941.034246	0.998891
941.336524	0.999059
941.638763	0.999906
941.940964	0.998764
942.243126	0.999482
942.545250	1.000418
942.847335	1.000414
943.149381	1.000015
943.451389	1.000259
943.753359	1.000253
944.055290	1.001226
944.357182	1.000142
944.659036	1.000495
944.960851	1.000736
945.262628	1.000797
945.564367	0.999826
945.866067	1.000564
946.167729	1.000593
946.469352	1.001555
946.770937	0.998224
947.072484	1.001049
947.373992	1.000307
947.675462	1.000133
947.976893	0.999124
948.278286	1.002526
948.579641	1.002595
948.880958	0.999699
949.182236	1.000196
949.483476	1.000977
949.784678	1.000819
950.085841	1.000168
950.386967	1.000730
950.688054	1.000302
950.989103	0.999047
951.290114	0.999167
951.591087	1.000386
951.892021	1.000106
952.192917	0.999375
952.493776	1.000686
952.794596	1.000856
953.095378	0.999652
953.396122	1.000076
953.696828	1.001181
953.997496	1.000089
954.298126	1.000034
954.598718	1.000899
954.899272	1.001147
955.199788	0.999928
955.500266	1.001352
955.800706	1.000874
956.101108	1.000195
956.401472	1.002107
956.701798	1.000029
957.002087	1.001034
957.302337	1.000491
957.602550	1.001596
957.902724	1.001515
958.202861	1.001175
958.502960	1.000011
958.803022	1.001706
959.103045	1.001689
959.403031	1.001213
959.702979	1.003208
960.002889	1.000165
960.302762	1.001098
960.602596	1.001072
960.902393	1.002231
961.202153	1.002348
961.501875	1.001913
961.801559	1.002470
962.101205	1.000484
962.400814	1.002353
962.700385	1.001777
962.999918	1.000803
963.299414	1.000928
963.598873	1.002500
963.898293	1.001992
964.197677	1.001773
964.497022	1.002021
964.796331	1.000546
965.095601	1.002132
965.394835	1.001192
965.694030	1.002069
965.993189	1.001069
966.292309	1.002160
966.591393	1.000180
966.890439	1.002993
967.189447	1.001274
967.488419	1.001792
967.787353	1.001450
968.086249	1.002165
968.385108	1.001607
968.683930	1.002489
968.982714	1.001093
969.281462	1.001364
969.580172	1.001485
969.878844	1.001498
970.177480	1.001415
970.476078	1.002762
970.774639	1.001850
971.073162	1.001680
971.371649	1.001283
971.670098	1.000153
971.968510	1.001623
972.266885	0.998931
972.565223	1.000084
972.863524	1.000109
973.161788	1.001477
973.460014	1.002431
973.758204	1.000329
974.056356	1.002447
974.354471	1.000600
974.652550	1.002384
974.950591	1.002556
975.248595	1.002339
975.546563	1.001513
975.844493	1.002800
976.142386	1.001010
976.440243	1.001907
976.738062	1.001326
977.035845	1.001455
977.333590	1.002456
977.631299	1.000773
977.928971	1.000820
978.226606	1.001249
978.524204	1.000895
978.821765	1.002550
979.119290	1.003907
979.416777	1.001778
979.714228	1.002161
980.011642	1.002045
980.309020	1.001421
980.606360	1.000511
980.903664	1.001263
981.200931	1.002046
981.498162	1.000728
981.795356	1.001353
982.092513	1.000045
982.389633	1.002561
982.686717	1.000280
982.983764	1.000137
983.280775	1.000529
983.577749	1.000616
983.874686	1.000483
984.171587	1.000396
984.468451	1.001600
984.765279	1.002126
985.062070	1.001804
985.358824	1.000785
985.655543	1.001408
985.952224	1.001482
986.248869	1.002017
986.545478	1.003004
986.842050	1.002165
987.138586	1.000785
987.435086	1.000744
987.731549	1.003065
988.027975	1.002433
988.324366	1.001976
988.620719	1.002931
988.917037	1.001137
989.213318	1.001868
989.509563	1.003254
989.805772	1.002460
990.101944	1.002264
990.398080	1.000949
990.694180	1.002993
990.990244	1.001624
991.286271	1.000310
991.582262	1.002230
991.878217	1.001455
992.174136	1.002130
992.470019	1.001826
992.765865	1.002702
993.061676	1.002093
993.357450	1.001400
993.653188	1.003310
993.948890	1.001832
994.244556	1.001245
994.540186	1.001279
994.835780	1.001232
995.131337	1.002343
995.426859	1.002332
995.722345	1.001577
996.017795	1.000954
996.313208	1.002192
996.608586	1.000329
996.903928	1.002039
997.199234	1.000677
997.494504	1.002499
997.789738	0.999881
998.084936	1.000955
998.380099	1.000962
998.675225	1.002966
998.970316	1.001637
999.265371	1.001584
999.560390	1.000719
999.855373	1.001197
1000.150320	1.002756
1000.445232	1.001986
1000.740108	1.000684
1001.034948	1.001424
1001.329752	1.001942
1001.624521	1.002734
1001.919254	1.001734
1002.213951	1.003168
1002.508613	1.001970
1002.803239	1.001917
1003.097829	1.003218
1003.392384	1.000364
1003.686903	1.002649
1003.981386	1.001435
1004.275834	1.002614
1004.570246	1.001054
1004.864623	1.002781
1005.158964	1.001575
1005.453270	1.001127
1005.747540	1.002874
1006.041775	1.001098
1006.335974	1.002318
1006.630138	1.001549
1006.924266	1.000681
1007.218359	1.000620
1007.512416	1.002693
1007.806438	1.002225
1008.100425	1.001837
1008.394376	1.002462
1008.688292	1.001091
1008.982172	1.000999
1009.276017	1.002141
1009.569827	1.002608
1009.863602	1.001159
1010.157341	1.002670
1010.451045	1.002261
1010.744714	1.003188
1011.038347	1.002379
1011.331945	1.000919
1011.625508	1.001634
1011.919036	1.002076
1012.212528	1.001991
1012.505986	1.002140
1012.799408	1.002376
1013.092795	1.002651
1013.386147	1.001842
1013.679464	1.003422
1013.972745	1.002166
1014.265992	1.002231
1014.559204	1.001749
1014.852380	1.002444
1015.145521	1.002001
1015.438628	1.002666
1015.731699	1.002223
1016.024736	1.003658
1016.317737	1.001963
1016.610703	1.001967
1016.903635	1.003397
1017.196531	1.001319
1017.489393	1.001390
1017.782219	1.002526
1018.075011	1.001533
1018.367768	1.002179
1018.660490	1.001844
1018.953177	1.001844
1019.245829	1.001844
