Dividing Wavelength (nm)	Counts (n)	Blue Motor Position (mm): 16.300000	Red Motor Position (mm): 0.000000	
326.493990	1.002459
326.888308	1.002459
327.282561	1.002459
327.676750	1.004263
328.070874	1.004635
328.464933	1.004046
328.858929	1.004135
329.252859	1.004162
329.646726	1.003292
330.040528	1.003123
330.434265	1.003217
330.827938	1.002507
331.221547	1.003453
331.615091	1.004031
332.008571	1.004008
332.401986	1.003078
332.795338	1.002729
333.188625	1.003721
333.581847	1.003155
333.975006	1.003268
334.368100	1.003735
334.761129	1.002100
335.154095	1.004845
335.546996	1.002319
335.939833	0.999335
336.332606	0.999356
336.725315	0.997886
337.117960	0.999648
337.510540	0.999089
337.903056	0.999879
338.295508	0.999965
338.687896	1.000919
339.080220	0.999270
339.472480	0.999037
339.864676	0.999803
340.256807	0.998245
340.648875	0.999477
341.040879	0.999369
341.432818	1.001237
341.824694	0.999701
342.216506	1.001058
342.608253	1.000449
342.999937	0.998300
343.391557	1.000133
343.783113	1.000919
344.174605	0.999768
344.566033	0.998210
344.957397	1.000322
345.348697	0.999018
345.739934	0.999702
346.131106	0.998416
346.522215	0.998316
346.913260	0.998967
347.304241	0.998537
347.695159	0.999937
348.086012	1.000236
348.476802	0.999011
348.867528	0.997541
349.258191	0.998771
349.648789	0.998220
350.039324	0.998996
350.429796	0.999820
350.820203	0.997188
351.210548	0.999054
351.600828	0.998725
351.991045	0.998647
352.381198	0.998549
352.771288	0.998856
353.161314	0.999203
353.551276	0.997668
353.941175	0.996252
354.331010	0.998951
354.720782	0.998509
355.110490	0.999432
355.500135	0.998640
355.889717	0.997546
356.279235	0.998336
356.668689	0.999952
357.058080	0.998248
357.447408	0.996592
357.836672	0.997795
358.225873	0.998976
358.615010	0.998242
359.004084	0.997158
359.393095	0.999323
359.782043	0.998502
360.170927	0.998594
360.559748	0.997878
360.948505	0.998241
361.337199	0.997038
361.725830	0.997534
362.114398	0.997919
362.502903	0.997549
362.891344	0.996673
363.279722	0.997111
363.668037	0.996593
364.056289	0.996898
364.444478	0.998641
364.832603	0.996649
365.220665	0.998488
365.608665	0.996429
365.996601	0.996754
366.384474	0.996072
366.772284	0.996548
367.160031	0.994789
367.547715	0.995173
367.935336	0.994732
368.322893	0.993179
368.710388	0.992444
369.097820	0.990957
369.485189	0.988598
369.872495	0.987574
370.259738	0.984796
370.646918	0.980789
371.034035	0.979707
371.421090	0.976628
371.808081	0.971690
372.195010	0.969933
372.581875	0.964718
372.968678	0.959987
373.355418	0.956064
373.742096	0.948398
374.128710	0.944917
374.515262	0.940183
374.901751	0.933999
375.288177	0.929154
375.674540	0.922938
376.060841	0.916188
376.447079	0.909841
376.833254	0.902325
377.219367	0.898420
377.605417	0.886180
377.991404	0.884893
378.377329	0.877282
378.763191	0.870175
379.148991	0.861732
379.534727	0.854049
379.920402	0.845815
380.306013	0.841553
380.691563	0.829670
381.077049	0.822973
381.462474	0.818849
381.847835	0.807755
382.233134	0.803384
382.618371	0.802142
383.003545	0.785682
383.388657	0.783663
383.773706	0.775311
384.158693	0.771664
384.543618	0.765805
384.928480	0.757656
385.313280	0.747337
385.698017	0.747408
386.082692	0.736169
386.467305	0.733947
386.851856	0.728773
387.236344	0.724386
387.620770	0.717943
388.005133	0.711544
388.389435	0.706582
388.773674	0.703912
389.157851	0.695650
389.541965	0.693243
389.926018	0.699584
390.310008	0.687242
390.693936	0.683933
391.077802	0.675636
391.461606	0.677336
391.845348	0.666905
392.229027	0.665658
392.612645	0.664240
392.996200	0.651059
393.379694	0.643892
393.763125	0.635352
394.146494	0.639185
394.529801	0.629230
394.913047	0.622019
395.296230	0.627346
395.679351	0.618505
396.062410	0.616072
396.445408	0.618240
396.828343	0.613660
397.211217	0.608435
397.594028	0.620583
397.976778	0.611328
398.359466	0.608557
398.742092	0.602771
399.124656	0.614874
399.507158	0.603235
399.889598	0.600287
400.271977	0.591804
400.654294	0.595713
401.036549	0.595050
401.418742	0.599420
401.800874	0.584679
402.182944	0.580673
402.564952	0.573099
402.946898	0.575545
403.328783	0.575926
403.710606	0.587550
404.092367	0.562216
404.474067	0.567223
404.855705	0.565783
405.237282	0.574913
405.618797	0.560934
406.000250	0.557019
406.381642	0.546537
406.762972	0.552048
407.144240	0.551142
407.525447	0.550748
407.906593	0.543160
408.287677	0.538879
408.668700	0.546526
409.049661	0.540903
409.430560	0.535589
409.811399	0.544287
410.192176	0.526394
410.572891	0.533637
410.953545	0.521847
411.334138	0.535495
411.714669	0.527617
412.095139	0.540495
412.475547	0.524197
412.855894	0.526198
413.236180	0.524933
413.616405	0.530355
413.996568	0.520283
414.376670	0.527003
414.756711	0.531896
415.136691	0.528195
415.516609	0.520376
415.896466	0.516081
416.276262	0.512129
416.655997	0.513923
417.035670	0.496178
417.415283	0.487219
417.794834	0.492700
418.174324	0.497267
418.553753	0.506885
418.933121	0.489100
419.312428	0.482824
419.691674	0.488992
420.070859	0.477042
420.449983	0.484513
420.829045	0.473908
421.208047	0.482695
421.586988	0.475950
421.965867	0.474900
422.344686	0.463250
422.723444	0.476046
423.102141	0.492746
423.480777	0.465702
423.859352	0.486853
424.237866	0.463961
424.616319	0.464790
424.994712	0.455781
425.373044	0.465829
425.751314	0.453854
426.129524	0.470555
426.507673	0.454440
426.885762	0.447912
427.263789	0.452871
427.641756	0.462360
428.019662	0.453632
428.397508	0.452232
428.775292	0.456864
429.153016	0.448479
429.530679	0.454910
429.908282	0.448014
430.285824	0.457843
430.663305	0.436585
431.040726	0.457216
431.418086	0.457262
431.795385	0.449678
432.172624	0.448066
432.549802	0.448748
432.926920	0.447208
433.303977	0.447026
433.680974	0.444005
434.057910	0.442729
434.434786	0.442082
434.811601	0.444872
435.188355	0.427206
435.565050	0.436748
435.941683	0.437821
436.318257	0.421315
436.694770	0.422774
437.071222	0.421147
437.447614	0.425084
437.823946	0.432019
438.200218	0.420973
438.576429	0.430468
438.952580	0.423976
439.328670	0.420797
439.704700	0.426561
440.080670	0.427584
440.456580	0.409358
440.832429	0.417601
441.208218	0.428468
441.583947	0.417047
441.959616	0.416744
442.335224	0.422717
442.710773	0.412720
443.086261	0.411395
443.461689	0.424812
443.837057	0.414477
444.212365	0.404832
444.587612	0.411625
444.962800	0.401659
445.337927	0.403297
445.712995	0.429381
446.088002	0.391185
446.462949	0.401202
446.837837	0.406764
447.212664	0.395401
447.587431	0.387191
447.962139	0.357135
448.336786	0.316193
448.711374	0.326365
449.085901	0.370825
449.460369	0.375142
449.834776	0.378795
450.209124	0.358033
450.583412	0.350905
450.957640	0.343583
451.331808	0.355302
451.705917	0.378811
452.079965	0.383171
452.453954	0.371768
452.827883	0.378053
453.201752	0.373214
453.575562	0.383924
453.949311	0.372761
454.323001	0.378903
454.696632	0.374674
455.070202	0.367658
455.443713	0.359530
455.817164	0.354086
456.190556	0.349816
456.563888	0.346666
456.937160	0.344193
457.310373	0.361340
457.683526	0.360326
458.056619	0.366046
458.429653	0.366747
458.802628	0.370200
459.175542	0.364530
459.548398	0.347233
459.921194	0.339371
460.293930	0.339236
460.666607	0.317153
461.039224	0.305098
461.411782	0.300545
461.784280	0.299974
462.156719	0.304246
462.529099	0.308526
462.901419	0.324753
463.273680	0.328927
463.645882	0.328252
464.018024	0.334461
464.390106	0.327340
464.762130	0.311705
465.134094	0.294674
465.505999	0.263510
465.877845	0.234050
466.249631	0.221109
466.621358	0.228445
466.993026	0.242723
467.364634	0.248795
467.736184	0.257242
468.107674	0.266038
468.479105	0.265250
468.850477	0.272148
469.221790	0.279168
469.593043	0.289078
469.964238	0.294020
470.335373	0.293630
470.706449	0.291684
471.077467	0.291998
471.448425	0.254239
471.819324	0.229781
472.190164	0.229356
472.560945	0.257784
472.931667	0.280353
473.302330	0.284798
473.672934	0.296537
474.043479	0.284527
474.413965	0.286599
474.784393	0.289805
475.154761	0.285027
475.525070	0.281976
475.895321	0.287698
476.265513	0.281826
476.635645	0.277116
477.005719	0.277440
477.375734	0.273631
477.745691	0.267267
478.115588	0.263188
478.485427	0.257032
478.855207	0.243645
479.224928	0.226268
479.594591	0.214455
479.964194	0.217713
480.333739	0.218674
480.703226	0.220421
481.072653	0.218664
481.442022	0.214515
481.811333	0.211186
482.180584	0.214727
482.549777	0.219789
482.918912	0.223192
483.287988	0.223087
483.657005	0.222691
484.025964	0.229113
484.394864	0.226271
484.763706	0.227136
485.132489	0.231993
485.501213	0.232823
485.869879	0.230977
486.238487	0.234498
486.607036	0.232242
486.975527	0.237160
487.343959	0.232744
487.712333	0.231925
488.080648	0.233218
488.448905	0.232286
488.817104	0.233550
489.185244	0.228148
489.553326	0.224968
489.921350	0.215067
490.289315	0.197333
490.657222	0.192217
491.025070	0.193759
491.392861	0.195353
491.760593	0.201346
492.128267	0.206942
492.495883	0.212396
492.863440	0.218869
493.230939	0.225232
493.598380	0.226738
493.965763	0.228811
494.333088	0.231118
494.700354	0.232701
495.067563	0.231579
495.434713	0.234973
495.801805	0.232793
496.168839	0.234391
496.535815	0.235812
496.902733	0.235648
497.269593	0.237130
497.636395	0.234797
498.003139	0.235450
498.369825	0.238321
498.736453	0.234957
499.103023	0.236394
499.469535	0.235648
499.835989	0.236033
500.202385	0.237013
500.568723	0.240241
500.935003	0.235358
501.301226	0.239524
501.667390	0.234022
502.033497	0.232067
502.399546	0.235012
502.765537	0.236773
503.131470	0.235148
503.497345	0.231562
503.863163	0.240332
504.228923	0.233096
504.594625	0.231901
504.960269	0.237641
505.325856	0.233178
505.691385	0.237393
506.056856	0.234158
506.422270	0.233321
506.787625	0.235992
507.152924	0.233431
507.518164	0.233758
507.883347	0.235188
508.248472	0.237355
508.613540	0.232245
508.978550	0.234677
509.343503	0.235518
509.708398	0.232852
510.073236	0.230613
510.438016	0.230244
510.802738	0.231537
511.167403	0.230532
511.532010	0.232669
511.896561	0.228074
512.261053	0.226683
512.625488	0.228845
512.989866	0.229273
513.354186	0.229455
513.718449	0.231340
514.082655	0.227656
514.446803	0.230343
514.810894	0.228049
515.174927	0.230756
515.538904	0.229933
515.902822	0.226889
516.266684	0.229257
516.630488	0.230611
516.994235	0.229569
517.357925	0.228465
517.721558	0.226715
518.085133	0.226458
518.448651	0.226313
518.812112	0.228524
519.175516	0.228368
519.538863	0.226158
519.902152	0.228114
520.265385	0.224614
520.628560	0.226279
520.991678	0.226897
521.354739	0.226077
521.717743	0.227434
522.080690	0.227575
522.443580	0.225349
522.806413	0.226318
523.169189	0.225812
523.531908	0.225113
523.894569	0.228563
524.257174	0.228555
524.619722	0.226358
524.982213	0.227793
525.344647	0.226894
525.707025	0.227980
526.069345	0.226267
526.431608	0.228253
526.793815	0.226348
527.155964	0.230770
527.518057	0.229952
527.880093	0.231057
528.242072	0.230240
528.603995	0.232353
528.965860	0.234177
529.327669	0.233225
529.689421	0.234506
530.051117	0.235734
530.412755	0.233778
530.774337	0.236333
531.135862	0.237159
531.497331	0.236820
531.858743	0.240297
532.220098	0.237327
532.581396	0.240129
532.942638	0.240920
533.303824	0.242536
533.664953	0.242917
534.026025	0.245413
534.387040	0.243622
534.747999	0.243926
535.108902	0.243219
535.469748	0.248860
535.830537	0.247200
536.191270	0.248480
536.551947	0.248572
536.912567	0.249043
537.273131	0.251533
537.633638	0.252397
537.994089	0.253858
538.354483	0.255575
538.714821	0.253100
539.075103	0.253618
539.435328	0.255262
539.795497	0.259664
540.155609	0.257574
540.515665	0.256394
540.875665	0.262942
541.235609	0.262635
541.595496	0.263331
541.955328	0.261265
542.315102	0.264634
542.674821	0.266883
543.034483	0.267587
543.394090	0.268589
543.753640	0.271435
544.113134	0.267889
544.472571	0.272128
544.831953	0.270709
545.191278	0.275950
545.550548	0.276288
545.909761	0.274659
546.268918	0.277096
546.628019	0.276491
546.987064	0.281126
547.346053	0.283702
547.704986	0.283669
548.063863	0.285124
548.422684	0.286716
548.781449	0.290192
549.140158	0.289928
549.498811	0.293979
549.857408	0.298230
550.215949	0.295844
550.574434	0.300534
550.932864	0.300872
551.291237	0.300330
551.649555	0.304694
552.007817	0.305832
552.366022	0.308828
552.724173	0.311620
553.082267	0.313061
553.440305	0.313659
553.798288	0.318522
554.156215	0.318702
554.514086	0.321514
554.871902	0.326265
555.229661	0.327820
555.587365	0.330682
555.945014	0.335109
556.302606	0.335337
556.660143	0.339793
557.017625	0.339657
557.375050	0.343865
557.732421	0.344073
558.089735	0.348651
558.446994	0.350799
558.804197	0.353432
559.161345	0.355899
559.518437	0.360702
559.875474	0.362825
560.232455	0.365993
560.589381	0.368494
560.946251	0.373201
561.303065	0.372401
561.659825	0.377172
562.016528	0.381322
562.373177	0.385354
562.729770	0.387386
563.086307	0.391683
563.442789	0.392878
563.799216	0.399700
564.155587	0.401351
564.511904	0.405666
564.868164	0.408610
565.224370	0.411330
565.580520	0.417774
565.936615	0.418985
566.292654	0.426737
566.648638	0.427064
567.004567	0.430653
567.360441	0.434651
567.716260	0.440076
568.072023	0.440903
568.427732	0.446658
568.783385	0.449690
569.138982	0.453381
569.494525	0.456564
569.850013	0.461921
570.205445	0.465111
570.560823	0.469406
570.916145	0.475510
571.271412	0.478401
571.626625	0.482527
571.981782	0.486453
572.336884	0.491426
572.691931	0.492962
573.046923	0.499897
573.401860	0.503255
573.756743	0.508654
574.111570	0.511195
574.466342	0.515041
574.821059	0.518189
575.175722	0.523916
575.530330	0.527742
575.884882	0.530875
576.239380	0.536933
576.593823	0.540014
576.948211	0.544763
577.302544	0.548593
577.656823	0.553609
578.011047	0.556384
578.365216	0.561752
578.719330	0.565784
579.073389	0.569565
579.427394	0.573686
579.781344	0.577963
580.135239	0.582268
580.489080	0.585926
580.842866	0.592094
581.196597	0.595615
581.550273	0.598450
581.903895	0.603415
582.257463	0.605007
582.610975	0.611892
582.964434	0.614559
583.317837	0.620332
583.671186	0.623190
584.024481	0.627391
584.377721	0.631720
584.730906	0.636723
585.084037	0.640420
585.437113	0.644237
585.790135	0.648117
586.143103	0.652146
586.496016	0.656079
586.848874	0.659027
587.201679	0.662500
587.554428	0.667971
587.907124	0.671687
588.259765	0.675038
588.612352	0.680005
588.964884	0.683937
589.317362	0.688144
589.669786	0.691505
590.022155	0.692792
590.374470	0.697509
590.726731	0.700544
591.078937	0.707578
591.431090	0.710273
591.783188	0.713865
592.135232	0.719372
592.487222	0.719968
592.839157	0.723827
593.191038	0.727816
593.542866	0.731875
593.894639	0.735495
594.246358	0.737885
594.598022	0.742072
594.949633	0.746346
595.301190	0.750269
595.652692	0.752909
596.004141	0.755957
596.355535	0.760961
596.706876	0.764905
597.058162	0.769222
597.409395	0.770942
597.760573	0.773355
598.111698	0.777215
598.462768	0.780292
598.813785	0.783276
599.164748	0.788217
599.515657	0.789412
599.866511	0.795278
600.217312	0.796127
600.568060	0.799974
600.918753	0.803024
601.269392	0.805075
601.619978	0.809572
601.970510	0.811875
602.320988	0.813714
602.671412	0.816408
603.021783	0.819629
603.372100	0.823110
603.722363	0.826268
604.072572	0.827704
604.422728	0.830564
604.772830	0.833674
605.122878	0.836832
605.472872	0.838882
605.822813	0.841238
606.172701	0.843994
606.522534	0.846226
606.872314	0.848318
607.222041	0.851477
607.571714	0.853853
607.921333	0.855466
608.270899	0.857962
608.620411	0.859237
608.969870	0.863533
609.319276	0.864713
609.668627	0.867837
610.017926	0.868770
610.367171	0.871453
610.716362	0.873360
611.065500	0.874716
611.414585	0.878178
611.763616	0.878514
612.112594	0.882146
612.461518	0.882736
612.810389	0.883619
613.159207	0.886586
613.507971	0.887858
613.856682	0.890183
614.205340	0.890954
614.553945	0.892986
614.902496	0.895229
615.250994	0.896959
615.599439	0.899027
615.947830	0.900253
616.296169	0.901886
616.644454	0.903153
616.992686	0.904734
617.340864	0.906507
617.688990	0.907731
618.037063	0.908753
618.385082	0.910343
618.733048	0.911309
619.080961	0.913108
619.428821	0.914300
619.776628	0.916033
620.124382	0.918222
620.472083	0.919374
620.819731	0.921365
621.167326	0.923127
621.514868	0.925194
621.862357	0.926722
622.209793	0.928394
622.557176	0.929537
622.904506	0.931424
623.251783	0.933067
623.599007	0.935866
623.946179	0.936481
624.293297	0.937980
624.640363	0.940838
624.987376	0.940761
625.334336	0.941644
625.681243	0.944506
626.028097	0.945534
626.374899	0.946442
626.721647	0.948573
627.068343	0.948738
627.414987	0.950478
627.761577	0.951249
628.108115	0.951769
628.454600	0.953714
628.801032	0.954510
629.147412	0.954645
629.493739	0.956746
629.840014	0.955995
630.186236	0.956529
630.532405	0.958743
630.878521	0.958181
631.224585	0.959505
631.570597	0.960273
631.916556	0.960860
632.262462	0.960386
632.608316	0.962135
632.954117	0.962631
633.299866	0.962849
633.645562	0.964169
633.991206	0.965963
634.336797	0.966391
634.682336	0.968010
635.027823	0.968388
635.373257	0.968515
635.718639	0.970817
636.063968	0.969745
636.409245	0.971388
636.754470	0.972441
637.099642	0.972413
637.444762	0.973924
637.789829	0.973716
638.134845	0.974252
638.479808	0.974748
638.824719	0.975713
639.169577	0.976667
639.514383	0.976805
639.859137	0.977559
640.203839	0.977484
640.548489	0.978269
640.893086	0.978501
641.237632	0.979415
641.582125	0.979726
641.926566	0.980029
642.270955	0.979590
642.615292	0.980681
642.959576	0.981142
643.303809	0.981546
643.647990	0.981766
643.992118	0.981459
644.336195	0.981822
644.680219	0.982319
645.024192	0.982335
645.368112	0.983168
645.711981	0.983058
646.055797	0.982979
646.399562	0.982749
646.743274	0.984177
647.086935	0.983000
647.430544	0.983816
647.774101	0.983167
648.117606	0.985311
648.461059	0.985509
648.804460	0.984236
649.147810	0.984265
649.491108	0.984899
649.834354	0.985486
650.177548	0.985193
650.520690	0.985651
650.863781	0.986319
651.206820	0.985782
651.549807	0.986615
651.892742	0.986669
652.235626	0.987373
652.578458	0.987929
652.921238	0.988640
653.263967	0.988689
653.606644	0.988519
653.949269	0.988670
654.291843	0.987101
654.634365	0.988975
654.976836	0.989488
655.319255	0.989651
655.661622	0.989805
656.003938	0.989771
656.346203	0.989883
656.688416	0.990610
657.030577	0.990314
657.372687	0.990710
657.714746	0.990114
658.056753	0.989081
658.398708	0.989890
658.740612	0.991252
659.082465	0.990523
659.424266	0.990199
659.766016	0.990293
660.107715	0.991177
660.449362	0.990105
660.790958	0.991455
661.132503	0.991599
661.473996	0.990884
661.815438	0.991887
662.156829	0.991378
662.498168	0.991446
662.839456	0.990540
663.180693	0.991937
663.521879	0.991589
663.863013	0.991737
664.204097	0.991099
664.545129	0.991248
664.886110	0.991739
665.227040	0.991596
665.567918	0.991867
665.908746	0.991501
666.249522	0.990534
666.590248	0.990995
666.930922	0.991894
667.271545	0.991431
667.612118	0.991655
667.952639	0.992670
668.293109	0.992490
668.633528	0.991685
668.973896	0.992530
669.314213	0.991504
669.654480	0.992260
669.994695	0.991343
670.334859	0.991799
670.674973	0.991485
671.015035	0.992090
671.355047	0.992467
671.695008	0.991960
672.034918	0.991833
672.374777	0.992346
672.714585	0.992417
673.054342	0.992918
673.394049	0.991854
673.733705	0.992022
674.073310	0.992649
674.412864	0.992265
674.752368	0.992835
675.091820	0.992886
675.431223	0.992935
675.770574	0.992440
676.109875	0.992078
676.449125	0.992372
676.788324	0.992113
677.127473	0.992974
677.466571	0.992585
677.805619	0.992984
678.144616	0.993497
678.483562	0.993183
678.822458	0.993860
679.161303	0.993073
679.500098	0.993396
679.838842	0.993161
680.177535	0.993131
680.516179	0.992915
680.854771	0.992670
681.193314	0.992315
681.531805	0.992313
681.870247	0.992946
682.208638	0.992616
682.546978	0.991793
682.885268	0.992130
683.223508	0.992734
683.561697	0.992794
683.899836	0.992732
684.237925	0.992800
684.575963	0.992824
684.913951	0.993305
685.251889	0.992613
685.589776	0.992375
685.927614	0.993009
686.265401	0.992392
686.603137	0.992613
686.940824	0.992375
687.278460	0.993555
687.616046	0.992017
687.953582	0.992166
688.291068	0.992966
688.628504	0.992811
688.965889	0.991782
689.303224	0.990443
689.640510	0.992560
689.977745	0.991838
690.314930	0.992211
690.652065	0.991967
690.989150	0.992515
691.326185	0.992740
691.663170	0.992463
692.000105	0.993626
692.336990	0.993600
692.673825	0.992896
693.010610	0.992396
693.347345	0.993395
693.684030	0.993057
694.020665	0.993152
694.357251	0.993392
694.693786	0.993340
695.030272	0.992812
695.366707	0.993818
695.703093	0.992926
696.039429	0.992659
696.375716	0.994209
696.711952	0.993731
697.048139	0.993450
697.384276	0.993779
697.720363	0.993469
698.056400	0.992830
698.392388	0.993271
698.728326	0.993928
699.064214	0.994455
699.400053	0.992828
699.735842	0.994488
700.071581	0.993610
700.407270	0.993830
700.742910	0.993975
701.078501	0.994105
701.414042	0.995053
701.749533	0.993502
702.084974	0.994770
702.420366	0.993861
702.755709	0.993521
703.091002	0.995203
703.426246	0.994149
703.761440	0.994682
704.096584	0.992668
704.431679	0.993895
704.766725	0.993855
705.101721	0.994989
705.436668	0.993607
705.771565	0.993675
706.106413	0.993534
706.441212	0.994610
706.775961	0.994632
707.110661	0.993914
707.445311	0.992846
707.779913	0.995271
708.114465	0.994180
708.448967	0.995207
708.783421	0.994190
709.117825	0.994411
709.452180	0.994361
709.786485	0.992902
710.120742	0.992727
710.454949	0.993002
710.789107	0.993281
711.123216	0.991463
711.457275	0.992136
711.791286	0.993303
712.125247	0.994384
712.459159	0.992136
712.793023	0.992669
713.126837	0.993157
713.460602	0.991837
713.794318	0.991804
714.127985	0.992648
714.461602	0.993072
714.795171	0.992899
715.128691	0.992402
715.462162	0.992875
715.795584	0.992474
716.128957	0.994199
716.462281	0.993457
716.795556	0.992941
717.128782	0.993865
717.461960	0.993056
717.795088	0.994067
718.128167	0.994953
718.461198	0.994397
718.794180	0.995094
719.127113	0.994957
719.459997	0.992930
719.792833	0.994015
720.125619	0.992770
720.458357	0.993660
720.791046	0.995457
721.123686	0.994024
721.456278	0.994419
721.788821	0.994521
722.121315	0.994812
722.453761	0.993648
722.786158	0.993837
723.118506	0.993917
723.450805	0.993554
723.783056	0.994304
724.115259	0.992952
724.447412	0.994141
724.779518	0.994596
725.111574	0.993144
725.443582	0.993703
725.775542	0.994781
726.107453	0.994306
726.439315	0.994571
726.771129	0.994120
727.102895	0.993380
727.434612	0.994192
727.766281	0.993794
728.097901	0.993712
728.429473	0.993878
728.760996	0.992256
729.092471	0.992866
729.423897	0.993595
729.755276	0.993762
730.086606	0.993104
730.417887	0.994403
730.749120	0.993698
731.080305	0.994219
731.411442	0.992264
731.742530	0.991855
732.073570	0.992896
732.404562	0.993279
732.735506	0.993117
733.066401	0.992894
733.397249	0.992748
733.728048	0.993169
734.058798	0.993262
734.389501	0.995102
734.720156	0.993901
735.050762	0.995108
735.381320	0.994385
735.711831	0.993364
736.042293	0.993508
736.372707	0.994556
736.703073	0.993430
737.033391	0.993785
737.363661	0.994369
737.693883	0.994316
738.024056	0.993307
738.354182	0.994462
738.684260	0.993849
739.014290	0.993121
739.344272	0.993551
739.674207	0.994137
740.004093	0.993371
740.333931	0.993378
740.663722	0.994194
740.993464	0.993814
741.323159	0.993151
741.652806	0.992951
741.982405	0.993628
742.311956	0.994096
742.641460	0.994220
742.970915	0.993901
743.300323	0.992597
743.629683	0.992895
743.958996	0.995430
744.288260	0.993720
744.617477	0.993862
744.946647	0.994429
745.275768	0.995347
745.604842	0.994080
745.933869	0.993866
746.262847	0.994911
746.591778	0.993392
746.920662	0.994442
747.249498	0.995225
747.578286	0.995863
747.907027	0.994242
748.235720	0.994245
748.564365	0.995771
748.892963	0.993615
749.221514	0.994768
749.550017	0.993338
749.878473	0.994295
750.206881	0.995589
750.535242	0.994663
750.863555	0.994170
751.191821	0.994170
751.520039	0.993578
751.848210	0.992821
752.176334	0.994086
752.504411	0.994526
752.832440	0.993839
753.160421	0.994790
753.488356	0.994460
753.816243	0.994043
754.144082	0.993950
754.471875	0.994018
754.799620	0.994145
755.127318	0.993558
755.454969	0.994207
755.782572	0.995800
756.110129	0.995231
756.437638	0.995385
756.765100	0.995298
757.092515	0.993891
757.419882	0.994589
757.747203	0.994927
758.074477	0.996596
758.401703	0.995679
758.728882	0.994156
759.056014	0.994162
759.383099	0.994247
759.710138	0.994118
760.037129	0.993736
760.364073	0.994858
760.690970	0.994062
761.017820	0.993325
761.344623	0.994855
761.671379	0.994057
761.998088	0.994000
762.324751	0.993433
762.651366	0.992229
762.977935	0.990378
763.304456	0.990523
763.630931	0.988150
763.957359	0.987795
764.283740	0.989258
764.610074	0.989722
764.936362	0.990644
765.262602	0.992274
765.588796	0.993555
765.914943	0.993320
766.241044	0.994085
766.567097	0.995133
766.893104	0.994552
767.219064	0.993744
767.544978	0.995459
767.870845	0.995445
768.196665	0.994802
768.522438	0.995577
768.848165	0.995025
769.173846	0.995242
769.499479	0.997289
769.825066	0.995352
770.150607	0.996815
770.476101	0.996258
770.801548	0.996836
771.126949	0.997158
771.452303	0.995921
771.777611	0.996702
772.102872	0.995743
772.428087	0.995937
772.753256	0.996634
773.078378	0.996891
773.403453	0.995556
773.728482	0.998016
774.053465	0.995797
774.378401	0.997029
774.703291	0.996454
775.028135	0.997715
775.352932	0.995269
775.677683	0.997726
776.002388	0.996330
776.327046	0.996532
776.651658	0.997426
776.976224	0.997613
777.300743	0.997125
777.625216	0.997297
777.949643	0.997419
778.274024	0.996646
778.598359	0.996025
778.922647	0.997544
779.246889	0.998391
779.571086	0.998074
779.895236	0.996506
780.219339	0.997906
780.543397	0.995900
780.867409	0.998413
781.191374	0.996842
781.515294	0.998078
781.839167	0.996799
782.162995	0.996848
782.486776	0.996289
782.810511	0.997112
783.134201	0.997191
783.457844	0.997439
783.781441	0.997321
784.104993	0.996273
784.428498	0.996752
784.751958	0.998368
785.075372	0.997579
785.398739	0.996271
785.722061	0.996632
786.045337	0.997330
786.368568	0.996740
786.691752	0.998119
787.014891	0.996864
787.337983	0.994727
787.661030	0.995708
787.984031	0.996507
788.306987	0.996090
788.629897	0.994517
788.952760	0.996009
789.275579	0.996141
789.598351	0.995805
789.921078	0.997602
790.243759	0.996716
790.566395	0.995447
790.888984	0.996807
791.211529	0.997449
791.534027	0.996565
791.856480	0.997065
792.178888	0.996842
792.501249	0.997166
792.823566	0.997793
793.145836	0.997645
793.468062	0.997313
793.790241	0.996834
794.112375	0.995777
794.434464	0.997455
794.756507	0.997926
795.078505	0.996780
795.400457	0.997122
795.722364	0.997373
796.044226	0.996482
796.366042	0.996754
796.687812	0.994941
797.009538	0.995528
797.331218	0.996757
797.652852	0.997463
797.974442	0.996146
798.295986	0.996923
798.617484	0.996747
798.938938	0.996412
799.260346	0.995883
799.581709	0.996574
799.903026	0.997283
800.224299	0.997420
800.545526	0.996913
800.866708	0.996829
801.187845	0.997480
801.508936	0.996805
801.829983	0.997014
802.150984	0.997330
802.471940	0.997156
802.792851	0.996526
803.113717	0.998253
803.434538	0.998546
803.755314	0.998787
804.076045	0.997802
804.396731	0.996871
804.717372	0.996607
805.037967	0.998155
805.358518	0.997693
805.679024	0.997549
805.999485	0.997282
806.319901	0.997680
806.640272	0.997882
806.960598	0.997644
807.280879	0.997643
807.601115	0.997162
807.921306	0.998421
808.241453	0.997831
808.561554	0.997951
808.881611	0.997795
809.201623	0.996452
809.521590	0.997445
809.841513	0.998269
810.161390	0.997135
810.481223	0.997513
810.801011	0.997867
811.120755	0.998507
811.440453	0.996830
811.760107	0.997314
812.079716	0.997364
812.399281	0.997743
812.718801	0.997324
813.038276	0.997440
813.357707	0.997976
813.677093	0.998662
813.996434	0.997382
814.315731	0.998345
814.634983	0.998305
814.954191	0.998519
815.273354	0.997196
815.592473	0.997084
815.911547	0.997701
816.230577	0.997169
816.549562	0.996713
816.868502	0.995568
817.187399	0.997885
817.506250	0.997777
817.825058	0.996462
818.143821	0.997425
818.462539	0.996400
818.781213	0.996044
819.099843	0.996139
819.418429	0.995532
819.736970	0.993952
820.055466	0.992688
820.373919	0.992412
820.692327	0.990870
821.010691	0.990342
821.329011	0.986304
821.647286	0.982410
821.965517	0.978957
822.283704	0.974815
822.601847	0.971676
822.919945	0.972739
823.237999	0.975668
823.556010	0.977325
823.873976	0.979064
824.191897	0.982623
824.509775	0.985204
824.827609	0.985851
825.145398	0.987505
825.463144	0.987385
825.780845	0.987525
826.098502	0.987395
826.416116	0.986607
826.733685	0.983025
827.051210	0.980680
827.368692	0.981358
827.686129	0.983627
828.003522	0.986025
828.320872	0.987588
828.638177	0.990311
828.955439	0.992529
829.272656	0.993382
829.589830	0.993765
829.906960	0.994110
830.224046	0.993890
830.541088	0.995207
830.858086	0.995107
831.175041	0.996533
831.491952	0.996209
831.808819	0.996289
832.125642	0.995752
832.442421	0.994743
832.759157	0.995452
833.075849	0.992859
833.392497	0.989661
833.709101	0.987253
834.025662	0.987489
834.342179	0.988292
834.658653	0.990832
834.975083	0.990948
835.291469	0.991392
835.607811	0.993691
835.924110	0.994336
836.240366	0.997124
836.556578	0.997487
836.872746	0.997657
837.188871	0.996777
837.504952	0.996594
837.820990	0.997610
838.136984	0.997268
838.452935	0.997858
838.768842	0.998702
839.084706	0.997948
839.400526	0.997182
839.716303	0.994106
840.032037	0.994150
840.347727	0.993619
840.663373	0.994282
840.978977	0.995471
841.294537	0.996505
841.610054	0.996690
841.925527	0.997117
842.240957	0.997983
842.556344	0.997242
842.871687	0.998875
843.186987	0.998212
843.502244	0.999232
843.817458	0.998132
844.132629	0.998951
844.447756	1.000023
844.762840	0.998750
845.077881	1.000218
845.392879	0.998319
845.707833	1.000020
846.022745	1.000822
846.337613	0.998980
846.652438	0.998943
846.967221	1.000223
847.281960	0.999901
847.596656	1.000954
847.911309	1.000364
848.225919	1.000148
848.540485	0.999482
848.855009	1.000857
849.169490	0.999451
849.483928	1.000100
849.798323	0.998570
850.112675	1.000910
850.426984	0.999647
850.741251	1.000282
851.055474	1.000561
851.369654	1.000808
851.683792	0.999544
851.997887	1.000228
852.311938	1.001201
852.625947	1.000358
852.939914	0.999020
853.253837	1.001086
853.567718	1.000794
853.881555	0.999147
854.195350	0.999562
854.509103	1.000470
854.822812	1.000848
855.136479	0.999715
855.450103	1.000154
855.763685	0.999406
856.077224	0.999180
856.390720	0.999863
856.704173	1.000859
857.017584	1.000808
857.330953	0.999827
857.644278	0.999172
857.957561	1.000047
858.270802	0.999739
858.584000	0.999441
858.897155	0.998608
859.210268	0.999942
859.523339	1.001523
859.836367	1.000064
860.149352	0.998770
860.462295	0.999565
860.775195	1.000662
861.088054	0.998692
861.400869	0.999918
861.713642	1.000105
862.026373	1.001010
862.339062	1.000665
862.651708	0.999847
862.964312	1.000323
863.276873	0.999133
863.589392	1.000449
863.901869	0.999536
864.214303	0.999257
864.526696	1.000091
864.839045	1.000397
865.151353	0.999833
865.463619	0.999385
865.775842	0.999327
866.088023	1.001785
866.400162	1.000220
866.712258	1.000510
867.024313	1.000006
867.336325	1.000032
867.648296	1.000040
867.960224	1.000660
868.272110	0.999776
868.583954	0.999692
868.895755	0.999058
869.207515	0.999691
869.519233	0.999234
869.830909	0.999329
870.142542	0.998583
870.454134	0.999467
870.765684	0.997857
871.077191	0.999905
871.388657	0.999567
871.700081	0.998836
872.011463	0.999203
872.322803	0.998788
872.634101	0.999153
872.945357	0.997361
873.256571	0.997630
873.567744	0.998710
873.878874	0.998091
874.189963	0.998531
874.501010	0.998672
874.812015	0.999246
875.122979	0.998811
875.433900	0.997456
875.744780	0.999129
876.055618	0.998302
876.366415	0.998491
876.677169	0.998007
876.987882	0.997803
877.298554	0.999054
877.609183	0.997926
877.919771	0.998042
878.230317	0.998079
878.540822	0.996023
878.851285	0.996579
879.161707	0.995089
879.472087	0.996906
879.782425	0.994134
880.092722	0.991952
880.402977	0.987724
880.713191	0.983858
881.023363	0.979022
881.333494	0.976656
881.643583	0.976154
881.953631	0.976069
882.263637	0.975560
882.573602	0.977515
882.883526	0.979084
883.193408	0.982807
883.503248	0.984892
883.813048	0.985369
884.122806	0.986936
884.432522	0.989782
884.742197	0.991321
885.051831	0.991533
885.361424	0.992731
885.670975	0.994775
885.980485	0.993975
886.289954	0.994369
886.599382	0.994771
886.908768	0.996226
887.218113	0.996151
887.527417	0.996713
887.836680	0.996590
888.145901	0.998264
888.455082	0.998151
888.764221	0.998637
889.073319	0.998390
889.382376	0.998541
889.691392	0.997155
890.000366	0.998587
890.309300	0.998376
890.618193	0.998960
890.927044	0.998156
891.235855	0.997815
891.544625	0.998966
891.853353	0.997420
892.162041	0.997536
892.470687	0.998375
892.779293	0.996944
893.087858	0.995145
893.396381	0.995960
893.704864	0.993403
894.013306	0.992908
894.321707	0.990148
894.630068	0.989265
894.938387	0.987788
895.246665	0.987483
895.554903	0.988951
895.863100	0.991351
896.171256	0.990699
896.479371	0.991321
896.787446	0.994402
897.095480	0.994495
897.403473	0.995867
897.711425	0.995923
898.019336	0.996056
898.327207	0.997443
898.635038	0.997045
898.942827	0.997046
899.250576	0.995750
899.558284	0.998042
899.865952	0.997417
900.173579	0.997360
900.481165	0.998631
900.788711	0.997717
901.096216	0.997450
901.403681	0.998285
901.711105	0.998240
902.018489	0.997593
902.325832	0.997952
902.633135	0.998055
902.940397	0.998884
903.247619	0.997005
903.554800	0.994697
903.861941	0.991773
904.169041	0.988337
904.476101	0.985843
904.783121	0.985310
905.090100	0.987062
905.397039	0.988564
905.703938	0.990891
906.010796	0.993589
906.317614	0.994399
906.624391	0.995817
906.931129	0.995857
907.237826	0.997015
907.544483	0.997931
907.851099	0.997588
908.157675	0.998065
908.464211	0.999053
908.770707	0.997713
909.077163	0.999203
909.383578	0.999753
909.689954	0.998370
909.996289	0.999851
910.302584	0.999175
910.608839	1.001018
910.915054	0.999602
911.221229	1.000596
911.527363	0.998085
911.833458	0.999775
912.139513	1.000301
912.445527	0.999200
912.751502	0.999503
913.057436	0.998410
913.363331	0.999507
913.669186	0.999686
913.975000	0.997388
914.280775	0.996624
914.586510	0.995878
914.892205	0.994743
915.197859	0.993857
915.503475	0.991362
915.809050	0.988782
916.114585	0.985687
916.420081	0.984663
916.725536	0.987245
917.030952	0.988438
917.336328	0.988469
917.641665	0.988157
917.946961	0.991211
918.252218	0.992556
918.557435	0.993889
918.862612	0.995132
919.167750	0.996132
919.472848	0.996655
919.777906	0.996377
920.082925	0.998663
920.387904	0.998553
920.692843	0.997544
920.997743	0.998020
921.302603	0.999113
921.607423	0.998324
921.912204	0.997445
922.216946	0.999009
922.521647	0.998497
922.826310	0.998517
923.130932	1.000559
923.435516	0.999487
923.740059	0.999552
924.044564	1.000847
924.349028	0.999492
924.653454	1.001697
924.957840	0.999810
925.262186	1.000553
925.566493	1.000202
925.870761	0.999333
926.174989	0.999916
926.479178	1.001023
926.783328	1.000419
927.087438	1.000251
927.391509	1.000531
927.695541	0.999840
927.999533	1.001781
928.303486	1.001089
928.607400	1.002003
928.911275	1.001100
929.215110	1.000260
929.518906	1.001386
929.822663	1.002007
930.126381	1.002677
930.430060	1.000575
930.733699	1.001703
931.037299	1.001565
931.340861	1.000941
931.644383	1.000822
931.947866	1.000786
932.251309	1.001909
932.554714	1.000914
932.858080	1.001437
933.161407	0.999901
933.464694	1.000017
933.767943	1.001499
934.071153	1.000744
934.374323	1.001175
934.677455	1.001062
934.980548	1.000818
935.283602	1.001347
935.586617	1.000653
935.889593	1.001336
936.192530	1.001060
936.495428	1.001422
936.798287	1.000699
937.101108	1.001075
937.403890	0.999720
937.706632	1.001659
938.009336	1.001204
938.312002	0.999573
938.614628	1.000076
938.917216	0.999990
939.219765	1.000035
939.522275	1.000312
939.824747	0.999781
940.127179	1.001339
940.429573	1.001578
940.731929	0.999588
941.034246	1.000517
941.336524	0.999201
941.638763	0.999775
941.940964	0.999918
942.243126	1.000196
942.545250	1.001734
942.847335	1.000628
943.149381	1.000082
943.451389	1.000058
943.753359	1.000826
944.055290	1.001547
944.357182	1.001230
944.659036	1.000719
944.960851	1.000553
945.262628	1.001029
945.564367	1.000391
945.866067	1.000955
946.167729	1.000782
946.469352	1.000834
946.770937	0.998587
947.072484	1.000673
947.373992	1.000730
947.675462	1.000318
947.976893	0.999552
948.278286	1.001949
948.579641	1.002484
948.880958	1.001612
949.182236	1.000867
949.483476	1.001301
949.784678	1.001839
950.085841	1.000385
950.386967	1.001503
950.688054	1.001159
950.989103	1.000139
951.290114	0.999222
951.591087	1.001786
951.892021	1.000968
952.192917	1.001255
952.493776	1.000605
952.794596	1.000612
953.095378	0.999785
953.396122	0.998426
953.696828	1.000326
953.997496	1.000627
954.298126	1.002292
954.598718	1.000449
954.899272	1.000749
955.199788	0.999627
955.500266	1.001533
955.800706	1.000331
956.101108	1.000984
956.401472	1.003309
956.701798	1.000741
957.002087	1.001939
957.302337	1.001031
957.602550	1.001317
957.902724	1.001017
958.202861	1.001324
958.502960	1.000822
958.803022	1.002988
959.103045	1.002030
959.403031	1.003078
959.702979	1.001473
960.002889	1.001465
960.302762	1.001917
960.602596	1.001161
960.902393	1.001938
961.202153	1.001729
961.501875	1.003398
961.801559	1.002017
962.101205	1.001684
962.400814	1.003086
962.700385	1.002287
962.999918	1.002090
963.299414	1.001400
963.598873	1.002809
963.898293	1.002480
964.197677	1.001780
964.497022	1.001334
964.796331	1.002117
965.095601	1.002924
965.394835	1.002174
965.694030	1.003325
965.993189	1.002546
966.292309	1.002409
966.591393	1.000370
966.890439	1.002143
967.189447	1.001311
967.488419	1.001792
967.787353	1.001194
968.086249	1.001449
968.385108	1.001175
968.683930	1.002816
968.982714	1.002655
969.281462	1.001970
969.580172	1.001828
969.878844	1.003471
970.177480	1.002729
970.476078	1.002878
970.774639	1.002839
971.073162	1.001865
971.371649	1.002075
971.670098	1.001410
971.968510	1.001596
972.266885	1.001439
972.565223	1.002085
972.863524	1.001303
973.161788	1.001482
973.460014	1.004126
973.758204	1.001097
974.056356	1.002020
974.354471	1.002547
974.652550	1.001886
974.950591	1.002275
975.248595	1.001510
975.546563	1.004050
975.844493	1.003196
976.142386	1.001280
976.440243	1.002753
976.738062	1.002001
977.035845	1.001571
977.333590	1.002172
977.631299	1.002437
977.928971	1.001596
978.226606	1.002220
978.524204	1.001115
978.821765	1.002085
979.119290	1.003818
979.416777	1.002841
979.714228	1.001371
980.011642	1.002537
980.309020	1.000969
980.606360	1.002330
980.903664	1.002620
981.200931	1.001838
981.498162	1.002883
981.795356	1.000923
982.092513	1.001895
982.389633	1.002464
982.686717	1.001604
982.983764	1.000849
983.280775	1.002425
983.577749	1.002455
983.874686	1.000200
984.171587	1.001035
984.468451	1.001126
984.765279	1.002039
985.062070	1.003414
985.358824	1.001298
985.655543	1.002057
985.952224	1.002940
986.248869	1.002572
986.545478	1.003461
986.842050	1.002029
987.138586	1.002023
987.435086	1.001695
987.731549	1.002305
988.027975	1.003492
988.324366	1.002256
988.620719	1.002976
988.917037	1.001880
989.213318	1.003338
989.509563	1.002384
989.805772	1.002626
990.101944	1.003362
990.398080	1.003193
990.694180	1.003124
990.990244	1.002126
991.286271	1.002495
991.582262	1.003949
991.878217	1.002534
992.174136	1.003183
992.470019	1.003034
992.765865	1.003977
993.061676	1.002484
993.357450	1.003086
993.653188	1.003984
993.948890	1.002168
994.244556	1.002712
994.540186	1.001993
994.835780	1.002222
995.131337	1.003076
995.426859	1.001470
995.722345	1.003077
996.017795	1.001303
996.313208	1.001661
996.608586	1.001311
996.903928	1.002321
997.199234	1.003097
997.494504	1.002860
997.789738	1.002357
998.084936	1.002173
998.380099	1.002181
998.675225	1.002204
998.970316	1.002491
999.265371	1.002519
999.560390	1.001713
999.855373	1.001808
1000.150320	1.002502
1000.445232	1.003212
1000.740108	1.002852
1001.034948	1.002208
1001.329752	1.004474
1001.624521	1.002900
1001.919254	1.001673
1002.213951	1.002481
1002.508613	1.002275
1002.803239	1.001405
1003.097829	1.003378
1003.392384	1.001666
1003.686903	1.003869
1003.981386	1.002168
1004.275834	1.004137
1004.570246	1.001922
1004.864623	1.003189
1005.158964	1.002833
1005.453270	1.001657
1005.747540	1.002094
1006.041775	1.002736
1006.335974	1.002627
1006.630138	1.003622
1006.924266	1.001948
1007.218359	1.000941
1007.512416	1.003590
1007.806438	1.002031
1008.100425	1.004347
1008.394376	1.003081
1008.688292	1.002120
1008.982172	1.001769
1009.276017	1.003872
1009.569827	1.003197
1009.863602	1.001930
1010.157341	1.004034
1010.451045	1.003490
1010.744714	1.003623
1011.038347	1.003025
1011.331945	1.001855
1011.625508	1.002375
1011.919036	1.001794
1012.212528	1.003088
1012.505986	1.002637
1012.799408	1.003139
1013.092795	1.003110
1013.386147	1.002834
1013.679464	1.003065
1013.972745	1.003603
1014.265992	1.002898
1014.559204	1.001672
1014.852380	1.003248
1015.145521	1.003133
1015.438628	1.002952
1015.731699	1.003440
1016.024736	1.003301
1016.317737	1.002771
1016.610703	1.003975
1016.903635	1.002306
1017.196531	1.001878
1017.489393	1.001160
1017.782219	1.002260
1018.075011	1.002625
1018.367768	1.001475
1018.660490	1.003772
1018.953177	1.003772
1019.245829	1.003772
