Dividing Wavelength (nm)	Counts (n)	Blue Motor Position (mm): 34.400000	Red Motor Position (mm): 0.000000	
326.493990	0.999753
326.888308	0.999753
327.282561	0.999753
327.676750	1.000457
328.070874	1.001668
328.464933	1.000454
328.858929	0.999867
329.252859	1.000480
329.646726	1.000482
330.040528	1.000874
330.434265	1.000469
330.827938	1.000257
331.221547	1.000306
331.615091	1.001183
332.008571	1.000550
332.401986	1.001026
332.795338	0.999582
333.188625	1.000399
333.581847	1.000705
333.975006	1.001157
334.368100	1.001291
334.761129	1.000723
335.154095	1.001378
335.546996	1.000160
335.939833	0.998695
336.332606	1.000631
336.725315	0.998689
337.117960	1.001292
337.510540	0.998824
337.903056	1.001062
338.295508	1.000887
338.687896	0.999672
339.080220	1.000078
339.472480	0.999720
339.864676	1.000998
340.256807	0.998717
340.648875	1.000674
341.040879	1.000255
341.432818	1.000655
341.824694	0.998890
342.216506	1.001658
342.608253	1.000531
342.999937	1.000359
343.391557	0.999678
343.783113	1.001019
344.174605	1.000154
344.566033	0.998472
344.957397	1.001338
345.348697	0.999679
345.739934	0.999541
346.131106	0.999012
346.522215	0.999396
346.913260	1.000938
347.304241	0.999045
347.695159	1.001030
348.086012	0.999259
348.476802	0.999579
348.867528	0.999046
349.258191	1.000371
349.648789	1.000857
350.039324	0.999369
350.429796	0.998801
350.820203	0.999685
351.210548	0.999389
351.600828	1.000143
351.991045	0.999191
352.381198	1.000472
352.771288	0.999591
353.161314	0.999301
353.551276	0.999248
353.941175	0.998840
354.331010	0.999638
354.720782	0.998822
355.110490	0.999448
355.500135	0.999363
355.889717	0.998143
356.279235	0.998322
356.668689	0.998493
357.058080	0.998474
357.447408	0.997934
357.836672	0.998610
358.225873	0.999220
358.615010	0.998366
359.004084	0.997874
359.393095	0.999046
359.782043	0.998590
360.170927	0.999400
360.559748	0.999142
360.948505	0.999630
361.337199	0.999218
361.725830	1.000043
362.114398	0.998396
362.502903	0.997870
362.891344	0.996814
363.279722	0.998334
363.668037	0.998622
364.056289	0.997185
364.444478	0.999278
364.832603	0.997849
365.220665	0.998809
365.608665	0.997472
365.996601	0.997273
366.384474	0.996698
366.772284	0.998621
367.160031	0.996989
367.547715	0.996763
367.935336	0.995686
368.322893	0.995254
368.710388	0.992979
369.097820	0.992933
369.485189	0.989355
369.872495	0.987965
370.259738	0.985926
370.646918	0.982269
371.034035	0.980805
371.421090	0.978550
371.808081	0.972591
372.195010	0.971107
372.581875	0.964700
372.968678	0.960293
373.355418	0.956832
373.742096	0.949553
374.128710	0.946176
374.515262	0.940229
374.901751	0.934367
375.288177	0.931038
375.674540	0.923425
376.060841	0.917106
376.447079	0.910000
376.833254	0.902821
377.219367	0.899079
377.605417	0.887213
377.991404	0.884260
378.377329	0.878236
378.763191	0.871031
379.148991	0.863535
379.534727	0.855152
379.920402	0.847597
380.306013	0.842851
380.691563	0.829973
381.077049	0.824297
381.462474	0.820230
381.847835	0.808594
382.233134	0.803362
382.618371	0.804481
383.003545	0.786255
383.388657	0.784035
383.773706	0.777044
384.158693	0.772713
384.543618	0.766843
384.928480	0.759271
385.313280	0.748874
385.698017	0.747560
386.082692	0.737122
386.467305	0.735189
386.851856	0.729883
387.236344	0.724366
387.620770	0.719074
388.005133	0.712808
388.389435	0.707932
388.773674	0.705249
389.157851	0.697420
389.541965	0.695007
389.926018	0.702024
390.310008	0.687868
390.693936	0.684864
391.077802	0.677384
391.461606	0.678686
391.845348	0.669167
392.229027	0.667716
392.612645	0.665854
392.996200	0.653004
393.379694	0.645722
393.763125	0.636770
394.146494	0.641352
394.529801	0.631612
394.913047	0.624439
395.296230	0.628774
395.679351	0.620368
396.062410	0.617681
396.445408	0.620127
396.828343	0.615939
397.211217	0.610473
397.594028	0.623101
397.976778	0.613709
398.359466	0.610138
398.742092	0.606217
399.124656	0.617101
399.507158	0.605899
399.889598	0.603209
400.271977	0.594132
400.654294	0.598410
401.036549	0.597385
401.418742	0.601638
401.800874	0.587580
402.182944	0.584782
402.564952	0.576182
402.946898	0.578282
403.328783	0.579243
403.710606	0.590845
404.092367	0.565359
404.474067	0.571198
404.855705	0.569829
405.237282	0.579433
405.618797	0.566142
406.000250	0.562318
406.381642	0.553497
406.762972	0.559751
407.144240	0.559401
407.525447	0.560781
407.906593	0.553939
408.287677	0.551858
408.668700	0.561956
409.049661	0.558652
409.430560	0.555506
409.811399	0.566395
410.192176	0.551450
410.572891	0.561328
410.953545	0.552533
411.334138	0.568403
411.714669	0.564533
412.095139	0.579492
412.475547	0.568141
412.855894	0.574277
413.236180	0.577167
413.616405	0.586410
413.996568	0.582571
414.376670	0.592481
414.756711	0.601499
415.136691	0.604074
415.516609	0.601814
415.896466	0.604717
416.276262	0.607339
416.655997	0.615164
417.035670	0.606513
417.415283	0.606560
417.794834	0.617447
418.174324	0.628161
418.553753	0.641942
418.933121	0.635075
419.312428	0.639326
419.691674	0.651298
420.070859	0.650744
420.449983	0.664144
420.829045	0.665383
421.208047	0.679046
421.586988	0.684088
421.965867	0.691529
422.344686	0.694471
422.723444	0.709758
423.102141	0.727531
423.480777	0.720591
423.859352	0.741900
424.237866	0.739035
424.616319	0.748412
424.994712	0.752897
425.373044	0.766008
425.751314	0.771306
426.129524	0.786907
426.507673	0.788572
426.885762	0.793997
427.263789	0.806083
427.641756	0.816761
428.019662	0.822169
428.397508	0.830156
428.775292	0.840828
429.153016	0.845008
429.530679	0.855225
429.908282	0.860455
430.285824	0.868970
430.663305	0.871834
431.040726	0.884570
431.418086	0.889663
431.795385	0.894967
432.172624	0.901734
432.549802	0.907042
432.926920	0.912234
433.303977	0.916908
433.680974	0.923401
434.057910	0.927877
434.434786	0.932023
434.811601	0.937714
435.188355	0.940246
435.565050	0.945382
435.941683	0.949653
436.318257	0.951544
436.694770	0.956103
437.071222	0.959474
437.447614	0.962222
437.823946	0.967171
438.200218	0.968806
438.576429	0.971770
438.952580	0.974452
439.328670	0.975975
439.704700	0.977706
440.080670	0.980916
440.456580	0.981955
440.832429	0.983735
441.208218	0.985916
441.583947	0.986952
441.959616	0.987065
442.335224	0.989518
442.710773	0.990418
443.086261	0.991012
443.461689	0.991402
443.837057	0.992676
444.212365	0.994322
444.587612	0.993400
444.962800	0.994142
445.337927	0.995628
445.712995	0.995120
446.088002	0.995101
446.462949	0.995358
446.837837	0.997392
447.212664	0.995652
447.587431	0.996634
447.962139	0.996685
448.336786	0.995799
448.711374	0.996728
449.085901	0.996870
449.460369	0.997595
449.834776	0.997556
450.209124	0.997083
450.583412	0.997345
450.957640	0.997205
451.331808	0.997959
451.705917	0.996643
452.079965	0.998145
452.453954	0.998361
452.827883	0.998277
453.201752	0.997904
453.575562	0.997078
453.949311	0.998617
454.323001	0.998626
454.696632	0.998230
455.070202	0.998196
455.443713	0.998628
455.817164	0.997866
456.190556	0.998319
456.563888	0.998632
456.937160	0.998706
457.310373	0.998135
457.683526	0.998760
458.056619	0.997540
458.429653	0.998663
458.802628	0.998655
459.175542	0.998553
459.548398	0.998846
459.921194	0.998725
460.293930	0.999179
460.666607	0.998555
461.039224	0.998111
461.411782	0.998439
461.784280	0.998127
462.156719	0.997969
462.529099	0.998441
462.901419	0.998547
463.273680	0.997668
463.645882	0.997808
464.018024	0.998911
464.390106	0.998806
464.762130	0.998331
465.134094	0.998117
465.505999	0.998097
465.877845	0.998151
466.249631	0.997650
466.621358	0.996609
466.993026	0.997921
467.364634	0.998100
467.736184	0.998113
468.107674	0.997910
468.479105	0.998200
468.850477	0.999051
469.221790	0.998255
469.593043	0.998021
469.964238	0.997951
470.335373	0.997929
470.706449	0.998075
471.077467	0.997594
471.448425	0.998069
471.819324	0.998011
472.190164	0.997888
472.560945	0.997589
472.931667	0.997875
473.302330	0.997885
473.672934	0.998460
474.043479	0.997990
474.413965	0.998154
474.784393	0.998172
475.154761	0.997276
475.525070	0.997424
475.895321	0.997886
476.265513	0.998070
476.635645	0.998734
477.005719	0.997364
477.375734	0.997143
477.745691	0.997115
478.115588	0.997765
478.485427	0.997704
478.855207	0.998128
479.224928	0.997309
479.594591	0.997300
479.964194	0.997208
480.333739	0.997099
480.703226	0.996621
481.072653	0.997311
481.442022	0.997915
481.811333	0.997330
482.180584	0.997693
482.549777	0.997870
482.918912	0.997056
483.287988	0.996755
483.657005	0.997184
484.025964	0.997195
484.394864	0.997363
484.763706	0.997340
485.132489	0.997655
485.501213	0.998070
485.869879	0.997324
486.238487	0.996861
486.607036	0.998199
486.975527	0.997596
487.343959	0.996559
487.712333	0.997580
488.080648	0.997332
488.448905	0.997578
488.817104	0.997466
489.185244	0.997555
489.553326	0.997546
489.921350	0.997898
490.289315	0.997613
490.657222	0.997206
491.025070	0.998059
491.392861	0.997891
491.760593	0.997656
492.128267	0.997681
492.495883	0.997076
492.863440	0.997582
493.230939	0.997770
493.598380	0.998341
493.965763	0.998006
494.333088	0.996909
494.700354	0.997870
495.067563	0.997869
495.434713	0.998528
495.801805	0.997220
496.168839	0.997893
496.535815	0.998013
496.902733	0.997805
497.269593	0.997648
497.636395	0.996741
498.003139	0.997084
498.369825	0.998677
498.736453	0.997500
499.103023	0.997973
499.469535	0.997987
499.835989	0.997747
500.202385	0.997445
500.568723	0.997558
500.935003	0.997558
501.301226	0.997835
501.667390	0.997508
502.033497	0.997873
502.399546	0.997511
502.765537	0.997642
503.131470	0.997923
503.497345	0.998159
503.863163	0.997753
504.228923	0.997116
504.594625	0.997446
504.960269	0.998190
505.325856	0.998277
505.691385	0.997679
506.056856	0.998100
506.422270	0.997740
506.787625	0.998270
507.152924	0.997743
507.518164	0.997133
507.883347	0.997517
508.248472	0.997935
508.613540	0.996727
508.978550	0.997506
509.343503	0.996983
509.708398	0.998213
510.073236	0.998265
510.438016	0.997314
510.802738	0.996839
511.167403	0.996633
511.532010	0.997731
511.896561	0.997595
512.261053	0.997657
512.625488	0.997625
512.989866	0.997532
513.354186	0.996987
513.718449	0.997846
514.082655	0.997311
514.446803	0.997159
514.810894	0.997638
515.174927	0.997624
515.538904	0.998037
515.902822	0.997870
516.266684	0.997757
516.630488	0.997844
516.994235	0.997816
517.357925	0.998303
517.721558	0.997577
518.085133	0.997211
518.448651	0.997801
518.812112	0.998429
519.175516	0.997386
519.538863	0.997056
519.902152	0.997743
520.265385	0.997572
520.628560	0.997322
520.991678	0.997455
521.354739	0.998414
521.717743	0.997778
522.080690	0.996871
522.443580	0.998088
522.806413	0.997346
523.169189	0.998394
523.531908	0.997246
523.894569	0.997583
524.257174	0.997390
524.619722	0.997692
524.982213	0.997876
525.344647	0.996766
525.707025	0.997050
526.069345	0.996833
526.431608	0.997943
526.793815	0.997327
527.155964	0.997469
527.518057	0.997449
527.880093	0.997563
528.242072	0.997188
528.603995	0.997359
528.965860	0.997807
529.327669	0.997653
529.689421	0.997744
530.051117	0.997292
530.412755	0.998162
530.774337	0.997628
531.135862	0.998392
531.497331	0.997223
531.858743	0.997834
532.220098	0.996468
532.581396	0.996833
532.942638	0.997652
533.303824	0.998162
533.664953	0.997548
534.026025	0.998303
534.387040	0.997148
534.747999	0.997349
535.108902	0.997214
535.469748	0.998589
535.830537	0.997545
536.191270	0.997769
536.551947	0.997538
536.912567	0.997851
537.273131	0.997880
537.633638	0.997735
537.994089	0.997423
538.354483	0.998007
538.714821	0.996824
539.075103	0.997656
539.435328	0.998107
539.795497	0.997852
540.155609	0.997935
540.515665	0.998268
540.875665	0.996942
541.235609	0.997894
541.595496	0.997566
541.955328	0.997725
542.315102	0.998020
542.674821	0.998138
543.034483	0.997790
543.394090	0.997167
543.753640	0.998073
544.113134	0.997488
544.472571	0.998297
544.831953	0.997834
545.191278	0.998283
545.550548	0.997839
545.909761	0.997343
546.268918	0.998781
546.628019	0.997526
546.987064	0.997672
547.346053	0.997340
547.704986	0.997404
548.063863	0.997617
548.422684	0.997882
548.781449	0.997233
549.140158	0.998416
549.498811	0.997400
549.857408	0.997321
550.215949	0.997171
550.574434	0.996953
550.932864	0.998375
551.291237	0.997781
551.649555	0.998234
552.007817	0.998149
552.366022	0.998150
552.724173	0.998602
553.082267	0.998048
553.440305	0.997335
553.798288	0.997114
554.156215	0.997904
554.514086	0.997866
554.871902	0.998453
555.229661	0.997047
555.587365	0.997958
555.945014	0.997649
556.302606	0.997114
556.660143	0.998524
557.017625	0.997972
557.375050	0.997531
557.732421	0.997401
558.089735	0.997360
558.446994	0.997331
558.804197	0.998109
559.161345	0.997197
559.518437	0.997663
559.875474	0.998549
560.232455	0.997731
560.589381	0.997832
560.946251	0.997656
561.303065	0.998110
561.659825	0.997353
562.016528	0.998185
562.373177	0.997580
562.729770	0.997861
563.086307	0.997340
563.442789	0.997885
563.799216	0.997118
564.155587	0.997652
564.511904	0.998114
564.868164	0.996598
565.224370	0.997583
565.580520	0.997850
565.936615	0.997791
566.292654	0.997536
566.648638	0.998263
567.004567	0.997538
567.360441	0.998613
567.716260	0.997760
568.072023	0.997262
568.427732	0.998408
568.783385	0.998000
569.138982	0.998472
569.494525	0.997840
569.850013	0.997950
570.205445	0.998301
570.560823	0.998005
570.916145	0.997822
571.271412	0.997906
571.626625	0.997771
571.981782	0.997738
572.336884	0.997631
572.691931	0.998276
573.046923	0.998863
573.401860	0.997923
573.756743	0.997726
574.111570	0.997709
574.466342	0.998300
574.821059	0.997951
575.175722	0.998470
575.530330	0.998109
575.884882	0.997608
576.239380	0.998606
576.593823	0.998093
576.948211	0.998164
577.302544	0.997914
577.656823	0.998562
578.011047	0.997492
578.365216	0.998463
578.719330	0.997832
579.073389	0.997575
579.427394	0.997812
579.781344	0.998633
580.135239	0.996766
580.489080	0.997922
580.842866	0.998191
581.196597	0.997955
581.550273	0.997218
581.903895	0.998200
582.257463	0.997425
582.610975	0.997824
582.964434	0.998174
583.317837	0.997986
583.671186	0.998382
584.024481	0.997842
584.377721	0.997178
584.730906	0.997554
585.084037	0.999104
585.437113	0.998963
585.790135	0.998230
586.143103	0.997960
586.496016	0.997822
586.848874	0.997689
587.201679	0.998318
587.554428	0.997920
587.907124	0.998456
588.259765	0.998735
588.612352	0.998684
588.964884	0.998767
589.317362	0.998512
589.669786	0.997958
590.022155	0.998196
590.374470	0.997942
590.726731	0.997959
591.078937	0.998270
591.431090	0.998681
591.783188	0.997914
592.135232	0.998311
592.487222	0.998910
592.839157	0.998679
593.191038	0.998049
593.542866	0.998383
593.894639	0.997218
594.246358	0.998696
594.598022	0.997982
594.949633	0.998335
595.301190	0.998056
595.652692	0.997973
596.004141	0.997647
596.355535	0.998314
596.706876	0.998381
597.058162	0.998031
597.409395	0.998514
597.760573	0.998737
598.111698	0.997906
598.462768	0.997194
598.813785	0.997181
599.164748	0.998274
599.515657	0.997743
599.866511	0.998129
600.217312	0.999269
600.568060	0.998028
600.918753	0.998907
601.269392	0.998482
601.619978	0.997885
601.970510	0.998689
602.320988	0.998321
602.671412	0.998324
603.021783	0.998265
603.372100	0.998515
603.722363	0.998370
604.072572	0.997959
604.422728	0.998116
604.772830	0.997891
605.122878	0.998660
605.472872	0.998312
605.822813	0.997924
606.172701	0.998370
606.522534	0.998727
606.872314	0.998757
607.222041	0.997793
607.571714	0.998035
607.921333	0.998437
608.270899	0.997576
608.620411	0.998523
608.969870	0.998556
609.319276	0.998761
609.668627	0.999000
610.017926	0.998214
610.367171	0.998697
610.716362	0.998111
611.065500	0.998157
611.414585	0.998444
611.763616	0.997737
612.112594	0.998423
612.461518	0.997759
612.810389	0.998459
613.159207	0.997668
613.507971	0.997472
613.856682	0.999486
614.205340	0.998022
614.553945	0.998384
614.902496	0.998473
615.250994	0.998374
615.599439	0.998178
615.947830	0.998085
616.296169	0.998007
616.644454	0.998369
616.992686	0.998139
617.340864	0.999002
617.688990	0.997430
618.037063	0.998214
618.385082	0.997102
618.733048	0.997714
619.080961	0.997779
619.428821	0.998233
619.776628	0.997161
620.124382	0.998802
620.472083	0.998536
620.819731	0.999308
621.167326	0.997732
621.514868	0.998822
621.862357	0.998240
622.209793	0.998194
622.557176	0.998237
622.904506	0.998205
623.251783	0.998100
623.599007	0.998259
623.946179	0.997938
624.293297	0.998912
624.640363	0.998828
624.987376	0.998091
625.334336	0.998052
625.681243	0.998204
626.028097	0.998778
626.374899	0.998960
626.721647	0.998696
627.068343	0.998152
627.414987	0.998105
627.761577	0.998057
628.108115	0.997524
628.454600	0.998193
628.801032	0.998533
629.147412	0.997897
629.493739	0.999457
629.840014	0.998590
630.186236	0.998207
630.532405	0.998388
630.878521	0.998061
631.224585	0.998366
631.570597	0.998024
631.916556	0.998334
632.262462	0.997677
632.608316	0.998372
632.954117	0.997447
633.299866	0.998279
633.645562	0.998396
633.991206	0.998847
634.336797	0.997940
634.682336	0.998668
635.027823	0.998859
635.373257	0.998410
635.718639	0.998709
636.063968	0.997506
636.409245	0.997701
636.754470	0.998065
637.099642	0.998958
637.444762	0.998520
637.789829	0.997382
638.134845	0.998177
638.479808	0.997881
638.824719	0.999003
639.169577	0.998436
639.514383	0.998347
639.859137	0.998749
640.203839	0.997772
640.548489	0.997777
640.893086	0.998291
641.237632	0.998356
641.582125	0.997875
641.926566	0.999564
642.270955	0.998671
642.615292	0.997846
642.959576	0.997598
643.303809	0.998614
643.647990	0.998297
643.992118	0.998552
644.336195	0.997683
644.680219	0.998135
645.024192	0.998457
645.368112	0.997354
645.711981	0.998792
646.055797	0.998644
646.399562	0.998162
646.743274	0.998341
647.086935	0.997936
647.430544	0.997992
647.774101	0.997942
648.117606	0.998982
648.461059	0.998387
648.804460	0.998212
649.147810	0.998220
649.491108	0.998089
649.834354	0.998081
650.177548	0.997786
650.520690	0.998105
650.863781	0.997553
651.206820	0.998664
651.549807	0.998585
651.892742	0.998551
652.235626	0.998656
652.578458	0.998320
652.921238	0.998153
653.263967	0.998919
653.606644	0.997281
653.949269	0.998822
654.291843	0.997958
654.634365	0.998788
654.976836	0.997513
655.319255	0.998455
655.661622	0.998635
656.003938	0.998225
656.346203	0.997100
656.688416	0.998903
657.030577	0.997568
657.372687	0.997694
657.714746	0.998442
658.056753	0.998054
658.398708	0.997478
658.740612	0.998169
659.082465	0.997715
659.424266	0.998131
659.766016	0.997500
660.107715	0.998687
660.449362	0.997846
660.790958	0.998241
661.132503	0.998819
661.473996	0.997840
661.815438	0.997798
662.156829	0.998692
662.498168	0.999050
662.839456	0.997727
663.180693	0.998045
663.521879	0.997785
663.863013	0.998919
664.204097	0.997525
664.545129	0.998206
664.886110	0.998089
665.227040	0.998429
665.567918	0.997322
665.908746	0.997576
666.249522	0.997594
666.590248	0.997282
666.930922	0.997641
667.271545	0.998206
667.612118	0.997321
667.952639	0.998043
668.293109	0.998044
668.633528	0.997613
668.973896	0.998987
669.314213	0.997987
669.654480	0.997915
669.994695	0.997163
670.334859	0.998021
670.674973	0.997683
671.015035	0.997571
671.355047	0.997980
671.695008	0.997601
672.034918	0.997103
672.374777	0.998084
672.714585	0.997097
673.054342	0.998026
673.394049	0.997074
673.733705	0.998241
674.073310	0.997695
674.412864	0.997861
674.752368	0.996761
675.091820	0.999220
675.431223	0.997816
675.770574	0.996814
676.109875	0.997948
676.449125	0.997944
676.788324	0.997459
677.127473	0.998099
677.466571	0.997377
677.805619	0.997319
678.144616	0.998271
678.483562	0.997356
678.822458	0.998065
679.161303	0.997120
679.500098	0.998249
679.838842	0.998796
680.177535	0.997473
680.516179	0.996921
680.854771	0.996628
681.193314	0.996643
681.531805	0.997135
681.870247	0.997352
682.208638	0.997604
682.546978	0.996823
682.885268	0.996755
683.223508	0.997606
683.561697	0.997126
683.899836	0.997530
684.237925	0.997211
684.575963	0.997873
684.913951	0.997898
685.251889	0.997242
685.589776	0.996798
685.927614	0.997375
686.265401	0.997436
686.603137	0.996491
686.940824	0.997338
687.278460	0.997981
687.616046	0.996885
687.953582	0.997075
688.291068	0.998008
688.628504	0.997119
688.965889	0.997684
689.303224	0.995636
689.640510	0.997432
689.977745	0.996938
690.314930	0.997084
690.652065	0.997561
690.989150	0.996420
691.326185	0.997314
691.663170	0.997492
692.000105	0.997788
692.336990	0.996923
692.673825	0.997156
693.010610	0.997300
693.347345	0.997446
693.684030	0.997530
694.020665	0.997299
694.357251	0.997746
694.693786	0.998034
695.030272	0.996890
695.366707	0.996492
695.703093	0.997431
696.039429	0.996135
696.375716	0.997948
696.711952	0.997268
697.048139	0.997718
697.384276	0.996882
697.720363	0.996995
698.056400	0.995558
698.392388	0.996116
698.728326	0.997444
699.064214	0.998530
699.400053	0.996175
699.735842	0.997577
700.071581	0.997525
700.407270	0.997350
700.742910	0.997742
701.078501	0.996585
701.414042	0.997236
701.749533	0.997250
702.084974	0.998089
702.420366	0.997159
702.755709	0.996918
703.091002	0.997481
703.426246	0.998048
703.761440	0.997244
704.096584	0.997485
704.431679	0.997056
704.766725	0.997803
705.101721	0.997700
705.436668	0.997623
705.771565	0.996858
706.106413	0.996543
706.441212	0.997331
706.775961	0.997241
707.110661	0.997329
707.445311	0.996818
707.779913	0.998055
708.114465	0.998455
708.448967	0.997534
708.783421	0.998141
709.117825	0.997442
709.452180	0.998000
709.786485	0.997257
710.120742	0.997505
710.454949	0.996996
710.789107	0.997486
711.123216	0.995724
711.457275	0.996532
711.791286	0.996948
712.125247	0.998099
712.459159	0.997145
712.793023	0.996885
713.126837	0.997573
713.460602	0.996239
713.794318	0.996379
714.127985	0.995882
714.461602	0.996987
714.795171	0.996897
715.128691	0.996723
715.462162	0.997334
715.795584	0.996351
716.128957	0.997164
716.462281	0.997964
716.795556	0.997349
717.128782	0.998369
717.461960	0.997044
717.795088	0.997012
718.128167	0.997541
718.461198	0.997236
718.794180	0.998544
719.127113	0.997316
719.459997	0.996673
719.792833	0.996820
720.125619	0.996376
720.458357	0.996587
720.791046	0.997630
721.123686	0.996871
721.456278	0.997077
721.788821	0.996260
722.121315	0.998417
722.453761	0.998061
722.786158	0.997305
723.118506	0.997165
723.450805	0.996958
723.783056	0.997703
724.115259	0.996980
724.447412	0.997827
724.779518	0.997675
725.111574	0.996755
725.443582	0.998196
725.775542	0.997729
726.107453	0.997472
726.439315	0.998075
726.771129	0.997926
727.102895	0.997272
727.434612	0.997448
727.766281	0.998399
728.097901	0.996685
728.429473	0.997720
728.760996	0.997175
729.092471	0.996776
729.423897	0.998052
729.755276	0.996162
730.086606	0.997213
730.417887	0.996847
730.749120	0.997157
731.080305	0.996594
731.411442	0.996943
731.742530	0.995817
732.073570	0.996334
732.404562	0.996969
732.735506	0.996772
733.066401	0.995866
733.397249	0.996845
733.728048	0.996990
734.058798	0.997361
734.389501	0.997007
734.720156	0.997458
735.050762	0.998030
735.381320	0.997234
735.711831	0.996669
736.042293	0.996779
736.372707	0.998042
736.703073	0.996121
737.033391	0.996883
737.363661	0.997924
737.693883	0.997526
738.024056	0.996054
738.354182	0.997337
738.684260	0.996736
739.014290	0.997519
739.344272	0.996639
739.674207	0.997333
740.004093	0.996809
740.333931	0.997612
740.663722	0.996664
740.993464	0.997655
741.323159	0.997116
741.652806	0.997377
741.982405	0.996902
742.311956	0.997133
742.641460	0.997545
742.970915	0.997121
743.300323	0.996733
743.629683	0.996999
743.958996	0.998541
744.288260	0.996821
744.617477	0.997535
744.946647	0.997645
745.275768	0.998230
745.604842	0.996784
745.933869	0.998100
746.262847	0.997973
746.591778	0.995720
746.920662	0.998017
747.249498	0.998071
747.578286	0.998567
747.907027	0.997599
748.235720	0.997977
748.564365	0.998159
748.892963	0.997183
749.221514	0.997583
749.550017	0.997205
749.878473	0.997502
750.206881	0.999057
750.535242	0.997435
750.863555	0.996601
751.191821	0.997425
751.520039	0.998126
751.848210	0.995206
752.176334	0.996442
752.504411	0.997003
752.832440	0.996804
753.160421	0.997919
753.488356	0.998160
753.816243	0.996879
754.144082	0.996880
754.471875	0.997432
754.799620	0.997898
755.127318	0.997240
755.454969	0.998271
755.782572	0.999483
756.110129	0.996431
756.437638	0.999065
756.765100	0.998039
757.092515	0.997527
757.419882	0.997483
757.747203	0.997107
758.074477	0.998967
758.401703	0.997596
758.728882	0.997370
759.056014	0.997370
759.383099	0.997154
759.710138	0.996812
760.037129	0.998020
760.364073	0.998085
760.690970	0.997793
761.017820	0.996485
761.344623	0.997557
761.671379	0.998134
761.998088	0.996634
762.324751	0.997004
762.651366	0.996843
762.977935	0.995155
763.304456	0.995759
763.630931	0.994819
763.957359	0.994993
764.283740	0.995060
764.610074	0.995489
764.936362	0.996285
765.262602	0.997181
765.588796	0.997208
765.914943	0.996988
766.241044	0.997022
766.567097	0.997892
766.893104	0.998286
767.219064	0.996992
767.544978	0.997401
767.870845	0.997984
768.196665	0.997256
768.522438	0.998031
768.848165	0.998129
769.173846	0.998166
769.499479	0.997978
769.825066	0.999121
770.150607	0.998348
770.476101	0.997820
770.801548	0.998909
771.126949	0.998427
771.452303	0.998360
771.777611	0.997730
772.102872	0.997927
772.428087	0.997370
772.753256	0.998831
773.078378	0.997652
773.403453	0.997102
773.728482	0.999683
774.053465	0.998090
774.378401	0.998049
774.703291	0.998243
775.028135	0.998653
775.352932	0.997357
775.677683	0.998666
776.002388	0.999172
776.327046	0.996800
776.651658	0.999638
776.976224	0.997937
777.300743	0.998734
777.625216	0.998280
777.949643	0.999605
778.274024	0.998050
778.598359	0.999163
778.922647	0.998449
779.246889	0.999299
779.571086	0.999306
779.895236	0.998122
780.219339	0.999943
780.543397	0.997868
780.867409	0.999106
781.191374	0.998221
781.515294	0.998317
781.839167	0.998697
782.162995	0.998522
782.486776	0.998041
782.810511	0.997974
783.134201	0.999454
783.457844	0.999000
783.781441	0.998291
784.104993	0.997981
784.428498	0.999208
784.751958	0.999961
785.075372	0.999631
785.398739	0.998184
785.722061	0.997607
786.045337	0.998958
786.368568	0.998955
786.691752	0.997836
787.014891	0.997862
787.337983	0.997497
787.661030	0.997705
787.984031	0.998508
788.306987	0.997588
788.629897	0.996845
788.952760	0.997704
789.275579	0.998653
789.598351	0.999158
789.921078	0.999341
790.243759	0.998032
790.566395	0.997161
790.888984	0.998806
791.211529	0.998825
791.534027	0.998973
791.856480	0.998492
792.178888	0.998187
792.501249	0.998301
792.823566	0.999926
793.145836	0.998194
793.468062	0.999421
793.790241	0.998879
794.112375	0.997593
794.434464	0.997554
794.756507	0.998633
795.078505	0.998450
795.400457	0.998617
795.722364	0.998808
796.044226	0.997983
796.366042	0.998667
796.687812	0.996632
797.009538	0.998174
797.331218	0.999107
797.652852	0.999748
797.974442	0.998360
798.295986	0.997956
798.617484	0.997727
798.938938	0.999019
799.260346	0.998390
799.581709	0.998313
799.903026	0.999231
800.224299	0.997882
800.545526	0.998966
800.866708	0.997752
801.187845	0.998020
801.508936	0.999106
801.829983	0.999171
802.150984	0.999389
802.471940	0.998164
802.792851	0.998411
803.113717	0.999613
803.434538	0.999436
803.755314	0.999265
804.076045	0.999755
804.396731	0.998177
804.717372	0.997126
805.037967	0.999080
805.358518	0.999206
805.679024	0.999174
805.999485	0.998456
806.319901	0.998349
806.640272	0.999455
806.960598	0.999028
807.280879	0.998150
807.601115	0.999547
807.921306	0.998697
808.241453	0.998872
808.561554	0.999583
808.881611	0.998920
809.201623	0.998006
809.521590	0.999245
809.841513	0.999923
810.161390	0.997827
810.481223	0.998916
810.801011	0.998390
811.120755	0.999749
811.440453	0.997985
811.760107	0.999108
812.079716	0.998696
812.399281	0.999134
812.718801	0.998000
813.038276	0.997390
813.357707	0.997628
813.677093	0.999450
813.996434	0.998808
814.315731	1.000010
814.634983	0.999553
814.954191	0.998932
815.273354	0.997889
815.592473	0.998252
815.911547	0.998695
816.230577	0.998644
816.549562	0.998679
816.868502	0.998060
817.187399	0.999205
817.506250	0.998353
817.825058	0.997168
818.143821	0.998916
818.462539	0.999157
818.781213	0.998923
819.099843	0.999027
819.418429	0.996928
819.736970	0.997063
820.055466	0.996716
820.373919	0.996438
820.692327	0.996080
821.010691	0.996099
821.329011	0.993720
821.647286	0.991980
821.965517	0.990765
822.283704	0.990334
822.601847	0.988790
822.919945	0.989266
823.237999	0.990062
823.556010	0.991141
823.873976	0.991234
824.191897	0.993356
824.509775	0.993283
824.827609	0.993658
825.145398	0.994847
825.463144	0.994011
825.780845	0.993810
826.098502	0.994130
826.416116	0.994386
826.733685	0.993639
827.051210	0.991982
827.368692	0.992892
827.686129	0.993757
828.003522	0.994997
828.320872	0.994988
828.638177	0.995270
828.955439	0.996797
829.272656	0.997062
829.589830	0.997401
829.906960	0.997658
830.224046	0.997333
830.541088	0.996456
830.858086	0.997178
831.175041	0.998639
831.491952	0.997933
831.808819	0.997089
832.125642	0.998744
832.442421	0.997669
832.759157	0.998078
833.075849	0.996412
833.392497	0.995223
833.709101	0.994858
834.025662	0.995473
834.342179	0.994720
834.658653	0.996285
834.975083	0.996539
835.291469	0.997610
835.607811	0.996993
835.924110	0.997487
836.240366	0.999042
836.556578	0.998050
836.872746	0.998642
837.188871	0.997919
837.504952	0.997792
837.820990	0.998754
838.136984	0.998965
838.452935	0.999252
838.768842	1.000491
839.084706	0.999265
839.400526	0.998220
839.716303	0.996455
840.032037	0.997214
840.347727	0.997247
840.663373	0.997408
840.978977	0.997977
841.294537	0.999031
841.610054	0.998952
841.925527	0.998934
842.240957	0.998391
842.556344	0.999064
842.871687	0.998949
843.186987	0.998375
843.502244	0.998892
843.817458	0.999536
844.132629	0.998444
844.447756	0.999240
844.762840	0.998585
845.077881	1.001354
845.392879	0.998709
845.707833	0.999256
846.022745	0.999068
846.337613	0.999397
846.652438	0.999409
846.967221	0.999400
847.281960	0.999848
847.596656	0.999547
847.911309	0.998976
848.225919	0.998446
848.540485	0.999888
848.855009	1.000574
849.169490	0.999132
849.483928	0.999644
849.798323	0.998633
850.112675	1.000700
850.426984	1.000136
850.741251	0.999907
851.055474	0.999076
851.369654	0.999428
851.683792	0.999283
851.997887	0.998938
852.311938	0.999665
852.625947	0.998962
852.939914	0.998891
853.253837	1.000529
853.567718	1.000412
853.881555	0.998403
854.195350	0.999558
854.509103	0.999049
854.822812	1.000490
855.136479	0.999539
855.450103	0.999274
855.763685	1.000137
856.077224	0.999754
856.390720	1.000529
856.704173	1.000574
857.017584	1.000551
857.330953	1.000326
857.644278	0.999552
857.957561	0.998803
858.270802	1.000128
858.584000	0.999101
858.897155	0.999001
859.210268	0.999780
859.523339	1.000856
859.836367	0.999526
860.149352	0.999504
860.462295	0.999539
860.775195	1.000202
861.088054	0.998588
861.400869	1.000052
861.713642	0.998364
862.026373	0.999678
862.339062	1.001196
862.651708	0.999424
862.964312	0.999982
863.276873	1.000061
863.589392	1.000016
863.901869	1.000435
864.214303	1.000101
864.526696	0.999508
864.839045	0.999993
865.151353	0.999020
865.463619	0.999553
865.775842	0.999874
866.088023	0.999454
866.400162	1.000160
866.712258	1.000287
867.024313	1.000441
867.336325	0.999687
867.648296	1.000494
867.960224	1.000184
868.272110	1.000881
868.583954	0.999597
868.895755	1.000801
869.207515	0.999801
869.519233	1.000371
869.830909	0.998044
870.142542	0.998567
870.454134	0.998534
870.765684	0.999332
871.077191	0.999128
871.388657	1.000947
871.700081	0.999579
872.011463	0.999997
872.322803	0.998573
872.634101	0.997951
872.945357	0.999255
873.256571	0.999073
873.567744	0.999196
873.878874	0.999622
874.189963	0.998862
874.501010	0.999682
874.812015	0.999731
875.122979	0.999677
875.433900	0.999477
875.744780	0.999589
876.055618	0.997813
876.366415	0.998620
876.677169	0.998111
876.987882	0.998601
877.298554	1.000004
877.609183	0.999091
877.919771	0.999683
878.230317	0.998102
878.540822	0.997930
878.851285	0.998480
879.161707	0.997494
879.472087	0.999301
879.782425	0.997050
880.092722	0.997041
880.402977	0.994503
880.713191	0.993300
881.023363	0.991863
881.333494	0.989465
881.643583	0.992155
881.953631	0.991079
882.263637	0.990176
882.573602	0.989828
882.883526	0.991553
883.193408	0.993651
883.503248	0.992886
883.813048	0.993184
884.122806	0.995158
884.432522	0.994838
884.742197	0.996539
885.051831	0.995942
885.361424	0.998206
885.670975	0.998364
885.980485	0.997587
886.289954	0.997819
886.599382	0.998322
886.908768	0.999095
887.218113	0.997680
887.527417	0.999661
887.836680	0.998249
888.145901	0.999436
888.455082	0.999863
888.764221	0.999280
889.073319	0.998979
889.382376	1.000099
889.691392	0.998178
890.000366	0.999906
890.309300	0.998387
890.618193	0.999298
890.927044	0.999476
891.235855	0.999171
891.544625	0.998487
891.853353	0.998076
892.162041	0.998416
892.470687	0.999798
892.779293	0.997818
893.087858	0.997349
893.396381	0.998260
893.704864	0.997076
894.013306	0.997074
894.321707	0.996655
894.630068	0.995457
894.938387	0.995464
895.246665	0.994376
895.554903	0.994692
895.863100	0.996212
896.171256	0.997093
896.479371	0.996678
896.787446	0.997470
897.095480	0.998491
897.403473	0.998305
897.711425	0.997989
898.019336	0.998946
898.327207	0.998116
898.635038	0.998074
898.942827	0.999344
899.250576	0.998193
899.558284	0.999335
899.865952	0.997002
900.173579	0.998859
900.481165	0.999670
900.788711	0.998885
901.096216	0.999432
901.403681	0.999332
901.711105	0.998663
902.018489	0.998689
902.325832	0.999054
902.633135	0.998477
902.940397	0.999506
903.247619	0.998762
903.554800	0.997413
903.861941	0.996809
904.169041	0.995152
904.476101	0.995177
904.783121	0.993728
905.090100	0.994956
905.397039	0.994623
905.703938	0.995114
906.010796	0.997245
906.317614	0.996639
906.624391	0.996983
906.931129	0.998706
907.237826	0.998017
907.544483	0.997907
907.851099	0.998988
908.157675	0.998515
908.464211	0.999344
908.770707	0.997899
909.077163	1.000006
909.383578	0.998630
909.689954	0.997614
909.996289	1.000626
910.302584	0.999167
910.608839	1.001058
910.915054	0.998909
911.221229	1.000473
911.527363	0.998347
911.833458	0.999149
912.139513	1.000055
912.445527	1.000332
912.751502	0.999708
913.057436	0.998825
913.363331	1.000582
913.669186	0.999661
913.975000	0.999265
914.280775	0.999348
914.586510	0.999106
914.892205	0.996714
915.197859	0.997392
915.503475	0.996527
915.809050	0.995463
916.114585	0.993499
916.420081	0.994734
916.725536	0.994746
917.030952	0.995084
917.336328	0.994819
917.641665	0.994331
917.946961	0.995431
918.252218	0.997046
918.557435	0.997465
918.862612	0.998072
919.167750	0.998835
919.472848	0.999019
919.777906	0.999128
920.082925	0.998936
920.387904	0.998358
920.692843	0.997911
920.997743	0.997756
921.302603	0.998848
921.607423	0.998216
921.912204	0.998693
922.216946	0.999198
922.521647	1.000098
922.826310	0.998390
923.130932	0.998500
923.435516	1.000623
923.740059	0.999589
924.044564	0.998630
924.349028	0.999170
924.653454	1.000174
924.957840	1.000166
925.262186	1.000209
925.566493	0.999580
925.870761	0.999852
926.174989	0.999570
926.479178	1.000300
926.783328	0.999588
927.087438	0.999523
927.391509	0.999151
927.695541	1.000685
927.999533	1.000792
928.303486	1.000186
928.607400	1.000622
928.911275	1.000557
929.215110	1.000697
929.518906	1.000045
929.822663	1.002012
930.126381	1.000877
930.430060	0.999503
930.733699	0.999095
931.037299	1.000517
931.340861	1.001329
931.644383	0.999495
931.947866	0.999452
932.251309	1.000748
932.554714	0.999278
932.858080	1.000474
933.161407	0.999576
933.464694	1.000649
933.767943	1.000751
934.071153	0.999865
934.374323	1.001190
934.677455	1.000516
934.980548	0.998599
935.283602	1.000637
935.586617	0.999636
935.889593	1.001370
936.192530	0.999550
936.495428	0.999580
936.798287	0.998536
937.101108	0.999771
937.403890	1.000053
937.706632	1.001464
938.009336	0.998339
938.312002	0.999010
938.614628	0.999861
938.917216	0.999704
939.219765	0.998738
939.522275	1.000582
939.824747	0.999293
940.127179	1.000453
940.429573	1.001165
940.731929	0.999652
941.034246	0.998114
941.336524	0.999119
941.638763	0.999755
941.940964	0.998979
942.243126	0.999401
942.545250	1.001123
942.847335	1.000492
943.149381	1.000505
943.451389	0.999306
943.753359	1.000060
944.055290	1.001880
944.357182	1.000844
944.659036	0.999955
944.960851	1.000304
945.262628	0.999803
945.564367	0.998473
945.866067	0.999218
946.167729	0.999875
946.469352	0.999659
946.770937	0.997768
947.072484	1.000587
947.373992	1.001122
947.675462	0.999739
947.976893	1.000580
948.278286	1.001325
948.579641	1.000467
948.880958	1.000460
949.182236	1.000667
949.483476	1.000014
949.784678	1.001482
950.085841	0.999233
950.386967	0.999200
950.688054	0.999630
950.989103	0.999061
951.290114	0.999674
951.591087	1.000489
951.892021	1.000142
952.192917	1.000013
952.493776	1.000613
952.794596	0.998980
953.095378	0.999745
953.396122	0.999780
953.696828	0.999486
953.997496	0.998922
954.298126	1.001468
954.598718	0.999033
954.899272	1.000500
955.199788	1.000213
955.500266	1.001034
955.800706	0.999774
956.101108	0.999316
956.401472	1.000901
956.701798	1.000645
957.002087	1.000041
957.302337	1.000034
957.602550	1.001468
957.902724	1.000476
958.202861	1.001216
958.502960	1.000056
958.803022	1.000478
959.103045	1.000074
959.403031	1.000861
959.702979	1.000423
960.002889	0.999340
960.302762	0.999505
960.602596	1.001806
960.902393	1.000181
961.202153	1.001079
961.501875	1.001669
961.801559	1.000630
962.101205	0.999745
962.400814	1.001236
962.700385	1.000613
962.999918	1.000728
963.299414	0.999601
963.598873	1.000707
963.898293	0.999989
964.197677	0.998816
964.497022	1.000325
964.796331	1.000994
965.095601	1.002075
965.394835	1.000139
965.694030	1.000907
965.993189	1.000741
966.292309	1.000919
966.591393	1.000179
966.890439	1.001597
967.189447	1.000752
967.488419	0.999920
967.787353	1.000145
968.086249	1.000386
968.385108	1.000455
968.683930	1.002048
968.982714	0.999765
969.281462	1.000245
969.580172	1.000326
969.878844	1.000618
970.177480	0.999955
970.476078	1.001635
970.774639	1.000480
971.073162	1.000023
971.371649	1.000350
971.670098	0.999881
971.968510	1.000279
972.266885	1.000017
972.565223	1.000047
972.863524	0.999532
973.161788	0.999796
973.460014	1.000912
973.758204	0.999775
974.056356	0.999735
974.354471	0.999907
974.652550	1.001003
974.950591	1.000569
975.248595	0.999841
975.546563	1.000937
975.844493	1.000397
976.142386	1.000044
976.440243	1.000689
976.738062	1.000145
977.035845	1.000070
977.333590	1.001793
977.631299	0.999507
977.928971	1.000461
978.226606	0.999973
978.524204	0.998977
978.821765	1.000363
979.119290	1.001646
979.416777	1.000343
979.714228	1.000768
980.011642	1.000218
980.309020	1.001095
980.606360	1.000901
980.903664	1.000759
981.200931	0.999964
981.498162	0.999192
981.795356	1.001314
982.092513	1.000002
982.389633	1.000535
982.686717	0.998623
982.983764	1.000417
983.280775	1.000741
983.577749	1.000674
983.874686	1.000440
984.171587	0.998956
984.468451	1.000639
984.765279	1.000577
985.062070	1.000417
985.358824	0.999463
985.655543	1.001152
985.952224	1.001358
986.248869	1.000346
986.545478	1.000965
986.842050	0.999694
987.138586	0.999570
987.435086	0.999983
987.731549	1.001491
988.027975	1.000534
988.324366	0.999724
988.620719	1.001979
988.917037	1.000127
989.213318	1.001545
989.509563	1.000111
989.805772	1.000803
990.101944	1.001862
990.398080	1.001212
990.694180	1.001660
990.990244	0.999310
991.286271	1.000555
991.582262	1.002357
991.878217	1.000566
992.174136	1.002226
992.470019	0.999901
992.765865	1.001974
993.061676	1.000241
993.357450	1.000924
993.653188	1.002323
993.948890	1.000150
994.244556	1.000520
994.540186	1.000208
994.835780	1.000059
995.131337	1.000202
995.426859	1.000307
995.722345	1.000237
996.017795	1.000503
996.313208	1.000404
996.608586	0.999257
996.903928	1.000511
997.199234	1.000721
997.494504	1.001394
997.789738	0.999307
998.084936	1.000174
998.380099	0.999492
998.675225	1.001319
998.970316	1.000761
999.265371	1.000943
999.560390	1.000537
999.855373	1.000573
1000.150320	1.000319
1000.445232	1.000313
1000.740108	1.000772
1001.034948	0.999539
1001.329752	1.000765
1001.624521	1.000303
1001.919254	1.000425
1002.213951	1.000294
1002.508613	0.999417
1002.803239	1.000094
1003.097829	1.000379
1003.392384	1.000972
1003.686903	1.000636
1003.981386	0.999580
1004.275834	1.002819
1004.570246	0.999392
1004.864623	1.001840
1005.158964	1.000837
1005.453270	1.000544
1005.747540	1.000507
1006.041775	1.000604
1006.335974	1.000248
1006.630138	1.001494
1006.924266	0.999283
1007.218359	0.999453
1007.512416	1.001770
1007.806438	0.999318
1008.100425	1.000430
1008.394376	1.001325
1008.688292	0.999605
1008.982172	1.000461
1009.276017	1.000966
1009.569827	1.002673
1009.863602	0.999372
1010.157341	1.001424
1010.451045	1.000044
1010.744714	1.001943
1011.038347	1.001690
1011.331945	0.999830
1011.625508	1.000595
1011.919036	1.000019
1012.212528	1.000755
1012.505986	1.000711
1012.799408	1.001569
1013.092795	1.000652
1013.386147	1.000543
1013.679464	1.001155
1013.972745	1.000451
1014.265992	0.999827
1014.559204	1.000131
1014.852380	1.002138
1015.145521	1.000910
1015.438628	1.000310
1015.731699	1.001027
1016.024736	1.001667
1016.317737	1.000616
1016.610703	1.000768
1016.903635	0.999794
1017.196531	1.000226
1017.489393	1.000635
1017.782219	0.999995
1018.075011	0.999388
1018.367768	1.000652
1018.660490	1.000244
1018.953177	1.000244
1019.245829	1.000244
