Dividing Wavelength (nm)	Counts (n)	Blue Motor Position (mm): 11.300000	Red Motor Position (mm): 0.000000	
326.493990	1.003113
326.888308	1.003113
327.282561	1.003113
327.676750	1.005159
328.070874	1.005461
328.464933	1.006472
328.858929	1.005924
329.252859	1.004108
329.646726	1.003917
330.040528	1.004408
330.434265	1.004674
330.827938	1.004065
331.221547	1.004362
331.615091	1.004998
332.008571	1.005525
332.401986	1.003980
332.795338	1.003970
333.188625	1.004734
333.581847	1.003413
333.975006	1.004428
334.368100	1.004845
334.761129	1.002505
335.154095	1.004352
335.546996	1.003474
335.939833	0.998698
336.332606	1.000075
336.725315	0.998606
337.117960	0.999275
337.510540	0.999018
337.903056	0.999418
338.295508	1.000507
338.687896	1.000119
339.080220	0.998633
339.472480	1.000276
339.864676	0.998254
340.256807	0.998375
340.648875	1.000140
341.040879	0.999066
341.432818	0.999536
341.824694	0.999627
342.216506	0.998967
342.608253	0.999087
342.999937	0.998576
343.391557	0.998815
343.783113	1.000171
344.174605	0.999848
344.566033	0.997989
344.957397	1.000131
345.348697	0.999685
345.739934	1.000614
346.131106	0.998416
346.522215	0.998857
346.913260	0.999295
347.304241	0.999156
347.695159	0.998700
348.086012	0.998961
348.476802	0.998955
348.867528	0.998691
349.258191	0.999828
349.648789	0.998803
350.039324	0.998111
350.429796	0.998599
350.820203	0.997566
351.210548	0.997924
351.600828	0.998721
351.991045	0.998737
352.381198	0.998710
352.771288	0.997969
353.161314	0.998644
353.551276	0.997903
353.941175	0.997120
354.331010	0.998622
354.720782	0.998046
355.110490	0.998882
355.500135	0.998298
355.889717	0.998215
356.279235	0.997650
356.668689	0.998581
357.058080	0.998142
357.447408	0.998095
357.836672	0.997604
358.225873	0.998578
358.615010	0.997820
359.004084	0.996435
359.393095	0.997392
359.782043	0.998925
360.170927	0.998360
360.559748	0.997920
360.948505	0.997592
361.337199	0.997455
361.725830	0.997818
362.114398	0.996881
362.502903	0.996118
362.891344	0.995495
363.279722	0.997051
363.668037	0.997005
364.056289	0.997873
364.444478	0.997918
364.832603	0.996539
365.220665	0.998168
365.608665	0.996560
365.996601	0.997244
366.384474	0.995418
366.772284	0.996536
367.160031	0.994745
367.547715	0.997326
367.935336	0.994065
368.322893	0.993992
368.710388	0.992942
369.097820	0.991308
369.485189	0.989545
369.872495	0.987343
370.259738	0.985141
370.646918	0.982679
371.034035	0.979796
371.421090	0.976360
371.808081	0.971252
372.195010	0.968818
372.581875	0.964417
372.968678	0.959662
373.355418	0.956356
373.742096	0.949210
374.128710	0.943259
374.515262	0.940252
374.901751	0.933063
375.288177	0.930156
375.674540	0.921903
376.060841	0.916116
376.447079	0.908922
376.833254	0.901848
377.219367	0.898268
377.605417	0.886982
377.991404	0.882462
378.377329	0.877037
378.763191	0.870254
379.148991	0.861508
379.534727	0.854262
379.920402	0.846340
380.306013	0.842516
380.691563	0.829653
381.077049	0.822726
381.462474	0.818385
381.847835	0.807522
382.233134	0.802595
382.618371	0.802777
383.003545	0.785534
383.388657	0.783336
383.773706	0.776100
384.158693	0.771702
384.543618	0.765726
384.928480	0.757240
385.313280	0.746695
385.698017	0.746195
386.082692	0.735588
386.467305	0.735028
386.851856	0.729055
387.236344	0.723699
387.620770	0.718196
388.005133	0.712160
388.389435	0.705965
388.773674	0.703841
389.157851	0.695563
389.541965	0.693145
389.926018	0.700113
390.310008	0.686288
390.693936	0.683070
391.077802	0.675230
391.461606	0.676590
391.845348	0.665805
392.229027	0.665803
392.612645	0.664534
392.996200	0.650750
393.379694	0.643435
393.763125	0.634740
394.146494	0.638959
394.529801	0.629984
394.913047	0.621407
395.296230	0.627564
395.679351	0.618616
396.062410	0.615915
396.445408	0.618790
396.828343	0.613566
397.211217	0.608304
397.594028	0.620972
397.976778	0.610937
398.359466	0.607818
398.742092	0.603079
399.124656	0.614744
399.507158	0.603485
399.889598	0.600132
400.271977	0.591635
400.654294	0.595594
401.036549	0.595035
401.418742	0.599273
401.800874	0.584435
402.182944	0.581656
402.564952	0.573600
402.946898	0.575914
403.328783	0.576111
403.710606	0.586838
404.092367	0.562105
404.474067	0.567358
404.855705	0.565743
405.237282	0.574676
405.618797	0.560723
406.000250	0.557359
406.381642	0.546884
406.762972	0.551425
407.144240	0.550610
407.525447	0.549912
407.906593	0.543407
408.287677	0.537811
408.668700	0.546416
409.049661	0.541183
409.430560	0.536262
409.811399	0.544742
410.192176	0.526333
410.572891	0.534136
410.953545	0.521786
411.334138	0.535178
411.714669	0.526898
412.095139	0.540407
412.475547	0.523808
412.855894	0.525470
413.236180	0.524912
413.616405	0.530542
413.996568	0.520568
414.376670	0.527034
414.756711	0.531283
415.136691	0.528351
415.516609	0.519366
415.896466	0.516156
416.276262	0.512575
416.655997	0.513913
417.035670	0.495986
417.415283	0.487263
417.794834	0.492572
418.174324	0.497608
418.553753	0.506375
418.933121	0.488100
419.312428	0.482884
419.691674	0.488117
420.070859	0.476935
420.449983	0.484975
420.829045	0.473718
421.208047	0.483526
421.586988	0.475589
421.965867	0.474789
422.344686	0.463680
422.723444	0.476107
423.102141	0.492798
423.480777	0.466060
423.859352	0.486518
424.237866	0.463899
424.616319	0.464572
424.994712	0.455325
425.373044	0.465700
425.751314	0.453608
426.129524	0.470773
426.507673	0.453785
426.885762	0.447231
427.263789	0.453287
427.641756	0.462846
428.019662	0.452859
428.397508	0.452094
428.775292	0.456394
429.153016	0.448392
429.530679	0.454410
429.908282	0.447211
430.285824	0.458207
430.663305	0.435754
431.040726	0.457746
431.418086	0.457636
431.795385	0.448914
432.172624	0.447909
432.549802	0.448670
432.926920	0.447594
433.303977	0.446779
433.680974	0.444022
434.057910	0.442983
434.434786	0.441885
434.811601	0.444798
435.188355	0.427453
435.565050	0.436558
435.941683	0.437459
436.318257	0.421139
436.694770	0.422637
437.071222	0.420320
437.447614	0.425248
437.823946	0.431781
438.200218	0.420784
438.576429	0.430464
438.952580	0.424026
439.328670	0.420297
439.704700	0.426102
440.080670	0.428199
440.456580	0.408846
440.832429	0.417321
441.208218	0.428191
441.583947	0.417164
441.959616	0.416473
442.335224	0.421964
442.710773	0.412913
443.086261	0.410869
443.461689	0.424833
443.837057	0.414202
444.212365	0.404349
444.587612	0.411290
444.962800	0.401645
445.337927	0.403280
445.712995	0.429226
446.088002	0.391135
446.462949	0.401329
446.837837	0.406820
447.212664	0.395302
447.587431	0.386447
447.962139	0.356894
448.336786	0.316210
448.711374	0.326427
449.085901	0.370898
449.460369	0.375173
449.834776	0.378411
450.209124	0.357614
450.583412	0.350161
450.957640	0.343606
451.331808	0.354931
451.705917	0.377815
452.079965	0.383220
452.453954	0.371316
452.827883	0.377860
453.201752	0.372739
453.575562	0.384090
453.949311	0.372504
454.323001	0.378828
454.696632	0.374557
455.070202	0.367016
455.443713	0.359018
455.817164	0.353667
456.190556	0.349660
456.563888	0.346590
456.937160	0.344366
457.310373	0.361361
457.683526	0.360296
458.056619	0.365954
458.429653	0.366140
458.802628	0.369953
459.175542	0.364141
459.548398	0.346933
459.921194	0.339057
460.293930	0.339259
460.666607	0.316986
461.039224	0.304750
461.411782	0.300503
461.784280	0.299982
462.156719	0.304083
462.529099	0.308358
462.901419	0.324387
463.273680	0.328965
463.645882	0.328623
464.018024	0.334444
464.390106	0.326803
464.762130	0.311769
465.134094	0.294532
465.505999	0.263527
465.877845	0.233659
466.249631	0.220831
466.621358	0.228185
466.993026	0.242036
467.364634	0.248306
467.736184	0.257256
468.107674	0.265958
468.479105	0.264844
468.850477	0.271785
469.221790	0.278748
469.593043	0.288676
469.964238	0.293608
470.335373	0.292991
470.706449	0.291292
471.077467	0.291829
471.448425	0.253844
471.819324	0.229310
472.190164	0.228753
472.560945	0.257513
472.931667	0.280391
473.302330	0.284209
473.672934	0.296217
474.043479	0.284448
474.413965	0.286049
474.784393	0.289441
475.154761	0.284791
475.525070	0.281618
475.895321	0.287328
476.265513	0.281820
476.635645	0.277129
477.005719	0.276618
477.375734	0.273620
477.745691	0.266654
478.115588	0.263089
478.485427	0.256764
478.855207	0.243405
479.224928	0.225647
479.594591	0.213867
479.964194	0.217340
480.333739	0.218649
480.703226	0.220112
481.072653	0.218315
481.442022	0.214247
481.811333	0.211011
482.180584	0.214115
482.549777	0.219508
482.918912	0.222817
483.287988	0.222611
483.657005	0.222279
484.025964	0.228664
484.394864	0.226132
484.763706	0.226647
485.132489	0.231626
485.501213	0.232712
485.869879	0.230910
486.238487	0.233903
486.607036	0.231894
486.975527	0.236444
487.343959	0.232330
487.712333	0.231264
488.080648	0.232893
488.448905	0.232309
488.817104	0.233316
489.185244	0.227904
489.553326	0.224747
489.921350	0.214588
490.289315	0.196862
490.657222	0.191803
491.025070	0.193452
491.392861	0.195068
491.760593	0.201027
492.128267	0.206763
492.495883	0.212106
492.863440	0.218675
493.230939	0.224490
493.598380	0.226272
493.965763	0.228228
494.333088	0.230273
494.700354	0.232078
495.067563	0.231204
495.434713	0.234566
495.801805	0.232247
496.168839	0.233932
496.535815	0.235394
496.902733	0.235362
497.269593	0.236965
497.636395	0.234324
498.003139	0.234730
498.369825	0.238001
498.736453	0.234043
499.103023	0.235958
499.469535	0.235213
499.835989	0.235403
500.202385	0.236050
500.568723	0.239814
500.935003	0.234432
501.301226	0.239033
501.667390	0.233303
502.033497	0.231271
502.399546	0.233967
502.765537	0.236285
503.131470	0.234728
503.497345	0.230881
503.863163	0.239359
504.228923	0.232512
504.594625	0.231179
504.960269	0.236794
505.325856	0.232098
505.691385	0.236341
506.056856	0.233044
506.422270	0.232288
506.787625	0.235153
507.152924	0.232577
507.518164	0.232604
507.883347	0.234461
508.248472	0.236203
508.613540	0.231504
508.978550	0.233759
509.343503	0.234243
509.708398	0.232047
510.073236	0.229274
510.438016	0.229141
510.802738	0.230263
511.167403	0.229372
511.532010	0.231571
511.896561	0.226783
512.261053	0.225299
512.625488	0.227590
512.989866	0.227896
513.354186	0.228343
513.718449	0.230065
514.082655	0.226684
514.446803	0.228651
514.810894	0.226239
515.174927	0.229087
515.538904	0.228527
515.902822	0.225660
516.266684	0.228035
516.630488	0.229154
516.994235	0.227810
517.357925	0.226977
517.721558	0.224983
518.085133	0.224668
518.448651	0.224391
518.812112	0.226933
519.175516	0.226342
519.538863	0.223910
519.902152	0.225861
520.265385	0.222283
520.628560	0.224212
520.991678	0.224769
521.354739	0.223896
521.717743	0.224672
522.080690	0.225153
522.443580	0.222788
522.806413	0.223528
523.169189	0.222874
523.531908	0.221958
523.894569	0.225324
524.257174	0.225327
524.619722	0.223063
524.982213	0.223992
525.344647	0.223247
525.707025	0.224250
526.069345	0.221878
526.431608	0.224006
526.793815	0.221874
527.155964	0.226212
527.518057	0.224844
527.880093	0.226075
528.242072	0.224586
528.603995	0.226649
528.965860	0.227937
529.327669	0.227253
529.689421	0.228093
530.051117	0.228987
530.412755	0.226570
530.774337	0.229124
531.135862	0.229643
531.497331	0.228875
531.858743	0.231708
532.220098	0.228516
532.581396	0.230875
532.942638	0.231391
533.303824	0.232707
533.664953	0.232080
534.026025	0.234129
534.387040	0.232034
534.747999	0.231874
535.108902	0.231001
535.469748	0.236106
535.830537	0.233780
536.191270	0.234327
536.551947	0.233677
536.912567	0.233800
537.273131	0.235311
537.633638	0.235574
537.994089	0.236122
538.354483	0.237306
538.714821	0.234336
539.075103	0.233754
539.435328	0.234813
539.795497	0.238511
540.155609	0.235072
540.515665	0.233312
540.875665	0.238871
541.235609	0.237487
541.595496	0.237523
541.955328	0.234345
542.315102	0.236821
542.674821	0.238001
543.034483	0.238109
543.394090	0.237838
543.753640	0.239456
544.113134	0.234277
544.472571	0.237996
544.831953	0.234837
545.191278	0.239169
545.550548	0.238423
545.909761	0.235334
546.268918	0.236060
546.628019	0.234178
546.987064	0.236879
547.346053	0.238519
547.704986	0.236601
548.063863	0.236722
548.422684	0.237055
548.781449	0.238827
549.140158	0.236728
549.498811	0.239741
549.857408	0.242453
550.215949	0.237095
550.574434	0.240262
550.932864	0.238610
551.291237	0.236973
551.649555	0.238339
552.007817	0.238371
552.366022	0.238985
552.724173	0.239253
553.082267	0.239402
553.440305	0.236464
553.798288	0.240799
554.156215	0.237458
554.514086	0.237945
554.871902	0.241316
555.229661	0.240674
555.587365	0.241139
555.945014	0.243613
556.302606	0.240791
556.660143	0.243182
557.017625	0.239784
557.375050	0.241726
557.732421	0.238816
558.089735	0.240727
558.446994	0.240652
558.804197	0.239946
559.161345	0.239851
559.518437	0.243146
559.875474	0.241527
560.232455	0.240810
560.589381	0.241878
560.946251	0.242261
561.303065	0.239615
561.659825	0.241100
562.016528	0.242595
562.373177	0.245386
562.729770	0.242569
563.086307	0.244512
563.442789	0.242342
563.799216	0.245036
564.155587	0.244100
564.511904	0.245575
564.868164	0.245239
565.224370	0.244952
565.580520	0.246842
565.936615	0.246570
566.292654	0.249643
566.648638	0.246518
567.004567	0.247667
567.360441	0.248084
567.716260	0.249969
568.072023	0.247806
568.427732	0.248580
568.783385	0.251045
569.138982	0.249261
569.494525	0.248917
569.850013	0.251938
570.205445	0.250285
570.560823	0.252507
570.916145	0.254826
571.271412	0.252908
571.626625	0.254386
571.981782	0.255195
572.336884	0.255741
572.691931	0.255542
573.046923	0.257155
573.401860	0.258193
573.756743	0.259882
574.111570	0.258559
574.466342	0.259205
574.821059	0.257982
575.175722	0.261311
575.530330	0.260755
575.884882	0.261054
576.239380	0.263218
576.593823	0.263665
576.948211	0.263272
577.302544	0.266483
577.656823	0.266156
578.011047	0.266086
578.365216	0.266883
578.719330	0.269113
579.073389	0.268447
579.427394	0.269927
579.781344	0.270886
580.135239	0.272062
580.489080	0.271680
580.842866	0.274775
581.196597	0.275255
581.550273	0.273772
581.903895	0.274799
582.257463	0.272688
582.610975	0.276154
582.964434	0.275530
583.317837	0.277959
583.671186	0.278539
584.024481	0.278767
584.377721	0.281019
584.730906	0.281618
585.084037	0.281233
585.437113	0.282969
585.790135	0.282559
586.143103	0.285368
586.496016	0.286443
586.848874	0.284034
587.201679	0.284651
587.554428	0.288059
587.907124	0.287293
588.259765	0.288026
588.612352	0.288161
588.964884	0.292267
589.317362	0.291791
589.669786	0.291877
590.022155	0.290208
590.374470	0.289591
590.726731	0.291672
591.078937	0.296665
591.431090	0.293196
591.783188	0.297450
592.135232	0.298106
592.487222	0.297749
592.839157	0.296306
593.191038	0.298625
593.542866	0.300645
593.894639	0.303880
594.246358	0.302618
594.598022	0.301900
594.949633	0.305351
595.301190	0.306146
595.652692	0.305535
596.004141	0.301508
596.355535	0.309774
596.706876	0.310447
597.058162	0.313078
597.409395	0.310216
597.760573	0.307924
598.111698	0.311433
598.462768	0.311932
598.813785	0.313454
599.164748	0.314778
599.515657	0.315213
599.866511	0.318992
600.217312	0.314083
600.568060	0.319617
600.918753	0.316192
601.269392	0.317161
601.619978	0.320390
601.970510	0.318326
602.320988	0.318292
602.671412	0.316695
603.021783	0.319046
603.372100	0.320479
603.722363	0.320744
604.072572	0.321738
604.422728	0.321469
604.772830	0.323663
605.122878	0.323721
605.472872	0.324592
605.822813	0.322749
606.172701	0.325950
606.522534	0.323186
606.872314	0.323860
607.222041	0.325037
607.571714	0.323277
607.921333	0.324904
608.270899	0.324704
608.620411	0.321803
608.969870	0.325924
609.319276	0.326235
609.668627	0.326437
610.017926	0.325367
610.367171	0.324367
610.716362	0.325355
611.065500	0.325824
611.414585	0.325234
611.763616	0.325531
612.112594	0.326748
612.461518	0.326317
612.810389	0.324332
613.159207	0.327152
613.507971	0.329434
613.856682	0.325611
614.205340	0.326958
614.553945	0.324924
614.902496	0.329314
615.250994	0.327539
615.599439	0.329140
615.947830	0.328853
616.296169	0.330161
616.644454	0.330487
616.992686	0.330941
617.340864	0.329565
617.688990	0.333437
618.037063	0.331391
618.385082	0.333695
618.733048	0.331314
619.080961	0.334387
619.428821	0.334993
619.776628	0.334944
620.124382	0.338047
620.472083	0.338943
620.819731	0.338307
621.167326	0.342890
621.514868	0.342547
621.862357	0.347921
622.209793	0.347470
622.557176	0.350981
622.904506	0.351899
623.251783	0.355098
623.599007	0.357985
623.946179	0.357870
624.293297	0.361078
624.640363	0.364971
624.987376	0.365854
625.334336	0.369227
625.681243	0.372464
626.028097	0.373662
626.374899	0.375661
626.721647	0.376700
627.068343	0.380526
627.414987	0.382474
627.761577	0.385090
628.108115	0.384539
628.454600	0.390892
628.801032	0.389762
629.147412	0.392062
629.493739	0.394063
629.840014	0.397529
630.186236	0.395938
630.532405	0.402270
630.878521	0.401297
631.224585	0.404341
631.570597	0.408624
631.916556	0.409042
632.262462	0.409727
632.608316	0.413411
632.954117	0.415003
633.299866	0.416777
633.645562	0.418592
633.991206	0.423344
634.336797	0.427052
634.682336	0.430243
635.027823	0.432683
635.373257	0.433811
635.718639	0.438310
636.063968	0.438379
636.409245	0.444271
636.754470	0.445995
637.099642	0.449608
637.444762	0.453523
637.789829	0.453930
638.134845	0.458403
638.479808	0.460174
638.824719	0.460963
639.169577	0.465826
639.514383	0.465832
639.859137	0.471035
640.203839	0.471386
640.548489	0.473573
640.893086	0.475326
641.237632	0.478509
641.582125	0.478461
641.926566	0.482014
642.270955	0.482702
642.615292	0.483943
642.959576	0.484883
643.303809	0.487064
643.647990	0.487706
643.992118	0.489268
644.336195	0.492849
644.680219	0.493779
645.024192	0.494167
645.368112	0.491367
645.711981	0.492009
646.055797	0.489104
646.399562	0.493077
646.743274	0.489447
647.086935	0.488152
647.430544	0.489833
647.774101	0.491247
648.117606	0.491156
648.461059	0.493025
648.804460	0.496704
649.147810	0.500953
649.491108	0.504305
649.834354	0.506960
650.177548	0.512806
650.520690	0.518300
650.863781	0.520529
651.206820	0.521296
651.549807	0.525920
651.892742	0.531694
652.235626	0.532198
652.578458	0.534779
652.921238	0.541322
653.263967	0.540524
653.606644	0.543994
653.949269	0.546529
654.291843	0.550167
654.634365	0.549754
654.976836	0.554531
655.319255	0.555031
655.661622	0.558858
656.003938	0.560561
656.346203	0.562683
656.688416	0.563777
657.030577	0.566406
657.372687	0.570028
657.714746	0.571912
658.056753	0.570590
658.398708	0.575804
658.740612	0.577038
659.082465	0.576783
659.424266	0.578106
659.766016	0.579960
660.107715	0.584674
660.449362	0.584528
660.790958	0.586551
661.132503	0.589597
661.473996	0.589012
661.815438	0.590817
662.156829	0.592928
662.498168	0.594647
662.839456	0.595871
663.180693	0.596577
663.521879	0.597241
663.863013	0.600163
664.204097	0.601454
664.545129	0.600111
664.886110	0.602953
665.227040	0.602616
665.567918	0.604781
665.908746	0.605371
666.249522	0.606625
666.590248	0.608255
666.930922	0.608541
667.271545	0.610533
667.612118	0.611614
667.952639	0.613004
668.293109	0.614780
668.633528	0.618033
668.973896	0.618382
669.314213	0.620049
669.654480	0.624830
669.994695	0.625079
670.334859	0.626862
670.674973	0.630253
671.015035	0.630734
671.355047	0.633435
671.695008	0.635138
672.034918	0.636484
672.374777	0.637836
672.714585	0.640380
673.054342	0.642136
673.394049	0.643450
673.733705	0.644266
674.073310	0.647589
674.412864	0.648441
674.752368	0.651732
675.091820	0.653756
675.431223	0.657691
675.770574	0.659005
676.109875	0.662121
676.449125	0.664527
676.788324	0.666551
677.127473	0.671759
677.466571	0.673003
677.805619	0.676277
678.144616	0.679291
678.483562	0.680968
678.822458	0.684325
679.161303	0.686297
679.500098	0.688399
679.838842	0.690753
680.177535	0.691556
680.516179	0.690822
680.854771	0.693262
681.193314	0.690403
681.531805	0.686069
681.870247	0.682391
682.208638	0.679149
682.546978	0.679079
682.885268	0.682619
683.223508	0.687624
683.561697	0.691517
683.899836	0.694245
684.237925	0.697619
684.575963	0.699608
684.913951	0.702494
685.251889	0.703460
685.589776	0.703517
685.927614	0.705348
686.265401	0.705199
686.603137	0.706010
686.940824	0.705367
687.278460	0.706038
687.616046	0.706288
687.953582	0.703998
688.291068	0.705747
688.628504	0.706496
688.965889	0.707173
689.303224	0.709418
689.640510	0.714241
689.977745	0.719024
690.314930	0.724326
690.652065	0.727418
690.989150	0.731774
691.326185	0.739094
691.663170	0.743173
692.000105	0.747752
692.336990	0.751899
692.673825	0.755595
693.010610	0.759377
693.347345	0.761732
693.684030	0.767014
694.020665	0.769137
694.357251	0.774355
694.693786	0.775760
695.030272	0.777518
695.366707	0.781940
695.703093	0.784826
696.039429	0.784024
696.375716	0.787775
696.711952	0.789379
697.048139	0.791216
697.384276	0.792979
697.720363	0.793323
698.056400	0.793305
698.392388	0.796389
698.728326	0.798708
699.064214	0.801428
699.400053	0.802503
699.735842	0.806619
700.071581	0.807938
700.407270	0.810631
700.742910	0.813489
701.078501	0.816917
701.414042	0.819269
701.749533	0.821237
702.084974	0.825122
702.420366	0.824222
702.755709	0.827932
703.091002	0.831118
703.426246	0.831365
703.761440	0.833517
704.096584	0.834865
704.431679	0.836936
704.766725	0.838744
705.101721	0.840558
705.436668	0.840247
705.771565	0.842271
706.106413	0.841268
706.441212	0.842463
706.775961	0.842909
707.110661	0.842640
707.445311	0.842499
707.779913	0.844664
708.114465	0.843903
708.448967	0.842654
708.783421	0.840272
709.117825	0.838643
709.452180	0.838484
709.786485	0.837506
710.120742	0.832842
710.454949	0.832989
710.789107	0.831424
711.123216	0.827308
711.457275	0.827412
711.791286	0.826264
712.125247	0.827309
712.459159	0.829386
712.793023	0.826334
713.126837	0.833746
713.460602	0.833104
713.794318	0.835929
714.127985	0.838049
714.461602	0.844877
714.795171	0.845754
715.128691	0.851801
715.462162	0.856023
715.795584	0.858927
716.128957	0.861458
716.462281	0.864359
716.795556	0.867027
717.128782	0.870297
717.461960	0.874114
717.795088	0.874968
718.128167	0.877592
718.461198	0.880434
718.794180	0.882042
719.127113	0.883510
719.459997	0.885489
719.792833	0.888232
720.125619	0.888928
720.458357	0.892741
720.791046	0.893687
721.123686	0.894956
721.456278	0.897299
721.788821	0.896896
722.121315	0.900188
722.453761	0.900518
722.786158	0.900882
723.118506	0.900972
723.450805	0.902293
723.783056	0.902297
724.115259	0.902818
724.447412	0.904227
724.779518	0.904018
725.111574	0.903797
725.443582	0.902776
725.775542	0.903432
726.107453	0.902745
726.439315	0.903123
726.771129	0.901966
727.102895	0.899928
727.434612	0.898917
727.766281	0.897961
728.097901	0.896857
728.429473	0.898711
728.760996	0.898754
729.092471	0.899429
729.423897	0.901924
729.755276	0.903279
730.086606	0.903009
730.417887	0.902442
730.749120	0.901950
731.080305	0.899577
731.411442	0.897785
731.742530	0.899330
732.073570	0.900330
732.404562	0.900357
732.735506	0.900381
733.066401	0.901295
733.397249	0.905275
733.728048	0.910681
734.058798	0.915376
734.389501	0.919849
734.720156	0.921921
735.050762	0.925684
735.381320	0.925528
735.711831	0.926525
736.042293	0.929086
736.372707	0.930062
736.703073	0.929291
737.033391	0.931005
737.363661	0.930755
737.693883	0.930371
738.024056	0.928849
738.354182	0.928572
738.684260	0.927278
739.014290	0.925736
739.344272	0.924955
739.674207	0.924320
740.004093	0.924372
740.333931	0.924408
740.663722	0.924887
740.993464	0.926048
741.323159	0.927156
741.652806	0.929810
741.982405	0.931068
742.311956	0.933649
742.641460	0.935751
742.970915	0.935805
743.300323	0.937774
743.629683	0.940027
743.958996	0.942178
744.288260	0.942093
744.617477	0.944207
744.946647	0.944919
745.275768	0.947751
745.604842	0.947459
745.933869	0.949565
746.262847	0.950106
746.591778	0.949357
746.920662	0.951190
747.249498	0.953855
747.578286	0.952716
747.907027	0.950509
748.235720	0.950128
748.564365	0.950634
748.892963	0.949848
749.221514	0.950364
749.550017	0.951293
749.878473	0.952914
750.206881	0.954500
750.535242	0.955090
750.863555	0.954553
751.191821	0.955752
751.520039	0.954838
751.848210	0.955291
752.176334	0.957601
752.504411	0.956664
752.832440	0.956735
753.160421	0.959000
753.488356	0.958601
753.816243	0.958682
754.144082	0.959000
754.471875	0.960817
754.799620	0.960603
755.127318	0.959936
755.454969	0.960943
755.782572	0.961660
756.110129	0.960881
756.437638	0.962815
756.765100	0.962606
757.092515	0.961149
757.419882	0.962263
757.747203	0.962459
758.074477	0.962430
758.401703	0.962409
758.728882	0.960555
759.056014	0.961394
759.383099	0.962149
759.710138	0.961782
760.037129	0.961131
760.364073	0.960964
760.690970	0.960946
761.017820	0.960748
761.344623	0.962722
761.671379	0.961852
761.998088	0.960782
762.324751	0.958345
762.651366	0.952174
762.977935	0.940125
763.304456	0.932946
763.630931	0.932014
763.957359	0.937060
764.283740	0.944623
764.610074	0.951498
764.936362	0.956118
765.262602	0.959036
765.588796	0.963129
765.914943	0.965065
766.241044	0.967848
766.567097	0.969106
766.893104	0.970279
767.219064	0.971385
767.544978	0.972566
767.870845	0.974387
768.196665	0.974841
768.522438	0.975244
768.848165	0.975861
769.173846	0.976881
769.499479	0.977601
769.825066	0.978595
770.150607	0.979259
770.476101	0.978715
770.801548	0.978973
771.126949	0.981804
771.452303	0.980661
771.777611	0.981388
772.102872	0.981228
772.428087	0.981736
772.753256	0.982835
773.078378	0.982582
773.403453	0.982479
773.728482	0.984869
774.053465	0.983834
774.378401	0.983642
774.703291	0.985708
775.028135	0.986566
775.352932	0.984279
775.677683	0.986540
776.002388	0.985957
776.327046	0.985322
776.651658	0.986947
776.976224	0.986631
777.300743	0.985916
777.625216	0.986559
777.949643	0.986858
778.274024	0.986762
778.598359	0.986739
778.922647	0.987348
779.246889	0.988314
779.571086	0.987152
779.895236	0.987154
780.219339	0.987898
780.543397	0.986573
780.867409	0.988104
781.191374	0.987227
781.515294	0.988648
781.839167	0.988282
782.162995	0.987505
782.486776	0.987622
782.810511	0.988729
783.134201	0.989715
783.457844	0.988956
783.781441	0.988408
784.104993	0.988564
784.428498	0.989911
784.751958	0.990687
785.075372	0.990461
785.398739	0.989857
785.722061	0.989376
786.045337	0.989645
786.368568	0.988602
786.691752	0.989863
787.014891	0.988917
787.337983	0.987348
787.661030	0.986431
787.984031	0.985268
788.306987	0.983881
788.629897	0.983227
788.952760	0.986034
789.275579	0.985255
789.598351	0.986622
789.921078	0.988233
790.243759	0.987903
790.566395	0.988078
790.888984	0.989788
791.211529	0.989779
791.534027	0.990078
791.856480	0.991394
792.178888	0.990312
792.501249	0.991161
792.823566	0.992082
793.145836	0.991830
793.468062	0.991889
793.790241	0.993265
794.112375	0.990374
794.434464	0.991156
794.756507	0.991953
795.078505	0.990804
795.400457	0.991395
795.722364	0.990291
796.044226	0.989286
796.366042	0.987816
796.687812	0.987539
797.009538	0.988688
797.331218	0.990353
797.652852	0.991007
797.974442	0.990547
798.295986	0.991876
798.617484	0.989849
798.938938	0.990774
799.260346	0.990356
799.581709	0.990758
799.903026	0.991544
800.224299	0.991984
800.545526	0.992185
800.866708	0.992117
801.187845	0.992646
801.508936	0.992703
801.829983	0.992029
802.150984	0.993524
802.471940	0.994215
802.792851	0.992636
803.113717	0.994612
803.434538	0.993969
803.755314	0.994172
804.076045	0.993513
804.396731	0.993314
804.717372	0.992244
805.037967	0.994449
805.358518	0.994360
805.679024	0.993211
805.999485	0.993850
806.319901	0.993354
806.640272	0.994265
806.960598	0.994364
807.280879	0.993776
807.601115	0.993756
807.921306	0.994799
808.241453	0.992746
808.561554	0.993256
808.881611	0.992996
809.201623	0.992390
809.521590	0.993543
809.841513	0.994107
810.161390	0.993305
810.481223	0.993073
810.801011	0.993299
811.120755	0.994326
811.440453	0.993359
811.760107	0.994032
812.079716	0.993402
812.399281	0.994943
812.718801	0.993493
813.038276	0.993794
813.357707	0.994326
813.677093	0.995370
813.996434	0.995068
814.315731	0.994904
814.634983	0.995336
814.954191	0.995471
815.273354	0.994123
815.592473	0.994742
815.911547	0.994950
816.230577	0.993846
816.549562	0.993561
816.868502	0.993020
817.187399	0.994776
817.506250	0.993330
817.825058	0.992035
818.143821	0.993643
818.462539	0.992845
818.781213	0.992242
819.099843	0.993191
819.418429	0.989814
819.736970	0.988982
820.055466	0.986511
820.373919	0.985586
820.692327	0.983910
821.010691	0.982280
821.329011	0.974101
821.647286	0.962221
821.965517	0.948863
822.283704	0.941223
822.601847	0.940614
822.919945	0.944524
823.237999	0.952119
823.556010	0.955734
823.873976	0.962079
824.191897	0.968144
824.509775	0.971945
824.827609	0.974552
825.145398	0.976710
825.463144	0.977215
825.780845	0.977331
826.098502	0.976583
826.416116	0.974535
826.733685	0.969744
827.051210	0.966321
827.368692	0.968120
827.686129	0.970799
828.003522	0.976283
828.320872	0.979124
828.638177	0.982658
828.955439	0.985722
829.272656	0.987617
829.589830	0.988874
829.906960	0.990818
830.224046	0.991004
830.541088	0.991120
830.858086	0.992566
831.175041	0.993469
831.491952	0.992253
831.808819	0.992314
832.125642	0.992295
832.442421	0.992344
832.759157	0.990744
833.075849	0.986598
833.392497	0.983586
833.709101	0.979273
834.025662	0.978619
834.342179	0.980722
834.658653	0.984306
834.975083	0.986580
835.291469	0.989184
835.607811	0.990486
835.924110	0.991905
836.240366	0.993715
836.556578	0.994296
836.872746	0.994759
837.188871	0.995369
837.504952	0.995792
837.820990	0.995030
838.136984	0.995607
838.452935	0.996626
838.768842	0.996020
839.084706	0.995530
839.400526	0.995835
839.716303	0.990919
840.032037	0.990632
840.347727	0.989220
840.663373	0.989942
840.978977	0.992061
841.294537	0.994364
841.610054	0.995061
841.925527	0.995719
842.240957	0.997117
842.556344	0.997173
842.871687	0.996291
843.186987	0.997042
843.502244	0.997716
843.817458	0.998034
844.132629	0.998284
844.447756	0.998207
844.762840	0.998327
845.077881	0.999646
845.392879	0.997748
845.707833	0.998732
846.022745	0.998661
846.337613	0.998915
846.652438	0.998397
846.967221	0.998439
847.281960	0.998407
847.596656	1.000150
847.911309	0.998942
848.225919	0.999397
848.540485	0.998095
848.855009	0.999674
849.169490	0.999419
849.483928	0.998880
849.798323	0.997987
850.112675	0.999267
850.426984	0.999138
850.741251	0.998800
851.055474	0.999650
851.369654	0.999928
851.683792	0.998928
851.997887	0.999479
852.311938	0.998652
852.625947	0.999548
852.939914	0.997817
853.253837	0.999931
853.567718	1.000172
853.881555	0.998749
854.195350	0.999426
854.509103	1.000323
854.822812	0.999376
855.136479	0.999120
855.450103	0.998543
855.763685	0.998979
856.077224	0.999630
856.390720	0.997994
856.704173	0.998617
857.017584	0.999754
857.330953	0.998690
857.644278	0.999097
857.957561	0.999287
858.270802	0.999207
858.584000	0.999359
858.897155	0.998899
859.210268	0.999590
859.523339	1.000104
859.836367	0.999071
860.149352	0.998743
860.462295	0.999268
860.775195	0.999802
861.088054	0.998092
861.400869	0.998836
861.713642	0.998328
862.026373	1.000108
862.339062	0.999252
862.651708	0.999650
862.964312	0.998840
863.276873	0.997775
863.589392	0.998389
863.901869	0.998737
864.214303	0.998111
864.526696	0.998426
864.839045	0.999161
865.151353	0.998117
865.463619	0.997355
865.775842	0.998917
866.088023	0.999938
866.400162	0.997716
866.712258	0.999147
867.024313	0.999541
867.336325	0.999688
867.648296	1.000143
867.960224	0.998739
868.272110	0.999037
868.583954	0.998779
868.895755	0.998638
869.207515	0.998098
869.519233	0.999071
869.830909	0.997269
870.142542	0.997067
870.454134	0.997757
870.765684	0.998829
871.077191	0.998019
871.388657	0.997793
871.700081	0.998777
872.011463	0.998337
872.322803	0.998201
872.634101	0.996709
872.945357	0.996994
873.256571	0.997245
873.567744	0.997914
873.878874	0.997290
874.189963	0.995807
874.501010	0.998189
874.812015	0.997575
875.122979	0.997847
875.433900	0.998179
875.744780	0.997262
876.055618	0.996869
876.366415	0.996645
876.677169	0.996168
876.987882	0.996019
877.298554	0.997436
877.609183	0.997273
877.919771	0.997198
878.230317	0.996320
878.540822	0.994183
878.851285	0.995697
879.161707	0.994529
879.472087	0.995084
879.782425	0.989689
880.092722	0.989156
880.402977	0.985255
880.713191	0.979001
881.023363	0.972119
881.333494	0.966674
881.643583	0.967048
881.953631	0.967430
882.263637	0.967627
882.573602	0.969636
882.883526	0.971982
883.193408	0.976758
883.503248	0.978144
883.813048	0.980283
884.122806	0.982838
884.432522	0.984812
884.742197	0.988358
885.051831	0.988649
885.361424	0.990723
885.670975	0.992364
885.980485	0.992535
886.289954	0.993203
886.599382	0.992649
886.908768	0.995208
887.218113	0.994502
887.527417	0.995448
887.836680	0.995895
888.145901	0.995877
888.455082	0.997317
888.764221	0.995898
889.073319	0.995907
889.382376	0.997126
889.691392	0.995712
890.000366	0.996938
890.309300	0.996097
890.618193	0.997322
890.927044	0.996505
891.235855	0.996454
891.544625	0.997100
891.853353	0.996633
892.162041	0.996046
892.470687	0.996791
892.779293	0.994648
893.087858	0.993608
893.396381	0.992947
893.704864	0.992293
894.013306	0.991037
894.321707	0.987459
894.630068	0.985382
894.938387	0.983906
895.246665	0.985122
895.554903	0.984758
895.863100	0.987730
896.171256	0.988432
896.479371	0.990767
896.787446	0.992004
897.095480	0.993355
897.403473	0.993822
897.711425	0.994029
898.019336	0.994812
898.327207	0.995566
898.635038	0.994361
898.942827	0.995382
899.250576	0.994472
899.558284	0.996564
899.865952	0.994758
900.173579	0.996060
900.481165	0.997320
900.788711	0.996515
901.096216	0.997672
901.403681	0.996399
901.711105	0.996866
902.018489	0.997157
902.325832	0.997199
902.633135	0.996498
902.940397	0.997047
903.247619	0.995372
903.554800	0.992951
903.861941	0.989131
904.169041	0.983444
904.476101	0.981198
904.783121	0.980354
905.090100	0.982965
905.397039	0.985481
905.703938	0.988087
906.010796	0.989768
906.317614	0.991178
906.624391	0.994159
906.931129	0.995263
907.237826	0.995708
907.544483	0.996910
907.851099	0.997371
908.157675	0.997333
908.464211	0.997729
908.770707	0.996412
909.077163	0.997181
909.383578	0.998832
909.689954	0.996692
909.996289	0.999291
910.302584	0.999719
910.608839	0.999420
910.915054	0.999198
911.221229	0.999982
911.527363	0.998042
911.833458	0.998184
912.139513	0.998268
912.445527	0.998457
912.751502	0.998333
913.057436	0.997666
913.363331	0.998154
913.669186	0.997079
913.975000	0.997551
914.280775	0.996187
914.586510	0.994436
914.892205	0.992542
915.197859	0.990355
915.503475	0.988743
915.809050	0.985900
916.114585	0.982326
916.420081	0.982426
916.725536	0.983102
917.030952	0.983936
917.336328	0.985279
917.641665	0.986697
917.946961	0.987080
918.252218	0.989708
918.557435	0.991430
918.862612	0.992222
919.167750	0.994329
919.472848	0.994586
919.777906	0.995036
920.082925	0.996964
920.387904	0.996510
920.692843	0.996225
920.997743	0.996385
921.302603	0.997703
921.607423	0.997605
921.912204	0.996789
922.216946	0.998290
922.521647	0.997665
922.826310	0.998002
923.130932	0.998774
923.435516	0.998093
923.740059	0.998801
924.044564	0.998078
924.349028	0.998284
924.653454	0.999751
924.957840	0.998842
925.262186	0.999611
925.566493	0.999610
925.870761	0.999426
926.174989	0.998938
926.479178	0.999198
926.783328	1.000317
927.087438	0.998988
927.391509	0.999004
927.695541	1.000805
927.999533	1.000431
928.303486	0.998548
928.607400	0.999599
928.911275	0.999595
929.215110	1.000227
929.518906	1.001372
929.822663	1.000739
930.126381	1.001119
930.430060	1.000097
930.733699	1.000798
931.037299	1.000468
931.340861	1.000979
931.644383	0.998441
931.947866	1.001117
932.251309	1.001051
932.554714	1.000187
932.858080	1.000266
933.161407	0.999545
933.464694	1.000446
933.767943	1.000811
934.071153	1.001252
934.374323	1.000731
934.677455	1.000077
934.980548	0.999844
935.283602	1.000495
935.586617	1.000079
935.889593	1.001195
936.192530	1.000697
936.495428	1.001044
936.798287	0.999838
937.101108	0.998839
937.403890	0.999372
937.706632	1.000777
938.009336	1.000325
938.312002	0.998895
938.614628	1.000743
938.917216	0.998110
939.219765	0.999619
939.522275	1.000958
939.824747	0.999660
940.127179	0.999430
940.429573	1.001218
940.731929	0.998187
941.034246	0.998555
941.336524	0.996717
941.638763	1.000044
941.940964	0.999328
942.243126	0.999424
942.545250	1.000247
942.847335	0.999787
943.149381	1.000026
943.451389	0.999240
943.753359	0.999609
944.055290	1.001973
944.357182	0.999831
944.659036	1.000781
944.960851	1.000553
945.262628	1.000707
945.564367	0.999854
945.866067	1.000523
946.167729	0.999908
946.469352	1.000924
946.770937	0.997623
947.072484	1.001246
947.373992	1.000165
947.675462	0.999545
947.976893	1.000587
948.278286	1.001545
948.579641	1.000491
948.880958	1.001210
949.182236	1.000701
949.483476	1.001904
949.784678	1.001730
950.085841	0.999426
950.386967	1.001403
950.688054	1.001131
950.989103	0.998715
951.290114	0.999765
951.591087	1.000320
951.892021	0.999009
952.192917	1.001064
952.493776	0.999246
952.794596	0.998788
953.095378	0.999753
953.396122	1.000056
953.696828	1.001339
953.997496	0.999659
954.298126	1.001972
954.598718	1.000437
954.899272	1.001712
955.199788	1.000102
955.500266	1.001913
955.800706	1.000932
956.101108	1.001274
956.401472	1.001961
956.701798	1.001716
957.002087	1.000163
957.302337	1.001485
957.602550	1.001195
957.902724	1.001396
958.202861	1.000330
958.502960	1.001665
958.803022	1.001660
959.103045	1.001017
959.403031	1.001153
959.702979	1.002295
960.002889	1.000902
960.302762	1.001472
960.602596	1.002781
960.902393	1.000448
961.202153	1.000777
961.501875	1.001197
961.801559	1.001858
962.101205	1.000283
962.400814	1.003129
962.700385	1.001864
962.999918	1.000945
963.299414	1.000671
963.598873	1.002133
963.898293	1.001277
964.197677	1.001559
964.497022	1.000828
964.796331	1.001030
965.095601	1.003301
965.394835	1.001813
965.694030	1.002570
965.993189	1.001088
966.292309	1.002426
966.591393	1.000834
966.890439	1.001825
967.189447	1.000902
967.488419	1.001975
967.787353	1.002208
968.086249	1.001789
968.385108	1.001831
968.683930	1.003275
968.982714	1.001953
969.281462	1.000422
969.580172	1.001278
969.878844	1.002127
970.177480	1.001157
970.476078	1.002754
970.774639	1.001975
971.073162	1.000997
971.371649	1.002327
971.670098	1.002561
971.968510	1.002490
972.266885	1.000600
972.565223	1.000602
972.863524	1.000800
973.161788	1.002662
973.460014	1.003266
973.758204	1.002284
974.056356	1.001424
974.354471	1.001162
974.652550	1.002866
974.950591	1.000639
975.248595	1.000656
975.546563	1.002685
975.844493	1.002269
976.142386	1.000485
976.440243	1.003044
976.738062	1.002331
977.035845	1.001175
977.333590	1.002071
977.631299	1.001662
977.928971	1.001752
978.226606	1.001610
978.524204	1.001832
978.821765	1.003809
979.119290	1.002141
979.416777	1.002162
979.714228	1.001895
980.011642	1.002414
980.309020	1.001139
980.606360	1.002311
980.903664	1.001813
981.200931	1.002308
981.498162	1.001871
981.795356	1.001609
982.092513	1.001768
982.389633	1.002423
982.686717	1.000717
982.983764	1.000608
983.280775	1.001239
983.577749	1.001787
983.874686	1.001001
984.171587	0.999815
984.468451	1.001647
984.765279	1.002182
985.062070	1.002763
985.358824	1.002006
985.655543	1.003493
985.952224	1.002092
986.248869	1.001405
986.545478	1.002946
986.842050	1.002809
987.138586	1.001754
987.435086	1.002331
987.731549	1.002687
988.027975	1.002999
988.324366	1.002390
988.620719	1.003259
988.917037	1.002751
989.213318	1.002066
989.509563	1.003586
989.805772	1.003935
990.101944	1.003286
990.398080	1.003542
990.694180	1.004091
990.990244	1.002987
991.286271	1.002104
991.582262	1.003589
991.878217	1.001557
992.174136	1.001957
992.470019	1.002631
992.765865	1.003178
993.061676	1.001485
993.357450	1.002154
993.653188	1.003544
993.948890	1.002432
994.244556	1.001338
994.540186	1.002948
994.835780	1.002520
995.131337	1.003608
995.426859	1.001936
995.722345	1.002340
996.017795	1.002242
996.313208	1.002645
996.608586	1.002068
996.903928	1.002291
997.199234	1.003113
997.494504	1.003311
997.789738	1.001181
998.084936	1.002007
998.380099	1.002062
998.675225	1.002943
998.970316	1.002349
999.265371	1.001735
999.560390	1.002526
999.855373	1.002096
1000.150320	1.002739
1000.445232	1.002692
1000.740108	1.003099
1001.034948	1.003126
1001.329752	1.002605
1001.624521	1.002710
1001.919254	1.002488
1002.213951	1.002759
1002.508613	1.001960
1002.803239	1.001376
1003.097829	1.003064
1003.392384	1.002006
1003.686903	1.003067
1003.981386	1.002343
1004.275834	1.004478
1004.570246	1.001292
1004.864623	1.002853
1005.158964	1.002165
1005.453270	1.002833
1005.747540	1.002363
1006.041775	1.003753
1006.335974	1.002143
1006.630138	1.004367
1006.924266	1.002177
1007.218359	1.001853
1007.512416	1.003399
1007.806438	1.003099
1008.100425	1.003025
1008.394376	1.004301
1008.688292	1.002833
1008.982172	1.002533
1009.276017	1.002722
1009.569827	1.003617
1009.863602	1.001245
1010.157341	1.003115
1010.451045	1.002767
1010.744714	1.004384
1011.038347	1.003693
1011.331945	1.002492
1011.625508	1.002463
1011.919036	1.001959
1012.212528	1.002926
1012.505986	1.002798
1012.799408	1.003625
1013.092795	1.003108
1013.386147	1.004127
1013.679464	1.004463
1013.972745	1.002546
1014.265992	1.002956
1014.559204	1.002803
1014.852380	1.003793
1015.145521	1.002916
1015.438628	1.004024
1015.731699	1.002653
1016.024736	1.002879
1016.317737	1.002795
1016.610703	1.003739
1016.903635	1.002715
1017.196531	1.002197
1017.489393	1.002048
1017.782219	1.002765
1018.075011	1.002643
1018.367768	1.002805
1018.660490	1.003383
1018.953177	1.003383
1019.245829	1.003383
