Dividing Wavelength (nm)	Counts (n)	Blue Motor Position (mm): 44.500000	Red Motor Position (mm): 0.000000	
326.493990	0.999391
326.888308	0.999391
327.282561	0.999391
327.676750	0.999264
328.070874	1.000859
328.464933	1.000346
328.858929	1.000642
329.252859	0.998578
329.646726	0.998225
330.040528	0.999949
330.434265	1.000289
330.827938	0.998511
331.221547	0.999923
331.615091	1.000383
332.008571	1.000819
332.401986	0.998169
332.795338	0.999480
333.188625	0.999925
333.581847	0.999089
333.975006	0.999648
334.368100	1.001005
334.761129	1.000746
335.154095	0.999205
335.546996	1.000086
335.939833	0.999373
336.332606	1.000625
336.725315	0.999442
337.117960	1.000886
337.510540	0.998858
337.903056	0.999339
338.295508	1.001140
338.687896	0.999924
339.080220	0.999970
339.472480	0.999367
339.864676	1.000162
340.256807	0.998920
340.648875	1.000964
341.040879	0.999747
341.432818	1.000405
341.824694	1.000060
342.216506	1.000827
342.608253	1.000218
342.999937	1.000303
343.391557	0.998608
343.783113	1.001065
344.174605	1.000497
344.566033	0.999275
344.957397	1.000570
345.348697	0.999685
345.739934	1.000333
346.131106	0.999195
346.522215	0.998826
346.913260	0.998630
347.304241	0.999348
347.695159	0.999489
348.086012	0.998869
348.476802	0.999408
348.867528	0.998814
349.258191	0.999785
349.648789	1.000219
350.039324	0.998908
350.429796	0.999824
350.820203	0.999081
351.210548	0.999545
351.600828	0.999492
351.991045	0.999379
352.381198	1.000321
352.771288	0.998879
353.161314	0.999114
353.551276	0.999480
353.941175	0.996842
354.331010	0.999485
354.720782	0.999271
355.110490	0.999684
355.500135	0.998684
355.889717	0.999103
356.279235	0.998757
356.668689	0.998903
357.058080	0.999508
357.447408	0.998369
357.836672	0.999953
358.225873	0.998408
358.615010	0.999294
359.004084	0.998099
359.393095	0.998738
359.782043	0.999760
360.170927	0.998603
360.559748	0.999381
360.948505	0.998410
361.337199	0.999789
361.725830	1.000326
362.114398	0.999721
362.502903	0.998408
362.891344	0.998027
363.279722	0.999755
363.668037	0.999693
364.056289	0.998522
364.444478	1.000456
364.832603	0.997867
365.220665	0.999649
365.608665	0.998371
365.996601	0.999508
366.384474	0.997539
366.772284	0.998253
367.160031	0.998162
367.547715	0.997452
367.935336	0.997096
368.322893	0.996197
368.710388	0.994541
369.097820	0.993506
369.485189	0.991900
369.872495	0.989876
370.259738	0.987487
370.646918	0.984912
371.034035	0.982100
371.421090	0.979779
371.808081	0.974483
372.195010	0.971850
372.581875	0.966791
372.968678	0.961880
373.355418	0.959088
373.742096	0.952115
374.128710	0.948174
374.515262	0.943742
374.901751	0.936514
375.288177	0.933034
375.674540	0.927285
376.060841	0.922366
376.447079	0.916446
376.833254	0.911041
377.219367	0.907530
377.605417	0.897815
377.991404	0.896705
378.377329	0.893260
378.763191	0.889563
379.148991	0.884279
379.534727	0.879967
379.920402	0.876319
380.306013	0.875640
380.691563	0.868841
381.077049	0.866688
381.462474	0.866833
381.847835	0.862482
382.233134	0.863918
382.618371	0.867427
383.003545	0.860282
383.388657	0.862802
383.773706	0.862843
384.158693	0.864988
384.543618	0.867082
384.928480	0.867216
385.313280	0.867157
385.698017	0.871324
386.082692	0.871652
386.467305	0.877695
386.851856	0.881311
387.236344	0.884161
387.620770	0.888187
388.005133	0.892674
388.389435	0.896328
388.773674	0.901583
389.157851	0.905131
389.541965	0.910444
389.926018	0.917091
390.310008	0.919572
390.693936	0.924823
391.077802	0.928643
391.461606	0.934017
391.845348	0.937636
392.229027	0.941481
392.612645	0.946445
392.996200	0.948761
393.379694	0.951531
393.763125	0.954716
394.146494	0.959208
394.529801	0.962205
394.913047	0.965754
395.296230	0.970007
395.679351	0.971626
396.062410	0.975445
396.445408	0.978319
396.828343	0.981620
397.211217	0.983031
397.594028	0.985159
397.976778	0.987132
398.359466	0.989558
398.742092	0.990287
399.124656	0.991281
399.507158	0.991680
399.889598	0.993609
400.271977	0.994704
400.654294	0.994444
401.036549	0.996072
401.418742	0.996423
401.800874	0.995767
402.182944	0.996289
402.564952	0.997091
402.946898	0.997458
403.328783	0.998890
403.710606	0.998335
404.092367	0.997440
404.474067	0.998725
404.855705	0.997868
405.237282	0.998649
405.618797	0.999219
406.000250	0.998205
406.381642	0.997659
406.762972	0.999935
407.144240	0.999133
407.525447	0.997794
407.906593	0.997285
408.287677	0.998039
408.668700	0.998520
409.049661	0.999656
409.430560	0.998662
409.811399	0.998314
410.192176	0.998782
410.572891	0.999987
410.953545	0.998968
411.334138	0.998589
411.714669	0.998316
412.095139	0.999643
412.475547	0.999438
412.855894	0.999600
413.236180	0.999264
413.616405	0.998994
413.996568	0.999494
414.376670	0.999062
414.756711	0.999420
415.136691	0.999171
415.516609	0.998582
415.896466	0.999387
416.276262	0.998972
416.655997	0.998585
417.035670	0.999506
417.415283	0.999076
417.794834	0.998585
418.174324	0.999369
418.553753	0.998865
418.933121	0.999242
419.312428	0.999564
419.691674	0.999624
420.070859	0.999548
420.449983	0.999700
420.829045	0.998016
421.208047	0.999905
421.586988	0.999266
421.965867	0.998183
422.344686	0.998968
422.723444	0.999357
423.102141	0.999682
423.480777	0.998287
423.859352	0.998511
424.237866	0.998991
424.616319	0.999915
424.994712	0.999633
425.373044	0.999389
425.751314	0.999320
426.129524	1.000043
426.507673	0.998511
426.885762	0.999248
427.263789	0.999183
427.641756	0.998866
428.019662	0.999479
428.397508	0.999488
428.775292	0.999054
429.153016	0.998699
429.530679	0.999569
429.908282	0.999953
430.285824	0.998756
430.663305	0.999521
431.040726	0.999646
431.418086	0.999326
431.795385	1.000052
432.172624	0.999907
432.549802	0.999433
432.926920	0.999936
433.303977	0.999554
433.680974	1.000066
434.057910	0.999154
434.434786	0.999451
434.811601	1.000202
435.188355	0.999533
435.565050	0.999152
435.941683	0.999535
436.318257	0.998367
436.694770	0.999363
437.071222	1.000036
437.447614	0.999246
437.823946	0.999224
438.200218	0.999796
438.576429	0.999673
438.952580	0.999592
439.328670	0.998847
439.704700	0.999135
440.080670	0.999131
440.456580	0.999305
440.832429	0.999365
441.208218	0.999447
441.583947	1.000127
441.959616	0.999053
442.335224	1.000859
442.710773	1.000472
443.086261	0.999475
443.461689	0.999049
443.837057	0.999424
444.212365	0.999957
444.587612	1.000354
444.962800	0.999820
445.337927	1.000792
445.712995	0.999507
446.088002	0.999151
446.462949	0.999087
446.837837	1.000584
447.212664	0.999813
447.587431	0.999421
447.962139	0.999722
448.336786	0.998842
448.711374	0.999061
449.085901	0.999795
449.460369	1.000264
449.834776	0.999245
450.209124	0.999721
450.583412	1.000310
450.957640	0.999468
451.331808	0.999509
451.705917	0.998626
452.079965	0.999574
452.453954	0.999803
452.827883	0.999644
453.201752	0.999331
453.575562	0.999202
453.949311	0.999931
454.323001	0.999912
454.696632	0.999192
455.070202	0.999437
455.443713	0.999428
455.817164	0.999606
456.190556	0.999481
456.563888	1.000007
456.937160	0.998624
457.310373	0.998623
457.683526	0.999703
458.056619	0.999011
458.429653	0.998793
458.802628	0.998987
459.175542	0.999277
459.548398	0.998705
459.921194	0.999510
460.293930	1.000591
460.666607	1.000344
461.039224	1.000085
461.411782	0.999523
461.784280	0.999101
462.156719	0.999306
462.529099	0.999206
462.901419	0.999810
463.273680	0.998365
463.645882	0.999323
464.018024	0.999576
464.390106	0.999174
464.762130	0.999807
465.134094	0.999800
465.505999	0.999832
465.877845	0.999157
466.249631	0.998999
466.621358	0.998466
466.993026	0.998778
467.364634	0.999322
467.736184	0.999673
468.107674	0.998828
468.479105	0.999073
468.850477	0.999292
469.221790	0.999663
469.593043	0.998734
469.964238	0.998826
470.335373	0.998071
470.706449	0.998704
471.077467	0.999495
471.448425	0.999908
471.819324	0.999894
472.190164	0.999424
472.560945	0.999341
472.931667	0.999851
473.302330	0.999675
473.672934	0.999599
474.043479	1.000095
474.413965	1.000165
474.784393	0.999181
475.154761	0.999059
475.525070	0.999723
475.895321	0.999913
476.265513	0.999473
476.635645	0.999728
477.005719	1.000040
477.375734	0.999294
477.745691	0.999069
478.115588	0.999378
478.485427	0.999319
478.855207	0.999610
479.224928	0.999600
479.594591	0.999322
479.964194	0.999843
480.333739	0.999617
480.703226	0.999059
481.072653	0.999305
481.442022	0.999335
481.811333	0.999312
482.180584	0.999378
482.549777	0.999336
482.918912	1.000230
483.287988	0.999350
483.657005	0.999247
484.025964	0.999709
484.394864	0.998513
484.763706	0.998137
485.132489	0.999003
485.501213	0.999108
485.869879	0.999649
486.238487	0.998665
486.607036	1.000319
486.975527	0.999748
487.343959	0.999100
487.712333	0.999489
488.080648	0.999014
488.448905	0.999355
488.817104	0.999208
489.185244	0.999286
489.553326	0.999776
489.921350	0.999363
490.289315	0.999220
490.657222	0.998796
491.025070	0.999693
491.392861	0.999543
491.760593	0.999146
492.128267	0.999263
492.495883	0.998799
492.863440	0.999526
493.230939	0.999705
493.598380	1.000036
493.965763	0.999091
494.333088	0.998582
494.700354	0.999370
495.067563	0.998523
495.434713	0.999214
495.801805	0.999585
496.168839	0.999609
496.535815	1.000195
496.902733	0.999501
497.269593	0.999322
497.636395	0.998295
498.003139	0.998950
498.369825	0.999611
498.736453	0.999574
499.103023	0.999841
499.469535	0.999287
499.835989	0.999644
500.202385	0.999476
500.568723	0.999591
500.935003	0.999539
501.301226	1.000072
501.667390	0.998777
502.033497	0.999717
502.399546	0.998689
502.765537	0.999254
503.131470	0.998892
503.497345	0.999400
503.863163	0.999089
504.228923	0.999158
504.594625	0.998648
504.960269	0.999517
505.325856	0.999954
505.691385	0.999745
506.056856	0.999229
506.422270	0.999674
506.787625	0.999961
507.152924	0.999393
507.518164	0.999792
507.883347	0.999558
508.248472	0.999323
508.613540	0.998729
508.978550	0.999767
509.343503	0.999702
509.708398	1.000161
510.073236	0.999794
510.438016	0.999195
510.802738	0.999131
511.167403	0.999315
511.532010	0.999332
511.896561	0.999652
512.261053	0.999498
512.625488	0.999699
512.989866	0.999227
513.354186	0.999358
513.718449	0.999274
514.082655	0.999353
514.446803	0.999642
514.810894	1.000129
515.174927	0.999909
515.538904	1.000109
515.902822	0.999617
516.266684	0.999701
516.630488	0.999882
516.994235	1.000020
517.357925	0.999528
517.721558	0.999261
518.085133	0.999368
518.448651	0.999446
518.812112	1.000382
519.175516	0.999383
519.538863	0.998590
519.902152	0.999330
520.265385	0.999403
520.628560	0.998821
520.991678	0.998892
521.354739	0.999553
521.717743	0.999500
522.080690	0.999464
522.443580	0.999295
522.806413	0.998690
523.169189	1.000178
523.531908	0.998982
523.894569	0.999820
524.257174	0.998991
524.619722	0.998974
524.982213	1.000483
525.344647	0.999203
525.707025	0.999114
526.069345	0.999202
526.431608	0.999979
526.793815	0.999982
527.155964	0.999812
527.518057	1.000377
527.880093	0.999004
528.242072	0.999485
528.603995	0.999755
528.965860	1.000131
529.327669	0.998861
529.689421	0.998971
530.051117	0.999365
530.412755	1.000243
530.774337	0.999549
531.135862	0.999393
531.497331	0.998726
531.858743	0.999674
532.220098	0.998962
532.581396	0.999422
532.942638	0.999774
533.303824	1.000189
533.664953	0.999007
534.026025	1.000155
534.387040	0.999205
534.747999	0.999312
535.108902	0.999312
535.469748	1.000064
535.830537	0.999799
536.191270	0.999480
536.551947	0.999087
536.912567	0.999726
537.273131	1.000353
537.633638	0.999407
537.994089	1.000016
538.354483	0.999775
538.714821	1.000102
539.075103	0.999468
539.435328	1.000227
539.795497	0.999846
540.155609	0.999643
540.515665	0.999998
540.875665	0.999363
541.235609	0.999336
541.595496	0.999470
541.955328	0.999488
542.315102	0.999605
542.674821	0.998991
543.034483	1.000119
543.394090	0.999218
543.753640	0.999356
544.113134	0.999519
544.472571	0.999645
544.831953	0.999395
545.191278	0.999617
545.550548	0.999312
545.909761	0.999181
546.268918	0.999989
546.628019	1.000401
546.987064	0.999157
547.346053	0.999431
547.704986	0.998960
548.063863	0.999189
548.422684	0.999663
548.781449	0.999987
549.140158	0.999683
549.498811	0.999213
549.857408	0.999282
550.215949	0.999145
550.574434	0.999210
550.932864	0.999825
551.291237	0.998862
551.649555	1.000179
552.007817	0.999753
552.366022	0.999759
552.724173	0.999807
553.082267	0.999295
553.440305	0.998690
553.798288	0.998451
554.156215	0.999753
554.514086	0.999807
554.871902	0.999503
555.229661	0.999174
555.587365	0.999129
555.945014	0.999772
556.302606	0.999358
556.660143	1.000068
557.017625	1.000201
557.375050	0.999402
557.732421	0.999426
558.089735	0.999024
558.446994	0.998667
558.804197	0.999816
559.161345	0.999449
559.518437	0.999164
559.875474	0.999571
560.232455	0.999219
560.589381	0.999820
560.946251	0.999777
561.303065	0.999822
561.659825	0.999002
562.016528	0.999717
562.373177	0.999141
562.729770	0.999403
563.086307	0.998657
563.442789	0.999549
563.799216	0.998911
564.155587	0.998894
564.511904	0.999952
564.868164	0.998909
565.224370	0.999127
565.580520	0.999443
565.936615	1.000076
566.292654	0.999495
566.648638	0.999563
567.004567	0.998870
567.360441	0.999681
567.716260	0.999029
568.072023	0.998898
568.427732	0.999268
568.783385	0.999286
569.138982	0.999535
569.494525	0.999670
569.850013	1.000043
570.205445	1.000126
570.560823	0.999355
570.916145	0.999263
571.271412	0.999084
571.626625	0.999520
571.981782	0.999704
572.336884	0.999552
572.691931	0.999439
573.046923	0.999988
573.401860	0.999612
573.756743	0.999107
574.111570	0.999524
574.466342	0.999897
574.821059	0.999219
575.175722	0.999701
575.530330	0.999797
575.884882	0.999387
576.239380	0.999393
576.593823	0.999445
576.948211	1.000050
577.302544	0.999252
577.656823	0.999537
578.011047	0.999161
578.365216	0.999646
578.719330	0.999476
579.073389	0.998775
579.427394	0.999745
579.781344	0.999895
580.135239	0.998774
580.489080	0.998861
580.842866	0.999753
581.196597	0.999498
581.550273	0.999250
581.903895	0.999678
582.257463	0.999412
582.610975	0.998530
582.964434	1.000388
583.317837	1.000079
583.671186	1.000073
584.024481	0.999289
584.377721	0.999345
584.730906	0.999839
585.084037	1.000367
585.437113	0.999024
585.790135	0.999718
586.143103	0.999791
586.496016	0.999553
586.848874	0.999997
587.201679	0.999779
587.554428	0.999238
587.907124	1.000233
588.259765	0.999398
588.612352	1.000264
588.964884	0.999500
589.317362	0.999685
589.669786	0.999560
590.022155	0.998889
590.374470	0.999329
590.726731	0.999080
591.078937	0.999702
591.431090	0.999873
591.783188	0.998914
592.135232	1.000079
592.487222	0.999573
592.839157	0.999231
593.191038	0.998573
593.542866	0.999277
593.894639	0.999103
594.246358	0.999809
594.598022	0.998901
594.949633	0.999653
595.301190	0.999275
595.652692	0.999286
596.004141	0.999056
596.355535	0.999453
596.706876	0.999432
597.058162	0.999485
597.409395	0.999447
597.760573	0.999585
598.111698	0.999256
598.462768	0.999410
598.813785	0.999135
599.164748	0.998975
599.515657	0.999058
599.866511	0.999429
600.217312	0.999730
600.568060	0.999310
600.918753	0.999685
601.269392	0.999923
601.619978	0.999409
601.970510	0.998528
602.320988	0.999168
602.671412	0.999026
603.021783	1.000043
603.372100	1.000151
603.722363	0.999634
604.072572	0.999227
604.422728	0.999600
604.772830	0.999267
605.122878	0.999165
605.472872	0.999656
605.822813	0.999185
606.172701	0.999268
606.522534	0.999484
606.872314	0.999601
607.222041	1.000150
607.571714	0.999465
607.921333	0.998793
608.270899	0.998837
608.620411	0.999633
608.969870	0.999983
609.319276	0.999514
609.668627	1.000154
610.017926	0.998907
610.367171	0.999323
610.716362	0.999320
611.065500	0.999117
611.414585	0.999591
611.763616	0.998803
612.112594	0.999034
612.461518	0.998161
612.810389	0.999252
613.159207	0.999199
613.507971	0.998544
613.856682	0.999969
614.205340	0.998559
614.553945	0.999467
614.902496	0.998873
615.250994	0.999123
615.599439	0.999568
615.947830	0.999324
616.296169	0.999495
616.644454	1.000064
616.992686	0.999600
617.340864	0.999971
617.688990	0.999144
618.037063	0.999568
618.385082	0.998561
618.733048	0.998458
619.080961	0.999362
619.428821	0.999839
619.776628	0.998812
620.124382	1.000108
620.472083	0.999491
620.819731	1.000174
621.167326	0.999496
621.514868	0.999406
621.862357	0.999153
622.209793	0.998949
622.557176	0.998731
622.904506	0.998387
623.251783	0.999311
623.599007	0.998848
623.946179	0.999112
624.293297	0.999405
624.640363	0.999656
624.987376	0.998659
625.334336	0.998938
625.681243	0.999405
626.028097	0.999972
626.374899	0.999443
626.721647	1.000548
627.068343	0.999353
627.414987	0.998835
627.761577	0.998545
628.108115	0.998948
628.454600	0.999880
628.801032	0.999101
629.147412	0.999019
629.493739	1.000144
629.840014	0.999377
630.186236	0.998570
630.532405	0.998716
630.878521	0.999014
631.224585	0.998915
631.570597	0.998764
631.916556	0.999327
632.262462	0.998592
632.608316	0.999665
632.954117	0.998572
633.299866	0.999069
633.645562	0.999559
633.991206	0.999461
634.336797	0.999029
634.682336	0.999372
635.027823	0.999268
635.373257	0.999609
635.718639	1.000231
636.063968	0.998699
636.409245	0.998458
636.754470	0.999066
637.099642	1.000010
637.444762	1.000000
637.789829	0.999026
638.134845	0.998863
638.479808	0.999203
638.824719	0.999740
639.169577	0.998958
639.514383	0.999697
639.859137	0.999636
640.203839	0.998888
640.548489	0.999367
640.893086	0.998514
641.237632	0.999546
641.582125	0.999285
641.926566	0.999312
642.270955	0.999221
642.615292	0.998496
642.959576	0.999581
643.303809	0.999212
643.647990	0.998273
643.992118	0.999852
644.336195	0.999138
644.680219	0.998823
645.024192	0.999030
645.368112	0.998979
645.711981	0.999648
646.055797	0.999075
646.399562	0.998615
646.743274	0.999811
647.086935	0.998738
647.430544	0.999410
647.774101	0.998624
648.117606	0.999858
648.461059	0.999380
648.804460	0.999296
649.147810	0.999023
649.491108	0.999386
649.834354	0.999204
650.177548	0.999381
650.520690	0.999052
650.863781	0.999048
651.206820	0.998779
651.549807	0.998826
651.892742	0.999411
652.235626	0.998947
652.578458	0.998668
652.921238	0.999547
653.263967	0.998951
653.606644	0.999317
653.949269	1.000268
654.291843	0.998578
654.634365	0.999741
654.976836	0.999407
655.319255	0.999827
655.661622	0.999982
656.003938	0.999056
656.346203	0.998668
656.688416	1.000294
657.030577	0.999363
657.372687	0.999205
657.714746	0.998763
658.056753	0.999449
658.398708	0.999034
658.740612	0.999994
659.082465	0.998532
659.424266	0.998791
659.766016	0.998112
660.107715	0.999659
660.449362	0.999186
660.790958	0.999201
661.132503	1.000131
661.473996	0.998092
661.815438	0.999232
662.156829	0.999325
662.498168	0.999341
662.839456	0.998083
663.180693	0.998893
663.521879	0.999389
663.863013	0.999202
664.204097	0.998753
664.545129	0.998727
664.886110	0.999343
665.227040	0.999427
665.567918	0.998725
665.908746	0.998606
666.249522	0.998572
666.590248	0.998508
666.930922	0.998915
667.271545	0.999386
667.612118	0.999007
667.952639	0.998212
668.293109	0.999519
668.633528	0.998169
668.973896	0.999215
669.314213	0.998734
669.654480	0.999094
669.994695	0.998224
670.334859	0.999138
670.674973	0.998739
671.015035	0.998860
671.355047	0.998529
671.695008	0.998344
672.034918	0.998866
672.374777	0.999390
672.714585	0.998939
673.054342	0.999666
673.394049	0.998575
673.733705	0.998330
674.073310	0.998509
674.412864	0.998283
674.752368	0.999480
675.091820	1.000230
675.431223	0.999858
675.770574	0.998550
676.109875	0.999473
676.449125	0.998699
676.788324	0.998500
677.127473	0.999376
677.466571	0.998857
677.805619	0.999372
678.144616	0.999334
678.483562	0.998703
678.822458	0.999186
679.161303	0.997942
679.500098	0.999626
679.838842	0.999760
680.177535	0.998864
680.516179	0.998950
680.854771	0.999040
681.193314	0.998583
681.531805	0.998256
681.870247	0.999182
682.208638	0.999145
682.546978	0.999608
682.885268	0.998721
683.223508	0.998597
683.561697	0.998930
683.899836	0.999161
684.237925	0.997928
684.575963	0.999224
684.913951	0.998706
685.251889	0.997697
685.589776	0.998296
685.927614	0.998795
686.265401	0.998693
686.603137	0.998577
686.940824	0.999399
687.278460	0.999055
687.616046	0.998707
687.953582	0.999030
688.291068	0.999420
688.628504	0.998281
688.965889	0.998265
689.303224	0.997130
689.640510	0.998505
689.977745	0.998729
690.314930	0.998555
690.652065	0.998352
690.989150	0.998673
691.326185	0.998957
691.663170	0.998370
692.000105	0.998324
692.336990	0.998952
692.673825	0.997861
693.010610	0.997977
693.347345	0.999496
693.684030	0.998455
694.020665	0.998203
694.357251	0.998063
694.693786	0.998056
695.030272	0.997059
695.366707	0.997937
695.703093	0.998967
696.039429	0.998143
696.375716	0.998665
696.711952	0.998738
697.048139	0.998175
697.384276	0.999189
697.720363	0.998845
698.056400	0.997629
698.392388	0.997949
698.728326	0.998573
699.064214	0.999789
699.400053	0.998265
699.735842	0.999388
700.071581	0.998205
700.407270	0.997828
700.742910	0.999347
701.078501	0.998390
701.414042	0.999098
701.749533	0.997319
702.084974	0.999429
702.420366	0.998193
702.755709	0.998359
703.091002	0.998083
703.426246	0.999982
703.761440	0.998127
704.096584	0.998146
704.431679	0.998178
704.766725	0.998633
705.101721	0.999289
705.436668	0.998803
705.771565	0.998360
706.106413	0.997528
706.441212	0.998065
706.775961	0.999161
707.110661	0.996668
707.445311	0.999504
707.779913	0.999378
708.114465	0.999797
708.448967	0.998106
708.783421	0.998933
709.117825	0.998887
709.452180	0.998938
709.786485	0.998843
710.120742	0.998683
710.454949	0.997736
710.789107	0.998308
711.123216	0.997799
711.457275	0.998374
711.791286	0.998604
712.125247	1.000247
712.459159	0.997417
712.793023	0.998170
713.126837	0.998791
713.460602	0.998467
713.794318	0.997301
714.127985	0.998023
714.461602	0.997892
714.795171	0.998029
715.128691	0.998111
715.462162	0.999058
715.795584	0.998754
716.128957	0.998605
716.462281	0.999666
716.795556	0.998005
717.128782	0.999667
717.461960	0.998741
717.795088	0.998283
718.128167	0.999762
718.461198	0.998391
718.794180	0.999675
719.127113	0.999023
719.459997	0.997898
719.792833	0.998145
720.125619	0.999143
720.458357	0.998395
720.791046	0.998789
721.123686	0.998834
721.456278	0.997799
721.788821	0.998347
722.121315	0.999735
722.453761	0.998661
722.786158	0.998028
723.118506	0.998992
723.450805	0.997793
723.783056	0.999251
724.115259	0.998051
724.447412	0.999001
724.779518	0.998754
725.111574	0.997487
725.443582	0.999606
725.775542	0.998548
726.107453	0.999012
726.439315	0.998925
726.771129	0.999239
727.102895	0.998651
727.434612	0.998364
727.766281	0.999014
728.097901	0.998398
728.429473	0.998946
728.760996	0.998184
729.092471	0.999038
729.423897	0.999540
729.755276	0.998404
730.086606	0.997904
730.417887	0.998383
730.749120	0.999138
731.080305	0.998067
731.411442	0.997749
731.742530	0.998135
732.073570	0.998750
732.404562	0.998081
732.735506	0.998635
733.066401	0.998702
733.397249	0.998627
733.728048	0.999230
734.058798	0.999203
734.389501	0.998337
734.720156	0.998896
735.050762	0.999286
735.381320	0.997619
735.711831	0.998187
736.042293	0.997753
736.372707	0.998599
736.703073	0.997763
737.033391	0.997741
737.363661	0.999633
737.693883	0.998272
738.024056	0.999217
738.354182	0.999262
738.684260	0.998577
739.014290	0.998947
739.344272	0.998069
739.674207	0.999446
740.004093	0.999202
740.333931	0.999144
740.663722	0.997852
740.993464	0.998628
741.323159	0.999010
741.652806	0.998344
741.982405	0.999786
742.311956	0.999208
742.641460	0.999667
742.970915	0.998768
743.300323	0.998030
743.629683	0.998209
743.958996	0.998650
744.288260	0.997778
744.617477	0.999061
744.946647	0.998500
745.275768	0.999291
745.604842	0.996853
745.933869	0.999545
746.262847	0.998754
746.591778	0.997481
746.920662	1.000498
747.249498	0.999704
747.578286	1.000375
747.907027	0.998943
748.235720	1.000038
748.564365	0.998589
748.892963	0.998293
749.221514	0.999505
749.550017	0.997736
749.878473	0.998888
750.206881	0.999422
750.535242	0.998390
750.863555	0.997303
751.191821	0.999401
751.520039	0.997632
751.848210	0.997602
752.176334	0.999104
752.504411	0.997245
752.832440	0.997981
753.160421	0.998917
753.488356	0.999643
753.816243	0.999295
754.144082	0.998345
754.471875	0.999619
754.799620	1.000369
755.127318	0.998759
755.454969	0.999371
755.782572	0.999212
756.110129	0.998789
756.437638	0.999338
756.765100	0.998520
757.092515	0.998362
757.419882	0.999202
757.747203	0.998175
758.074477	0.999310
758.401703	0.998761
758.728882	0.998507
759.056014	0.998401
759.383099	0.999162
759.710138	0.998696
760.037129	0.998861
760.364073	0.999645
760.690970	0.999066
761.017820	0.998536
761.344623	0.999405
761.671379	0.999661
761.998088	0.998670
762.324751	0.999067
762.651366	0.998094
762.977935	0.998060
763.304456	0.998783
763.630931	0.996867
763.957359	0.997115
764.283740	0.997656
764.610074	0.998431
764.936362	0.998204
765.262602	0.998196
765.588796	0.998813
765.914943	0.998722
766.241044	0.998705
766.567097	0.997961
766.893104	0.998231
767.219064	0.997683
767.544978	0.998143
767.870845	0.998053
768.196665	0.998287
768.522438	0.999067
768.848165	0.999995
769.173846	0.998312
769.499479	0.999257
769.825066	0.999945
770.150607	0.999734
770.476101	0.999732
770.801548	0.998898
771.126949	1.000343
771.452303	0.999505
771.777611	0.999657
772.102872	0.998930
772.428087	0.998779
772.753256	0.998669
773.078378	0.999533
773.403453	0.999037
773.728482	1.001055
774.053465	0.998733
774.378401	0.999104
774.703291	1.000010
775.028135	0.999154
775.352932	0.998134
775.677683	1.000112
776.002388	0.999340
776.327046	0.998843
776.651658	0.999973
776.976224	0.999430
777.300743	0.998259
777.625216	0.999312
777.949643	0.998937
778.274024	0.998419
778.598359	0.998856
778.922647	0.999381
779.246889	0.999251
779.571086	0.999677
779.895236	0.997895
780.219339	0.998965
780.543397	0.999270
780.867409	0.998919
781.191374	0.999418
781.515294	1.000827
781.839167	1.001005
782.162995	0.999343
782.486776	0.999265
782.810511	0.999067
783.134201	0.999352
783.457844	0.999012
783.781441	0.998690
784.104993	0.998247
784.428498	0.999451
784.751958	1.000225
785.075372	0.999228
785.398739	0.998796
785.722061	0.998508
786.045337	0.999874
786.368568	0.999620
786.691752	0.997854
787.014891	0.997765
787.337983	0.997385
787.661030	0.998730
787.984031	0.999429
788.306987	0.999065
788.629897	0.998337
788.952760	0.998707
789.275579	0.999286
789.598351	0.999095
789.921078	1.000053
790.243759	0.999602
790.566395	0.998834
790.888984	0.999827
791.211529	0.999239
791.534027	0.998616
791.856480	0.999646
792.178888	0.999501
792.501249	0.998333
792.823566	0.999326
793.145836	0.999514
793.468062	0.999696
793.790241	0.999974
794.112375	0.998717
794.434464	0.999051
794.756507	0.999209
795.078505	0.999700
795.400457	0.999257
795.722364	1.000087
796.044226	0.999713
796.366042	0.998093
796.687812	0.998817
797.009538	0.998691
797.331218	0.999664
797.652852	1.000288
797.974442	0.998647
798.295986	0.999083
798.617484	0.998193
798.938938	0.999179
799.260346	0.999410
799.581709	0.998693
799.903026	0.998896
800.224299	0.999346
800.545526	0.998915
800.866708	0.998797
801.187845	0.999168
801.508936	0.999318
801.829983	0.999354
802.150984	0.999833
802.471940	0.999570
802.792851	0.998251
803.113717	0.999601
803.434538	0.999949
803.755314	1.000493
804.076045	1.000070
804.396731	0.999340
804.717372	0.998211
805.037967	1.000568
805.358518	0.999312
805.679024	0.998607
805.999485	0.999823
806.319901	0.999565
806.640272	1.000156
806.960598	0.999273
807.280879	1.000445
807.601115	0.999530
807.921306	0.999783
808.241453	0.998759
808.561554	0.998940
808.881611	0.999882
809.201623	0.999397
809.521590	0.999073
809.841513	0.999941
810.161390	0.997545
810.481223	0.998603
810.801011	0.999660
811.120755	0.999869
811.440453	0.998707
811.760107	0.999094
812.079716	0.999073
812.399281	0.998551
812.718801	0.998956
813.038276	0.998974
813.357707	0.998935
813.677093	0.999536
813.996434	0.999172
814.315731	1.000497
814.634983	0.998261
814.954191	0.999255
815.273354	0.998901
815.592473	0.999566
815.911547	0.999174
816.230577	0.998984
816.549562	0.999269
816.868502	0.998195
817.187399	0.999457
817.506250	0.999393
817.825058	0.999534
818.143821	0.998913
818.462539	0.999839
818.781213	0.998877
819.099843	0.999262
819.418429	0.998716
819.736970	0.999435
820.055466	0.997855
820.373919	0.998953
820.692327	0.997964
821.010691	0.998209
821.329011	0.998300
821.647286	0.996707
821.965517	0.996484
822.283704	0.997031
822.601847	0.996519
822.919945	0.995686
823.237999	0.996161
823.556010	0.996292
823.873976	0.996577
824.191897	0.997483
824.509775	0.997974
824.827609	0.998287
825.145398	0.999372
825.463144	0.996672
825.780845	0.997424
826.098502	0.997276
826.416116	0.997903
826.733685	0.998123
827.051210	0.997273
827.368692	0.997685
827.686129	0.996847
828.003522	0.998326
828.320872	0.998372
828.638177	0.997847
828.955439	0.998682
829.272656	0.999147
829.589830	0.998959
829.906960	0.999500
830.224046	0.997887
830.541088	0.999542
830.858086	0.998783
831.175041	0.999960
831.491952	0.998841
831.808819	0.998769
832.125642	0.999111
832.442421	0.998704
832.759157	1.000670
833.075849	0.998838
833.392497	0.998803
833.709101	0.998398
834.025662	0.998688
834.342179	0.999007
834.658653	0.999116
834.975083	0.998520
835.291469	0.999219
835.607811	0.997883
835.924110	0.998900
836.240366	0.999544
836.556578	0.999778
836.872746	0.999368
837.188871	0.999355
837.504952	0.999690
837.820990	0.999537
838.136984	0.997856
838.452935	1.000675
838.768842	0.999790
839.084706	0.999074
839.400526	1.000110
839.716303	0.998381
840.032037	0.999445
840.347727	0.999848
840.663373	0.998536
840.978977	0.998884
841.294537	1.000134
841.610054	1.000283
841.925527	1.000166
842.240957	1.000309
842.556344	1.000192
842.871687	0.998360
843.186987	0.998951
843.502244	0.999666
843.817458	0.999169
844.132629	0.999137
844.447756	0.999551
844.762840	0.999583
845.077881	1.000829
845.392879	0.998598
845.707833	0.999565
846.022745	0.999379
846.337613	0.999787
846.652438	0.999063
846.967221	0.999713
847.281960	0.999531
847.596656	1.000096
847.911309	0.999414
848.225919	0.999190
848.540485	0.999015
848.855009	1.000838
849.169490	0.999615
849.483928	0.998549
849.798323	0.999258
850.112675	0.999898
850.426984	1.000308
850.741251	0.999996
851.055474	0.999347
851.369654	0.999950
851.683792	0.998643
851.997887	0.998836
852.311938	0.999835
852.625947	0.998462
852.939914	0.999411
853.253837	1.000661
853.567718	1.000412
853.881555	0.999805
854.195350	0.999753
854.509103	0.999930
854.822812	1.000675
855.136479	0.998400
855.450103	1.000920
855.763685	0.999922
856.077224	1.000247
856.390720	0.999847
856.704173	1.000695
857.017584	1.000424
857.330953	0.999620
857.644278	0.999191
857.957561	0.999714
858.270802	1.000286
858.584000	0.999930
858.897155	0.998739
859.210268	0.999272
859.523339	1.000712
859.836367	0.999202
860.149352	0.999077
860.462295	0.999064
860.775195	0.999297
861.088054	0.997607
861.400869	0.998331
861.713642	0.998163
862.026373	0.999731
862.339062	0.999499
862.651708	1.000187
862.964312	0.999807
863.276873	0.999283
863.589392	0.999986
863.901869	0.998444
864.214303	0.999997
864.526696	0.999144
864.839045	1.000076
865.151353	0.998982
865.463619	0.998919
865.775842	1.000531
866.088023	1.000241
866.400162	1.000109
866.712258	1.000610
867.024313	0.999697
867.336325	1.000457
867.648296	1.000923
867.960224	0.999326
868.272110	0.999455
868.583954	0.999905
868.895755	1.001074
869.207515	0.998920
869.519233	1.000381
869.830909	0.999372
870.142542	0.999104
870.454134	1.000139
870.765684	0.999628
871.077191	0.999974
871.388657	1.000240
871.700081	0.999343
872.011463	1.000056
872.322803	1.000483
872.634101	0.999146
872.945357	0.998942
873.256571	0.998155
873.567744	0.999725
873.878874	0.999023
874.189963	0.998857
874.501010	1.001825
874.812015	0.999914
875.122979	0.999079
875.433900	0.999358
875.744780	1.001145
876.055618	0.998641
876.366415	0.999107
876.677169	1.000177
876.987882	1.000494
877.298554	1.000807
877.609183	0.999272
877.919771	0.999825
878.230317	0.999977
878.540822	0.999129
878.851285	0.999801
879.161707	0.999517
879.472087	1.000492
879.782425	0.998718
880.092722	0.999116
880.402977	0.998537
880.713191	0.997405
881.023363	0.998143
881.333494	0.996645
881.643583	0.998128
881.953631	0.997128
882.263637	0.996962
882.573602	0.997758
882.883526	0.997862
883.193408	0.998864
883.503248	0.998274
883.813048	0.997952
884.122806	0.998701
884.432522	0.998252
884.742197	0.999381
885.051831	0.997558
885.361424	0.999000
885.670975	1.000518
885.980485	0.999264
886.289954	0.998933
886.599382	0.998954
886.908768	1.000289
887.218113	0.999077
887.527417	1.000398
887.836680	0.999887
888.145901	1.000643
888.455082	1.000820
888.764221	1.000182
889.073319	0.999678
889.382376	0.999887
889.691392	0.998011
890.000366	1.000038
890.309300	1.000441
890.618193	0.999791
890.927044	0.999544
891.235855	0.999000
891.544625	1.000072
891.853353	0.998869
892.162041	0.999552
892.470687	1.000174
892.779293	0.999056
893.087858	0.998140
893.396381	1.000150
893.704864	0.999485
894.013306	0.999227
894.321707	0.999821
894.630068	0.998322
894.938387	0.998321
895.246665	0.998740
895.554903	0.997494
895.863100	0.998393
896.171256	0.999152
896.479371	0.998904
896.787446	0.998760
897.095480	0.999394
897.403473	0.999133
897.711425	1.000237
898.019336	1.000039
898.327207	0.999856
898.635038	0.998960
898.942827	0.999902
899.250576	0.998752
899.558284	0.999331
899.865952	0.999257
900.173579	0.998412
900.481165	0.999459
900.788711	0.998777
901.096216	0.998686
901.403681	0.999892
901.711105	1.000105
902.018489	0.999556
902.325832	0.999823
902.633135	1.000614
902.940397	1.000198
903.247619	0.999370
903.554800	0.999413
903.861941	0.999267
904.169041	0.999605
904.476101	0.999123
904.783121	0.998028
905.090100	0.999307
905.397039	0.999334
905.703938	0.999179
906.010796	0.998234
906.317614	0.998339
906.624391	0.999593
906.931129	0.999738
907.237826	1.000315
907.544483	0.999283
907.851099	0.999195
908.157675	0.999577
908.464211	0.999174
908.770707	0.999349
909.077163	1.000237
909.383578	0.999682
909.689954	0.998532
909.996289	0.999798
910.302584	0.999701
910.608839	1.000626
910.915054	0.999625
911.221229	1.000766
911.527363	0.999423
911.833458	0.999109
912.139513	0.999406
912.445527	1.000095
912.751502	0.999419
913.057436	0.999406
913.363331	1.000664
913.669186	1.001468
913.975000	0.998463
914.280775	0.999730
914.586510	0.998692
914.892205	0.999685
915.197859	0.998399
915.503475	0.999521
915.809050	0.999089
916.114585	0.997848
916.420081	0.998690
916.725536	0.999611
917.030952	0.999310
917.336328	0.998063
917.641665	0.998067
917.946961	0.998431
918.252218	0.999002
918.557435	0.997525
918.862612	0.999234
919.167750	0.999506
919.472848	0.999500
919.777906	1.001317
920.082925	1.000604
920.387904	0.999462
920.692843	0.999722
920.997743	0.999036
921.302603	0.999945
921.607423	0.998636
921.912204	0.999430
922.216946	0.999642
922.521647	0.999648
922.826310	0.998954
923.130932	1.000611
923.435516	1.000511
923.740059	0.999469
924.044564	0.998687
924.349028	0.999570
924.653454	0.999474
924.957840	0.998607
925.262186	1.000010
925.566493	0.999212
925.870761	0.999464
926.174989	0.999262
926.479178	0.999264
926.783328	1.000319
927.087438	0.999984
927.391509	1.000158
927.695541	0.999634
927.999533	1.000512
928.303486	0.999100
928.607400	0.999805
928.911275	0.999900
929.215110	1.000016
929.518906	1.001556
929.822663	0.999578
930.126381	1.000931
930.430060	1.000599
930.733699	1.000512
931.037299	1.000372
931.340861	1.000404
931.644383	0.998952
931.947866	1.000429
932.251309	0.999916
932.554714	0.999665
932.858080	1.000243
933.161407	0.999982
933.464694	0.999734
933.767943	1.000714
934.071153	0.999571
934.374323	1.000452
934.677455	0.998342
934.980548	0.999216
935.283602	0.999895
935.586617	0.999136
935.889593	1.001475
936.192530	1.000908
936.495428	1.000556
936.798287	1.000036
937.101108	0.999119
937.403890	0.999310
937.706632	1.001737
938.009336	1.000432
938.312002	0.998768
938.614628	1.000376
938.917216	0.998898
939.219765	0.999948
939.522275	1.000267
939.824747	0.999635
940.127179	0.999463
940.429573	1.000283
940.731929	0.998866
941.034246	0.998798
941.336524	1.000288
941.638763	1.000702
941.940964	1.000088
942.243126	0.999294
942.545250	0.999503
942.847335	0.999818
943.149381	1.000116
943.451389	1.000293
943.753359	0.999777
944.055290	1.001872
944.357182	0.999865
944.659036	0.999879
944.960851	0.999224
945.262628	1.000803
945.564367	0.999341
945.866067	0.999092
946.167729	1.000610
946.469352	0.999933
946.770937	0.996811
947.072484	1.000522
947.373992	1.000272
947.675462	0.999119
947.976893	0.999089
948.278286	1.001196
948.579641	0.999864
948.880958	1.000337
949.182236	1.000871
949.483476	1.000311
949.784678	0.999618
950.085841	0.999186
950.386967	0.999981
950.688054	0.999491
950.989103	0.998472
951.290114	0.999099
951.591087	0.999993
951.892021	0.999516
952.192917	0.998999
952.493776	0.999630
952.794596	0.999153
953.095378	0.999912
953.396122	0.999493
953.696828	0.999421
953.997496	1.000256
954.298126	0.999983
954.598718	0.999871
954.899272	1.000298
955.199788	0.998956
955.500266	1.000078
955.800706	0.999848
956.101108	0.999191
956.401472	1.001055
956.701798	1.000082
957.002087	0.999937
957.302337	0.998623
957.602550	0.999493
957.902724	0.998860
958.202861	0.998166
958.502960	0.998910
958.803022	1.000124
959.103045	0.999378
959.403031	1.000715
959.702979	1.000082
960.002889	0.999141
960.302762	0.998979
960.602596	1.000442
960.902393	1.001027
961.202153	1.001004
961.501875	1.000604
961.801559	1.001087
962.101205	0.999158
962.400814	1.001425
962.700385	1.000390
962.999918	1.000162
963.299414	0.999620
963.598873	1.000379
963.898293	1.000007
964.197677	0.998470
964.497022	0.999551
964.796331	0.999478
965.095601	0.999926
965.394835	0.999489
965.694030	1.000477
965.993189	0.999428
966.292309	1.001169
966.591393	0.999050
966.890439	1.001226
967.189447	0.999106
967.488419	0.998695
967.787353	0.998790
968.086249	0.999806
968.385108	0.999227
968.683930	1.000874
968.982714	0.999277
969.281462	1.000105
969.580172	0.999667
969.878844	1.000152
970.177480	0.999191
970.476078	1.001018
970.774639	0.999098
971.073162	0.998966
971.371649	0.999669
971.670098	0.999168
971.968510	0.999661
972.266885	0.999616
972.565223	0.999577
972.863524	0.999630
973.161788	1.000015
973.460014	1.001548
973.758204	0.999885
974.056356	0.999039
974.354471	0.998893
974.652550	1.000846
974.950591	0.999642
975.248595	0.999485
975.546563	1.001086
975.844493	1.000616
976.142386	0.999266
976.440243	0.999098
976.738062	1.000191
977.035845	1.000037
977.333590	0.999987
977.631299	0.999202
977.928971	0.999526
978.226606	0.999305
978.524204	0.999347
978.821765	1.000421
979.119290	1.000413
979.416777	0.999348
979.714228	0.999508
980.011642	0.999951
980.309020	0.998282
980.606360	0.998765
980.903664	0.999925
981.200931	0.999286
981.498162	0.999832
981.795356	1.000179
982.092513	0.999754
982.389633	1.000649
982.686717	0.999477
982.983764	0.999798
983.280775	0.999964
983.577749	1.000023
983.874686	0.998312
984.171587	1.000173
984.468451	0.999695
984.765279	1.000525
985.062070	0.999606
985.358824	0.999040
985.655543	0.999917
985.952224	1.000495
986.248869	0.999172
986.545478	1.001202
986.842050	1.000182
987.138586	0.999222
987.435086	0.999933
987.731549	0.999886
988.027975	0.999869
988.324366	0.999690
988.620719	1.000600
988.917037	0.999463
989.213318	1.000005
989.509563	1.000316
989.805772	0.999925
990.101944	0.999875
990.398080	1.000084
990.694180	1.000951
990.990244	0.999215
991.286271	1.000271
991.582262	1.000504
991.878217	0.998924
992.174136	1.000643
992.470019	0.999621
992.765865	1.001263
993.061676	0.999616
993.357450	1.000057
993.653188	1.001601
993.948890	0.999969
994.244556	0.999064
994.540186	0.999911
994.835780	0.999003
995.131337	1.000282
995.426859	1.000402
995.722345	1.000258
996.017795	0.998531
996.313208	0.999447
996.608586	0.999568
996.903928	1.000131
997.199234	0.999243
997.494504	1.000711
997.789738	0.998844
998.084936	1.000029
998.380099	0.998886
998.675225	1.001176
998.970316	1.000492
999.265371	1.000225
999.560390	0.999222
999.855373	0.999011
1000.150320	1.000372
1000.445232	1.000073
1000.740108	0.999568
1001.034948	0.998689
1001.329752	1.000642
1001.624521	0.999777
1001.919254	0.998987
1002.213951	1.000442
1002.508613	0.999191
1002.803239	0.999380
1003.097829	1.000253
1003.392384	0.998619
1003.686903	1.000288
1003.981386	0.999367
1004.275834	1.002000
1004.570246	0.998509
1004.864623	1.000229
1005.158964	1.000562
1005.453270	0.999325
1005.747540	1.000168
1006.041775	1.000187
1006.335974	0.999409
1006.630138	1.000385
1006.924266	0.999303
1007.218359	0.997830
1007.512416	1.000195
1007.806438	0.999159
1008.100425	1.001135
1008.394376	0.999107
1008.688292	0.999656
1008.982172	0.998827
1009.276017	1.000290
1009.569827	1.001649
1009.863602	0.998543
1010.157341	1.000937
1010.451045	0.998891
1010.744714	1.000905
1011.038347	1.000217
1011.331945	0.999154
1011.625508	0.999580
1011.919036	0.999340
1012.212528	1.001023
1012.505986	1.000279
1012.799408	0.999590
1013.092795	1.000294
1013.386147	0.999495
1013.679464	1.000344
1013.972745	0.999118
1014.265992	1.000534
1014.559204	0.999590
1014.852380	1.001248
1015.145521	1.000348
1015.438628	0.998904
1015.731699	0.999593
1016.024736	1.000287
1016.317737	0.999756
1016.610703	1.000192
1016.903635	0.999144
1017.196531	0.999348
1017.489393	0.999109
1017.782219	0.999390
1018.075011	0.998965
1018.367768	0.999911
1018.660490	1.000413
1018.953177	1.000413
1019.245829	1.000413
