Dividing Wavelength (nm)	Counts (n)	Blue Motor Position (mm): 1.500000	Red Motor Position (mm): 0.000000	
326.493990	1.005916
326.888308	1.005916
327.282561	1.005916
327.676750	1.007844
328.070874	1.008167
328.464933	1.007692
328.858929	1.007989
329.252859	1.007389
329.646726	1.006741
330.040528	1.007547
330.434265	1.007091
330.827938	1.006066
331.221547	1.005870
331.615091	1.006556
332.008571	1.008033
332.401986	1.006050
332.795338	1.005337
333.188625	1.006725
333.581847	1.005887
333.975006	1.007079
334.368100	1.006415
334.761129	1.005692
335.154095	1.006518
335.546996	1.004341
335.939833	0.999142
336.332606	1.000686
336.725315	0.999092
337.117960	1.000932
337.510540	0.998050
337.903056	1.000301
338.295508	1.000676
338.687896	0.999478
339.080220	1.000133
339.472480	0.998072
339.864676	1.000740
340.256807	0.998929
340.648875	0.999939
341.040879	0.999822
341.432818	0.999295
341.824694	0.998575
342.216506	0.999846
342.608253	0.999069
342.999937	0.999546
343.391557	0.999394
343.783113	1.001811
344.174605	1.000158
344.566033	1.000067
344.957397	1.000193
345.348697	0.999282
345.739934	0.999592
346.131106	0.999626
346.522215	0.998910
346.913260	0.999925
347.304241	0.998923
347.695159	1.000263
348.086012	0.998620
348.476802	0.999280
348.867528	0.998391
349.258191	1.000122
349.648789	1.000167
350.039324	0.999731
350.429796	0.998475
350.820203	0.998871
351.210548	0.999349
351.600828	0.999396
351.991045	0.998365
352.381198	0.999570
352.771288	0.998368
353.161314	0.999591
353.551276	0.998195
353.941175	0.997729
354.331010	0.998891
354.720782	0.999712
355.110490	0.998525
355.500135	0.999718
355.889717	0.997689
356.279235	0.998609
356.668689	0.999921
357.058080	0.998578
357.447408	0.997794
357.836672	0.998912
358.225873	0.997835
358.615010	0.998128
359.004084	0.997791
359.393095	0.998791
359.782043	0.998455
360.170927	0.999610
360.559748	0.999289
360.948505	0.997629
361.337199	0.998276
361.725830	0.998303
362.114398	0.997845
362.502903	0.997250
362.891344	0.997252
363.279722	0.996691
363.668037	0.997975
364.056289	0.997729
364.444478	0.998915
364.832603	0.996877
365.220665	0.997936
365.608665	0.997734
365.996601	0.997054
366.384474	0.996150
366.772284	0.996279
367.160031	0.996492
367.547715	0.996510
367.935336	0.995517
368.322893	0.994625
368.710388	0.993186
369.097820	0.991775
369.485189	0.988312
369.872495	0.988654
370.259738	0.985050
370.646918	0.982411
371.034035	0.979725
371.421090	0.975763
371.808081	0.971012
372.195010	0.969868
372.581875	0.963831
372.968678	0.960610
373.355418	0.955919
373.742096	0.949681
374.128710	0.944573
374.515262	0.939764
374.901751	0.934580
375.288177	0.928705
375.674540	0.922288
376.060841	0.916525
376.447079	0.909981
376.833254	0.904073
377.219367	0.897894
377.605417	0.886247
377.991404	0.882583
378.377329	0.877450
378.763191	0.870247
379.148991	0.861806
379.534727	0.854332
379.920402	0.846084
380.306013	0.841710
380.691563	0.829058
381.077049	0.824223
381.462474	0.819156
381.847835	0.807904
382.233134	0.802507
382.618371	0.803272
383.003545	0.786245
383.388657	0.783291
383.773706	0.775732
384.158693	0.772397
384.543618	0.766602
384.928480	0.758011
385.313280	0.747835
385.698017	0.747226
386.082692	0.735686
386.467305	0.734281
386.851856	0.729340
387.236344	0.724082
387.620770	0.717793
388.005133	0.712923
388.389435	0.707341
388.773674	0.704545
389.157851	0.695569
389.541965	0.694334
389.926018	0.700745
390.310008	0.686050
390.693936	0.683784
391.077802	0.676179
391.461606	0.677518
391.845348	0.667253
392.229027	0.666070
392.612645	0.663918
392.996200	0.651514
393.379694	0.644000
393.763125	0.634799
394.146494	0.639240
394.529801	0.629564
394.913047	0.621964
395.296230	0.627776
395.679351	0.618792
396.062410	0.615730
396.445408	0.618418
396.828343	0.613767
397.211217	0.608508
397.594028	0.620856
397.976778	0.611048
398.359466	0.607781
398.742092	0.603376
399.124656	0.614483
399.507158	0.603106
399.889598	0.601066
400.271977	0.592286
400.654294	0.595959
401.036549	0.594973
401.418742	0.599148
401.800874	0.585439
402.182944	0.581758
402.564952	0.573617
402.946898	0.575494
403.328783	0.576010
403.710606	0.586634
404.092367	0.562801
404.474067	0.567523
404.855705	0.566754
405.237282	0.574974
405.618797	0.560919
406.000250	0.556256
406.381642	0.546489
406.762972	0.552610
407.144240	0.550850
407.525447	0.550705
407.906593	0.543326
408.287677	0.538891
408.668700	0.547478
409.049661	0.541353
409.430560	0.536107
409.811399	0.545442
410.192176	0.527008
410.572891	0.533997
410.953545	0.521867
411.334138	0.535449
411.714669	0.527680
412.095139	0.540011
412.475547	0.523938
412.855894	0.525780
413.236180	0.524890
413.616405	0.530316
413.996568	0.520818
414.376670	0.527194
414.756711	0.532045
415.136691	0.528025
415.516609	0.520267
415.896466	0.516431
416.276262	0.512628
416.655997	0.513604
417.035670	0.495485
417.415283	0.487453
417.794834	0.492327
418.174324	0.498028
418.553753	0.506934
418.933121	0.489056
419.312428	0.482991
419.691674	0.488757
420.070859	0.477218
420.449983	0.484991
420.829045	0.473175
421.208047	0.483105
421.586988	0.475915
421.965867	0.474828
422.344686	0.463330
422.723444	0.476836
423.102141	0.493150
423.480777	0.466546
423.859352	0.486548
424.237866	0.464308
424.616319	0.464772
424.994712	0.455821
425.373044	0.466095
425.751314	0.453935
426.129524	0.470507
426.507673	0.454405
426.885762	0.448219
427.263789	0.453404
427.641756	0.462509
428.019662	0.453332
428.397508	0.452525
428.775292	0.457002
429.153016	0.448674
429.530679	0.454949
429.908282	0.448092
430.285824	0.458176
430.663305	0.436569
431.040726	0.457847
431.418086	0.458031
431.795385	0.449442
432.172624	0.448841
432.549802	0.448985
432.926920	0.447900
433.303977	0.447352
433.680974	0.444448
434.057910	0.442986
434.434786	0.441896
434.811601	0.444834
435.188355	0.427303
435.565050	0.436768
435.941683	0.438032
436.318257	0.421298
436.694770	0.422766
437.071222	0.420931
437.447614	0.425423
437.823946	0.431647
438.200218	0.421197
438.576429	0.430750
438.952580	0.423695
439.328670	0.420225
439.704700	0.427346
440.080670	0.428287
440.456580	0.409249
440.832429	0.417195
441.208218	0.428034
441.583947	0.417444
441.959616	0.416598
442.335224	0.422358
442.710773	0.412850
443.086261	0.411114
443.461689	0.425016
443.837057	0.414887
444.212365	0.404969
444.587612	0.411889
444.962800	0.401701
445.337927	0.403550
445.712995	0.429412
446.088002	0.391139
446.462949	0.401791
446.837837	0.406666
447.212664	0.395051
447.587431	0.386641
447.962139	0.357393
448.336786	0.316486
448.711374	0.326547
449.085901	0.371052
449.460369	0.375518
449.834776	0.378606
450.209124	0.358185
450.583412	0.351006
450.957640	0.343653
451.331808	0.355328
451.705917	0.378875
452.079965	0.383329
452.453954	0.371666
452.827883	0.378192
453.201752	0.373285
453.575562	0.384480
453.949311	0.372558
454.323001	0.379053
454.696632	0.375390
455.070202	0.367616
455.443713	0.359142
455.817164	0.353875
456.190556	0.350537
456.563888	0.346141
456.937160	0.344246
457.310373	0.361005
457.683526	0.360385
458.056619	0.365992
458.429653	0.366587
458.802628	0.370061
459.175542	0.363989
459.548398	0.346391
459.921194	0.339080
460.293930	0.339453
460.666607	0.317067
461.039224	0.304897
461.411782	0.300582
461.784280	0.299884
462.156719	0.304080
462.529099	0.308563
462.901419	0.324364
463.273680	0.328935
463.645882	0.328011
464.018024	0.334557
464.390106	0.327142
464.762130	0.311671
465.134094	0.294760
465.505999	0.263629
465.877845	0.233935
466.249631	0.220811
466.621358	0.228290
466.993026	0.242183
467.364634	0.248427
467.736184	0.257243
468.107674	0.265981
468.479105	0.265057
468.850477	0.272036
469.221790	0.278665
469.593043	0.289453
469.964238	0.293647
470.335373	0.293372
470.706449	0.291527
471.077467	0.292078
471.448425	0.254016
471.819324	0.229235
472.190164	0.229043
472.560945	0.257741
472.931667	0.280572
473.302330	0.284529
473.672934	0.296276
474.043479	0.284456
474.413965	0.286487
474.784393	0.289594
475.154761	0.284727
475.525070	0.281650
475.895321	0.287506
476.265513	0.282072
476.635645	0.277051
477.005719	0.276934
477.375734	0.273886
477.745691	0.266645
478.115588	0.263226
478.485427	0.256755
478.855207	0.243518
479.224928	0.225998
479.594591	0.213937
479.964194	0.217178
480.333739	0.218521
480.703226	0.219844
481.072653	0.218584
481.442022	0.214085
481.811333	0.210723
482.180584	0.214068
482.549777	0.219655
482.918912	0.222880
483.287988	0.222576
483.657005	0.222041
484.025964	0.228791
484.394864	0.225942
484.763706	0.226511
485.132489	0.231685
485.501213	0.232520
485.869879	0.230621
486.238487	0.234007
486.607036	0.232113
486.975527	0.236681
487.343959	0.232552
487.712333	0.231398
488.080648	0.232674
488.448905	0.232047
488.817104	0.233113
489.185244	0.227635
489.553326	0.224677
489.921350	0.214485
490.289315	0.196884
490.657222	0.191903
491.025070	0.193013
491.392861	0.195049
491.760593	0.201006
492.128267	0.206735
492.495883	0.211973
492.863440	0.218523
493.230939	0.224749
493.598380	0.226193
493.965763	0.228455
494.333088	0.230520
494.700354	0.232202
495.067563	0.231336
495.434713	0.234666
495.801805	0.232199
496.168839	0.233735
496.535815	0.235359
496.902733	0.235126
497.269593	0.236469
497.636395	0.234194
498.003139	0.234627
498.369825	0.237822
498.736453	0.234219
499.103023	0.235584
499.469535	0.235325
499.835989	0.235506
500.202385	0.236336
500.568723	0.239525
500.935003	0.234804
501.301226	0.239002
501.667390	0.233032
502.033497	0.231135
502.399546	0.234285
502.765537	0.236259
503.131470	0.234696
503.497345	0.230957
503.863163	0.239537
504.228923	0.232679
504.594625	0.231106
504.960269	0.236543
505.325856	0.232249
505.691385	0.236344
506.056856	0.233254
506.422270	0.232333
506.787625	0.235078
507.152924	0.232321
507.518164	0.232515
507.883347	0.234279
508.248472	0.236396
508.613540	0.231207
508.978550	0.233565
509.343503	0.234295
509.708398	0.231924
510.073236	0.229622
510.438016	0.229047
510.802738	0.230223
511.167403	0.229068
511.532010	0.231022
511.896561	0.226713
512.261053	0.225186
512.625488	0.227572
512.989866	0.227936
513.354186	0.227985
513.718449	0.230219
514.082655	0.226453
514.446803	0.228763
514.810894	0.226003
515.174927	0.229104
515.538904	0.228504
515.902822	0.225444
516.266684	0.227574
516.630488	0.229046
516.994235	0.227663
517.357925	0.226693
517.721558	0.224953
518.085133	0.224145
518.448651	0.224158
518.812112	0.226746
519.175516	0.226409
519.538863	0.223853
519.902152	0.225703
520.265385	0.222416
520.628560	0.224219
520.991678	0.224329
521.354739	0.223336
521.717743	0.224467
522.080690	0.224974
522.443580	0.222444
522.806413	0.223078
523.169189	0.222547
523.531908	0.221491
523.894569	0.225017
524.257174	0.224871
524.619722	0.222780
524.982213	0.224064
525.344647	0.222387
525.707025	0.223297
526.069345	0.221617
526.431608	0.223372
526.793815	0.221219
527.155964	0.225520
527.518057	0.224425
527.880093	0.225482
528.242072	0.224116
528.603995	0.225679
528.965860	0.227418
529.327669	0.226675
529.689421	0.227607
530.051117	0.228077
530.412755	0.226159
530.774337	0.228311
531.135862	0.229136
531.497331	0.227704
531.858743	0.230870
532.220098	0.227433
532.581396	0.230175
532.942638	0.230547
533.303824	0.231654
533.664953	0.231184
534.026025	0.232970
534.387040	0.231087
534.747999	0.230942
535.108902	0.229680
535.469748	0.235116
535.830537	0.232806
536.191270	0.233394
536.551947	0.232607
536.912567	0.232798
537.273131	0.234335
537.633638	0.234821
537.994089	0.234988
538.354483	0.235895
538.714821	0.232861
539.075103	0.232931
539.435328	0.233466
539.795497	0.237138
540.155609	0.233676
540.515665	0.232168
540.875665	0.237648
541.235609	0.236123
541.595496	0.236336
541.955328	0.233070
542.315102	0.235609
542.674821	0.236678
543.034483	0.236920
543.394090	0.236134
543.753640	0.238091
544.113134	0.232882
544.472571	0.236391
544.831953	0.233180
545.191278	0.237809
545.550548	0.236877
545.909761	0.233764
546.268918	0.234693
546.628019	0.232632
546.987064	0.235558
547.346053	0.237028
547.704986	0.234960
548.063863	0.235320
548.422684	0.235662
548.781449	0.237418
549.140158	0.235166
549.498811	0.238011
549.857408	0.241090
550.215949	0.235400
550.574434	0.238788
550.932864	0.237113
551.291237	0.235196
551.649555	0.237032
552.007817	0.236608
552.366022	0.237601
552.724173	0.237859
553.082267	0.237935
553.440305	0.234851
553.798288	0.239123
554.156215	0.235964
554.514086	0.236572
554.871902	0.239723
555.229661	0.238917
555.587365	0.239510
555.945014	0.242065
556.302606	0.238971
556.660143	0.241531
557.017625	0.238103
557.375050	0.240331
557.732421	0.237319
558.089735	0.239225
558.446994	0.239180
558.804197	0.238378
559.161345	0.238207
559.518437	0.241851
559.875474	0.239794
560.232455	0.239153
560.589381	0.240205
560.946251	0.240500
561.303065	0.238030
561.659825	0.239228
562.016528	0.240879
562.373177	0.243855
562.729770	0.241302
563.086307	0.242835
563.442789	0.240732
563.799216	0.243597
564.155587	0.242409
564.511904	0.243674
564.868164	0.243941
565.224370	0.243553
565.580520	0.245266
565.936615	0.245334
566.292654	0.248153
566.648638	0.245233
567.004567	0.245923
567.360441	0.246449
567.716260	0.248583
568.072023	0.246044
568.427732	0.247000
568.783385	0.249552
569.138982	0.247593
569.494525	0.247025
569.850013	0.250302
570.205445	0.248685
570.560823	0.251101
570.916145	0.253156
571.271412	0.251634
571.626625	0.253264
571.981782	0.253144
572.336884	0.254321
572.691931	0.253966
573.046923	0.255351
573.401860	0.256362
573.756743	0.258382
574.111570	0.256787
574.466342	0.257443
574.821059	0.256931
575.175722	0.259689
575.530330	0.259140
575.884882	0.259541
576.239380	0.261498
576.593823	0.262125
576.948211	0.261646
577.302544	0.264877
577.656823	0.264650
578.011047	0.264305
578.365216	0.265429
578.719330	0.267423
579.073389	0.266559
579.427394	0.268097
579.781344	0.268974
580.135239	0.270571
580.489080	0.270188
580.842866	0.273354
581.196597	0.273110
581.550273	0.271672
581.903895	0.272760
582.257463	0.270766
582.610975	0.274089
582.964434	0.273356
583.317837	0.276033
583.671186	0.276438
584.024481	0.276734
584.377721	0.279243
584.730906	0.279573
585.084037	0.279002
585.437113	0.280778
585.790135	0.280097
586.143103	0.283060
586.496016	0.284136
586.848874	0.281740
587.201679	0.282179
587.554428	0.285935
587.907124	0.284775
588.259765	0.285260
588.612352	0.285861
588.964884	0.289633
589.317362	0.289125
589.669786	0.288950
590.022155	0.287616
590.374470	0.287170
590.726731	0.289133
591.078937	0.294126
591.431090	0.290270
591.783188	0.294570
592.135232	0.295132
592.487222	0.294525
592.839157	0.293099
593.191038	0.295292
593.542866	0.297093
593.894639	0.300442
594.246358	0.298843
594.598022	0.298359
594.949633	0.302276
595.301190	0.303010
595.652692	0.301666
596.004141	0.297824
596.355535	0.305752
596.706876	0.306523
597.058162	0.309192
597.409395	0.305995
597.760573	0.303538
598.111698	0.307215
598.462768	0.307497
598.813785	0.308526
599.164748	0.310244
599.515657	0.310441
599.866511	0.313975
600.217312	0.309017
600.568060	0.314439
600.918753	0.310737
601.269392	0.311625
601.619978	0.315075
601.970510	0.312792
602.320988	0.312846
602.671412	0.310465
603.021783	0.313084
603.372100	0.314509
603.722363	0.313967
604.072572	0.315240
604.422728	0.314752
604.772830	0.317007
605.122878	0.316646
605.472872	0.317288
605.822813	0.315569
606.172701	0.318205
606.522534	0.315377
606.872314	0.315491
607.222041	0.316416
607.571714	0.314277
607.921333	0.316049
608.270899	0.315554
608.620411	0.312568
608.969870	0.316690
609.319276	0.316255
609.668627	0.316322
610.017926	0.314618
610.367171	0.313494
610.716362	0.314435
611.065500	0.314275
611.414585	0.313392
611.763616	0.312994
612.112594	0.313972
612.461518	0.312986
612.810389	0.311280
613.159207	0.313348
613.507971	0.315223
613.856682	0.311267
614.205340	0.311976
614.553945	0.309404
614.902496	0.313440
615.250994	0.311547
615.599439	0.311967
615.947830	0.311252
616.296169	0.312698
616.644454	0.311952
616.992686	0.312143
617.340864	0.309734
617.688990	0.313627
618.037063	0.310139
618.385082	0.311758
618.733048	0.308892
619.080961	0.310811
619.428821	0.310574
619.776628	0.309814
620.124382	0.312288
620.472083	0.312868
620.819731	0.311614
621.167326	0.315700
621.514868	0.315479
621.862357	0.319832
622.209793	0.319239
622.557176	0.321938
622.904506	0.322886
623.251783	0.325423
623.599007	0.327236
623.946179	0.326728
624.293297	0.328968
624.640363	0.332871
624.987376	0.333487
625.334336	0.335565
625.681243	0.337717
626.028097	0.338715
626.374899	0.339890
626.721647	0.340420
627.068343	0.343004
627.414987	0.344225
627.761577	0.346227
628.108115	0.344680
628.454600	0.350183
628.801032	0.347485
629.147412	0.349091
629.493739	0.349953
629.840014	0.352804
630.186236	0.349909
630.532405	0.355864
630.878521	0.353069
631.224585	0.355536
631.570597	0.359236
631.916556	0.357693
632.262462	0.357540
632.608316	0.359915
632.954117	0.360596
633.299866	0.361591
633.645562	0.361730
633.991206	0.366379
634.336797	0.369207
634.682336	0.371546
635.027823	0.372778
635.373257	0.373997
635.718639	0.377444
636.063968	0.376732
636.409245	0.382612
636.754470	0.382346
637.099642	0.385185
637.444762	0.388978
637.789829	0.387507
638.134845	0.391267
638.479808	0.392181
638.824719	0.391960
639.169577	0.396319
639.514383	0.395183
639.859137	0.399645
640.203839	0.398951
640.548489	0.399489
640.893086	0.400639
641.237632	0.402277
641.582125	0.401131
641.926566	0.403204
642.270955	0.403243
642.615292	0.402889
642.959576	0.402116
643.303809	0.402842
643.647990	0.402556
643.992118	0.402822
644.336195	0.405979
644.680219	0.404404
645.024192	0.405353
645.368112	0.399057
645.711981	0.397706
646.055797	0.393467
646.399562	0.395239
646.743274	0.388818
647.086935	0.384980
647.430544	0.384934
647.774101	0.384500
648.117606	0.384218
648.461059	0.384586
648.804460	0.386677
649.147810	0.392075
649.491108	0.393666
649.834354	0.395227
650.177548	0.400338
650.520690	0.406374
650.863781	0.407128
651.206820	0.406438
651.549807	0.411239
651.892742	0.414985
652.235626	0.414552
652.578458	0.415639
652.921238	0.422040
653.263967	0.419460
653.606644	0.423683
653.949269	0.423443
654.291843	0.426922
654.634365	0.424304
654.976836	0.426598
655.319255	0.427162
655.661622	0.428753
656.003938	0.428535
656.346203	0.431581
656.688416	0.429654
657.030577	0.433304
657.372687	0.435414
657.714746	0.436136
658.056753	0.432493
658.398708	0.436685
658.740612	0.438039
659.082465	0.433773
659.424266	0.434661
659.766016	0.434056
660.107715	0.437848
660.449362	0.435874
660.790958	0.435768
661.132503	0.437204
661.473996	0.434521
661.815438	0.435518
662.156829	0.435464
662.498168	0.436130
662.839456	0.437346
663.180693	0.435690
663.521879	0.435206
663.863013	0.436242
664.204097	0.434397
664.545129	0.431787
664.886110	0.431965
665.227040	0.429885
665.567918	0.432077
665.908746	0.430010
666.249522	0.429594
666.590248	0.430921
666.930922	0.428404
667.271545	0.427779
667.612118	0.427882
667.952639	0.429700
668.293109	0.428408
668.633528	0.431227
668.973896	0.430185
669.314213	0.431093
669.654480	0.433012
669.994695	0.432871
670.334859	0.433978
670.674973	0.434550
671.015035	0.434737
671.355047	0.434170
671.695008	0.434924
672.034918	0.436893
672.374777	0.436666
672.714585	0.437614
673.054342	0.437387
673.394049	0.438031
673.733705	0.435383
674.073310	0.437056
674.412864	0.439605
674.752368	0.439713
675.091820	0.440599
675.431223	0.444977
675.770574	0.444199
676.109875	0.447420
676.449125	0.447226
676.788324	0.450323
677.127473	0.455262
677.466571	0.455142
677.805619	0.456704
678.144616	0.458123
678.483562	0.459797
678.822458	0.462135
679.161303	0.462622
679.500098	0.463471
679.838842	0.465192
680.177535	0.464604
680.516179	0.463072
680.854771	0.462122
681.193314	0.455552
681.531805	0.446846
681.870247	0.435202
682.208638	0.427631
682.546978	0.427442
682.885268	0.428651
683.223508	0.435220
683.561697	0.438864
683.899836	0.441189
684.237925	0.444728
684.575963	0.447050
684.913951	0.450721
685.251889	0.446201
685.589776	0.448346
685.927614	0.450811
686.265401	0.445195
686.603137	0.445955
686.940824	0.440189
687.278460	0.438538
687.616046	0.437825
687.953582	0.432567
688.291068	0.433846
688.628504	0.429534
688.965889	0.431983
689.303224	0.435931
689.640510	0.439528
689.977745	0.445050
690.314930	0.453264
690.652065	0.458147
690.989150	0.465829
691.326185	0.472800
691.663170	0.476557
692.000105	0.483879
692.336990	0.491010
692.673825	0.493740
693.010610	0.500470
693.347345	0.506589
693.684030	0.508168
694.020665	0.512048
694.357251	0.520949
694.693786	0.521215
695.030272	0.523753
695.366707	0.529015
695.703093	0.532288
696.039429	0.529464
696.375716	0.532450
696.711952	0.533732
697.048139	0.535546
697.384276	0.538102
697.720363	0.536705
698.056400	0.535100
698.392388	0.541307
698.728326	0.543853
699.064214	0.546535
699.400053	0.547827
699.735842	0.551578
700.071581	0.554409
700.407270	0.557367
700.742910	0.559385
701.078501	0.566314
701.414042	0.566741
701.749533	0.569364
702.084974	0.579057
702.420366	0.570996
702.755709	0.578397
703.091002	0.586900
703.426246	0.580564
703.761440	0.585346
704.096584	0.590190
704.431679	0.586898
704.766725	0.589892
705.101721	0.591126
705.436668	0.587340
705.771565	0.594615
706.106413	0.590393
706.441212	0.587050
706.775961	0.585347
707.110661	0.587741
707.445311	0.584585
707.779913	0.581835
708.114465	0.579811
708.448967	0.576882
708.783421	0.568776
709.117825	0.563569
709.452180	0.562734
709.786485	0.557589
710.120742	0.546972
710.454949	0.548428
710.789107	0.540575
711.123216	0.531171
711.457275	0.533126
711.791286	0.524182
712.125247	0.523644
712.459159	0.533811
712.793023	0.525931
713.126837	0.530341
713.460602	0.530475
713.794318	0.539619
714.127985	0.538856
714.461602	0.549794
714.795171	0.552773
715.128691	0.560296
715.462162	0.568066
715.795584	0.573886
716.128957	0.576655
716.462281	0.583253
716.795556	0.586662
717.128782	0.592128
717.461960	0.601545
717.795088	0.600229
718.128167	0.606533
718.461198	0.614279
718.794180	0.615672
719.127113	0.617442
719.459997	0.621383
719.792833	0.627839
720.125619	0.629223
720.458357	0.634428
720.791046	0.634225
721.123686	0.638592
721.456278	0.645469
721.788821	0.642357
722.121315	0.647583
722.453761	0.651184
722.786158	0.649608
723.118506	0.644817
723.450805	0.653104
723.783056	0.650631
724.115259	0.646397
724.447412	0.646071
724.779518	0.647383
725.111574	0.646317
725.443582	0.642118
725.775542	0.644765
726.107453	0.635198
726.439315	0.635955
726.771129	0.635354
727.102895	0.628484
727.434612	0.620177
727.766281	0.619053
728.097901	0.617626
728.429473	0.617044
728.760996	0.615634
729.092471	0.616318
729.423897	0.619542
729.755276	0.618687
730.086606	0.618464
730.417887	0.614214
730.749120	0.604699
731.080305	0.594782
731.411442	0.590624
731.742530	0.595229
732.073570	0.594839
732.404562	0.587395
732.735506	0.588050
733.066401	0.593485
733.397249	0.602380
733.728048	0.613951
734.058798	0.626674
734.389501	0.638141
734.720156	0.648495
735.050762	0.655984
735.381320	0.656144
735.711831	0.664868
736.042293	0.669696
736.372707	0.666800
736.703073	0.670364
737.033391	0.672935
737.363661	0.669620
737.693883	0.666056
738.024056	0.664637
738.354182	0.664347
738.684260	0.653911
739.014290	0.650564
739.344272	0.650447
739.674207	0.644286
740.004093	0.643593
740.333931	0.643710
740.663722	0.644042
740.993464	0.644533
741.323159	0.648338
741.652806	0.652713
741.982405	0.658078
742.311956	0.662960
742.641460	0.664938
742.970915	0.668790
743.300323	0.676253
743.629683	0.682211
743.958996	0.685024
744.288260	0.688108
744.617477	0.695535
744.946647	0.696659
745.275768	0.703037
745.604842	0.701301
745.933869	0.711704
746.262847	0.713275
746.591778	0.705746
746.920662	0.712563
747.249498	0.719289
747.578286	0.711105
747.907027	0.706589
748.235720	0.706733
748.564365	0.702744
748.892963	0.701825
749.221514	0.705175
749.550017	0.708957
749.878473	0.710165
750.206881	0.716651
750.535242	0.717171
750.863555	0.715720
751.191821	0.717269
751.520039	0.721444
751.848210	0.725442
752.176334	0.718871
752.504411	0.717483
752.832440	0.725078
753.160421	0.728242
753.488356	0.727530
753.816243	0.724765
754.144082	0.734021
754.471875	0.737380
754.799620	0.733433
755.127318	0.733882
755.454969	0.734427
755.782572	0.734979
756.110129	0.738228
756.437638	0.741562
756.765100	0.738210
757.092515	0.735576
757.419882	0.734082
757.747203	0.739964
758.074477	0.740061
758.401703	0.735974
758.728882	0.731896
759.056014	0.730444
759.383099	0.729766
759.710138	0.729677
760.037129	0.726125
760.364073	0.720834
760.690970	0.723501
761.017820	0.727722
761.344623	0.724274
761.671379	0.716092
761.998088	0.703335
762.324751	0.680279
762.651366	0.637806
762.977935	0.569688
763.304456	0.517795
763.630931	0.507868
763.957359	0.547451
764.283740	0.591653
764.610074	0.619903
764.936362	0.651894
765.262602	0.678933
765.588796	0.700114
765.914943	0.717110
766.241044	0.736144
766.567097	0.742107
766.893104	0.753077
767.219064	0.759521
767.544978	0.765714
767.870845	0.779753
768.196665	0.783192
768.522438	0.781408
768.848165	0.785145
769.173846	0.792023
769.499479	0.796591
769.825066	0.800342
770.150607	0.805415
770.476101	0.800510
770.801548	0.802223
771.126949	0.814068
771.452303	0.817548
771.777611	0.815812
772.102872	0.814502
772.428087	0.820743
772.753256	0.824584
773.078378	0.826375
773.403453	0.834694
773.728482	0.838366
774.053465	0.832971
774.378401	0.835589
774.703291	0.844910
775.028135	0.844466
775.352932	0.844998
775.677683	0.849450
776.002388	0.849720
776.327046	0.850477
776.651658	0.854819
776.976224	0.856070
777.300743	0.855441
777.625216	0.858077
777.949643	0.860605
778.274024	0.859182
778.598359	0.861236
778.922647	0.860191
779.246889	0.861897
779.571086	0.863634
779.895236	0.866701
780.219339	0.865414
780.543397	0.859878
780.867409	0.860230
781.191374	0.861118
781.515294	0.863448
781.839167	0.862890
782.162995	0.865441
782.486776	0.862611
782.810511	0.863474
783.134201	0.868158
783.457844	0.864492
783.781441	0.868059
784.104993	0.872041
784.428498	0.874255
784.751958	0.869669
785.075372	0.872299
785.398739	0.875826
785.722061	0.871552
786.045337	0.868315
786.368568	0.872149
786.691752	0.874496
787.014891	0.860608
787.337983	0.850810
787.661030	0.844196
787.984031	0.826119
788.306987	0.813695
788.629897	0.813957
788.952760	0.819627
789.275579	0.823498
789.598351	0.839041
789.921078	0.852203
790.243759	0.853419
790.566395	0.859648
790.888984	0.866447
791.211529	0.871683
791.534027	0.875129
791.856480	0.877836
792.178888	0.882073
792.501249	0.884343
792.823566	0.886724
793.145836	0.886259
793.468062	0.887154
793.790241	0.888998
794.112375	0.885938
794.434464	0.884191
794.756507	0.881430
795.078505	0.880416
795.400457	0.875004
795.722364	0.863616
796.044226	0.856559
796.366042	0.854557
796.687812	0.857369
797.009538	0.853512
797.331218	0.858514
797.652852	0.862253
797.974442	0.865981
798.295986	0.868103
798.617484	0.869344
798.938938	0.873742
799.260346	0.879284
799.581709	0.880368
799.903026	0.884174
800.224299	0.883521
800.545526	0.886664
800.866708	0.891333
801.187845	0.895910
801.508936	0.894305
801.829983	0.892381
802.150984	0.897590
802.471940	0.901651
802.792851	0.900415
803.113717	0.901402
803.434538	0.899209
803.755314	0.902255
804.076045	0.904193
804.396731	0.903729
804.717372	0.902021
805.037967	0.905775
805.358518	0.903636
805.679024	0.899094
805.999485	0.899734
806.319901	0.898821
806.640272	0.902620
806.960598	0.899828
807.280879	0.896222
807.601115	0.895091
807.921306	0.899512
808.241453	0.898985
808.561554	0.897791
808.881611	0.897103
809.201623	0.898973
809.521590	0.899114
809.841513	0.900365
810.161390	0.898728
810.481223	0.899757
810.801011	0.905036
811.120755	0.906665
811.440453	0.904641
811.760107	0.904724
812.079716	0.904263
812.399281	0.906690
812.718801	0.909553
813.038276	0.910975
813.357707	0.910624
813.677093	0.908180
813.996434	0.909774
814.315731	0.911959
814.634983	0.913844
814.954191	0.913277
815.273354	0.908010
815.592473	0.904575
815.911547	0.905301
816.230577	0.901810
816.549562	0.899349
816.868502	0.898260
817.187399	0.896233
817.506250	0.891323
817.825058	0.892586
818.143821	0.888606
818.462539	0.884992
818.781213	0.876628
819.099843	0.865235
819.418429	0.848286
819.736970	0.831253
820.055466	0.810446
820.373919	0.783890
820.692327	0.750842
821.010691	0.714493
821.329011	0.634533
821.647286	0.517647
821.965517	0.402659
822.283704	0.359730
822.601847	0.360337
822.919945	0.395334
823.237999	0.430750
823.556010	0.479395
823.873976	0.535421
824.191897	0.587112
824.509775	0.630316
824.827609	0.676330
825.145398	0.700041
825.463144	0.701412
825.780845	0.684614
826.098502	0.665904
826.416116	0.620096
826.733685	0.574622
827.051210	0.565742
827.368692	0.581300
827.686129	0.619893
828.003522	0.674180
828.320872	0.723259
828.638177	0.766385
828.955439	0.800792
829.272656	0.822337
829.589830	0.840247
829.906960	0.856147
830.224046	0.868772
830.541088	0.879573
830.858086	0.884063
831.175041	0.890173
831.491952	0.889926
831.808819	0.886358
832.125642	0.878247
832.442421	0.866184
832.759157	0.842198
833.075849	0.793387
833.392497	0.729060
833.709101	0.687395
834.025662	0.697825
834.342179	0.729585
834.658653	0.769486
834.975083	0.806420
835.291469	0.833657
835.607811	0.856957
835.924110	0.874186
836.240366	0.889872
836.556578	0.903257
836.872746	0.910911
837.188871	0.918222
837.504952	0.923170
837.820990	0.927005
838.136984	0.930168
838.452935	0.934291
838.768842	0.934433
839.084706	0.928894
839.400526	0.901836
839.716303	0.860530
840.032037	0.837730
840.347727	0.840681
840.663373	0.859959
840.978977	0.882495
841.294537	0.906131
841.610054	0.922073
841.925527	0.929050
842.240957	0.936854
842.556344	0.944307
842.871687	0.949501
843.186987	0.952872
843.502244	0.955273
843.817458	0.956470
844.132629	0.959509
844.447756	0.964499
844.762840	0.964330
845.077881	0.965610
845.392879	0.963672
845.707833	0.967032
846.022745	0.969692
846.337613	0.970536
846.652438	0.970067
846.967221	0.970247
847.281960	0.970673
847.596656	0.972465
847.911309	0.972110
848.225919	0.971757
848.540485	0.973081
848.855009	0.974264
849.169490	0.974150
849.483928	0.973938
849.798323	0.973934
850.112675	0.975914
850.426984	0.975083
850.741251	0.975042
851.055474	0.974900
851.369654	0.973558
851.683792	0.973203
851.997887	0.975117
852.311938	0.974466
852.625947	0.974683
852.939914	0.972444
853.253837	0.974302
853.567718	0.975161
853.881555	0.974850
854.195350	0.974532
854.509103	0.974635
854.822812	0.975442
855.136479	0.976829
855.450103	0.975133
855.763685	0.973530
856.077224	0.975143
856.390720	0.976815
856.704173	0.973619
857.017584	0.973746
857.330953	0.972184
857.644278	0.973174
857.957561	0.973172
858.270802	0.973650
858.584000	0.973660
858.897155	0.971509
859.210268	0.972629
859.523339	0.974954
859.836367	0.975870
860.149352	0.974242
860.462295	0.974505
860.775195	0.975144
861.088054	0.973319
861.400869	0.975364
861.713642	0.974813
862.026373	0.976837
862.339062	0.975247
862.651708	0.974605
862.964312	0.973457
863.276873	0.972427
863.589392	0.972543
863.901869	0.970725
864.214303	0.969158
864.526696	0.969067
864.839045	0.967740
865.151353	0.967544
865.463619	0.966141
865.775842	0.966997
866.088023	0.968355
866.400162	0.966139
866.712258	0.968857
867.024313	0.967357
867.336325	0.969022
867.648296	0.969046
867.960224	0.966822
868.272110	0.966885
868.583954	0.969700
868.895755	0.969269
869.207515	0.966566
869.519233	0.964156
869.830909	0.965654
870.142542	0.966311
870.454134	0.966153
870.765684	0.964712
871.077191	0.964436
871.388657	0.962391
871.700081	0.963943
872.011463	0.964195
872.322803	0.962851
872.634101	0.960738
872.945357	0.957914
873.256571	0.956990
873.567744	0.958293
873.878874	0.957291
874.189963	0.957283
874.501010	0.957139
874.812015	0.953486
875.122979	0.955372
875.433900	0.957151
875.744780	0.958399
876.055618	0.954393
876.366415	0.953660
876.677169	0.954081
876.987882	0.954681
877.298554	0.955110
877.609183	0.951209
877.919771	0.949572
878.230317	0.946699
878.540822	0.943505
878.851285	0.937694
879.161707	0.930016
879.472087	0.918037
879.782425	0.900401
880.092722	0.864813
880.402977	0.810703
880.713191	0.747574
881.023363	0.686415
881.333494	0.651186
881.643583	0.623768
881.953631	0.624322
882.263637	0.652924
882.573602	0.692873
882.883526	0.718618
883.193408	0.745410
883.503248	0.767836
883.813048	0.795459
884.122806	0.826486
884.432522	0.851308
884.742197	0.871147
885.051831	0.881682
885.361424	0.893124
885.670975	0.905885
885.980485	0.914857
886.289954	0.921431
886.599382	0.926123
886.908768	0.931507
887.218113	0.935974
887.527417	0.942033
887.836680	0.946399
888.145901	0.948514
888.455082	0.950833
888.764221	0.954809
889.073319	0.955972
889.382376	0.958073
889.691392	0.956192
890.000366	0.957102
890.309300	0.958296
890.618193	0.957514
890.927044	0.955513
891.235855	0.955436
891.544625	0.955738
891.853353	0.955916
892.162041	0.952529
892.470687	0.946854
892.779293	0.941756
893.087858	0.936341
893.396381	0.927782
893.704864	0.913699
894.013306	0.891139
894.321707	0.863160
894.630068	0.847919
894.938387	0.841495
895.246665	0.843553
895.554903	0.855938
895.863100	0.871081
896.171256	0.887813
896.479371	0.907955
896.787446	0.920510
897.095480	0.927952
897.403473	0.930265
897.711425	0.935304
898.019336	0.943339
898.327207	0.948362
898.635038	0.947316
898.942827	0.949838
899.250576	0.953221
899.558284	0.957735
899.865952	0.958196
900.173579	0.959047
900.481165	0.960344
900.788711	0.962859
901.096216	0.965591
901.403681	0.966454
901.711105	0.966009
902.018489	0.967011
902.325832	0.965746
902.633135	0.964996
902.940397	0.959970
903.247619	0.945860
903.554800	0.920463
903.861941	0.880012
904.169041	0.841711
904.476101	0.823078
904.783121	0.824364
905.090100	0.841228
905.397039	0.863280
905.703938	0.887095
906.010796	0.905921
906.317614	0.924755
906.624391	0.938131
906.931129	0.947846
907.237826	0.956096
907.544483	0.962961
907.851099	0.968178
908.157675	0.971565
908.464211	0.973747
908.770707	0.976670
909.077163	0.980272
909.383578	0.979130
909.689954	0.980581
909.996289	0.980661
910.302584	0.982815
910.608839	0.984775
910.915054	0.983860
911.221229	0.982812
911.527363	0.980836
911.833458	0.982252
912.139513	0.981975
912.445527	0.982261
912.751502	0.979828
913.057436	0.977483
913.363331	0.976023
913.669186	0.971810
913.975000	0.966292
914.280775	0.959532
914.586510	0.951906
914.892205	0.937297
915.197859	0.915639
915.503475	0.888286
915.809050	0.866656
916.114585	0.860794
916.420081	0.857225
916.725536	0.854709
917.030952	0.862233
917.336328	0.876869
917.641665	0.891344
917.946961	0.908773
918.252218	0.919524
918.557435	0.928902
918.862612	0.938293
919.167750	0.943620
919.472848	0.950720
919.777906	0.956431
920.082925	0.962326
920.387904	0.964899
920.692843	0.966312
920.997743	0.968536
921.302603	0.971500
921.607423	0.973821
921.912204	0.976675
922.216946	0.977723
922.521647	0.978158
922.826310	0.978575
923.130932	0.982629
923.435516	0.985034
923.740059	0.984254
924.044564	0.983953
924.349028	0.984711
924.653454	0.987959
924.957840	0.989020
925.262186	0.989480
925.566493	0.988443
925.870761	0.990551
926.174989	0.990501
926.479178	0.992795
926.783328	0.992679
927.087438	0.993361
927.391509	0.993099
927.695541	0.994021
927.999533	0.994857
928.303486	0.994428
928.607400	0.995054
928.911275	0.996249
929.215110	0.997462
929.518906	0.995829
929.822663	0.996054
930.126381	0.997606
930.430060	0.994571
930.733699	0.995649
931.037299	0.995796
931.340861	0.995609
931.644383	0.994231
931.947866	0.995052
932.251309	0.996444
932.554714	0.995989
932.858080	0.995989
933.161407	0.994675
933.464694	0.995260
933.767943	0.995703
934.071153	0.997699
934.374323	0.997541
934.677455	0.996789
934.980548	0.996517
935.283602	0.997834
935.586617	0.996955
935.889593	0.997395
936.192530	0.996978
936.495428	0.996938
936.798287	0.996103
937.101108	0.997249
937.403890	0.993957
937.706632	0.993898
938.009336	0.991811
938.312002	0.989798
938.614628	0.989721
938.917216	0.988798
939.219765	0.987935
939.522275	0.988345
939.824747	0.987574
940.127179	0.988882
940.429573	0.990415
940.731929	0.989520
941.034246	0.989087
941.336524	0.988778
941.638763	0.990843
941.940964	0.991300
942.243126	0.992296
942.545250	0.992385
942.847335	0.992370
943.149381	0.994577
943.451389	0.993134
943.753359	0.994488
944.055290	0.996707
944.357182	0.995118
944.659036	0.995929
944.960851	0.996710
945.262628	0.995948
945.564367	0.995433
945.866067	0.996158
946.167729	0.995233
946.469352	0.995755
946.770937	0.992853
947.072484	0.996044
947.373992	0.995409
947.675462	0.994961
947.976893	0.995289
948.278286	0.995700
948.579641	0.997779
948.880958	0.996324
949.182236	0.997177
949.483476	0.997304
949.784678	0.996703
950.085841	0.996575
950.386967	0.995931
950.688054	0.996402
950.989103	0.994905
951.290114	0.995427
951.591087	0.995024
951.892021	0.993771
952.192917	0.994208
952.493776	0.993591
952.794596	0.993242
953.095378	0.993650
953.396122	0.993598
953.696828	0.994325
953.997496	0.995023
954.298126	0.996945
954.598718	0.996308
954.899272	0.996276
955.199788	0.995026
955.500266	0.998286
955.800706	0.997498
956.101108	0.998467
956.401472	0.999670
956.701798	0.998916
957.002087	0.998593
957.302337	1.000802
957.602550	1.000313
957.902724	1.000471
958.202861	1.000515
958.502960	1.001073
958.803022	1.001557
959.103045	1.001048
959.403031	1.001647
959.702979	1.002630
960.002889	1.000215
960.302762	1.001582
960.602596	1.003249
960.902393	1.002480
961.202153	1.002285
961.501875	1.001702
961.801559	1.003034
962.101205	1.002386
962.400814	1.003082
962.700385	1.002890
962.999918	1.002233
963.299414	1.001104
963.598873	1.002845
963.898293	1.002391
964.197677	1.001952
964.497022	1.002709
964.796331	1.003155
965.095601	1.002882
965.394835	1.003586
965.694030	1.003758
965.993189	1.001731
966.292309	1.003696
966.591393	1.001886
966.890439	1.003537
967.189447	1.002738
967.488419	1.003608
967.787353	1.002714
968.086249	1.002852
968.385108	1.001779
968.683930	1.004026
968.982714	1.003105
969.281462	1.003523
969.580172	1.002651
969.878844	1.003420
970.177480	1.002713
970.476078	1.004485
970.774639	1.002636
971.073162	1.002056
971.371649	1.001434
971.670098	1.002659
971.968510	1.002681
972.266885	1.002781
972.565223	1.001884
972.863524	1.001411
973.161788	1.001746
973.460014	1.003262
973.758204	1.001753
974.056356	1.002140
974.354471	1.001634
974.652550	1.002563
974.950591	1.002136
975.248595	1.001650
975.546563	1.003107
975.844493	1.003790
976.142386	1.001695
976.440243	1.003425
976.738062	1.003226
977.035845	1.002618
977.333590	1.003571
977.631299	1.001714
977.928971	1.003461
978.226606	1.002586
978.524204	1.002048
978.821765	1.003743
979.119290	1.004121
979.416777	1.003301
979.714228	1.001822
980.011642	1.003738
980.309020	1.003177
980.606360	1.002033
980.903664	1.003340
981.200931	1.001201
981.498162	1.001838
981.795356	1.001106
982.092513	1.000720
982.389633	0.998953
982.686717	0.997836
982.983764	0.998080
983.280775	0.997007
983.577749	0.997028
983.874686	0.996334
984.171587	0.997599
984.468451	0.998802
984.765279	1.000409
985.062070	1.002394
985.358824	1.000715
985.655543	1.002269
985.952224	1.002512
986.248869	1.003153
986.545478	1.003509
986.842050	1.003103
987.138586	1.002414
987.435086	1.003599
987.731549	1.004824
988.027975	1.005050
988.324366	1.002881
988.620719	1.005389
988.917037	1.002937
989.213318	1.004423
989.509563	1.004069
989.805772	1.004571
990.101944	1.004831
990.398080	1.004773
990.694180	1.005152
990.990244	1.003762
991.286271	1.003867
991.582262	1.004399
991.878217	1.003765
992.174136	1.005626
992.470019	1.004203
992.765865	1.006365
993.061676	1.003930
993.357450	1.006240
993.653188	1.004553
993.948890	1.003937
994.244556	1.004468
994.540186	1.003463
994.835780	1.003062
995.131337	1.003327
995.426859	1.002952
995.722345	1.003499
996.017795	1.001224
996.313208	1.003078
996.608586	1.001867
996.903928	1.002380
997.199234	1.001856
997.494504	1.002757
997.789738	1.001564
998.084936	1.004156
998.380099	1.002945
998.675225	1.003338
998.970316	1.004113
999.265371	1.003716
999.560390	1.003736
999.855373	1.003785
1000.150320	1.004571
1000.445232	1.003983
1000.740108	1.003923
1001.034948	1.003246
1001.329752	1.005259
1001.624521	1.004298
1001.919254	1.003941
1002.213951	1.004422
1002.508613	1.004081
1002.803239	1.003635
1003.097829	1.005407
1003.392384	1.004156
1003.686903	1.004311
1003.981386	1.004611
1004.275834	1.004771
1004.570246	1.002804
1004.864623	1.005481
1005.158964	1.004378
1005.453270	1.004687
1005.747540	1.005210
1006.041775	1.005464
1006.335974	1.004675
1006.630138	1.004811
1006.924266	1.003008
1007.218359	1.003218
1007.512416	1.005168
1007.806438	1.004399
1008.100425	1.004234
1008.394376	1.005656
1008.688292	1.003001
1008.982172	1.004702
1009.276017	1.006259
1009.569827	1.005842
1009.863602	1.003901
1010.157341	1.005788
1010.451045	1.004869
1010.744714	1.004799
1011.038347	1.004377
1011.331945	1.003813
1011.625508	1.004745
1011.919036	1.004880
1012.212528	1.005370
1012.505986	1.004071
1012.799408	1.005042
1013.092795	1.005085
1013.386147	1.004565
1013.679464	1.005497
1013.972745	1.004892
1014.265992	1.004699
1014.559204	1.005450
1014.852380	1.005810
1015.145521	1.005264
1015.438628	1.003919
1015.731699	1.004778
1016.024736	1.005324
1016.317737	1.005287
1016.610703	1.004679
1016.903635	1.004140
1017.196531	1.005210
1017.489393	1.004726
1017.782219	1.004201
1018.075011	1.004691
1018.367768	1.005768
1018.660490	1.005548
1018.953177	1.005548
1019.245829	1.005548
