Dividing Wavelength (nm)	Counts (n)	Blue Motor Position (mm): 4.800000	Red Motor Position (mm): 0.000000	
326.493990	1.005778
326.888308	1.005778
327.282561	1.005778
327.676750	1.006540
328.070874	1.007245
328.464933	1.007996
328.858929	1.005573
329.252859	1.006690
329.646726	1.004933
330.040528	1.006047
330.434265	1.006644
330.827938	1.005515
331.221547	1.006974
331.615091	1.006298
332.008571	1.006211
332.401986	1.005863
332.795338	1.005843
333.188625	1.006229
333.581847	1.005027
333.975006	1.006176
334.368100	1.006600
334.761129	1.004132
335.154095	1.006086
335.546996	1.005012
335.939833	0.998146
336.332606	1.000076
336.725315	0.998067
337.117960	0.999766
337.510540	0.998671
337.903056	0.999070
338.295508	1.000253
338.687896	0.998528
339.080220	0.999412
339.472480	0.997841
339.864676	0.999658
340.256807	0.997307
340.648875	1.000315
341.040879	0.998230
341.432818	0.998587
341.824694	0.999003
342.216506	1.000056
342.608253	0.999326
342.999937	0.998642
343.391557	0.998111
343.783113	1.000239
344.174605	0.998230
344.566033	0.998904
344.957397	0.999447
345.348697	0.998917
345.739934	0.998559
346.131106	0.998211
346.522215	0.998180
346.913260	0.998824
347.304241	0.998056
347.695159	0.998808
348.086012	0.998340
348.476802	0.998749
348.867528	0.997802
349.258191	0.998697
349.648789	0.998522
350.039324	0.998643
350.429796	0.998229
350.820203	0.997319
351.210548	0.999181
351.600828	0.998815
351.991045	0.998560
352.381198	0.999027
352.771288	0.998621
353.161314	0.998249
353.551276	0.999192
353.941175	0.995659
354.331010	0.998861
354.720782	0.998950
355.110490	0.998348
355.500135	0.997823
355.889717	0.997760
356.279235	0.997393
356.668689	0.997882
357.058080	0.997528
357.447408	0.997414
357.836672	0.997839
358.225873	0.997801
358.615010	0.997690
359.004084	0.996912
359.393095	0.998599
359.782043	0.997936
360.170927	0.999095
360.559748	0.997160
360.948505	0.997119
361.337199	0.998241
361.725830	0.997541
362.114398	0.996777
362.502903	0.996410
362.891344	0.996113
363.279722	0.997664
363.668037	0.996792
364.056289	0.996590
364.444478	0.997224
364.832603	0.996167
365.220665	0.997328
365.608665	0.996596
365.996601	0.997025
366.384474	0.995634
366.772284	0.995950
367.160031	0.995272
367.547715	0.995698
367.935336	0.994522
368.322893	0.992589
368.710388	0.993539
369.097820	0.991248
369.485189	0.988140
369.872495	0.986909
370.259738	0.985446
370.646918	0.981582
371.034035	0.979425
371.421090	0.975787
371.808081	0.971355
372.195010	0.969830
372.581875	0.963596
372.968678	0.959577
373.355418	0.955303
373.742096	0.948471
374.128710	0.944245
374.515262	0.940017
374.901751	0.934677
375.288177	0.928636
375.674540	0.922695
376.060841	0.915100
376.447079	0.910077
376.833254	0.902174
377.219367	0.898005
377.605417	0.885156
377.991404	0.883741
378.377329	0.875625
378.763191	0.871129
379.148991	0.861976
379.534727	0.854050
379.920402	0.845954
380.306013	0.842033
380.691563	0.828727
381.077049	0.823124
381.462474	0.818459
381.847835	0.807704
382.233134	0.802157
382.618371	0.802038
383.003545	0.785539
383.388657	0.783000
383.773706	0.775425
384.158693	0.771686
384.543618	0.766704
384.928480	0.758025
385.313280	0.747205
385.698017	0.747107
386.082692	0.735516
386.467305	0.734134
386.851856	0.728122
387.236344	0.722796
387.620770	0.717680
388.005133	0.712000
388.389435	0.706387
388.773674	0.704102
389.157851	0.695070
389.541965	0.693183
389.926018	0.699312
390.310008	0.685431
390.693936	0.683196
391.077802	0.675795
391.461606	0.677569
391.845348	0.666689
392.229027	0.665254
392.612645	0.664582
392.996200	0.651410
393.379694	0.644150
393.763125	0.634293
394.146494	0.638760
394.529801	0.629607
394.913047	0.621572
395.296230	0.627410
395.679351	0.618218
396.062410	0.615612
396.445408	0.618122
396.828343	0.613341
397.211217	0.608561
397.594028	0.620279
397.976778	0.611289
398.359466	0.607416
398.742092	0.603164
399.124656	0.614804
399.507158	0.602751
399.889598	0.600421
400.271977	0.592108
400.654294	0.594903
401.036549	0.594453
401.418742	0.598596
401.800874	0.584106
402.182944	0.580953
402.564952	0.572906
402.946898	0.574516
403.328783	0.575969
403.710606	0.586865
404.092367	0.562153
404.474067	0.567361
404.855705	0.565945
405.237282	0.575215
405.618797	0.561389
406.000250	0.556225
406.381642	0.546952
406.762972	0.551424
407.144240	0.550147
407.525447	0.550032
407.906593	0.542932
408.287677	0.538068
408.668700	0.546544
409.049661	0.540896
409.430560	0.535936
409.811399	0.544071
410.192176	0.526831
410.572891	0.533537
410.953545	0.521186
411.334138	0.535079
411.714669	0.527161
412.095139	0.539510
412.475547	0.523976
412.855894	0.525541
413.236180	0.524397
413.616405	0.529927
413.996568	0.520109
414.376670	0.526749
414.756711	0.531521
415.136691	0.528498
415.516609	0.520131
415.896466	0.516721
416.276262	0.511905
416.655997	0.513807
417.035670	0.495896
417.415283	0.487361
417.794834	0.492625
418.174324	0.497587
418.553753	0.506288
418.933121	0.488761
419.312428	0.482766
419.691674	0.488027
420.070859	0.476433
420.449983	0.484526
420.829045	0.473693
421.208047	0.482078
421.586988	0.475888
421.965867	0.474425
422.344686	0.463658
422.723444	0.475839
423.102141	0.493100
423.480777	0.465329
423.859352	0.486824
424.237866	0.463374
424.616319	0.464493
424.994712	0.455678
425.373044	0.465922
425.751314	0.453789
426.129524	0.471069
426.507673	0.453898
426.885762	0.447134
427.263789	0.453013
427.641756	0.462235
428.019662	0.453111
428.397508	0.451945
428.775292	0.456301
429.153016	0.448642
429.530679	0.454580
429.908282	0.447986
430.285824	0.457865
430.663305	0.436073
431.040726	0.457287
431.418086	0.457084
431.795385	0.448798
432.172624	0.448046
432.549802	0.448417
432.926920	0.447069
433.303977	0.447279
433.680974	0.443594
434.057910	0.442877
434.434786	0.441735
434.811601	0.444521
435.188355	0.427063
435.565050	0.436734
435.941683	0.438190
436.318257	0.421157
436.694770	0.422374
437.071222	0.420802
437.447614	0.424779
437.823946	0.431538
438.200218	0.420933
438.576429	0.430843
438.952580	0.424061
439.328670	0.420208
439.704700	0.426652
440.080670	0.427947
440.456580	0.409560
440.832429	0.417296
441.208218	0.427515
441.583947	0.417266
441.959616	0.416500
442.335224	0.422134
442.710773	0.412931
443.086261	0.410974
443.461689	0.424844
443.837057	0.414703
444.212365	0.404604
444.587612	0.411431
444.962800	0.401234
445.337927	0.403350
445.712995	0.429292
446.088002	0.390624
446.462949	0.401540
446.837837	0.406540
447.212664	0.395096
447.587431	0.386466
447.962139	0.357253
448.336786	0.315980
448.711374	0.326589
449.085901	0.370958
449.460369	0.375111
449.834776	0.378448
450.209124	0.357742
450.583412	0.350595
450.957640	0.343283
451.331808	0.355002
451.705917	0.378146
452.079965	0.383325
452.453954	0.371226
452.827883	0.377929
453.201752	0.373065
453.575562	0.383963
453.949311	0.372486
454.323001	0.378478
454.696632	0.374341
455.070202	0.367495
455.443713	0.359206
455.817164	0.353818
456.190556	0.349443
456.563888	0.346298
456.937160	0.343923
457.310373	0.361387
457.683526	0.360048
458.056619	0.365846
458.429653	0.366380
458.802628	0.369948
459.175542	0.363846
459.548398	0.346659
459.921194	0.339318
460.293930	0.339458
460.666607	0.316846
461.039224	0.305076
461.411782	0.300505
461.784280	0.299783
462.156719	0.303990
462.529099	0.308398
462.901419	0.323977
463.273680	0.328887
463.645882	0.328449
464.018024	0.334332
464.390106	0.326935
464.762130	0.311388
465.134094	0.294558
465.505999	0.263315
465.877845	0.233656
466.249631	0.220478
466.621358	0.228111
466.993026	0.241966
467.364634	0.248110
467.736184	0.257153
468.107674	0.265843
468.479105	0.265232
468.850477	0.272009
469.221790	0.278856
469.593043	0.288772
469.964238	0.293607
470.335373	0.293248
470.706449	0.291446
471.077467	0.291777
471.448425	0.253959
471.819324	0.229395
472.190164	0.228789
472.560945	0.257981
472.931667	0.280050
473.302330	0.284144
473.672934	0.296161
474.043479	0.284042
474.413965	0.286425
474.784393	0.289346
475.154761	0.284420
475.525070	0.281821
475.895321	0.287252
476.265513	0.281743
476.635645	0.277056
477.005719	0.276765
477.375734	0.273565
477.745691	0.266590
478.115588	0.262796
478.485427	0.256472
478.855207	0.243185
479.224928	0.225847
479.594591	0.214002
479.964194	0.217363
480.333739	0.218302
480.703226	0.219940
481.072653	0.218321
481.442022	0.213970
481.811333	0.210538
482.180584	0.214071
482.549777	0.219495
482.918912	0.222822
483.287988	0.222479
483.657005	0.222403
484.025964	0.228474
484.394864	0.226002
484.763706	0.226398
485.132489	0.231442
485.501213	0.232197
485.869879	0.230800
486.238487	0.233948
486.607036	0.231956
486.975527	0.236564
487.343959	0.232354
487.712333	0.231299
488.080648	0.232506
488.448905	0.231786
488.817104	0.233005
489.185244	0.227431
489.553326	0.224567
489.921350	0.214298
490.289315	0.196740
490.657222	0.191482
491.025070	0.192889
491.392861	0.195025
491.760593	0.200767
492.128267	0.206526
492.495883	0.212021
492.863440	0.218464
493.230939	0.224611
493.598380	0.226388
493.965763	0.228351
494.333088	0.230303
494.700354	0.232057
495.067563	0.230867
495.434713	0.234518
495.801805	0.232140
496.168839	0.233768
496.535815	0.235214
496.902733	0.234879
497.269593	0.236716
497.636395	0.234225
498.003139	0.234499
498.369825	0.237708
498.736453	0.234130
499.103023	0.235617
499.469535	0.234862
499.835989	0.235106
500.202385	0.236225
500.568723	0.239459
500.935003	0.234501
501.301226	0.238726
501.667390	0.233182
502.033497	0.231195
502.399546	0.233959
502.765537	0.236074
503.131470	0.234471
503.497345	0.230905
503.863163	0.239411
504.228923	0.232542
504.594625	0.231200
504.960269	0.236704
505.325856	0.231768
505.691385	0.236330
506.056856	0.232879
506.422270	0.232352
506.787625	0.234818
507.152924	0.232251
507.518164	0.232638
507.883347	0.234325
508.248472	0.236121
508.613540	0.230953
508.978550	0.233607
509.343503	0.233759
509.708398	0.231912
510.073236	0.229090
510.438016	0.228904
510.802738	0.229906
511.167403	0.228881
511.532010	0.231270
511.896561	0.226636
512.261053	0.225027
512.625488	0.227549
512.989866	0.227677
513.354186	0.228157
513.718449	0.229705
514.082655	0.226173
514.446803	0.228308
514.810894	0.225919
515.174927	0.229085
515.538904	0.228314
515.902822	0.225331
516.266684	0.227467
516.630488	0.228761
516.994235	0.227576
517.357925	0.226463
517.721558	0.224688
518.085133	0.224126
518.448651	0.224007
518.812112	0.226641
519.175516	0.226259
519.538863	0.223524
519.902152	0.225321
520.265385	0.222203
520.628560	0.223926
520.991678	0.224320
521.354739	0.223467
521.717743	0.224481
522.080690	0.224538
522.443580	0.222223
522.806413	0.223061
523.169189	0.222482
523.531908	0.221166
523.894569	0.224969
524.257174	0.224939
524.619722	0.222613
524.982213	0.223744
525.344647	0.222452
525.707025	0.223576
526.069345	0.221501
526.431608	0.223162
526.793815	0.221069
527.155964	0.225550
527.518057	0.224372
527.880093	0.225371
528.242072	0.223819
528.603995	0.225748
528.965860	0.227535
529.327669	0.226408
529.689421	0.227368
530.051117	0.228086
530.412755	0.225842
530.774337	0.228004
531.135862	0.228567
531.497331	0.227758
531.858743	0.230802
532.220098	0.227379
532.581396	0.229919
532.942638	0.230379
533.303824	0.231503
533.664953	0.231086
534.026025	0.233047
534.387040	0.231007
534.747999	0.230578
535.108902	0.229626
535.469748	0.234723
535.830537	0.232499
536.191270	0.232778
536.551947	0.232558
536.912567	0.232415
537.273131	0.234161
537.633638	0.234472
537.994089	0.234993
538.354483	0.235718
538.714821	0.232604
539.075103	0.232423
539.435328	0.233479
539.795497	0.237021
540.155609	0.233745
540.515665	0.231842
540.875665	0.237758
541.235609	0.236189
541.595496	0.236045
541.955328	0.232901
542.315102	0.235535
542.674821	0.236487
543.034483	0.236427
543.394090	0.236074
543.753640	0.237846
544.113134	0.233230
544.472571	0.236289
544.831953	0.233439
545.191278	0.237445
545.550548	0.236603
545.909761	0.233577
546.268918	0.234494
546.628019	0.232580
546.987064	0.235438
547.346053	0.237059
547.704986	0.235030
548.063863	0.235235
548.422684	0.235356
548.781449	0.237498
549.140158	0.234848
549.498811	0.237755
549.857408	0.240604
550.215949	0.235398
550.574434	0.238481
550.932864	0.236757
551.291237	0.235143
551.649555	0.236860
552.007817	0.236719
552.366022	0.237436
552.724173	0.237476
553.082267	0.237683
553.440305	0.234598
553.798288	0.239051
554.156215	0.235504
554.514086	0.236408
554.871902	0.239450
555.229661	0.238554
555.587365	0.239598
555.945014	0.242163
556.302606	0.238775
556.660143	0.241500
557.017625	0.237712
557.375050	0.239929
557.732421	0.236976
558.089735	0.239055
558.446994	0.238865
558.804197	0.238448
559.161345	0.237992
559.518437	0.241596
559.875474	0.239624
560.232455	0.238923
560.589381	0.240196
560.946251	0.240368
561.303065	0.237901
561.659825	0.239106
562.016528	0.240858
562.373177	0.243638
562.729770	0.240720
563.086307	0.242600
563.442789	0.240704
563.799216	0.243161
564.155587	0.242309
564.511904	0.243350
564.868164	0.243196
565.224370	0.243226
565.580520	0.245037
565.936615	0.245282
566.292654	0.247977
566.648638	0.244972
567.004567	0.246031
567.360441	0.246322
567.716260	0.248415
568.072023	0.245940
568.427732	0.246875
568.783385	0.249223
569.138982	0.247480
569.494525	0.247311
569.850013	0.250196
570.205445	0.248426
570.560823	0.251097
570.916145	0.252736
571.271412	0.251539
571.626625	0.252849
571.981782	0.253302
572.336884	0.254039
572.691931	0.253896
573.046923	0.255399
573.401860	0.256319
573.756743	0.258230
574.111570	0.256622
574.466342	0.257603
574.821059	0.256459
575.175722	0.259554
575.530330	0.259102
575.884882	0.259208
576.239380	0.261135
576.593823	0.262201
576.948211	0.261343
577.302544	0.264771
577.656823	0.264431
578.011047	0.264054
578.365216	0.264999
578.719330	0.267223
579.073389	0.266672
579.427394	0.268059
579.781344	0.268880
580.135239	0.270056
580.489080	0.270107
580.842866	0.273222
581.196597	0.273146
581.550273	0.271404
581.903895	0.272493
582.257463	0.270687
582.610975	0.274065
582.964434	0.273364
583.317837	0.275716
583.671186	0.276451
584.024481	0.276207
584.377721	0.278728
584.730906	0.279842
585.084037	0.278706
585.437113	0.280987
585.790135	0.279825
586.143103	0.283334
586.496016	0.284013
586.848874	0.281850
587.201679	0.282184
587.554428	0.285493
587.907124	0.284439
588.259765	0.285205
588.612352	0.285841
588.964884	0.289646
589.317362	0.288960
589.669786	0.288987
590.022155	0.287359
590.374470	0.286959
590.726731	0.288496
591.078937	0.294039
591.431090	0.290023
591.783188	0.294169
592.135232	0.294738
592.487222	0.294910
592.839157	0.292976
593.191038	0.295245
593.542866	0.297115
593.894639	0.300261
594.246358	0.298756
594.598022	0.298038
594.949633	0.301872
595.301190	0.302237
595.652692	0.301204
596.004141	0.297576
596.355535	0.305713
596.706876	0.306276
597.058162	0.309189
597.409395	0.306036
597.760573	0.303702
598.111698	0.306835
598.462768	0.307293
598.813785	0.308543
599.164748	0.309751
599.515657	0.310282
599.866511	0.313605
600.217312	0.309001
600.568060	0.314322
600.918753	0.310683
601.269392	0.311467
601.619978	0.314998
601.970510	0.312287
602.320988	0.312376
602.671412	0.310529
603.021783	0.313138
603.372100	0.313856
603.722363	0.314094
604.072572	0.314679
604.422728	0.314349
604.772830	0.316621
605.122878	0.316474
605.472872	0.316994
605.822813	0.315261
606.172701	0.317660
606.522534	0.315226
606.872314	0.315609
607.222041	0.315983
607.571714	0.314494
607.921333	0.315491
608.270899	0.315336
608.620411	0.312282
608.969870	0.316226
609.319276	0.316244
609.668627	0.316097
610.017926	0.314856
610.367171	0.313433
610.716362	0.313860
611.065500	0.313960
611.414585	0.312884
611.763616	0.313231
612.112594	0.313441
612.461518	0.313530
612.810389	0.310904
613.159207	0.312835
613.507971	0.314699
613.856682	0.311015
614.205340	0.312229
614.553945	0.309354
614.902496	0.313062
615.250994	0.311215
615.599439	0.312046
615.947830	0.310921
616.296169	0.312386
616.644454	0.311909
616.992686	0.311927
617.340864	0.309917
617.688990	0.312918
618.037063	0.309747
618.385082	0.311607
618.733048	0.308483
619.080961	0.311024
619.428821	0.310407
619.776628	0.309870
620.124382	0.312361
620.472083	0.312458
620.819731	0.311846
621.167326	0.315491
621.514868	0.315660
621.862357	0.319922
622.209793	0.319073
622.557176	0.321523
622.904506	0.322663
623.251783	0.325000
623.599007	0.327423
623.946179	0.326791
624.293297	0.328979
624.640363	0.332794
624.987376	0.333217
625.334336	0.335576
625.681243	0.338021
626.028097	0.338316
626.374899	0.339412
626.721647	0.340403
627.068343	0.342721
627.414987	0.344131
627.761577	0.345783
628.108115	0.344349
628.454600	0.349716
628.801032	0.347263
629.147412	0.348817
629.493739	0.350013
629.840014	0.352606
630.186236	0.349819
630.532405	0.355565
630.878521	0.352693
631.224585	0.355295
631.570597	0.358800
631.916556	0.357233
632.262462	0.357100
632.608316	0.359499
632.954117	0.360449
633.299866	0.361213
633.645562	0.361523
633.991206	0.366095
634.336797	0.368583
634.682336	0.371367
635.027823	0.372897
635.373257	0.373128
635.718639	0.376999
636.063968	0.376390
636.409245	0.381949
636.754470	0.382588
637.099642	0.384906
637.444762	0.388429
637.789829	0.387426
638.134845	0.391236
638.479808	0.392107
638.824719	0.392066
639.169577	0.395780
639.514383	0.394964
639.859137	0.399288
640.203839	0.398881
640.548489	0.399253
640.893086	0.400045
641.237632	0.402683
641.582125	0.400931
641.926566	0.402989
642.270955	0.402385
642.615292	0.402526
642.959576	0.402554
643.303809	0.402767
643.647990	0.402114
643.992118	0.402663
644.336195	0.406010
644.680219	0.404430
645.024192	0.404629
645.368112	0.398968
645.711981	0.397642
646.055797	0.393121
646.399562	0.395131
646.743274	0.388468
647.086935	0.384681
647.430544	0.385103
647.774101	0.383608
648.117606	0.383864
648.461059	0.384421
648.804460	0.386480
649.147810	0.391367
649.491108	0.393564
649.834354	0.395064
650.177548	0.400155
650.520690	0.405925
650.863781	0.406566
651.206820	0.406133
651.549807	0.410524
651.892742	0.414968
652.235626	0.414294
652.578458	0.415020
652.921238	0.422010
653.263967	0.419353
653.606644	0.422808
653.949269	0.423029
654.291843	0.426902
654.634365	0.423863
654.976836	0.426780
655.319255	0.426749
655.661622	0.428631
656.003938	0.428209
656.346203	0.431643
656.688416	0.429749
657.030577	0.432717
657.372687	0.435318
657.714746	0.435600
658.056753	0.432659
658.398708	0.436363
658.740612	0.437466
659.082465	0.433747
659.424266	0.434636
659.766016	0.433782
660.107715	0.436510
660.449362	0.435768
660.790958	0.435833
661.132503	0.437483
661.473996	0.434164
661.815438	0.435408
662.156829	0.435629
662.498168	0.436326
662.839456	0.437542
663.180693	0.435662
663.521879	0.435085
663.863013	0.436273
664.204097	0.433935
664.545129	0.431521
664.886110	0.432008
665.227040	0.429258
665.567918	0.431935
665.908746	0.429699
666.249522	0.429166
666.590248	0.430505
666.930922	0.428506
667.271545	0.427442
667.612118	0.427061
667.952639	0.429651
668.293109	0.427377
668.633528	0.430537
668.973896	0.430296
669.314213	0.431301
669.654480	0.432892
669.994695	0.432673
670.334859	0.433553
670.674973	0.434268
671.015035	0.434307
671.355047	0.433734
671.695008	0.434950
672.034918	0.436857
672.374777	0.436277
672.714585	0.437438
673.054342	0.437310
673.394049	0.437451
673.733705	0.435108
674.073310	0.436767
674.412864	0.439628
674.752368	0.439615
675.091820	0.439998
675.431223	0.444862
675.770574	0.444326
676.109875	0.447144
676.449125	0.447083
676.788324	0.449755
677.127473	0.455014
677.466571	0.454883
677.805619	0.456807
678.144616	0.458486
678.483562	0.459491
678.822458	0.461778
679.161303	0.462668
679.500098	0.463624
679.838842	0.464371
680.177535	0.464126
680.516179	0.462962
680.854771	0.462148
681.193314	0.455185
681.531805	0.446817
681.870247	0.435242
682.208638	0.427764
682.546978	0.426740
682.885268	0.428391
683.223508	0.434728
683.561697	0.438336
683.899836	0.441213
684.237925	0.444544
684.575963	0.447183
684.913951	0.450337
685.251889	0.446095
685.589776	0.447869
685.927614	0.450014
686.265401	0.444148
686.603137	0.445983
686.940824	0.440002
687.278460	0.438686
687.616046	0.437582
687.953582	0.432444
688.291068	0.433859
688.628504	0.429092
688.965889	0.431995
689.303224	0.435779
689.640510	0.439002
689.977745	0.445623
690.314930	0.453065
690.652065	0.458084
690.989150	0.465294
691.326185	0.472633
691.663170	0.476639
692.000105	0.483807
692.336990	0.491267
692.673825	0.493266
693.010610	0.500380
693.347345	0.506046
693.684030	0.507819
694.020665	0.511700
694.357251	0.521186
694.693786	0.520466
695.030272	0.523607
695.366707	0.527653
695.703093	0.532222
696.039429	0.529633
696.375716	0.531762
696.711952	0.533930
697.048139	0.535264
697.384276	0.537751
697.720363	0.536585
698.056400	0.535086
698.392388	0.541324
698.728326	0.543553
699.064214	0.546190
699.400053	0.546708
699.735842	0.551208
700.071581	0.554246
700.407270	0.556452
700.742910	0.559317
701.078501	0.565738
701.414042	0.566058
701.749533	0.569329
702.084974	0.578182
702.420366	0.571080
702.755709	0.578226
703.091002	0.586281
703.426246	0.579562
703.761440	0.585094
704.096584	0.590155
704.431679	0.587463
704.766725	0.589300
705.101721	0.590943
705.436668	0.587132
705.771565	0.594307
706.106413	0.589662
706.441212	0.585645
706.775961	0.585337
707.110661	0.586988
707.445311	0.583939
707.779913	0.581352
708.114465	0.579344
708.448967	0.576448
708.783421	0.568811
709.117825	0.563308
709.452180	0.562917
709.786485	0.557248
710.120742	0.546357
710.454949	0.548070
710.789107	0.540514
711.123216	0.530966
711.457275	0.532235
711.791286	0.524195
712.125247	0.523404
712.459159	0.533816
712.793023	0.525474
713.126837	0.530803
713.460602	0.530329
713.794318	0.539540
714.127985	0.538678
714.461602	0.548725
714.795171	0.552188
715.128691	0.560367
715.462162	0.567283
715.795584	0.574200
716.128957	0.576243
716.462281	0.582905
716.795556	0.586046
717.128782	0.591969
717.461960	0.601519
717.795088	0.600444
718.128167	0.606069
718.461198	0.613673
718.794180	0.614739
719.127113	0.618460
719.459997	0.620930
719.792833	0.627449
720.125619	0.628982
720.458357	0.635074
720.791046	0.634898
721.123686	0.637940
721.456278	0.645322
721.788821	0.642722
722.121315	0.647107
722.453761	0.651539
722.786158	0.647964
723.118506	0.644108
723.450805	0.652255
723.783056	0.649143
724.115259	0.646540
724.447412	0.645993
724.779518	0.647032
725.111574	0.645341
725.443582	0.641334
725.775542	0.643728
726.107453	0.636604
726.439315	0.635686
726.771129	0.634521
727.102895	0.627539
727.434612	0.620195
727.766281	0.618793
728.097901	0.617184
728.429473	0.617130
728.760996	0.615658
729.092471	0.615824
729.423897	0.619219
729.755276	0.618132
730.086606	0.618850
730.417887	0.613322
730.749120	0.603679
731.080305	0.594702
731.411442	0.590755
731.742530	0.594428
732.073570	0.594507
732.404562	0.586951
732.735506	0.588048
733.066401	0.593206
733.397249	0.601963
733.728048	0.613922
734.058798	0.626406
734.389501	0.637940
734.720156	0.647529
735.050762	0.655532
735.381320	0.656244
735.711831	0.664181
736.042293	0.670158
736.372707	0.666449
736.703073	0.670347
737.033391	0.672671
737.363661	0.669794
737.693883	0.665292
738.024056	0.663350
738.354182	0.664785
738.684260	0.653769
739.014290	0.649505
739.344272	0.650786
739.674207	0.643614
740.004093	0.643701
740.333931	0.643233
740.663722	0.643620
740.993464	0.643865
741.323159	0.647886
741.652806	0.652667
741.982405	0.657322
742.311956	0.663101
742.641460	0.664512
742.970915	0.667674
743.300323	0.675431
743.629683	0.682414
743.958996	0.684614
744.288260	0.688824
744.617477	0.694979
744.946647	0.696379
745.275768	0.702006
745.604842	0.701215
745.933869	0.711847
746.262847	0.713048
746.591778	0.705885
746.920662	0.712043
747.249498	0.718769
747.578286	0.710100
747.907027	0.706239
748.235720	0.706979
748.564365	0.701240
748.892963	0.700787
749.221514	0.704805
749.550017	0.708335
749.878473	0.710103
750.206881	0.716203
750.535242	0.715839
750.863555	0.715764
751.191821	0.716641
751.520039	0.720162
751.848210	0.724418
752.176334	0.718268
752.504411	0.716754
752.832440	0.725785
753.160421	0.729153
753.488356	0.727045
753.816243	0.724025
754.144082	0.733530
754.471875	0.736368
754.799620	0.732701
755.127318	0.734146
755.454969	0.734742
755.782572	0.734662
756.110129	0.737738
756.437638	0.740927
756.765100	0.737237
757.092515	0.735308
757.419882	0.734211
757.747203	0.739777
758.074477	0.739651
758.401703	0.736024
758.728882	0.730779
759.056014	0.729192
759.383099	0.729106
759.710138	0.730289
760.037129	0.726269
760.364073	0.720219
760.690970	0.722775
761.017820	0.727790
761.344623	0.723301
761.671379	0.715074
761.998088	0.704306
762.324751	0.679982
762.651366	0.636440
762.977935	0.568664
763.304456	0.517469
763.630931	0.507580
763.957359	0.546929
764.283740	0.591225
764.610074	0.618873
764.936362	0.651096
765.262602	0.678845
765.588796	0.699585
765.914943	0.716791
766.241044	0.734896
766.567097	0.741247
766.893104	0.753025
767.219064	0.758560
767.544978	0.765828
767.870845	0.778699
768.196665	0.782683
768.522438	0.780832
768.848165	0.782846
769.173846	0.790862
769.499479	0.796222
769.825066	0.799789
770.150607	0.805086
770.476101	0.800116
770.801548	0.802214
771.126949	0.812979
771.452303	0.816771
771.777611	0.815347
772.102872	0.813940
772.428087	0.820784
772.753256	0.824070
773.078378	0.825194
773.403453	0.833991
773.728482	0.838665
774.053465	0.832012
774.378401	0.835959
774.703291	0.844547
775.028135	0.844377
775.352932	0.844145
775.677683	0.849516
776.002388	0.849830
776.327046	0.848681
776.651658	0.853404
776.976224	0.855384
777.300743	0.855044
777.625216	0.857665
777.949643	0.859857
778.274024	0.858535
778.598359	0.860951
778.922647	0.859325
779.246889	0.860020
779.571086	0.863371
779.895236	0.866467
780.219339	0.864015
780.543397	0.859882
780.867409	0.859148
781.191374	0.861933
781.515294	0.862738
781.839167	0.862377
782.162995	0.864798
782.486776	0.860840
782.810511	0.862974
783.134201	0.867115
783.457844	0.864593
783.781441	0.866443
784.104993	0.873298
784.428498	0.873009
784.751958	0.870174
785.075372	0.871905
785.398739	0.875221
785.722061	0.870769
786.045337	0.866498
786.368568	0.871546
786.691752	0.873713
787.014891	0.859690
787.337983	0.850585
787.661030	0.843379
787.984031	0.825188
788.306987	0.813383
788.629897	0.813395
788.952760	0.819603
789.275579	0.823523
789.598351	0.838659
789.921078	0.851989
790.243759	0.853056
790.566395	0.859237
790.888984	0.866299
791.211529	0.871730
791.534027	0.875623
791.856480	0.877307
792.178888	0.880893
792.501249	0.883065
792.823566	0.886269
793.145836	0.885968
793.468062	0.887446
793.790241	0.888660
794.112375	0.885794
794.434464	0.881626
794.756507	0.881228
795.078505	0.879785
795.400457	0.874833
795.722364	0.862178
796.044226	0.855379
796.366042	0.853490
796.687812	0.857708
797.009538	0.852730
797.331218	0.856843
797.652852	0.861428
797.974442	0.865698
798.295986	0.867987
798.617484	0.867959
798.938938	0.874414
799.260346	0.876952
799.581709	0.879551
799.903026	0.882173
800.224299	0.883209
800.545526	0.885559
800.866708	0.890568
801.187845	0.895090
801.508936	0.894015
801.829983	0.891319
802.150984	0.897208
802.471940	0.900708
802.792851	0.900036
803.113717	0.900620
803.434538	0.899000
803.755314	0.901881
804.076045	0.902063
804.396731	0.902664
804.717372	0.901687
805.037967	0.904479
805.358518	0.903227
805.679024	0.898697
805.999485	0.898863
806.319901	0.898580
806.640272	0.902609
806.960598	0.900008
807.280879	0.895858
807.601115	0.895436
807.921306	0.899293
808.241453	0.899999
808.561554	0.897860
808.881611	0.896750
809.201623	0.898048
809.521590	0.899217
809.841513	0.899886
810.161390	0.898859
810.481223	0.900176
810.801011	0.904050
811.120755	0.906363
811.440453	0.904306
811.760107	0.905051
812.079716	0.904543
812.399281	0.905981
812.718801	0.908875
813.038276	0.910030
813.357707	0.910045
813.677093	0.908224
813.996434	0.909801
814.315731	0.911439
814.634983	0.913376
814.954191	0.911424
815.273354	0.907378
815.592473	0.904288
815.911547	0.903938
816.230577	0.900638
816.549562	0.899196
816.868502	0.898364
817.187399	0.896212
817.506250	0.891623
817.825058	0.891617
818.143821	0.889590
818.462539	0.883983
818.781213	0.875875
819.099843	0.864813
819.418429	0.847424
819.736970	0.831079
820.055466	0.809292
820.373919	0.784292
820.692327	0.750818
821.010691	0.716119
821.329011	0.635195
821.647286	0.518235
821.965517	0.402726
822.283704	0.359811
822.601847	0.360215
822.919945	0.396273
823.237999	0.431091
823.556010	0.479036
823.873976	0.535338
824.191897	0.587303
824.509775	0.630423
824.827609	0.676638
825.145398	0.700294
825.463144	0.701529
825.780845	0.684876
826.098502	0.665880
826.416116	0.618693
826.733685	0.574336
827.051210	0.564920
827.368692	0.581219
827.686129	0.618793
828.003522	0.673534
828.320872	0.723252
828.638177	0.766369
828.955439	0.800080
829.272656	0.820623
829.589830	0.839329
829.906960	0.856375
830.224046	0.868626
830.541088	0.879462
830.858086	0.883670
831.175041	0.890987
831.491952	0.889103
831.808819	0.884729
832.125642	0.878096
832.442421	0.864553
832.759157	0.841250
833.075849	0.793284
833.392497	0.729309
833.709101	0.687121
834.025662	0.697082
834.342179	0.730941
834.658653	0.769416
834.975083	0.806525
835.291469	0.833144
835.607811	0.855884
835.924110	0.872812
836.240366	0.889781
836.556578	0.902943
836.872746	0.911395
837.188871	0.917761
837.504952	0.922842
837.820990	0.927185
838.136984	0.930269
838.452935	0.934117
838.768842	0.934246
839.084706	0.928128
839.400526	0.902531
839.716303	0.859777
840.032037	0.838731
840.347727	0.841639
840.663373	0.857929
840.978977	0.881536
841.294537	0.905323
841.610054	0.921315
841.925527	0.928022
842.240957	0.936137
842.556344	0.944029
842.871687	0.949273
843.186987	0.952978
843.502244	0.953818
843.817458	0.955634
844.132629	0.959362
844.447756	0.963561
844.762840	0.963759
845.077881	0.965226
845.392879	0.962964
845.707833	0.966203
846.022745	0.968832
846.337613	0.968204
846.652438	0.969515
846.967221	0.970346
847.281960	0.969727
847.596656	0.971947
847.911309	0.972039
848.225919	0.970445
848.540485	0.973055
848.855009	0.973792
849.169490	0.973103
849.483928	0.973024
849.798323	0.971781
850.112675	0.975964
850.426984	0.974168
850.741251	0.975844
851.055474	0.975194
851.369654	0.973744
851.683792	0.973226
851.997887	0.973659
852.311938	0.974589
852.625947	0.973424
852.939914	0.972934
853.253837	0.974199
853.567718	0.975135
853.881555	0.974701
854.195350	0.972450
854.509103	0.973131
854.822812	0.974964
855.136479	0.974869
855.450103	0.973537
855.763685	0.973554
856.077224	0.974468
856.390720	0.975842
856.704173	0.974462
857.017584	0.973685
857.330953	0.971888
857.644278	0.970407
857.957561	0.972371
858.270802	0.973827
858.584000	0.973548
858.897155	0.971822
859.210268	0.971727
859.523339	0.973079
859.836367	0.974889
860.149352	0.975149
860.462295	0.974203
860.775195	0.973697
861.088054	0.972962
861.400869	0.974590
861.713642	0.974240
862.026373	0.977238
862.339062	0.975873
862.651708	0.972717
862.964312	0.972921
863.276873	0.973399
863.589392	0.972904
863.901869	0.968631
864.214303	0.969064
864.526696	0.969130
864.839045	0.968403
865.151353	0.966321
865.463619	0.965677
865.775842	0.966070
866.088023	0.967271
866.400162	0.966186
866.712258	0.967346
867.024313	0.967017
867.336325	0.969284
867.648296	0.968616
867.960224	0.966185
868.272110	0.966857
868.583954	0.969756
868.895755	0.968676
869.207515	0.965182
869.519233	0.963335
869.830909	0.964560
870.142542	0.964863
870.454134	0.965553
870.765684	0.963366
871.077191	0.965087
871.388657	0.962781
871.700081	0.963036
872.011463	0.962834
872.322803	0.961963
872.634101	0.959226
872.945357	0.957777
873.256571	0.956153
873.567744	0.957570
873.878874	0.958393
874.189963	0.956368
874.501010	0.957106
874.812015	0.953731
875.122979	0.954178
875.433900	0.955920
875.744780	0.958352
876.055618	0.953948
876.366415	0.953412
876.677169	0.953809
876.987882	0.954051
877.298554	0.954860
877.609183	0.951258
877.919771	0.949037
878.230317	0.946087
878.540822	0.943918
878.851285	0.937476
879.161707	0.929736
879.472087	0.918634
879.782425	0.900084
880.092722	0.865472
880.402977	0.810276
880.713191	0.748738
881.023363	0.686650
881.333494	0.651915
881.643583	0.624208
881.953631	0.624428
882.263637	0.652068
882.573602	0.692800
882.883526	0.718894
883.193408	0.744600
883.503248	0.767571
883.813048	0.795772
884.122806	0.825973
884.432522	0.850776
884.742197	0.871344
885.051831	0.882549
885.361424	0.893947
885.670975	0.906204
885.980485	0.914968
886.289954	0.921763
886.599382	0.924579
886.908768	0.931688
887.218113	0.936761
887.527417	0.941889
887.836680	0.945480
888.145901	0.946734
888.455082	0.951172
888.764221	0.954671
889.073319	0.955983
889.382376	0.957259
889.691392	0.955187
890.000366	0.957240
890.309300	0.956322
890.618193	0.957188
890.927044	0.955705
891.235855	0.955583
891.544625	0.954783
891.853353	0.955920
892.162041	0.952128
892.470687	0.946674
892.779293	0.940401
893.087858	0.936635
893.396381	0.927913
893.704864	0.914176
894.013306	0.889998
894.321707	0.862203
894.630068	0.847445
894.938387	0.841871
895.246665	0.844523
895.554903	0.857338
895.863100	0.870068
896.171256	0.888308
896.479371	0.907538
896.787446	0.921181
897.095480	0.927685
897.403473	0.930870
897.711425	0.934897
898.019336	0.943024
898.327207	0.947738
898.635038	0.946892
898.942827	0.949461
899.250576	0.951781
899.558284	0.957127
899.865952	0.957440
900.173579	0.958545
900.481165	0.960073
900.788711	0.962113
901.096216	0.964573
901.403681	0.966344
901.711105	0.965293
902.018489	0.965977
902.325832	0.965211
902.633135	0.964347
902.940397	0.960551
903.247619	0.945053
903.554800	0.919681
903.861941	0.879127
904.169041	0.840373
904.476101	0.823299
904.783121	0.824526
905.090100	0.840755
905.397039	0.862492
905.703938	0.885424
906.010796	0.906291
906.317614	0.923925
906.624391	0.938031
906.931129	0.946661
907.237826	0.955523
907.544483	0.961638
907.851099	0.966679
908.157675	0.970997
908.464211	0.973336
908.770707	0.976090
909.077163	0.978197
909.383578	0.980156
909.689954	0.979186
909.996289	0.981216
910.302584	0.981798
910.608839	0.983332
910.915054	0.983655
911.221229	0.982160
911.527363	0.981417
911.833458	0.982081
912.139513	0.982999
912.445527	0.980950
912.751502	0.978388
913.057436	0.975837
913.363331	0.973431
913.669186	0.970760
913.975000	0.966233
914.280775	0.958709
914.586510	0.950896
914.892205	0.937437
915.197859	0.913027
915.503475	0.887099
915.809050	0.866297
916.114585	0.860051
916.420081	0.857525
916.725536	0.854849
917.030952	0.862089
917.336328	0.876024
917.641665	0.891409
917.946961	0.907210
918.252218	0.919385
918.557435	0.928967
918.862612	0.937632
919.167750	0.944136
919.472848	0.950506
919.777906	0.956519
920.082925	0.961291
920.387904	0.964571
920.692843	0.966376
920.997743	0.967608
921.302603	0.971223
921.607423	0.973379
921.912204	0.975272
922.216946	0.977282
922.521647	0.977971
922.826310	0.978269
923.130932	0.981509
923.435516	0.983422
923.740059	0.983758
924.044564	0.984454
924.349028	0.984200
924.653454	0.986585
924.957840	0.988209
925.262186	0.988439
925.566493	0.987842
925.870761	0.989021
926.174989	0.989840
926.479178	0.992854
926.783328	0.992993
927.087438	0.993132
927.391509	0.991767
927.695541	0.993200
927.999533	0.994042
928.303486	0.995032
928.607400	0.994478
928.911275	0.996604
929.215110	0.996313
929.518906	0.995345
929.822663	0.996517
930.126381	0.995525
930.430060	0.994442
930.733699	0.995514
931.037299	0.994940
931.340861	0.995485
931.644383	0.993942
931.947866	0.995808
932.251309	0.995796
932.554714	0.995171
932.858080	0.994963
933.161407	0.994687
933.464694	0.995857
933.767943	0.995612
934.071153	0.996480
934.374323	0.995617
934.677455	0.995964
934.980548	0.996301
935.283602	0.996453
935.586617	0.994956
935.889593	0.997252
936.192530	0.997002
936.495428	0.996262
936.798287	0.995599
937.101108	0.994042
937.403890	0.994108
937.706632	0.994914
938.009336	0.991692
938.312002	0.989405
938.614628	0.989047
938.917216	0.987740
939.219765	0.985767
939.522275	0.987811
939.824747	0.987455
940.127179	0.986551
940.429573	0.990657
940.731929	0.988520
941.034246	0.988594
941.336524	0.990052
941.638763	0.990335
941.940964	0.990321
942.243126	0.991045
942.545250	0.992273
942.847335	0.992431
943.149381	0.993365
943.451389	0.992147
943.753359	0.992630
944.055290	0.994959
944.357182	0.994200
944.659036	0.994807
944.960851	0.995259
945.262628	0.994943
945.564367	0.995567
945.866067	0.994764
946.167729	0.994002
946.469352	0.995256
946.770937	0.992068
947.072484	0.995979
947.373992	0.994863
947.675462	0.995535
947.976893	0.994695
948.278286	0.996976
948.579641	0.996953
948.880958	0.995784
949.182236	0.995454
949.483476	0.995906
949.784678	0.996544
950.085841	0.995823
950.386967	0.994810
950.688054	0.995698
950.989103	0.994778
951.290114	0.994239
951.591087	0.994468
951.892021	0.993054
952.192917	0.993597
952.493776	0.993141
952.794596	0.992981
953.095378	0.993473
953.396122	0.993306
953.696828	0.992547
953.997496	0.995568
954.298126	0.995516
954.598718	0.995344
954.899272	0.995884
955.199788	0.995249
955.500266	0.997401
955.800706	0.997287
956.101108	0.998097
956.401472	0.999491
956.701798	0.997279
957.002087	0.998572
957.302337	0.999000
957.602550	0.998917
957.902724	1.000431
958.202861	1.000058
958.502960	0.999185
958.803022	1.000508
959.103045	1.001143
959.403031	1.000466
959.702979	1.001989
960.002889	1.001721
960.302762	0.999734
960.602596	1.001384
960.902393	1.001234
961.202153	1.000988
961.501875	1.000386
961.801559	1.001918
962.101205	1.001325
962.400814	1.003643
962.700385	1.003129
962.999918	1.002917
963.299414	1.000690
963.598873	1.002383
963.898293	1.001388
964.197677	1.001411
964.497022	1.002319
964.796331	1.003100
965.095601	1.003334
965.394835	1.003639
965.694030	1.002511
965.993189	1.002493
966.292309	1.002506
966.591393	1.001329
966.890439	1.002041
967.189447	1.001532
967.488419	1.001795
967.787353	1.001032
968.086249	1.003161
968.385108	1.002040
968.683930	1.003166
968.982714	1.001940
969.281462	1.002677
969.580172	1.002197
969.878844	1.003093
970.177480	1.002084
970.476078	1.003085
970.774639	1.002696
971.073162	1.001655
971.371649	1.001056
971.670098	1.002322
971.968510	1.001663
972.266885	1.001088
972.565223	1.001126
972.863524	1.000887
973.161788	1.000935
973.460014	1.003330
973.758204	1.002024
974.056356	1.001163
974.354471	1.000748
974.652550	1.003343
974.950591	1.001256
975.248595	1.000922
975.546563	1.002675
975.844493	1.002399
976.142386	1.001362
976.440243	1.002841
976.738062	1.002597
977.035845	1.000759
977.333590	1.002932
977.631299	1.002401
977.928971	1.002394
978.226606	1.002103
978.524204	1.001637
978.821765	1.003353
979.119290	1.003243
979.416777	1.001418
979.714228	1.002619
980.011642	1.002528
980.309020	1.001795
980.606360	1.000804
980.903664	1.002340
981.200931	1.000937
981.498162	1.001492
981.795356	1.000725
982.092513	0.999796
982.389633	0.999768
982.686717	0.996132
982.983764	0.996434
983.280775	0.996174
983.577749	0.996219
983.874686	0.994876
984.171587	0.996733
984.468451	0.998511
984.765279	1.000053
985.062070	0.999273
985.358824	1.000908
985.655543	1.001757
985.952224	1.002276
986.248869	1.001754
986.545478	1.003312
986.842050	1.001755
987.138586	1.001241
987.435086	1.002364
987.731549	1.004512
988.027975	1.003296
988.324366	1.002324
988.620719	1.003203
988.917037	1.003322
989.213318	1.004021
989.509563	1.003059
989.805772	1.003430
990.101944	1.005507
990.398080	1.004824
990.694180	1.005148
990.990244	1.002868
991.286271	1.002394
991.582262	1.003578
991.878217	1.003396
992.174136	1.004424
992.470019	1.002781
992.765865	1.004059
993.061676	1.003721
993.357450	1.003531
993.653188	1.004144
993.948890	1.004156
994.244556	1.002346
994.540186	1.003026
994.835780	1.003006
995.131337	1.003875
995.426859	1.002687
995.722345	1.001588
996.017795	1.001849
996.313208	1.001419
996.608586	1.001451
996.903928	1.001927
997.199234	1.003353
997.494504	1.002485
997.789738	1.001707
998.084936	1.002902
998.380099	1.001906
998.675225	1.003641
998.970316	1.003011
999.265371	1.003917
999.560390	1.002792
999.855373	1.002908
1000.150320	1.003749
1000.445232	1.004088
1000.740108	1.003245
1001.034948	1.002003
1001.329752	1.004917
1001.624521	1.003100
1001.919254	1.004094
1002.213951	1.004227
1002.508613	1.003467
1002.803239	1.002251
1003.097829	1.004951
1003.392384	1.004539
1003.686903	1.004209
1003.981386	1.004116
1004.275834	1.004255
1004.570246	1.002040
1004.864623	1.005850
1005.158964	1.003810
1005.453270	1.004595
1005.747540	1.003536
1006.041775	1.004196
1006.335974	1.003751
1006.630138	1.004682
1006.924266	1.003853
1007.218359	1.002885
1007.512416	1.005006
1007.806438	1.004587
1008.100425	1.005064
1008.394376	1.005504
1008.688292	1.003549
1008.982172	1.003348
1009.276017	1.004017
1009.569827	1.004887
1009.863602	1.004162
1010.157341	1.004419
1010.451045	1.003626
1010.744714	1.004382
1011.038347	1.005136
1011.331945	1.004238
1011.625508	1.003885
1011.919036	1.002736
1012.212528	1.005591
1012.505986	1.004821
1012.799408	1.004837
1013.092795	1.005591
1013.386147	1.003758
1013.679464	1.005093
1013.972745	1.004004
1014.265992	1.004520
1014.559204	1.003059
1014.852380	1.004863
1015.145521	1.003830
1015.438628	1.004209
1015.731699	1.003794
1016.024736	1.005719
1016.317737	1.004415
1016.610703	1.004344
1016.903635	1.005116
1017.196531	1.004542
1017.489393	1.003670
1017.782219	1.004316
1018.075011	1.003412
1018.367768	1.003558
1018.660490	1.005426
1018.953177	1.005426
1019.245829	1.005426
