Dividing Wavelength (nm)	Counts (n)	Blue Motor Position (mm): 42.400000	Red Motor Position (mm): 0.000000	
326.493990	0.999642
326.888308	0.999642
327.282561	0.999642
327.676750	1.000332
328.070874	1.000335
328.464933	1.001275
328.858929	1.001098
329.252859	0.999604
329.646726	0.999473
330.040528	1.000545
330.434265	1.000721
330.827938	1.000354
331.221547	1.000092
331.615091	1.000431
332.008571	1.000517
332.401986	0.999643
332.795338	1.000323
333.188625	1.001592
333.581847	0.999903
333.975006	0.999674
334.368100	1.000207
334.761129	0.998708
335.154095	1.000537
335.546996	0.999735
335.939833	0.998359
336.332606	1.001528
336.725315	0.998177
337.117960	1.001387
337.510540	1.000112
337.903056	1.000394
338.295508	1.000284
338.687896	0.999763
339.080220	1.000317
339.472480	0.999486
339.864676	1.001165
340.256807	0.999218
340.648875	1.001303
341.040879	0.999841
341.432818	1.000883
341.824694	1.000178
342.216506	1.000554
342.608253	1.000470
342.999937	0.999851
343.391557	1.000175
343.783113	1.001967
344.174605	1.000946
344.566033	0.999227
344.957397	1.002201
345.348697	0.999569
345.739934	1.001128
346.131106	0.999467
346.522215	0.999907
346.913260	1.000124
347.304241	0.999284
347.695159	0.999648
348.086012	1.000319
348.476802	1.000315
348.867528	0.998721
349.258191	1.001374
349.648789	0.998811
350.039324	1.000944
350.429796	1.000220
350.820203	0.998366
351.210548	1.000174
351.600828	0.999983
351.991045	0.999875
352.381198	0.999410
352.771288	1.000067
353.161314	0.999188
353.551276	0.999179
353.941175	0.997227
354.331010	1.000284
354.720782	0.998866
355.110490	0.999354
355.500135	0.999984
355.889717	0.998696
356.279235	0.999081
356.668689	1.000091
357.058080	0.999342
357.447408	0.999622
357.836672	0.999354
358.225873	0.999330
358.615010	0.998843
359.004084	0.999321
359.393095	0.998721
359.782043	0.998258
360.170927	0.999623
360.559748	0.999510
360.948505	0.998131
361.337199	0.998228
361.725830	0.998740
362.114398	0.999589
362.502903	0.999521
362.891344	0.998286
363.279722	0.999060
363.668037	0.999535
364.056289	0.998656
364.444478	1.000878
364.832603	0.999390
365.220665	0.998800
365.608665	0.998011
365.996601	0.999790
366.384474	0.997993
366.772284	0.997915
367.160031	0.997405
367.547715	0.997633
367.935336	0.996463
368.322893	0.995491
368.710388	0.994729
369.097820	0.993848
369.485189	0.989745
369.872495	0.989853
370.259738	0.987383
370.646918	0.984616
371.034035	0.982948
371.421090	0.979327
371.808081	0.974734
372.195010	0.972379
372.581875	0.966676
372.968678	0.962452
373.355418	0.958363
373.742096	0.951373
374.128710	0.947589
374.515262	0.942648
374.901751	0.936676
375.288177	0.932036
375.674540	0.926220
376.060841	0.919227
376.447079	0.913183
376.833254	0.906336
377.219367	0.901140
377.605417	0.888943
377.991404	0.886318
378.377329	0.880416
378.763191	0.874455
379.148991	0.866047
379.534727	0.859027
379.920402	0.849828
380.306013	0.846051
380.691563	0.835084
381.077049	0.828909
381.462474	0.826016
381.847835	0.816125
382.233134	0.813511
382.618371	0.814695
383.003545	0.800209
383.388657	0.800464
383.773706	0.795109
384.158693	0.795593
384.543618	0.793814
384.928480	0.788467
385.313280	0.783511
385.698017	0.786315
386.082692	0.780781
386.467305	0.782302
386.851856	0.784076
387.236344	0.783017
387.620770	0.784001
388.005133	0.785738
388.389435	0.785880
388.773674	0.789933
389.157851	0.789704
389.541965	0.794572
389.926018	0.805619
390.310008	0.803036
390.693936	0.807523
391.077802	0.809853
391.461606	0.818240
391.845348	0.820051
392.229027	0.826329
392.612645	0.832544
392.996200	0.833785
393.379694	0.837078
393.763125	0.841233
394.146494	0.851069
394.529801	0.854770
394.913047	0.858756
395.296230	0.869516
395.679351	0.873906
396.062410	0.881266
396.445408	0.889077
396.828343	0.895775
397.211217	0.900568
397.594028	0.910043
397.976778	0.915446
398.359466	0.920960
398.742092	0.926192
399.124656	0.933937
399.507158	0.937211
399.889598	0.942132
400.271977	0.945796
400.654294	0.951068
401.036549	0.956708
401.418742	0.961114
401.800874	0.962761
402.182944	0.965396
402.564952	0.969049
402.946898	0.972475
403.328783	0.976010
403.710606	0.978498
404.092367	0.980372
404.474067	0.983635
404.855705	0.986332
405.237282	0.986787
405.618797	0.988255
406.000250	0.988554
406.381642	0.989885
406.762972	0.992714
407.144240	0.992642
407.525447	0.992229
407.906593	0.994494
408.287677	0.994048
408.668700	0.995209
409.049661	0.996472
409.430560	0.995828
409.811399	0.996428
410.192176	0.996823
410.572891	0.997875
410.953545	0.997117
411.334138	0.997890
411.714669	0.998034
412.095139	0.998740
412.475547	0.998749
412.855894	0.998451
413.236180	0.998866
413.616405	0.998746
413.996568	0.999253
414.376670	0.998848
414.756711	0.998052
415.136691	0.998769
415.516609	0.998466
415.896466	0.998833
416.276262	0.998755
416.655997	0.999529
417.035670	0.998785
417.415283	0.998454
417.794834	0.998623
418.174324	0.998840
418.553753	0.999948
418.933121	0.998891
419.312428	0.999044
419.691674	1.000133
420.070859	1.000315
420.449983	0.999053
420.829045	0.998240
421.208047	1.000568
421.586988	0.999114
421.965867	0.999235
422.344686	0.998838
422.723444	0.999477
423.102141	0.998315
423.480777	0.998197
423.859352	0.999302
424.237866	0.999358
424.616319	0.999387
424.994712	0.999009
425.373044	0.999977
425.751314	0.998479
426.129524	0.999853
426.507673	0.998167
426.885762	0.998836
427.263789	0.999423
427.641756	0.999053
428.019662	0.999047
428.397508	0.999365
428.775292	0.998745
429.153016	0.999097
429.530679	0.999307
429.908282	1.000002
430.285824	0.998773
430.663305	0.999359
431.040726	0.999834
431.418086	0.999815
431.795385	1.000505
432.172624	0.999865
432.549802	0.999020
432.926920	0.999718
433.303977	0.999225
433.680974	0.999704
434.057910	0.998862
434.434786	0.998757
434.811601	0.999823
435.188355	1.000152
435.565050	1.000380
435.941683	0.998870
436.318257	0.998670
436.694770	0.999406
437.071222	1.000179
437.447614	1.000353
437.823946	0.999137
438.200218	0.999846
438.576429	0.998753
438.952580	1.000207
439.328670	0.998775
439.704700	0.999325
440.080670	0.999475
440.456580	0.999610
440.832429	0.999316
441.208218	0.999661
441.583947	0.999736
441.959616	0.997619
442.335224	1.000305
442.710773	1.000175
443.086261	1.000064
443.461689	0.999322
443.837057	0.999219
444.212365	0.999432
444.587612	1.000145
444.962800	0.999627
445.337927	0.999618
445.712995	0.999462
446.088002	0.998640
446.462949	0.999128
446.837837	1.000910
447.212664	0.999302
447.587431	0.999469
447.962139	0.999072
448.336786	0.998816
448.711374	0.998939
449.085901	0.999276
449.460369	1.000030
449.834776	0.999312
450.209124	0.999375
450.583412	0.999937
450.957640	0.999256
451.331808	0.999795
451.705917	0.999095
452.079965	0.999804
452.453954	1.000221
452.827883	1.000043
453.201752	0.999596
453.575562	1.000572
453.949311	0.999882
454.323001	0.999680
454.696632	0.999818
455.070202	0.999736
455.443713	0.999699
455.817164	1.000190
456.190556	0.999466
456.563888	1.000326
456.937160	0.999649
457.310373	0.999482
457.683526	0.999880
458.056619	0.999844
458.429653	0.999411
458.802628	0.999096
459.175542	0.999500
459.548398	0.998481
459.921194	0.999561
460.293930	1.000935
460.666607	1.000038
461.039224	0.999731
461.411782	0.999797
461.784280	0.998962
462.156719	1.000127
462.529099	1.000046
462.901419	0.999188
463.273680	0.999073
463.645882	0.999137
464.018024	1.000983
464.390106	0.999396
464.762130	0.999720
465.134094	0.999877
465.505999	0.999884
465.877845	0.999411
466.249631	0.999633
466.621358	0.999504
466.993026	0.999405
467.364634	0.998705
467.736184	0.999047
468.107674	0.999329
468.479105	0.998839
468.850477	1.000126
469.221790	0.999906
469.593043	0.998344
469.964238	0.999232
470.335373	0.999400
470.706449	0.999206
471.077467	0.998692
471.448425	0.999436
471.819324	1.000214
472.190164	0.999154
472.560945	0.999436
472.931667	0.999134
473.302330	0.999936
473.672934	0.999471
474.043479	0.999005
474.413965	0.999661
474.784393	0.999236
475.154761	0.998922
475.525070	0.999384
475.895321	0.999509
476.265513	0.999543
476.635645	1.000125
477.005719	0.999194
477.375734	0.999092
477.745691	0.999224
478.115588	0.999095
478.485427	0.999893
478.855207	1.000053
479.224928	0.999548
479.594591	1.000108
479.964194	0.999332
480.333739	0.999577
480.703226	0.998753
481.072653	0.998959
481.442022	0.999874
481.811333	1.000304
482.180584	0.999078
482.549777	0.999615
482.918912	0.998916
483.287988	0.999776
483.657005	0.999496
484.025964	0.999087
484.394864	0.999099
484.763706	0.999212
485.132489	0.999929
485.501213	0.999166
485.869879	0.998989
486.238487	0.998686
486.607036	0.999493
486.975527	0.999788
487.343959	0.999124
487.712333	0.999487
488.080648	0.998918
488.448905	0.998983
488.817104	0.998809
489.185244	0.998394
489.553326	0.999102
489.921350	0.999902
490.289315	0.999440
490.657222	0.998448
491.025070	0.999798
491.392861	0.999659
491.760593	0.999074
492.128267	0.998913
492.495883	0.998487
492.863440	0.999432
493.230939	0.999489
493.598380	0.999240
493.965763	0.999319
494.333088	0.998228
494.700354	0.998954
495.067563	0.998520
495.434713	0.999605
495.801805	0.998870
496.168839	0.999158
496.535815	0.999193
496.902733	0.999070
497.269593	0.998736
497.636395	0.998996
498.003139	0.998714
498.369825	1.000038
498.736453	0.999521
499.103023	0.999723
499.469535	0.999147
499.835989	0.999767
500.202385	1.000018
500.568723	0.999750
500.935003	0.999595
501.301226	0.999220
501.667390	0.998962
502.033497	0.999273
502.399546	0.998877
502.765537	0.998744
503.131470	0.999619
503.497345	0.999346
503.863163	0.999406
504.228923	0.999415
504.594625	0.999071
504.960269	0.999219
505.325856	1.000110
505.691385	0.999239
506.056856	0.998835
506.422270	0.999072
506.787625	0.999147
507.152924	0.999594
507.518164	0.999454
507.883347	0.998900
508.248472	0.999623
508.613540	0.999600
508.978550	0.999170
509.343503	0.999001
509.708398	1.000070
510.073236	0.999623
510.438016	0.998865
510.802738	0.999103
511.167403	0.999274
511.532010	0.999285
511.896561	0.999668
512.261053	0.999089
512.625488	0.999260
512.989866	0.999533
513.354186	0.998705
513.718449	0.999253
514.082655	0.998675
514.446803	0.999346
514.810894	0.999554
515.174927	0.999433
515.538904	0.999156
515.902822	0.999390
516.266684	0.999035
516.630488	0.999923
516.994235	0.999690
517.357925	0.999518
517.721558	0.998867
518.085133	0.998856
518.448651	0.999351
518.812112	0.999367
519.175516	0.999653
519.538863	0.998852
519.902152	0.999980
520.265385	0.999403
520.628560	0.999068
520.991678	0.999530
521.354739	1.000085
521.717743	0.999384
522.080690	0.998677
522.443580	0.999365
522.806413	0.998662
523.169189	0.999638
523.531908	0.998634
523.894569	0.999517
524.257174	0.999467
524.619722	0.999439
524.982213	0.999481
525.344647	0.999405
525.707025	0.998940
526.069345	0.999267
526.431608	0.999625
526.793815	0.999291
527.155964	0.999640
527.518057	0.999545
527.880093	0.999430
528.242072	0.999449
528.603995	0.999696
528.965860	0.999620
529.327669	0.999316
529.689421	0.999200
530.051117	0.999127
530.412755	0.999185
530.774337	0.999418
531.135862	0.999840
531.497331	0.999177
531.858743	1.000024
532.220098	0.999565
532.581396	0.999348
532.942638	0.999437
533.303824	1.000701
533.664953	0.999348
534.026025	0.999759
534.387040	0.999334
534.747999	0.999236
535.108902	0.998754
535.469748	0.999944
535.830537	0.999629
536.191270	0.999532
536.551947	0.999445
536.912567	0.999430
537.273131	0.999799
537.633638	1.000143
537.994089	0.999514
538.354483	0.999610
538.714821	0.999439
539.075103	0.999849
539.435328	0.999527
539.795497	0.999684
540.155609	0.999404
540.515665	0.999433
540.875665	0.999180
541.235609	0.999773
541.595496	0.999227
541.955328	1.000422
542.315102	0.999721
542.674821	0.999270
543.034483	0.999473
543.394090	0.998808
543.753640	0.999116
544.113134	0.999019
544.472571	0.999550
544.831953	0.999337
545.191278	0.999018
545.550548	0.999162
545.909761	0.999664
546.268918	0.999851
546.628019	0.999813
546.987064	0.999323
547.346053	0.998891
547.704986	0.999201
548.063863	0.998646
548.422684	0.999452
548.781449	0.999752
549.140158	0.999707
549.498811	0.998952
549.857408	0.998860
550.215949	0.998789
550.574434	0.998900
550.932864	0.999014
551.291237	0.999239
551.649555	0.999403
552.007817	0.999191
552.366022	0.999823
552.724173	0.999610
553.082267	0.999159
553.440305	0.999299
553.798288	0.998430
554.156215	0.999399
554.514086	0.999080
554.871902	0.999346
555.229661	0.999108
555.587365	0.999511
555.945014	0.999913
556.302606	0.999150
556.660143	0.999222
557.017625	0.999468
557.375050	0.998875
557.732421	0.999216
558.089735	0.998958
558.446994	0.998804
558.804197	0.999358
559.161345	0.998687
559.518437	0.998758
559.875474	0.999336
560.232455	0.999099
560.589381	0.999416
560.946251	0.999621
561.303065	0.999289
561.659825	0.998594
562.016528	0.999917
562.373177	0.999000
562.729770	0.999153
563.086307	0.998694
563.442789	0.998915
563.799216	0.998954
564.155587	0.999056
564.511904	1.000446
564.868164	0.998930
565.224370	0.999309
565.580520	0.999067
565.936615	0.999416
566.292654	0.999461
566.648638	0.999795
567.004567	0.999674
567.360441	0.999303
567.716260	0.999011
568.072023	0.998456
568.427732	0.999488
568.783385	0.999000
569.138982	0.999521
569.494525	0.999588
569.850013	0.999463
570.205445	0.999527
570.560823	0.999333
570.916145	0.998480
571.271412	0.999592
571.626625	0.999211
571.981782	0.998866
572.336884	0.998909
572.691931	0.999061
573.046923	0.999103
573.401860	0.999446
573.756743	0.999564
574.111570	0.998961
574.466342	1.000097
574.821059	0.999377
575.175722	0.999859
575.530330	0.999225
575.884882	0.999027
576.239380	0.999227
576.593823	0.999032
576.948211	0.998855
577.302544	0.998727
577.656823	0.999135
578.011047	0.998758
578.365216	0.999883
578.719330	0.999279
579.073389	0.998120
579.427394	0.998857
579.781344	0.999688
580.135239	0.998398
580.489080	0.998934
580.842866	0.999520
581.196597	0.999224
581.550273	0.998820
581.903895	0.999068
582.257463	0.999050
582.610975	0.999437
582.964434	0.999785
583.317837	0.999402
583.671186	0.999490
584.024481	0.999046
584.377721	0.998185
584.730906	0.999335
585.084037	1.000088
585.437113	0.999655
585.790135	0.999152
586.143103	0.999041
586.496016	0.998919
586.848874	0.999124
587.201679	0.999394
587.554428	0.998949
587.907124	0.999824
588.259765	0.999686
588.612352	0.999619
588.964884	0.999047
589.317362	0.999285
589.669786	0.998219
590.022155	0.998654
590.374470	0.998535
590.726731	0.998640
591.078937	0.999376
591.431090	0.999728
591.783188	0.999046
592.135232	0.999589
592.487222	0.999600
592.839157	0.998882
593.191038	0.998679
593.542866	0.998942
593.894639	0.998476
594.246358	0.999980
594.598022	0.999593
594.949633	0.998919
595.301190	0.999029
595.652692	0.998241
596.004141	0.999161
596.355535	0.998601
596.706876	0.999397
597.058162	0.998560
597.409395	0.999352
597.760573	0.998833
598.111698	0.999029
598.462768	0.997944
598.813785	0.998592
599.164748	0.998812
599.515657	0.998893
599.866511	0.999125
600.217312	0.999641
600.568060	0.998465
600.918753	0.999255
601.269392	0.999550
601.619978	0.998611
601.970510	0.998788
602.320988	0.999283
602.671412	0.998509
603.021783	0.999207
603.372100	0.999469
603.722363	0.999425
604.072572	0.999412
604.422728	0.998632
604.772830	0.998895
605.122878	0.999192
605.472872	0.998992
605.822813	0.998621
606.172701	0.999056
606.522534	0.999313
606.872314	0.999566
607.222041	0.998736
607.571714	0.998881
607.921333	0.998735
608.270899	0.998657
608.620411	0.998609
608.969870	0.999197
609.319276	0.998685
609.668627	0.999475
610.017926	0.998995
610.367171	0.999981
610.716362	0.998898
611.065500	0.999080
611.414585	0.998871
611.763616	0.998337
612.112594	0.999317
612.461518	0.997956
612.810389	0.999477
613.159207	0.998657
613.507971	0.998501
613.856682	0.999542
614.205340	0.998244
614.553945	0.999002
614.902496	0.998421
615.250994	0.998618
615.599439	0.998871
615.947830	0.998537
616.296169	0.998868
616.644454	0.998487
616.992686	0.998943
617.340864	0.999665
617.688990	0.998928
618.037063	0.999387
618.385082	0.998440
618.733048	0.998170
619.080961	0.998771
619.428821	0.999645
619.776628	0.999072
620.124382	0.999814
620.472083	0.999063
620.819731	1.000078
621.167326	0.998746
621.514868	0.998662
621.862357	0.998838
622.209793	0.999335
622.557176	0.998828
622.904506	0.998577
623.251783	0.998794
623.599007	0.998703
623.946179	0.997985
624.293297	0.999420
624.640363	0.998574
624.987376	0.998110
625.334336	0.998744
625.681243	0.999633
626.028097	0.999178
626.374899	0.999011
626.721647	1.000045
627.068343	0.999434
627.414987	0.998597
627.761577	0.998531
628.108115	0.998159
628.454600	0.999958
628.801032	0.998432
629.147412	0.998942
629.493739	0.999310
629.840014	0.998283
630.186236	0.998402
630.532405	0.998620
630.878521	0.997976
631.224585	0.999372
631.570597	0.998278
631.916556	0.999599
632.262462	0.997417
632.608316	0.999565
632.954117	0.998212
633.299866	0.998287
633.645562	0.998860
633.991206	0.999012
634.336797	0.999161
634.682336	0.999485
635.027823	0.999045
635.373257	0.999248
635.718639	0.999011
636.063968	0.998695
636.409245	0.998918
636.754470	0.999582
637.099642	0.998612
637.444762	0.999031
637.789829	0.998795
638.134845	0.998297
638.479808	0.998583
638.824719	0.998720
639.169577	0.998757
639.514383	0.999105
639.859137	0.999332
640.203839	0.998185
640.548489	0.998338
640.893086	0.998247
641.237632	0.999553
641.582125	0.998318
641.926566	0.999362
642.270955	0.998528
642.615292	0.997539
642.959576	0.998363
643.303809	0.999746
643.647990	0.998463
643.992118	0.998844
644.336195	0.997850
644.680219	0.998401
645.024192	0.998708
645.368112	0.998142
645.711981	0.998951
646.055797	0.998897
646.399562	0.997911
646.743274	0.999126
647.086935	0.998529
647.430544	0.998400
647.774101	0.998117
648.117606	0.998585
648.461059	0.999510
648.804460	0.998805
649.147810	0.998903
649.491108	0.998957
649.834354	0.998376
650.177548	0.998721
650.520690	0.998452
650.863781	0.998548
651.206820	0.998606
651.549807	0.998716
651.892742	0.999335
652.235626	0.998308
652.578458	0.998943
652.921238	0.998594
653.263967	0.999300
653.606644	0.997970
653.949269	0.999039
654.291843	0.998507
654.634365	0.998879
654.976836	0.997719
655.319255	0.999107
655.661622	0.998768
656.003938	0.998896
656.346203	0.998247
656.688416	0.998721
657.030577	0.998201
657.372687	0.998455
657.714746	0.998420
658.056753	0.998571
658.398708	0.998475
658.740612	0.999639
659.082465	0.999198
659.424266	0.999066
659.766016	0.998060
660.107715	0.998816
660.449362	0.998361
660.790958	0.998685
661.132503	0.999472
661.473996	0.999233
661.815438	0.999195
662.156829	0.999093
662.498168	0.999911
662.839456	0.998130
663.180693	0.999357
663.521879	0.998940
663.863013	0.998743
664.204097	0.998122
664.545129	0.998630
664.886110	0.998421
665.227040	0.998516
665.567918	0.998573
665.908746	0.997538
666.249522	0.998031
666.590248	0.998338
666.930922	0.999052
667.271545	0.999028
667.612118	0.998520
667.952639	0.999220
668.293109	0.997927
668.633528	0.998045
668.973896	0.999125
669.314213	0.998299
669.654480	0.999270
669.994695	0.997900
670.334859	0.998527
670.674973	0.997977
671.015035	0.998236
671.355047	0.998441
671.695008	0.998116
672.034918	0.998126
672.374777	0.999215
672.714585	0.998330
673.054342	0.999955
673.394049	0.998349
673.733705	0.998004
674.073310	0.997884
674.412864	0.998514
674.752368	0.997992
675.091820	0.999245
675.431223	0.998958
675.770574	0.997924
676.109875	0.997989
676.449125	0.998070
676.788324	0.998754
677.127473	0.998861
677.466571	0.999134
677.805619	0.998279
678.144616	0.998956
678.483562	0.998595
678.822458	0.998346
679.161303	0.998056
679.500098	0.998904
679.838842	0.998352
680.177535	0.998223
680.516179	0.997406
680.854771	0.998322
681.193314	0.998555
681.531805	0.998955
681.870247	0.997999
682.208638	0.998692
682.546978	0.998019
682.885268	0.997880
683.223508	0.997949
683.561697	0.998688
683.899836	0.998632
684.237925	0.998653
684.575963	0.998313
684.913951	0.999009
685.251889	0.998105
685.589776	0.998383
685.927614	0.998178
686.265401	0.997994
686.603137	0.998057
686.940824	0.998682
687.278460	0.998766
687.616046	0.998064
687.953582	0.998397
688.291068	0.999232
688.628504	0.998952
688.965889	0.998456
689.303224	0.997447
689.640510	0.998447
689.977745	0.998665
690.314930	0.997992
690.652065	0.997337
690.989150	0.998085
691.326185	0.998635
691.663170	0.998609
692.000105	0.998481
692.336990	0.998235
692.673825	0.998485
693.010610	0.997824
693.347345	0.997684
693.684030	0.997056
694.020665	0.998490
694.357251	0.998109
694.693786	0.998561
695.030272	0.996785
695.366707	0.997744
695.703093	0.998017
696.039429	0.998226
696.375716	0.998662
696.711952	0.997964
697.048139	0.999334
697.384276	0.998177
697.720363	0.998264
698.056400	0.997321
698.392388	0.998012
698.728326	0.997712
699.064214	0.998508
699.400053	0.997782
699.735842	0.998848
700.071581	0.997728
700.407270	0.997978
700.742910	0.998701
701.078501	0.997536
701.414042	0.999465
701.749533	0.996923
702.084974	0.997923
702.420366	0.998399
702.755709	0.997438
703.091002	0.998733
703.426246	0.998540
703.761440	0.998670
704.096584	0.996966
704.431679	0.997959
704.766725	0.998338
705.101721	0.998747
705.436668	0.998850
705.771565	0.997893
706.106413	0.997104
706.441212	0.998331
706.775961	0.998049
707.110661	0.997381
707.445311	0.998716
707.779913	0.998586
708.114465	0.998666
708.448967	0.999320
708.783421	0.998938
709.117825	0.998333
709.452180	0.998205
709.786485	0.998496
710.120742	0.997965
710.454949	0.998302
710.789107	0.998666
711.123216	0.998094
711.457275	0.998163
711.791286	0.998591
712.125247	0.999809
712.459159	0.998464
712.793023	0.997604
713.126837	0.998196
713.460602	0.997148
713.794318	0.997348
714.127985	0.996648
714.461602	0.998011
714.795171	0.997400
715.128691	0.997739
715.462162	0.998242
715.795584	0.997450
716.128957	0.998447
716.462281	0.998128
716.795556	0.997343
717.128782	0.998461
717.461960	0.997651
717.795088	0.997610
718.128167	0.998689
718.461198	0.998245
718.794180	0.999124
719.127113	0.998237
719.459997	0.997566
719.792833	0.997738
720.125619	0.997403
720.458357	0.998193
720.791046	0.998926
721.123686	0.998038
721.456278	0.998689
721.788821	0.998207
722.121315	0.999516
722.453761	0.998102
722.786158	0.997683
723.118506	0.998814
723.450805	0.997477
723.783056	0.998126
724.115259	0.997951
724.447412	0.998974
724.779518	0.998408
725.111574	0.998744
725.443582	0.998075
725.775542	0.998372
726.107453	0.998829
726.439315	0.999012
726.771129	0.999411
727.102895	0.998166
727.434612	0.997954
727.766281	0.998248
728.097901	0.997689
728.429473	0.998551
728.760996	0.997618
729.092471	0.998512
729.423897	0.998813
729.755276	0.998702
730.086606	0.998181
730.417887	0.998544
730.749120	0.998958
731.080305	0.998668
731.411442	0.998369
731.742530	0.997315
732.073570	0.997313
732.404562	0.997357
732.735506	0.998792
733.066401	0.997893
733.397249	0.997607
733.728048	0.998212
734.058798	0.998027
734.389501	0.998723
734.720156	0.998715
735.050762	0.998559
735.381320	0.998235
735.711831	0.997621
736.042293	0.998534
736.372707	0.999109
736.703073	0.998063
737.033391	0.998186
737.363661	0.998902
737.693883	0.998744
738.024056	0.998531
738.354182	0.998238
738.684260	0.998233
739.014290	0.998497
739.344272	0.998226
739.674207	0.998720
740.004093	0.998907
740.333931	0.998874
740.663722	0.997948
740.993464	0.998628
741.323159	0.998232
741.652806	0.998085
741.982405	0.997916
742.311956	0.998878
742.641460	0.998214
742.970915	0.998037
743.300323	0.998410
743.629683	0.997523
743.958996	0.999104
744.288260	0.998105
744.617477	0.998157
744.946647	0.998858
745.275768	0.998204
745.604842	0.997735
745.933869	0.998943
746.262847	0.998674
746.591778	0.996066
746.920662	0.998095
747.249498	0.998553
747.578286	0.999133
747.907027	0.998820
748.235720	0.999150
748.564365	0.998893
748.892963	0.998116
749.221514	0.998842
749.550017	0.997972
749.878473	0.998359
750.206881	0.999943
750.535242	0.998671
750.863555	0.997955
751.191821	0.998956
751.520039	0.997957
751.848210	0.996196
752.176334	0.998737
752.504411	0.998353
752.832440	0.996476
753.160421	0.998754
753.488356	0.998804
753.816243	0.998486
754.144082	0.998503
754.471875	0.998120
754.799620	0.998694
755.127318	0.998348
755.454969	0.998013
755.782572	0.999595
756.110129	0.999075
756.437638	0.999335
756.765100	0.998955
757.092515	0.998437
757.419882	0.998856
757.747203	0.998556
758.074477	0.999670
758.401703	0.999051
758.728882	0.997889
759.056014	0.998856
759.383099	0.998123
759.710138	0.998629
760.037129	0.998724
760.364073	0.999961
760.690970	0.998660
761.017820	0.998013
761.344623	0.998781
761.671379	0.998840
761.998088	0.998962
762.324751	0.999355
762.651366	0.998316
762.977935	0.997767
763.304456	0.999179
763.630931	0.997316
763.957359	0.996496
764.283740	0.996781
764.610074	0.996993
764.936362	0.997366
765.262602	0.998628
765.588796	0.998296
765.914943	0.998731
766.241044	0.998577
766.567097	0.998657
766.893104	0.999520
767.219064	0.998593
767.544978	0.998011
767.870845	0.999112
768.196665	0.998796
768.522438	0.998567
768.848165	0.998870
769.173846	0.998375
769.499479	0.999710
769.825066	0.999846
770.150607	1.000178
770.476101	0.998007
770.801548	0.999547
771.126949	0.999550
771.452303	0.998681
771.777611	0.998923
772.102872	0.999326
772.428087	0.998219
772.753256	0.998262
773.078378	0.998533
773.403453	0.998421
773.728482	1.000268
774.053465	0.999113
774.378401	0.999304
774.703291	0.999590
775.028135	0.999490
775.352932	0.998614
775.677683	1.000278
776.002388	0.999398
776.327046	0.999234
776.651658	1.000050
776.976224	0.998834
777.300743	0.998062
777.625216	0.998184
777.949643	0.999406
778.274024	0.998590
778.598359	0.999730
778.922647	0.998984
779.246889	0.999675
779.571086	1.000074
779.895236	0.998902
780.219339	0.999213
780.543397	0.998002
780.867409	1.000577
781.191374	0.999195
781.515294	1.000422
781.839167	0.999333
782.162995	0.999403
782.486776	0.998785
782.810511	0.998959
783.134201	0.998856
783.457844	0.998967
783.781441	0.998508
784.104993	0.998575
784.428498	1.000778
784.751958	0.999625
785.075372	0.999984
785.398739	0.998444
785.722061	0.998232
786.045337	0.999653
786.368568	0.999911
786.691752	0.998949
787.014891	0.998958
787.337983	0.998750
787.661030	0.998660
787.984031	0.999784
788.306987	0.999607
788.629897	0.997868
788.952760	0.999427
789.275579	0.999789
789.598351	0.999050
789.921078	0.999546
790.243759	0.998836
790.566395	0.997609
790.888984	0.999439
791.211529	0.999060
791.534027	0.998688
791.856480	0.999597
792.178888	0.999383
792.501249	0.998827
792.823566	0.999858
793.145836	0.999036
793.468062	0.999342
793.790241	0.999541
794.112375	0.998271
794.434464	0.999795
794.756507	0.999912
795.078505	0.999510
795.400457	1.000117
795.722364	0.999398
796.044226	0.999163
796.366042	0.999323
796.687812	0.998363
797.009538	0.998914
797.331218	0.999716
797.652852	0.999824
797.974442	0.998835
798.295986	0.999732
798.617484	0.998516
798.938938	0.999196
799.260346	0.998480
799.581709	0.998373
799.903026	0.999464
800.224299	0.998593
800.545526	0.998494
800.866708	0.999138
801.187845	0.999245
801.508936	1.000139
801.829983	0.998997
802.150984	0.999205
802.471940	0.998824
802.792851	0.999057
803.113717	1.000501
803.434538	0.998998
803.755314	1.000641
804.076045	0.999648
804.396731	0.999701
804.717372	0.998551
805.037967	0.999469
805.358518	0.999929
805.679024	0.998947
805.999485	1.000014
806.319901	0.999475
806.640272	1.001293
806.960598	1.000109
807.280879	0.998733
807.601115	0.999846
807.921306	0.999751
808.241453	0.998935
808.561554	0.998699
808.881611	0.999422
809.201623	0.998724
809.521590	0.998852
809.841513	0.999651
810.161390	0.997846
810.481223	0.999147
810.801011	0.999883
811.120755	0.999993
811.440453	0.999163
811.760107	0.999767
812.079716	0.999224
812.399281	0.999694
812.718801	0.999187
813.038276	0.998922
813.357707	0.999819
813.677093	0.999254
813.996434	0.998727
814.315731	1.000776
814.634983	0.999275
814.954191	0.999758
815.273354	0.998927
815.592473	0.999453
815.911547	1.000706
816.230577	0.999114
816.549562	0.999461
816.868502	0.998490
817.187399	1.000480
817.506250	0.998709
817.825058	0.998866
818.143821	0.999455
818.462539	0.999550
818.781213	0.999971
819.099843	0.999647
819.418429	0.998009
819.736970	0.999605
820.055466	0.998499
820.373919	0.998418
820.692327	0.997029
821.010691	0.998721
821.329011	0.997191
821.647286	0.997092
821.965517	0.996255
822.283704	0.996178
822.601847	0.995677
822.919945	0.994767
823.237999	0.994884
823.556010	0.995438
823.873976	0.995128
824.191897	0.995983
824.509775	0.997205
824.827609	0.996892
825.145398	0.998414
825.463144	0.996112
825.780845	0.996898
826.098502	0.997782
826.416116	0.997729
826.733685	0.997214
827.051210	0.996355
827.368692	0.996517
827.686129	0.995734
828.003522	0.998352
828.320872	0.996985
828.638177	0.997902
828.955439	0.999617
829.272656	0.998720
829.589830	0.997970
829.906960	0.998925
830.224046	0.998719
830.541088	0.998755
830.858086	0.998817
831.175041	1.000155
831.491952	0.998291
831.808819	0.998183
832.125642	0.998483
832.442421	0.999436
832.759157	1.000328
833.075849	0.999102
833.392497	0.998734
833.709101	0.997709
834.025662	0.998971
834.342179	0.997939
834.658653	0.999220
834.975083	0.999309
835.291469	0.998914
835.607811	0.998264
835.924110	0.999308
836.240366	1.000224
836.556578	0.998672
836.872746	0.999865
837.188871	0.999195
837.504952	0.998827
837.820990	1.000018
838.136984	0.998421
838.452935	0.998608
838.768842	1.000090
839.084706	0.999019
839.400526	0.999686
839.716303	0.997251
840.032037	0.999900
840.347727	0.998876
840.663373	0.999247
840.978977	0.998605
841.294537	0.999385
841.610054	0.999794
841.925527	1.000136
842.240957	1.000466
842.556344	1.000045
842.871687	1.000083
843.186987	0.999959
843.502244	0.999604
843.817458	0.999383
844.132629	0.999086
844.447756	0.999606
844.762840	0.999899
845.077881	1.001461
845.392879	0.999104
845.707833	0.999073
846.022745	0.999038
846.337613	0.999643
846.652438	0.999776
846.967221	0.999822
847.281960	0.999951
847.596656	1.000317
847.911309	1.001286
848.225919	0.998841
848.540485	0.999690
848.855009	1.000540
849.169490	0.999986
849.483928	0.998272
849.798323	0.998697
850.112675	1.001293
850.426984	0.999741
850.741251	0.999967
851.055474	1.000319
851.369654	1.000684
851.683792	0.999780
851.997887	1.000480
852.311938	0.999864
852.625947	0.998966
852.939914	0.998760
853.253837	1.000087
853.567718	1.000077
853.881555	1.001405
854.195350	0.999722
854.509103	0.999012
854.822812	0.999954
855.136479	0.999969
855.450103	1.000108
855.763685	0.999961
856.077224	0.999936
856.390720	1.000209
856.704173	1.000289
857.017584	1.000342
857.330953	0.999855
857.644278	0.999988
857.957561	1.000120
858.270802	1.000876
858.584000	0.998937
858.897155	0.999330
859.210268	1.000182
859.523339	1.001410
859.836367	1.000108
860.149352	1.000030
860.462295	0.999438
860.775195	0.999415
861.088054	0.998378
861.400869	1.000298
861.713642	0.998537
862.026373	1.000581
862.339062	0.999953
862.651708	0.999902
862.964312	0.999911
863.276873	0.999927
863.589392	0.999174
863.901869	0.999638
864.214303	0.999335
864.526696	0.999580
864.839045	1.000581
865.151353	1.000455
865.463619	0.999298
865.775842	1.000346
866.088023	1.000975
866.400162	1.000680
866.712258	1.000978
867.024313	0.999891
867.336325	1.001000
867.648296	1.001342
867.960224	1.001851
868.272110	1.001189
868.583954	0.999242
868.895755	1.001212
869.207515	0.999386
869.519233	1.000279
869.830909	0.999993
870.142542	0.999559
870.454134	1.000067
870.765684	1.000081
871.077191	0.999528
871.388657	0.998895
871.700081	1.000293
872.011463	1.000266
872.322803	0.999223
872.634101	0.998975
872.945357	1.000294
873.256571	0.999376
873.567744	0.999514
873.878874	1.000449
874.189963	0.998834
874.501010	1.000622
874.812015	0.999346
875.122979	1.000042
875.433900	0.998490
875.744780	0.999863
876.055618	0.999378
876.366415	0.998837
876.677169	0.999854
876.987882	0.999450
877.298554	1.000568
877.609183	1.000424
877.919771	0.999539
878.230317	0.999097
878.540822	0.999011
878.851285	0.999850
879.161707	0.998973
879.472087	1.000866
879.782425	0.997948
880.092722	0.998636
880.402977	0.997620
880.713191	0.997648
881.023363	0.997851
881.333494	0.995993
881.643583	0.998857
881.953631	0.997948
882.263637	0.996848
882.573602	0.996616
882.883526	0.997004
883.193408	0.998436
883.503248	0.998034
883.813048	0.997115
884.122806	0.998579
884.432522	0.998585
884.742197	0.999652
885.051831	0.998170
885.361424	0.999131
885.670975	1.000267
885.980485	0.999708
886.289954	0.999278
886.599382	0.998732
886.908768	1.000663
887.218113	0.998768
887.527417	1.000810
887.836680	0.999988
888.145901	0.999868
888.455082	1.001041
888.764221	1.001468
889.073319	0.999715
889.382376	1.000343
889.691392	1.000451
890.000366	1.001339
890.309300	1.000147
890.618193	1.000603
890.927044	1.000108
891.235855	1.000011
891.544625	1.000089
891.853353	0.999502
892.162041	0.999697
892.470687	1.000602
892.779293	0.999771
893.087858	0.999034
893.396381	0.999314
893.704864	0.998961
894.013306	1.000333
894.321707	0.999227
894.630068	0.998842
894.938387	0.998578
895.246665	0.997847
895.554903	0.997135
895.863100	0.999666
896.171256	0.998711
896.479371	0.999657
896.787446	0.998747
897.095480	0.999113
897.403473	1.001109
897.711425	0.999260
898.019336	1.000585
898.327207	1.000230
898.635038	0.999235
898.942827	0.999042
899.250576	0.999984
899.558284	1.000078
899.865952	0.999304
900.173579	0.999981
900.481165	1.000163
900.788711	0.999224
901.096216	0.999726
901.403681	1.000202
901.711105	0.998998
902.018489	0.999245
902.325832	1.000811
902.633135	0.999500
902.940397	1.000609
903.247619	0.999929
903.554800	0.999130
903.861941	0.999950
904.169041	0.999101
904.476101	0.999248
904.783121	0.998465
905.090100	0.999846
905.397039	0.999327
905.703938	0.999149
906.010796	0.999418
906.317614	0.999317
906.624391	0.998891
906.931129	0.999367
907.237826	0.999749
907.544483	1.000393
907.851099	0.999367
908.157675	1.000244
908.464211	1.000405
908.770707	0.999412
909.077163	0.999896
909.383578	1.000102
909.689954	0.998203
909.996289	0.999986
910.302584	1.000408
910.608839	1.001689
910.915054	0.999620
911.221229	1.000632
911.527363	0.999300
911.833458	1.000474
912.139513	0.999833
912.445527	1.001188
912.751502	1.000191
913.057436	0.998645
913.363331	1.000030
913.669186	1.000309
913.975000	1.000053
914.280775	1.000375
914.586510	0.998483
914.892205	0.999421
915.197859	0.999393
915.503475	0.999482
915.809050	0.999088
916.114585	0.998121
916.420081	0.999243
916.725536	0.999011
917.030952	0.999380
917.336328	0.998849
917.641665	0.999822
917.946961	0.998638
918.252218	0.998837
918.557435	0.999099
918.862612	1.000187
919.167750	0.999629
919.472848	1.000561
919.777906	1.000458
920.082925	1.001247
920.387904	1.000319
920.692843	0.998779
920.997743	0.998948
921.302603	0.999689
921.607423	0.999491
921.912204	0.999336
922.216946	1.000078
922.521647	1.000322
922.826310	0.999072
923.130932	1.000155
923.435516	1.000787
923.740059	0.999609
924.044564	0.999232
924.349028	0.998761
924.653454	0.999681
924.957840	1.000822
925.262186	0.999793
925.566493	1.000138
925.870761	0.999358
926.174989	1.000042
926.479178	1.000332
926.783328	1.000039
927.087438	1.001007
927.391509	0.997943
927.695541	1.000224
927.999533	1.000909
928.303486	1.000164
928.607400	1.000630
928.911275	0.999986
929.215110	1.001320
929.518906	1.000691
929.822663	1.000736
930.126381	1.000438
930.430060	0.999789
930.733699	1.001252
931.037299	0.999295
931.340861	1.001232
931.644383	0.999099
931.947866	1.001950
932.251309	1.001165
932.554714	0.999593
932.858080	1.001029
933.161407	1.000533
933.464694	1.000191
933.767943	1.000854
934.071153	1.000100
934.374323	0.999588
934.677455	1.000110
934.980548	0.998771
935.283602	1.000601
935.586617	0.999610
935.889593	1.001152
936.192530	1.000908
936.495428	1.000426
936.798287	0.999665
937.101108	0.999793
937.403890	0.998975
937.706632	1.001329
938.009336	1.000256
938.312002	0.998788
938.614628	1.000281
938.917216	0.999063
939.219765	1.000461
939.522275	1.001152
939.824747	1.000835
940.127179	0.999513
940.429573	1.000076
940.731929	0.999561
941.034246	1.000303
941.336524	0.998982
941.638763	1.000212
941.940964	0.999797
942.243126	0.999094
942.545250	1.000951
942.847335	0.999830
943.149381	0.999519
943.451389	0.999605
943.753359	1.000566
944.055290	1.001289
944.357182	1.000640
944.659036	1.000936
944.960851	0.999394
945.262628	1.000489
945.564367	0.999891
945.866067	1.000885
946.167729	0.999530
946.469352	1.001288
946.770937	0.998326
947.072484	1.001007
947.373992	1.000619
947.675462	0.999805
947.976893	1.000543
948.278286	1.001332
948.579641	1.000974
948.880958	1.000213
949.182236	0.999993
949.483476	1.000822
949.784678	1.000522
950.085841	1.000023
950.386967	1.000030
950.688054	0.999795
950.989103	0.999339
951.290114	0.999994
951.591087	0.999537
951.892021	0.998914
952.192917	1.000540
952.493776	1.000263
952.794596	1.000217
953.095378	1.000048
953.396122	1.001258
953.696828	0.999874
953.997496	1.001161
954.298126	1.001351
954.598718	0.999348
954.899272	1.000699
955.199788	0.999207
955.500266	1.000966
955.800706	1.000391
956.101108	0.999758
956.401472	1.001716
956.701798	1.000791
957.002087	1.000684
957.302337	1.000231
957.602550	1.000303
957.902724	1.000856
958.202861	0.999875
958.502960	0.999356
958.803022	1.000254
959.103045	1.000509
959.403031	1.001797
959.702979	1.000940
960.002889	1.000315
960.302762	0.999882
960.602596	1.000785
960.902393	1.001068
961.202153	0.999853
961.501875	1.001676
961.801559	1.000845
962.101205	0.999394
962.400814	0.999679
962.700385	1.000364
962.999918	1.000822
963.299414	0.999679
963.598873	1.000151
963.898293	1.000183
964.197677	1.000709
964.497022	1.000366
964.796331	0.999377
965.095601	1.001744
965.394835	1.000747
965.694030	1.001141
965.993189	0.999724
966.292309	1.001254
966.591393	0.999457
966.890439	1.002186
967.189447	0.999791
967.488419	1.000644
967.787353	0.999482
968.086249	1.000713
968.385108	0.999568
968.683930	1.001648
968.982714	1.000619
969.281462	0.999645
969.580172	1.000682
969.878844	1.001499
970.177480	0.999702
970.476078	1.001342
970.774639	1.000259
971.073162	0.999490
971.371649	1.000170
971.670098	0.998900
971.968510	1.001505
972.266885	0.999479
972.565223	1.000155
972.863524	0.998691
973.161788	0.999275
973.460014	1.000627
973.758204	0.999676
974.056356	1.000053
974.354471	0.999434
974.652550	1.001245
974.950591	0.999759
975.248595	0.999942
975.546563	1.000235
975.844493	1.001111
976.142386	0.999909
976.440243	1.000876
976.738062	1.001156
977.035845	0.999715
977.333590	1.001482
977.631299	0.999078
977.928971	0.999949
978.226606	1.000379
978.524204	0.999599
978.821765	1.000065
979.119290	1.001027
979.416777	0.999999
979.714228	0.999205
980.011642	1.000773
980.309020	0.999216
980.606360	1.000090
980.903664	1.000990
981.200931	1.000000
981.498162	1.000707
981.795356	0.999198
982.092513	0.999940
982.389633	1.001931
982.686717	0.999915
982.983764	1.000240
983.280775	1.000664
983.577749	1.001343
983.874686	0.999427
984.171587	0.999702
984.468451	0.999006
984.765279	1.001057
985.062070	1.000401
985.358824	1.000123
985.655543	1.000766
985.952224	0.999850
986.248869	0.999725
986.545478	1.000637
986.842050	1.000544
987.138586	1.000037
987.435086	0.999367
987.731549	1.001480
988.027975	1.001514
988.324366	1.000112
988.620719	1.001916
988.917037	1.000256
989.213318	1.001089
989.509563	1.000273
989.805772	1.001326
990.101944	1.000620
990.398080	0.999478
990.694180	0.999293
990.990244	0.999758
991.286271	1.000720
991.582262	1.000839
991.878217	0.999696
992.174136	0.999947
992.470019	1.000598
992.765865	1.000800
993.061676	1.000878
993.357450	1.000498
993.653188	1.002992
993.948890	0.999810
994.244556	1.001149
994.540186	1.000278
994.835780	1.000017
995.131337	1.000988
995.426859	1.001169
995.722345	1.001274
996.017795	0.999975
996.313208	0.999894
996.608586	1.000772
996.903928	1.001239
997.199234	0.999877
997.494504	1.001008
997.789738	0.999556
998.084936	1.001230
998.380099	0.998914
998.675225	1.001726
998.970316	1.001319
999.265371	1.000639
999.560390	1.000807
999.855373	1.000628
1000.150320	1.000415
1000.445232	0.999535
1000.740108	1.000118
1001.034948	0.998711
1001.329752	1.001126
1001.624521	1.000356
1001.919254	0.999424
1002.213951	1.002081
1002.508613	1.000134
1002.803239	0.999790
1003.097829	1.000237
1003.392384	1.001402
1003.686903	1.000304
1003.981386	0.999973
1004.275834	1.001764
1004.570246	0.999866
1004.864623	1.001073
1005.158964	1.000725
1005.453270	1.000232
1005.747540	0.999279
1006.041775	0.999882
1006.335974	1.001511
1006.630138	0.999936
1006.924266	0.998780
1007.218359	0.998383
1007.512416	1.001067
1007.806438	0.999541
1008.100425	1.000336
1008.394376	0.999854
1008.688292	1.000024
1008.982172	0.999247
1009.276017	1.001073
1009.569827	1.001751
1009.863602	0.998347
1010.157341	1.000528
1010.451045	0.999382
1010.744714	1.001376
1011.038347	1.001668
1011.331945	0.999313
1011.625508	1.000008
1011.919036	0.999116
1012.212528	1.000497
1012.505986	1.000373
1012.799408	1.001463
1013.092795	1.000915
1013.386147	0.999948
1013.679464	1.000848
1013.972745	0.999949
1014.265992	1.000668
1014.559204	0.999505
1014.852380	1.000438
1015.145521	1.000200
1015.438628	1.000244
1015.731699	1.000668
1016.024736	1.000718
1016.317737	1.001693
1016.610703	1.000704
1016.903635	1.001259
1017.196531	1.000580
1017.489393	1.000066
1017.782219	0.999786
1018.075011	0.999817
1018.367768	1.001322
1018.660490	1.000346
1018.953177	1.000346
1019.245829	1.000346
