Dividing Wavelength (nm)	Counts (n)	Blue Motor Position (mm): 34.900000	Red Motor Position (mm): 0.000000	
326.493990	1.000319
326.888308	1.000319
327.282561	1.000319
327.676750	1.000252
328.070874	1.000644
328.464933	1.001364
328.858929	1.001740
329.252859	1.000962
329.646726	0.999257
330.040528	1.001167
330.434265	1.000150
330.827938	1.001011
331.221547	1.000716
331.615091	1.000938
332.008571	1.001401
332.401986	1.000113
332.795338	0.999944
333.188625	1.001230
333.581847	0.999576
333.975006	1.000812
334.368100	1.000182
334.761129	0.999861
335.154095	1.000708
335.546996	0.998879
335.939833	0.999603
336.332606	1.000426
336.725315	0.999790
337.117960	1.000111
337.510540	0.999511
337.903056	1.000305
338.295508	1.000245
338.687896	1.000498
339.080220	0.999595
339.472480	0.999181
339.864676	1.000490
340.256807	0.999295
340.648875	0.998981
341.040879	1.000352
341.432818	1.000192
341.824694	0.999090
342.216506	1.001217
342.608253	0.999527
342.999937	1.000941
343.391557	0.999197
343.783113	1.000684
344.174605	0.998929
344.566033	0.999081
344.957397	1.001121
345.348697	1.000276
345.739934	0.999966
346.131106	0.998624
346.522215	0.999253
346.913260	1.000242
347.304241	0.998693
347.695159	1.000168
348.086012	0.999262
348.476802	0.999460
348.867528	0.999206
349.258191	0.999655
349.648789	1.000097
350.039324	1.000022
350.429796	0.998237
350.820203	0.998361
351.210548	0.999382
351.600828	0.999406
351.991045	0.999019
352.381198	1.000743
352.771288	0.999801
353.161314	0.999988
353.551276	0.998503
353.941175	0.998112
354.331010	1.000279
354.720782	0.999766
355.110490	0.998768
355.500135	1.000055
355.889717	0.999005
356.279235	0.999685
356.668689	0.998980
357.058080	0.999168
357.447408	0.997748
357.836672	0.999320
358.225873	0.997977
358.615010	0.998196
359.004084	0.997958
359.393095	0.998777
359.782043	0.998167
360.170927	0.998732
360.559748	0.999693
360.948505	0.997915
361.337199	0.998016
361.725830	0.997866
362.114398	0.999076
362.502903	0.997207
362.891344	0.996305
363.279722	0.997880
363.668037	0.999002
364.056289	0.997727
364.444478	0.998556
364.832603	0.997065
365.220665	0.998166
365.608665	0.997352
365.996601	0.997746
366.384474	0.996794
366.772284	0.997117
367.160031	0.995417
367.547715	0.996019
367.935336	0.995694
368.322893	0.994251
368.710388	0.994058
369.097820	0.991318
369.485189	0.988885
369.872495	0.987584
370.259738	0.985968
370.646918	0.982399
371.034035	0.979926
371.421090	0.977732
371.808081	0.973049
372.195010	0.969914
372.581875	0.964959
372.968678	0.960591
373.355418	0.957723
373.742096	0.950269
374.128710	0.945206
374.515262	0.940826
374.901751	0.934950
375.288177	0.929645
375.674540	0.922819
376.060841	0.917077
376.447079	0.910376
376.833254	0.903722
377.219367	0.899148
377.605417	0.887546
377.991404	0.884647
378.377329	0.876729
378.763191	0.871734
379.148991	0.862201
379.534727	0.855138
379.920402	0.846430
380.306013	0.842923
380.691563	0.830613
381.077049	0.824477
381.462474	0.819102
381.847835	0.807961
382.233134	0.803419
382.618371	0.803786
383.003545	0.786076
383.388657	0.784988
383.773706	0.777086
384.158693	0.773746
384.543618	0.767704
384.928480	0.759460
385.313280	0.749038
385.698017	0.748070
386.082692	0.736829
386.467305	0.735256
386.851856	0.729737
387.236344	0.724292
387.620770	0.719469
388.005133	0.713861
388.389435	0.707449
388.773674	0.705875
389.157851	0.696760
389.541965	0.695247
389.926018	0.701431
390.310008	0.688607
390.693936	0.685694
391.077802	0.677372
391.461606	0.679670
391.845348	0.668296
392.229027	0.667882
392.612645	0.665708
392.996200	0.653605
393.379694	0.646119
393.763125	0.636473
394.146494	0.641443
394.529801	0.631534
394.913047	0.624019
395.296230	0.629011
395.679351	0.620645
396.062410	0.618133
396.445408	0.620829
396.828343	0.615719
397.211217	0.610840
397.594028	0.622899
397.976778	0.613322
398.359466	0.610213
398.742092	0.605684
399.124656	0.617677
399.507158	0.605484
399.889598	0.603215
400.271977	0.594201
400.654294	0.598279
401.036549	0.597613
401.418742	0.602463
401.800874	0.588448
402.182944	0.584726
402.564952	0.576962
402.946898	0.579170
403.328783	0.580143
403.710606	0.591773
404.092367	0.568376
404.474067	0.573767
404.855705	0.573375
405.237282	0.582559
405.618797	0.570696
406.000250	0.567279
406.381642	0.559224
406.762972	0.566852
407.144240	0.568043
407.525447	0.568578
407.906593	0.564889
408.287677	0.562900
408.668700	0.573679
409.049661	0.571010
409.430560	0.570232
409.811399	0.581225
410.192176	0.568084
410.572891	0.578816
410.953545	0.571580
411.334138	0.588636
411.714669	0.585909
412.095139	0.601223
412.475547	0.591893
412.855894	0.599646
413.236180	0.603310
413.616405	0.613723
413.996568	0.611403
414.376670	0.623017
414.756711	0.632794
415.136691	0.636445
415.516609	0.636470
415.896466	0.641427
416.276262	0.645021
416.655997	0.653027
417.035670	0.647955
417.415283	0.649757
417.794834	0.661513
418.174324	0.671970
418.553753	0.686088
418.933121	0.682461
419.312428	0.687394
419.691674	0.701081
420.070859	0.702114
420.449983	0.715235
420.829045	0.717560
421.208047	0.731357
421.586988	0.737688
421.965867	0.745561
422.344686	0.749812
422.723444	0.763689
423.102141	0.779978
423.480777	0.775444
423.859352	0.794868
424.237866	0.794447
424.616319	0.803291
424.994712	0.808514
425.373044	0.820793
425.751314	0.824997
426.129524	0.840264
426.507673	0.841316
426.885762	0.847044
427.263789	0.857745
427.641756	0.866523
428.019662	0.872189
428.397508	0.878084
428.775292	0.887217
429.153016	0.891957
429.530679	0.900044
429.908282	0.905052
430.285824	0.911267
430.663305	0.914497
431.040726	0.922972
431.418086	0.928528
431.795385	0.932528
432.172624	0.938070
432.549802	0.941714
432.926920	0.946370
433.303977	0.949777
433.680974	0.954439
434.057910	0.956636
434.434786	0.960162
434.811601	0.964751
435.188355	0.966913
435.565050	0.969702
435.941683	0.971298
436.318257	0.973307
436.694770	0.976206
437.071222	0.978522
437.447614	0.979904
437.823946	0.981866
438.200218	0.984094
438.576429	0.986074
438.952580	0.987508
439.328670	0.988183
439.704700	0.989205
440.080670	0.990915
440.456580	0.991441
440.832429	0.993485
441.208218	0.993585
441.583947	0.993458
441.959616	0.993799
442.335224	0.995834
442.710773	0.996806
443.086261	0.996535
443.461689	0.996104
443.837057	0.996054
444.212365	0.997760
444.587612	0.998326
444.962800	0.998438
445.337927	0.998034
445.712995	0.997743
446.088002	0.997410
446.462949	0.997533
446.837837	0.999252
447.212664	0.998243
447.587431	0.998653
447.962139	0.998446
448.336786	0.997911
448.711374	0.998185
449.085901	0.998930
449.460369	0.999300
449.834776	0.998437
450.209124	0.999397
450.583412	0.999507
450.957640	0.998907
451.331808	0.999428
451.705917	0.998465
452.079965	0.999628
452.453954	0.999003
452.827883	0.999236
453.201752	0.999902
453.575562	0.998737
453.949311	0.999342
454.323001	0.999755
454.696632	0.999984
455.070202	0.999045
455.443713	0.999507
455.817164	0.999657
456.190556	0.999268
456.563888	1.000619
456.937160	0.999339
457.310373	0.999367
457.683526	0.999956
458.056619	0.999664
458.429653	0.998893
458.802628	0.999381
459.175542	0.999975
459.548398	0.999705
459.921194	0.999817
460.293930	0.999968
460.666607	0.999736
461.039224	0.999389
461.411782	0.999006
461.784280	0.998780
462.156719	1.000561
462.529099	0.999364
462.901419	0.999329
463.273680	0.999495
463.645882	0.999660
464.018024	1.000572
464.390106	0.999090
464.762130	0.999375
465.134094	0.998557
465.505999	0.998826
465.877845	0.998544
466.249631	0.998794
466.621358	0.998065
466.993026	0.998926
467.364634	0.999490
467.736184	0.999022
468.107674	0.998980
468.479105	0.999608
468.850477	0.999444
469.221790	0.999466
469.593043	0.999337
469.964238	0.998746
470.335373	0.998826
470.706449	0.999260
471.077467	0.998621
471.448425	0.999329
471.819324	0.998910
472.190164	0.998720
472.560945	0.998603
472.931667	0.998238
473.302330	0.998961
473.672934	0.999330
474.043479	0.999323
474.413965	0.999477
474.784393	0.998830
475.154761	0.998938
475.525070	0.998919
475.895321	0.998819
476.265513	0.999876
476.635645	0.999389
477.005719	0.998826
477.375734	0.998853
477.745691	0.999367
478.115588	0.998467
478.485427	0.998544
478.855207	0.998875
479.224928	0.998660
479.594591	0.998507
479.964194	0.999051
480.333739	0.998709
480.703226	0.998077
481.072653	0.998119
481.442022	0.998404
481.811333	0.998432
482.180584	0.999046
482.549777	0.998876
482.918912	0.998908
483.287988	0.998842
483.657005	0.998349
484.025964	0.998928
484.394864	0.998641
484.763706	0.998145
485.132489	0.999327
485.501213	0.999136
485.869879	0.998957
486.238487	0.997655
486.607036	0.998945
486.975527	0.998444
487.343959	0.998170
487.712333	0.998987
488.080648	0.998869
488.448905	0.999031
488.817104	0.998893
489.185244	0.998505
489.553326	0.999228
489.921350	0.998721
490.289315	0.998080
490.657222	0.998176
491.025070	0.998784
491.392861	0.998501
491.760593	0.998519
492.128267	0.998895
492.495883	0.998624
492.863440	0.999067
493.230939	0.999302
493.598380	0.999650
493.965763	0.998641
494.333088	0.998152
494.700354	0.998188
495.067563	0.999040
495.434713	0.999104
495.801805	0.998944
496.168839	0.998846
496.535815	0.999439
496.902733	0.998934
497.269593	0.998709
497.636395	0.998454
498.003139	0.998430
498.369825	0.999383
498.736453	0.999138
499.103023	0.999219
499.469535	0.998487
499.835989	0.998977
500.202385	0.998973
500.568723	0.999054
500.935003	0.998902
501.301226	0.998894
501.667390	0.998360
502.033497	0.999297
502.399546	0.998998
502.765537	0.999499
503.131470	0.999921
503.497345	0.998593
503.863163	0.998985
504.228923	0.998484
504.594625	0.998611
504.960269	0.998774
505.325856	0.999713
505.691385	0.999049
506.056856	0.998628
506.422270	0.998909
506.787625	0.998358
507.152924	0.998722
507.518164	0.998841
507.883347	0.998722
508.248472	0.998960
508.613540	0.998471
508.978550	0.998996
509.343503	0.998900
509.708398	0.999348
510.073236	0.998855
510.438016	0.998233
510.802738	0.998346
511.167403	0.998197
511.532010	0.998839
511.896561	0.998981
512.261053	0.998463
512.625488	0.998902
512.989866	0.998455
513.354186	0.997935
513.718449	0.998946
514.082655	0.998979
514.446803	0.998668
514.810894	0.999119
515.174927	0.998838
515.538904	0.999236
515.902822	0.998751
516.266684	0.999287
516.630488	0.998887
516.994235	0.999192
517.357925	0.999402
517.721558	0.998978
518.085133	0.998653
518.448651	0.998891
518.812112	0.999739
519.175516	0.998147
519.538863	0.998320
519.902152	0.999215
520.265385	0.998952
520.628560	0.998843
520.991678	0.998794
521.354739	0.999167
521.717743	0.998899
522.080690	0.999122
522.443580	0.998379
522.806413	0.997980
523.169189	0.998586
523.531908	0.998467
523.894569	0.998535
524.257174	0.998709
524.619722	0.998720
524.982213	0.999008
525.344647	0.998903
525.707025	0.998358
526.069345	0.998216
526.431608	0.999292
526.793815	0.999488
527.155964	0.999624
527.518057	0.999231
527.880093	0.998771
528.242072	0.998582
528.603995	0.998802
528.965860	0.999509
529.327669	0.999092
529.689421	0.998854
530.051117	0.999408
530.412755	0.998992
530.774337	0.998495
531.135862	0.998744
531.497331	0.998730
531.858743	0.999308
532.220098	0.998119
532.581396	0.999614
532.942638	0.998972
533.303824	0.999164
533.664953	0.998444
534.026025	0.999864
534.387040	0.998925
534.747999	0.998484
535.108902	0.998562
535.469748	0.999937
535.830537	0.999644
536.191270	0.999292
536.551947	0.998716
536.912567	0.998817
537.273131	0.999773
537.633638	0.998617
537.994089	0.998689
538.354483	0.998825
538.714821	0.999277
539.075103	0.999132
539.435328	0.999193
539.795497	0.998874
540.155609	0.999314
540.515665	0.999471
540.875665	0.998330
541.235609	0.999249
541.595496	0.998349
541.955328	0.998254
542.315102	0.999626
542.674821	0.998988
543.034483	0.999195
543.394090	0.998244
543.753640	0.999456
544.113134	0.998488
544.472571	0.999704
544.831953	0.998988
545.191278	0.998838
545.550548	0.998298
545.909761	0.998961
546.268918	1.000011
546.628019	0.999594
546.987064	0.999097
547.346053	0.998789
547.704986	0.998945
548.063863	0.998875
548.422684	0.999149
548.781449	0.998780
549.140158	0.999479
549.498811	0.998057
549.857408	0.998320
550.215949	0.998306
550.574434	0.998770
550.932864	0.999566
551.291237	0.998495
551.649555	0.999471
552.007817	0.998545
552.366022	0.999271
552.724173	0.998950
553.082267	0.998891
553.440305	0.998513
553.798288	0.998884
554.156215	0.998673
554.514086	0.999217
554.871902	0.999242
555.229661	0.998479
555.587365	0.998710
555.945014	0.999730
556.302606	0.998243
556.660143	0.999396
557.017625	1.000126
557.375050	0.998925
557.732421	0.998624
558.089735	0.998836
558.446994	0.998399
558.804197	0.999306
559.161345	0.998883
559.518437	0.998818
559.875474	0.998853
560.232455	0.999784
560.589381	0.999408
560.946251	0.998651
561.303065	0.999867
561.659825	0.998547
562.016528	0.999322
562.373177	0.999048
562.729770	0.999250
563.086307	0.998059
563.442789	0.999466
563.799216	0.998184
564.155587	0.999340
564.511904	0.999046
564.868164	0.998672
565.224370	0.998991
565.580520	0.998661
565.936615	0.999176
566.292654	0.998909
566.648638	0.999031
567.004567	0.998810
567.360441	0.999276
567.716260	0.998893
568.072023	0.998352
568.427732	0.998990
568.783385	0.998853
569.138982	0.999364
569.494525	0.999258
569.850013	0.999794
570.205445	0.999497
570.560823	0.999652
570.916145	0.999450
571.271412	0.999054
571.626625	0.999281
571.981782	0.998802
572.336884	0.998921
572.691931	0.999471
573.046923	0.999021
573.401860	0.998721
573.756743	0.999103
574.111570	0.999005
574.466342	0.999751
574.821059	0.999227
575.175722	0.999587
575.530330	0.998838
575.884882	0.999032
576.239380	0.998860
576.593823	0.999122
576.948211	0.999498
577.302544	0.998784
577.656823	0.999568
578.011047	0.998385
578.365216	0.999772
578.719330	0.999489
579.073389	0.999095
579.427394	0.998435
579.781344	0.999011
580.135239	0.998597
580.489080	0.998939
580.842866	0.999077
581.196597	0.998824
581.550273	0.998521
581.903895	0.999198
582.257463	0.998986
582.610975	0.998084
582.964434	0.999348
583.317837	0.998664
583.671186	0.999218
584.024481	0.999053
584.377721	0.998502
584.730906	0.998406
585.084037	1.000320
585.437113	1.000039
585.790135	0.999137
586.143103	0.998584
586.496016	0.999606
586.848874	0.999464
587.201679	0.998889
587.554428	0.999236
587.907124	0.999855
588.259765	0.999679
588.612352	0.999822
588.964884	1.000141
589.317362	0.999411
589.669786	0.999449
590.022155	0.998866
590.374470	0.998847
590.726731	0.999096
591.078937	0.999761
591.431090	0.999528
591.783188	0.999231
592.135232	0.999884
592.487222	0.999322
592.839157	0.999447
593.191038	0.999402
593.542866	0.999754
593.894639	0.998690
594.246358	0.999593
594.598022	0.999393
594.949633	0.999343
595.301190	0.999566
595.652692	0.999201
596.004141	0.998659
596.355535	0.998546
596.706876	0.999953
597.058162	0.999108
597.409395	0.999005
597.760573	0.999121
598.111698	0.999089
598.462768	0.999074
598.813785	0.998467
599.164748	0.998750
599.515657	0.999042
599.866511	0.999909
600.217312	1.000277
600.568060	0.999124
600.918753	0.999528
601.269392	0.999407
601.619978	0.999666
601.970510	0.999546
602.320988	0.999256
602.671412	0.999407
603.021783	0.999431
603.372100	0.999609
603.722363	0.999195
604.072572	0.998505
604.422728	0.999124
604.772830	0.998705
605.122878	0.999800
605.472872	0.999633
605.822813	0.999098
606.172701	0.999598
606.522534	1.000148
606.872314	0.999998
607.222041	0.999738
607.571714	0.999495
607.921333	0.999527
608.270899	0.999636
608.620411	0.999495
608.969870	1.000310
609.319276	0.999418
609.668627	0.999935
610.017926	0.999418
610.367171	0.999565
610.716362	0.999081
611.065500	0.999320
611.414585	0.999160
611.763616	0.998825
612.112594	0.999409
612.461518	0.999204
612.810389	0.999271
613.159207	0.999338
613.507971	0.999127
613.856682	1.000095
614.205340	0.998823
614.553945	0.999567
614.902496	0.999010
615.250994	0.999837
615.599439	0.999623
615.947830	0.999197
616.296169	0.998566
616.644454	0.999210
616.992686	0.999103
617.340864	0.999418
617.688990	0.998889
618.037063	0.999272
618.385082	0.998431
618.733048	0.998629
619.080961	0.998691
619.428821	0.999810
619.776628	0.999033
620.124382	1.000016
620.472083	0.999574
620.819731	0.999636
621.167326	0.999838
621.514868	0.999927
621.862357	0.998614
622.209793	0.998596
622.557176	0.998415
622.904506	0.998524
623.251783	0.998828
623.599007	0.999381
623.946179	0.998511
624.293297	0.999566
624.640363	0.999542
624.987376	0.998649
625.334336	0.998548
625.681243	0.999301
626.028097	0.998488
626.374899	0.998956
626.721647	1.000792
627.068343	0.998532
627.414987	0.999042
627.761577	0.999093
628.108115	0.998071
628.454600	0.999364
628.801032	0.999718
629.147412	0.998404
629.493739	1.000025
629.840014	0.998934
630.186236	0.998737
630.532405	0.999325
630.878521	0.998730
631.224585	0.998909
631.570597	0.998966
631.916556	0.999112
632.262462	0.998144
632.608316	0.999872
632.954117	0.999088
633.299866	0.998460
633.645562	0.998902
633.991206	1.000179
634.336797	0.998869
634.682336	0.999638
635.027823	0.999057
635.373257	0.999648
635.718639	0.999469
636.063968	0.998954
636.409245	0.999541
636.754470	1.000285
637.099642	0.999305
637.444762	1.000013
637.789829	0.999551
638.134845	0.998851
638.479808	0.999148
638.824719	0.999924
639.169577	0.999166
639.514383	0.999292
639.859137	0.999455
640.203839	0.998732
640.548489	0.999004
640.893086	0.998529
641.237632	1.000006
641.582125	0.999226
641.926566	0.999540
642.270955	0.999881
642.615292	0.998592
642.959576	0.998933
643.303809	0.999887
643.647990	0.999635
643.992118	1.000012
644.336195	0.998417
644.680219	0.999077
645.024192	0.999421
645.368112	0.999220
645.711981	0.999055
646.055797	0.999496
646.399562	0.998535
646.743274	0.999623
647.086935	0.999208
647.430544	0.998277
647.774101	0.999324
648.117606	0.999135
648.461059	0.999660
648.804460	0.999284
649.147810	0.999023
649.491108	0.999797
649.834354	0.998482
650.177548	0.998634
650.520690	0.999590
650.863781	0.998747
651.206820	0.998660
651.549807	0.998777
651.892742	0.999593
652.235626	0.998523
652.578458	0.999364
652.921238	0.999554
653.263967	0.999262
653.606644	0.999000
653.949269	0.999260
654.291843	0.998414
654.634365	0.999716
654.976836	0.998666
655.319255	0.999912
655.661622	0.999552
656.003938	0.999130
656.346203	0.998509
656.688416	1.000026
657.030577	0.998301
657.372687	0.999175
657.714746	0.998984
658.056753	0.998800
658.398708	0.998673
658.740612	0.999961
659.082465	0.999078
659.424266	0.999544
659.766016	0.997915
660.107715	0.999237
660.449362	0.998145
660.790958	0.998846
661.132503	0.998594
661.473996	0.999100
661.815438	0.999427
662.156829	0.999290
662.498168	0.999206
662.839456	0.998535
663.180693	0.998903
663.521879	0.999052
663.863013	0.999594
664.204097	0.998490
664.545129	0.999358
664.886110	0.998601
665.227040	0.999063
665.567918	0.998810
665.908746	0.998253
666.249522	0.998154
666.590248	0.998421
666.930922	0.997946
667.271545	0.999093
667.612118	0.999050
667.952639	0.998638
668.293109	0.998983
668.633528	0.997785
668.973896	0.998440
669.314213	0.998125
669.654480	0.998480
669.994695	0.997777
670.334859	0.998575
670.674973	0.998257
671.015035	0.998732
671.355047	0.998880
671.695008	0.998848
672.034918	0.998293
672.374777	0.999008
672.714585	0.998485
673.054342	0.998912
673.394049	0.999337
673.733705	0.997659
674.073310	0.998466
674.412864	0.999498
674.752368	0.997820
675.091820	0.999839
675.431223	0.999525
675.770574	0.997524
676.109875	0.999043
676.449125	0.997884
676.788324	0.998408
677.127473	0.999432
677.466571	0.998748
677.805619	0.998514
678.144616	0.999226
678.483562	0.999232
678.822458	0.998868
679.161303	0.998660
679.500098	0.998412
679.838842	0.998536
680.177535	0.998227
680.516179	0.999110
680.854771	0.998482
681.193314	0.998718
681.531805	0.998814
681.870247	0.998165
682.208638	0.999002
682.546978	0.997374
682.885268	0.998303
683.223508	0.998017
683.561697	0.997497
683.899836	0.998355
684.237925	0.998264
684.575963	0.998398
684.913951	0.997964
685.251889	0.998806
685.589776	0.997491
685.927614	0.997959
686.265401	0.998251
686.603137	0.997934
686.940824	0.998150
687.278460	0.999154
687.616046	0.998455
687.953582	0.998185
688.291068	0.998707
688.628504	0.998620
688.965889	0.997717
689.303224	0.997248
689.640510	0.997666
689.977745	0.998161
690.314930	0.996914
690.652065	0.998386
690.989150	0.997827
691.326185	0.997894
691.663170	0.998129
692.000105	0.998721
692.336990	0.998052
692.673825	0.998067
693.010610	0.998671
693.347345	0.998673
693.684030	0.998158
694.020665	0.997696
694.357251	0.997561
694.693786	0.998583
695.030272	0.996846
695.366707	0.997570
695.703093	0.997672
696.039429	0.998441
696.375716	0.997978
696.711952	0.997442
697.048139	0.998245
697.384276	0.997779
697.720363	0.998972
698.056400	0.996906
698.392388	0.997222
698.728326	0.997468
699.064214	0.998795
699.400053	0.998203
699.735842	0.999437
700.071581	0.997596
700.407270	0.997074
700.742910	0.998466
701.078501	0.998051
701.414042	0.998610
701.749533	0.996211
702.084974	0.997783
702.420366	0.998744
702.755709	0.998029
703.091002	0.997798
703.426246	0.998711
703.761440	0.997390
704.096584	0.997935
704.431679	0.996742
704.766725	0.997616
705.101721	0.998257
705.436668	0.998635
705.771565	0.998002
706.106413	0.997064
706.441212	0.997981
706.775961	0.997993
707.110661	0.998301
707.445311	0.998483
707.779913	0.998199
708.114465	0.998258
708.448967	0.998925
708.783421	0.999029
709.117825	0.998175
709.452180	0.998389
709.786485	0.997434
710.120742	0.996856
710.454949	0.997643
710.789107	0.997432
711.123216	0.996736
711.457275	0.996489
711.791286	0.997285
712.125247	0.999438
712.459159	0.998010
712.793023	0.997603
713.126837	0.997785
713.460602	0.997439
713.794318	0.996456
714.127985	0.997104
714.461602	0.997618
714.795171	0.996950
715.128691	0.997719
715.462162	0.998021
715.795584	0.997438
716.128957	0.997616
716.462281	0.998165
716.795556	0.997012
717.128782	0.998225
717.461960	0.996971
717.795088	0.997667
718.128167	0.997758
718.461198	0.997458
718.794180	0.997635
719.127113	0.996867
719.459997	0.997502
719.792833	0.997823
720.125619	0.997377
720.458357	0.998110
720.791046	0.998427
721.123686	0.998108
721.456278	0.997200
721.788821	0.997558
722.121315	0.998225
722.453761	0.998302
722.786158	0.997609
723.118506	0.997808
723.450805	0.997264
723.783056	0.998671
724.115259	0.996952
724.447412	0.998143
724.779518	0.997376
725.111574	0.997266
725.443582	0.998088
725.775542	0.998371
726.107453	0.997127
726.439315	0.998127
726.771129	0.997578
727.102895	0.997873
727.434612	0.997396
727.766281	0.997312
728.097901	0.997222
728.429473	0.997889
728.760996	0.996934
729.092471	0.998021
729.423897	0.998345
729.755276	0.997629
730.086606	0.996930
730.417887	0.997532
730.749120	0.997594
731.080305	0.997799
731.411442	0.996689
731.742530	0.995927
732.073570	0.997236
732.404562	0.997195
732.735506	0.997523
733.066401	0.997778
733.397249	0.997513
733.728048	0.997053
734.058798	0.998256
734.389501	0.997807
734.720156	0.997026
735.050762	0.998074
735.381320	0.997538
735.711831	0.996956
736.042293	0.997140
736.372707	0.998454
736.703073	0.997626
737.033391	0.997615
737.363661	0.998038
737.693883	0.997553
738.024056	0.997022
738.354182	0.997635
738.684260	0.996849
739.014290	0.997603
739.344272	0.996992
739.674207	0.996582
740.004093	0.996429
740.333931	0.997859
740.663722	0.997277
740.993464	0.997713
741.323159	0.997913
741.652806	0.998169
741.982405	0.997995
742.311956	0.998043
742.641460	0.997595
742.970915	0.997765
743.300323	0.997171
743.629683	0.998047
743.958996	0.999192
744.288260	0.997955
744.617477	0.997753
744.946647	0.996815
745.275768	0.997483
745.604842	0.997829
745.933869	0.998363
746.262847	0.998399
746.591778	0.996227
746.920662	0.998232
747.249498	0.998521
747.578286	0.998333
747.907027	0.997306
748.235720	0.997793
748.564365	0.998011
748.892963	0.996704
749.221514	0.998217
749.550017	0.996445
749.878473	0.997630
750.206881	0.999792
750.535242	0.997025
750.863555	0.997224
751.191821	0.997525
751.520039	0.998460
751.848210	0.995256
752.176334	0.998049
752.504411	0.997085
752.832440	0.996873
753.160421	0.998019
753.488356	0.996764
753.816243	0.997891
754.144082	0.997390
754.471875	0.997132
754.799620	0.998139
755.127318	0.997101
755.454969	0.997853
755.782572	0.999020
756.110129	0.997944
756.437638	0.997922
756.765100	0.997473
757.092515	0.997942
757.419882	0.998461
757.747203	0.997226
758.074477	0.998283
758.401703	0.998095
758.728882	0.997249
759.056014	0.997039
759.383099	0.997083
759.710138	0.997743
760.037129	0.997533
760.364073	0.998417
760.690970	0.997703
761.017820	0.997307
761.344623	0.997743
761.671379	0.997064
761.998088	0.998025
762.324751	0.998029
762.651366	0.996458
762.977935	0.995828
763.304456	0.996806
763.630931	0.995168
763.957359	0.994833
764.283740	0.995353
764.610074	0.995771
764.936362	0.996303
765.262602	0.997699
765.588796	0.996982
765.914943	0.997462
766.241044	0.997195
766.567097	0.997380
766.893104	0.997528
767.219064	0.997278
767.544978	0.998122
767.870845	0.997331
768.196665	0.996949
768.522438	0.998683
768.848165	0.998391
769.173846	0.997786
769.499479	0.998641
769.825066	0.999286
770.150607	0.999313
770.476101	0.998087
770.801548	0.998751
771.126949	0.999572
771.452303	0.997967
771.777611	0.998892
772.102872	0.998644
772.428087	0.998373
772.753256	0.997892
773.078378	0.998078
773.403453	0.997891
773.728482	0.999886
774.053465	0.998249
774.378401	0.998700
774.703291	0.998725
775.028135	0.999448
775.352932	0.996895
775.677683	0.999251
776.002388	0.998442
776.327046	0.997715
776.651658	1.000051
776.976224	0.999144
777.300743	0.998204
777.625216	0.997748
777.949643	0.998852
778.274024	0.997955
778.598359	0.998671
778.922647	0.998403
779.246889	0.998576
779.571086	0.998002
779.895236	0.998348
780.219339	0.999059
780.543397	0.997276
780.867409	0.999202
781.191374	0.999450
781.515294	1.000083
781.839167	0.998478
782.162995	0.997984
782.486776	0.997394
782.810511	0.998763
783.134201	0.999520
783.457844	0.998641
783.781441	0.998435
784.104993	0.999155
784.428498	0.998568
784.751958	0.999879
785.075372	1.000297
785.398739	0.997703
785.722061	0.998336
786.045337	0.998931
786.368568	0.997873
786.691752	0.998042
787.014891	0.997808
787.337983	0.997426
787.661030	0.998072
787.984031	0.998272
788.306987	0.998859
788.629897	0.996329
788.952760	0.998185
789.275579	0.998225
789.598351	0.998537
789.921078	0.998969
790.243759	0.997490
790.566395	0.997557
790.888984	0.999440
791.211529	0.998605
791.534027	0.998392
791.856480	0.997988
792.178888	0.997342
792.501249	0.999850
792.823566	0.998726
793.145836	0.998180
793.468062	0.998313
793.790241	0.999870
794.112375	0.996954
794.434464	0.998352
794.756507	0.999435
795.078505	0.998667
795.400457	0.997896
795.722364	0.998308
796.044226	0.998301
796.366042	0.997521
796.687812	0.997095
797.009538	0.997060
797.331218	0.998316
797.652852	0.999070
797.974442	0.997362
798.295986	0.998638
798.617484	0.997631
798.938938	0.998359
799.260346	0.997705
799.581709	0.999129
799.903026	0.999245
800.224299	0.997694
800.545526	0.998489
800.866708	0.997898
801.187845	0.999177
801.508936	0.997816
801.829983	0.998108
802.150984	0.998430
802.471940	0.998571
802.792851	0.998301
803.113717	0.999448
803.434538	0.998795
803.755314	0.999015
804.076045	0.999016
804.396731	0.998953
804.717372	0.997225
805.037967	0.999438
805.358518	0.999171
805.679024	0.998218
805.999485	0.999022
806.319901	0.997972
806.640272	0.999503
806.960598	1.000474
807.280879	0.998479
807.601115	0.999860
807.921306	0.999618
808.241453	0.997918
808.561554	0.999175
808.881611	0.998795
809.201623	0.997938
809.521590	0.998376
809.841513	0.999374
810.161390	0.997022
810.481223	0.997763
810.801011	0.999712
811.120755	0.999398
811.440453	0.998756
811.760107	0.998046
812.079716	0.997642
812.399281	0.999195
812.718801	0.997961
813.038276	0.998071
813.357707	0.998879
813.677093	0.999035
813.996434	0.998951
814.315731	1.000309
814.634983	0.998886
814.954191	1.000385
815.273354	0.998272
815.592473	0.998456
815.911547	0.999254
816.230577	0.998511
816.549562	0.997801
816.868502	0.997600
817.187399	0.999775
817.506250	0.999867
817.825058	0.997457
818.143821	0.997968
818.462539	0.998328
818.781213	0.997565
819.099843	0.997702
819.418429	0.996509
819.736970	0.998820
820.055466	0.996953
820.373919	0.997256
820.692327	0.995283
821.010691	0.995970
821.329011	0.993821
821.647286	0.991802
821.965517	0.990933
822.283704	0.989053
822.601847	0.988541
822.919945	0.988550
823.237999	0.989567
823.556010	0.990806
823.873976	0.991848
824.191897	0.992473
824.509775	0.993321
824.827609	0.994339
825.145398	0.994945
825.463144	0.992712
825.780845	0.993909
826.098502	0.994560
826.416116	0.994189
826.733685	0.992864
827.051210	0.991320
827.368692	0.991532
827.686129	0.991789
828.003522	0.994110
828.320872	0.994675
828.638177	0.995273
828.955439	0.997062
829.272656	0.997325
829.589830	0.997005
829.906960	0.996882
830.224046	0.996935
830.541088	0.997676
830.858086	0.997366
831.175041	0.999682
831.491952	0.998080
831.808819	0.997200
832.125642	0.997709
832.442421	0.998811
832.759157	0.997929
833.075849	0.996927
833.392497	0.996123
833.709101	0.994353
834.025662	0.994223
834.342179	0.994214
834.658653	0.996129
834.975083	0.996472
835.291469	0.996899
835.607811	0.996747
835.924110	0.996277
836.240366	0.998079
836.556578	0.998695
836.872746	0.997710
837.188871	0.998388
837.504952	0.998294
837.820990	0.999998
838.136984	0.997613
838.452935	0.998941
838.768842	0.999437
839.084706	0.998416
839.400526	0.998147
839.716303	0.997091
840.032037	0.996843
840.347727	0.997045
840.663373	0.998102
840.978977	0.996989
841.294537	0.999194
841.610054	0.998102
841.925527	0.999346
842.240957	0.998555
842.556344	0.998680
842.871687	0.998828
843.186987	0.999355
843.502244	0.999590
843.817458	0.997990
844.132629	0.998362
844.447756	0.998868
844.762840	1.000432
845.077881	1.000267
845.392879	0.998095
845.707833	0.999379
846.022745	0.999755
846.337613	1.000578
846.652438	0.999851
846.967221	0.999134
847.281960	0.999399
847.596656	1.000392
847.911309	0.999019
848.225919	0.999589
848.540485	1.000466
848.855009	1.000417
849.169490	0.999933
849.483928	0.999517
849.798323	0.998735
850.112675	1.000152
850.426984	0.999534
850.741251	0.999657
851.055474	0.999790
851.369654	1.000779
851.683792	0.999154
851.997887	0.999953
852.311938	1.000481
852.625947	0.998498
852.939914	0.998366
853.253837	0.999919
853.567718	0.999666
853.881555	0.999314
854.195350	0.999448
854.509103	0.999332
854.822812	0.999959
855.136479	0.999361
855.450103	0.999583
855.763685	0.999276
856.077224	1.000100
856.390720	0.999543
856.704173	1.000132
857.017584	1.000036
857.330953	0.999305
857.644278	0.999462
857.957561	0.999343
858.270802	1.000410
858.584000	0.998809
858.897155	0.999572
859.210268	0.998889
859.523339	0.999713
859.836367	1.000321
860.149352	0.997877
860.462295	0.999417
860.775195	0.999951
861.088054	0.998415
861.400869	0.999638
861.713642	0.998965
862.026373	0.999898
862.339062	1.000505
862.651708	1.000338
862.964312	0.999751
863.276873	0.999072
863.589392	0.998920
863.901869	0.998550
864.214303	0.999682
864.526696	0.999528
864.839045	0.999521
865.151353	0.999816
865.463619	0.998213
865.775842	1.000754
866.088023	1.000800
866.400162	0.999745
866.712258	1.001050
867.024313	1.000166
867.336325	1.000738
867.648296	1.000255
867.960224	1.000582
868.272110	1.001082
868.583954	0.999707
868.895755	1.000643
869.207515	0.998108
869.519233	0.999939
869.830909	0.998918
870.142542	0.998296
870.454134	0.998783
870.765684	0.999194
871.077191	1.000557
871.388657	1.000706
871.700081	0.999797
872.011463	1.000096
872.322803	0.998922
872.634101	0.998943
872.945357	0.999887
873.256571	0.999003
873.567744	0.998529
873.878874	0.998454
874.189963	0.997770
874.501010	1.000309
874.812015	0.998614
875.122979	0.999574
875.433900	0.998702
875.744780	0.998429
876.055618	0.997828
876.366415	0.997856
876.677169	0.998562
876.987882	0.998878
877.298554	1.000073
877.609183	0.999041
877.919771	0.998507
878.230317	0.999225
878.540822	0.997950
878.851285	0.998011
879.161707	0.998480
879.472087	0.998643
879.782425	0.996626
880.092722	0.996391
880.402977	0.995846
880.713191	0.992859
881.023363	0.990605
881.333494	0.989596
881.643583	0.991568
881.953631	0.989636
882.263637	0.989434
882.573602	0.990627
882.883526	0.992160
883.193408	0.993656
883.503248	0.993225
883.813048	0.993554
884.122806	0.994523
884.432522	0.994089
884.742197	0.997129
885.051831	0.996447
885.361424	0.996832
885.670975	0.998603
885.980485	0.997786
886.289954	0.997719
886.599382	0.996607
886.908768	0.999227
887.218113	0.997230
887.527417	0.998567
887.836680	0.999227
888.145901	0.999026
888.455082	0.999558
888.764221	0.998525
889.073319	0.997855
889.382376	0.999605
889.691392	0.998734
890.000366	0.999549
890.309300	0.997544
890.618193	0.998330
890.927044	0.997884
891.235855	0.998342
891.544625	0.999480
891.853353	0.998590
892.162041	0.998931
892.470687	0.998819
892.779293	0.997855
893.087858	0.996596
893.396381	0.997725
893.704864	0.997391
894.013306	0.997047
894.321707	0.995720
894.630068	0.995002
894.938387	0.994411
895.246665	0.994619
895.554903	0.995177
895.863100	0.996252
896.171256	0.995650
896.479371	0.996829
896.787446	0.997401
897.095480	0.996829
897.403473	0.998641
897.711425	0.998289
898.019336	0.997700
898.327207	0.998869
898.635038	0.997192
898.942827	0.997921
899.250576	0.998629
899.558284	0.998085
899.865952	0.997757
900.173579	0.998679
900.481165	0.999061
900.788711	0.998528
901.096216	0.998611
901.403681	0.998265
901.711105	0.998452
902.018489	0.999355
902.325832	0.998759
902.633135	0.998698
902.940397	0.998643
903.247619	0.998234
903.554800	0.997145
903.861941	0.997294
904.169041	0.994124
904.476101	0.994431
904.783121	0.994062
905.090100	0.995294
905.397039	0.994704
905.703938	0.994790
906.010796	0.995801
906.317614	0.995994
906.624391	0.997165
906.931129	0.998831
907.237826	0.998385
907.544483	0.999828
907.851099	0.998744
908.157675	0.998617
908.464211	0.998595
908.770707	0.998428
909.077163	0.998810
909.383578	0.998815
909.689954	0.998269
909.996289	0.999218
910.302584	0.999302
910.608839	1.000733
910.915054	0.998450
911.221229	1.000580
911.527363	0.999621
911.833458	0.999928
912.139513	0.999493
912.445527	1.000498
912.751502	0.999888
913.057436	0.998771
913.363331	1.000172
913.669186	1.000042
913.975000	0.999255
914.280775	0.998417
914.586510	0.997908
914.892205	0.997464
915.197859	0.996259
915.503475	0.996968
915.809050	0.994413
916.114585	0.992951
916.420081	0.994359
916.725536	0.994609
917.030952	0.994823
917.336328	0.994543
917.641665	0.994274
917.946961	0.995449
918.252218	0.996004
918.557435	0.996302
918.862612	0.997999
919.167750	0.997357
919.472848	0.998385
919.777906	0.999727
920.082925	0.999510
920.387904	0.999010
920.692843	0.999364
920.997743	0.998665
921.302603	0.999262
921.607423	0.997988
921.912204	0.998945
922.216946	1.000291
922.521647	0.997729
922.826310	0.998535
923.130932	0.999354
923.435516	0.999370
923.740059	0.998386
924.044564	0.998994
924.349028	0.998698
924.653454	1.000418
924.957840	0.999824
925.262186	0.999412
925.566493	0.999808
925.870761	0.999318
926.174989	0.998958
926.479178	1.000631
926.783328	0.999662
927.087438	0.999101
927.391509	0.999188
927.695541	0.999322
927.999533	1.000340
928.303486	1.000197
928.607400	0.999960
928.911275	1.000100
929.215110	1.000319
929.518906	1.001313
929.822663	1.000972
930.126381	1.001321
930.430060	0.999862
930.733699	1.000676
931.037299	0.999852
931.340861	1.000491
931.644383	1.000161
931.947866	1.000642
932.251309	0.999650
932.554714	1.000810
932.858080	1.000751
933.161407	0.998806
933.464694	1.000101
933.767943	0.999775
934.071153	1.000032
934.374323	0.999924
934.677455	0.999243
934.980548	0.999564
935.283602	1.000685
935.586617	0.999388
935.889593	1.000499
936.192530	1.000356
936.495428	0.999554
936.798287	0.998906
937.101108	1.000113
937.403890	0.999768
937.706632	1.001464
938.009336	0.999994
938.312002	0.999211
938.614628	1.000234
938.917216	0.999391
939.219765	0.998985
939.522275	1.000005
939.824747	0.999307
940.127179	1.000094
940.429573	0.999741
940.731929	0.999324
941.034246	0.998750
941.336524	0.998130
941.638763	0.999855
941.940964	0.999073
942.243126	0.999840
942.545250	1.000107
942.847335	0.999756
943.149381	0.999606
943.451389	0.999241
943.753359	0.999769
944.055290	1.001247
944.357182	1.000626
944.659036	0.999601
944.960851	0.999644
945.262628	1.000468
945.564367	0.999818
945.866067	0.999418
946.167729	0.999478
946.469352	0.999651
946.770937	0.998680
947.072484	1.000185
947.373992	1.000202
947.675462	1.000098
947.976893	0.999419
948.278286	1.000700
948.579641	1.001082
948.880958	0.999761
949.182236	1.000883
949.483476	1.001145
949.784678	1.000131
950.085841	1.000021
950.386967	0.999839
950.688054	1.000211
950.989103	0.997930
951.290114	0.999281
951.591087	1.000577
951.892021	1.000055
952.192917	0.998793
952.493776	1.000002
952.794596	0.999586
953.095378	0.999763
953.396122	1.000005
953.696828	0.999329
953.997496	1.000064
954.298126	1.000358
954.598718	0.999667
954.899272	0.999675
955.199788	0.999985
955.500266	1.001580
955.800706	0.999683
956.101108	0.999651
956.401472	1.000774
956.701798	0.999358
957.002087	0.999572
957.302337	1.000007
957.602550	0.999626
957.902724	0.999775
958.202861	0.999735
958.502960	0.999617
958.803022	0.999833
959.103045	0.999902
959.403031	1.000940
959.702979	1.000863
960.002889	0.999656
960.302762	0.999090
960.602596	1.001444
960.902393	1.000109
961.202153	1.001351
961.501875	1.000272
961.801559	0.999416
962.101205	0.999108
962.400814	1.001085
962.700385	1.000851
962.999918	1.000701
963.299414	0.999755
963.598873	1.001763
963.898293	1.000832
964.197677	0.999750
964.497022	1.000812
964.796331	0.998838
965.095601	1.000504
965.394835	0.999749
965.694030	1.000145
965.993189	1.000002
966.292309	1.000764
966.591393	0.999333
966.890439	1.000701
967.189447	1.000347
967.488419	1.000750
967.787353	1.000110
968.086249	1.000427
968.385108	1.001182
968.683930	1.001961
968.982714	1.000787
969.281462	0.999249
969.580172	1.000446
969.878844	1.001103
970.177480	0.999862
970.476078	1.001358
970.774639	0.999695
971.073162	0.999394
971.371649	1.000026
971.670098	0.998681
971.968510	1.000632
972.266885	0.999702
972.565223	0.999862
972.863524	0.998805
973.161788	1.000838
973.460014	1.001528
973.758204	0.998938
974.056356	1.000384
974.354471	0.999567
974.652550	1.000697
974.950591	0.999969
975.248595	0.999007
975.546563	1.001338
975.844493	1.001236
976.142386	0.998739
976.440243	1.000764
976.738062	1.000627
977.035845	0.999334
977.333590	1.002597
977.631299	1.000011
977.928971	1.000817
978.226606	1.000300
978.524204	1.000588
978.821765	1.000642
979.119290	1.002061
979.416777	0.999899
979.714228	0.999724
980.011642	1.001466
980.309020	1.000062
980.606360	0.999381
980.903664	1.000585
981.200931	0.999975
981.498162	0.999855
981.795356	0.999473
982.092513	0.999870
982.389633	1.000607
982.686717	0.998137
982.983764	1.000003
983.280775	1.000368
983.577749	1.001162
983.874686	1.000139
984.171587	0.999015
984.468451	1.000120
984.765279	1.001324
985.062070	1.001249
985.358824	1.000157
985.655543	1.000753
985.952224	1.001166
986.248869	0.999934
986.545478	1.000839
986.842050	0.999793
987.138586	1.000005
987.435086	1.000134
987.731549	1.001926
988.027975	1.000765
988.324366	0.999747
988.620719	1.002005
988.917037	0.999689
989.213318	1.001048
989.509563	1.000955
989.805772	1.001083
990.101944	1.001743
990.398080	1.000502
990.694180	1.001696
990.990244	0.999542
991.286271	1.000146
991.582262	1.000600
991.878217	1.000443
992.174136	1.000386
992.470019	1.000383
992.765865	1.001588
993.061676	1.000900
993.357450	1.000265
993.653188	1.001393
993.948890	0.998744
994.244556	1.000659
994.540186	1.001259
994.835780	0.999611
995.131337	1.001537
995.426859	0.999897
995.722345	0.999868
996.017795	1.000193
996.313208	1.000158
996.608586	0.999818
996.903928	1.000960
997.199234	1.000901
997.494504	1.000908
997.789738	0.999046
998.084936	0.999990
998.380099	0.998714
998.675225	1.000190
998.970316	1.000424
999.265371	1.000415
999.560390	0.999431
999.855373	1.000836
1000.150320	1.000162
1000.445232	1.000176
1000.740108	1.000415
1001.034948	0.999553
1001.329752	1.001231
1001.624521	0.999498
1001.919254	0.999422
1002.213951	1.001648
1002.508613	0.999403
1002.803239	1.000941
1003.097829	1.001068
1003.392384	1.000912
1003.686903	1.001032
1003.981386	1.001041
1004.275834	1.001205
1004.570246	0.999440
1004.864623	1.000702
1005.158964	1.002163
1005.453270	1.000030
1005.747540	1.001040
1006.041775	0.999575
1006.335974	1.000429
1006.630138	1.001220
1006.924266	0.998624
1007.218359	0.998866
1007.512416	1.001459
1007.806438	0.999913
1008.100425	1.000409
1008.394376	1.001470
1008.688292	0.999301
1008.982172	0.999682
1009.276017	1.001224
1009.569827	1.001858
1009.863602	0.999136
1010.157341	1.000390
1010.451045	1.000189
1010.744714	1.002337
1011.038347	1.001492
1011.331945	0.998896
1011.625508	0.999959
1011.919036	1.000529
1012.212528	1.000436
1012.505986	1.000356
1012.799408	1.001009
1013.092795	0.999832
1013.386147	1.000882
1013.679464	1.000834
1013.972745	0.999536
1014.265992	0.999962
1014.559204	0.999947
1014.852380	1.000436
1015.145521	1.000854
1015.438628	1.000377
1015.731699	1.000570
1016.024736	1.000961
1016.317737	1.000058
1016.610703	1.001026
1016.903635	1.000680
1017.196531	0.998961
1017.489393	1.000072
1017.782219	1.000173
1018.075011	0.999598
1018.367768	0.999741
1018.660490	1.000820
1018.953177	1.000820
1019.245829	1.000820
