Dividing Wavelength (nm)	Counts (n)	Blue Motor Position (mm): 38.600000	Red Motor Position (mm): 0.000000	
326.493990	0.999409
326.888308	0.999409
327.282561	0.999409
327.676750	1.000396
328.070874	1.000763
328.464933	1.001486
328.858929	1.000812
329.252859	0.998508
329.646726	0.999124
330.040528	0.999081
330.434265	1.000413
330.827938	0.998968
331.221547	1.000568
331.615091	1.001439
332.008571	1.001024
332.401986	0.999707
332.795338	0.998212
333.188625	1.000060
333.581847	0.999496
333.975006	0.999808
334.368100	1.000760
334.761129	0.999786
335.154095	1.000060
335.546996	0.999579
335.939833	1.000469
336.332606	1.000080
336.725315	0.998851
337.117960	1.000273
337.510540	0.999932
337.903056	1.000203
338.295508	1.001157
338.687896	1.000555
339.080220	1.000160
339.472480	1.000029
339.864676	0.999731
340.256807	0.998526
340.648875	0.999609
341.040879	0.999330
341.432818	0.999722
341.824694	0.999427
342.216506	1.000846
342.608253	0.999798
342.999937	0.999388
343.391557	0.999972
343.783113	1.001022
344.174605	1.000081
344.566033	0.999145
344.957397	1.001235
345.348697	0.999748
345.739934	1.000192
346.131106	0.999820
346.522215	0.999631
346.913260	0.999775
347.304241	1.000388
347.695159	0.999148
348.086012	0.999356
348.476802	0.998592
348.867528	0.999011
349.258191	0.999589
349.648789	0.999962
350.039324	0.999516
350.429796	0.998911
350.820203	0.998775
351.210548	1.000597
351.600828	1.000225
351.991045	0.999291
352.381198	0.999975
352.771288	0.999531
353.161314	1.000154
353.551276	0.998080
353.941175	0.997763
354.331010	0.999280
354.720782	0.999078
355.110490	0.999713
355.500135	0.999811
355.889717	0.998096
356.279235	0.997931
356.668689	1.000423
357.058080	0.999999
357.447408	0.998492
357.836672	0.998534
358.225873	0.999389
358.615010	0.998173
359.004084	0.998046
359.393095	0.998570
359.782043	0.997541
360.170927	0.998684
360.559748	0.998579
360.948505	0.997177
361.337199	0.999735
361.725830	0.998706
362.114398	0.997501
362.502903	0.997134
362.891344	0.996750
363.279722	0.996951
363.668037	0.999289
364.056289	0.998546
364.444478	0.998870
364.832603	0.998604
365.220665	0.998932
365.608665	0.996853
365.996601	0.997477
366.384474	0.996666
366.772284	0.997095
367.160031	0.995888
367.547715	0.996395
367.935336	0.995729
368.322893	0.994484
368.710388	0.994707
369.097820	0.991622
369.485189	0.990207
369.872495	0.989240
370.259738	0.986116
370.646918	0.982658
371.034035	0.981525
371.421090	0.977747
371.808081	0.973530
372.195010	0.971102
372.581875	0.964988
372.968678	0.960729
373.355418	0.957365
373.742096	0.950251
374.128710	0.945487
374.515262	0.941545
374.901751	0.934702
375.288177	0.930542
375.674540	0.924417
376.060841	0.916532
376.447079	0.910479
376.833254	0.904751
377.219367	0.899862
377.605417	0.887720
377.991404	0.885553
378.377329	0.877916
378.763191	0.872895
379.148991	0.863576
379.534727	0.856503
379.920402	0.846770
380.306013	0.843252
380.691563	0.832020
381.077049	0.824550
381.462474	0.820759
381.847835	0.809947
382.233134	0.804921
382.618371	0.804787
383.003545	0.787515
383.388657	0.786432
383.773706	0.777782
384.158693	0.774795
384.543618	0.769318
384.928480	0.760318
385.313280	0.750284
385.698017	0.750016
386.082692	0.738090
386.467305	0.736614
386.851856	0.731789
387.236344	0.726915
387.620770	0.720534
388.005133	0.715139
388.389435	0.710380
388.773674	0.706846
389.157851	0.698139
389.541965	0.696309
389.926018	0.703660
390.310008	0.689795
390.693936	0.687448
391.077802	0.680303
391.461606	0.682838
391.845348	0.671976
392.229027	0.672897
392.612645	0.671730
392.996200	0.660515
393.379694	0.654875
393.763125	0.647328
394.146494	0.653991
394.529801	0.646445
394.913047	0.642203
395.296230	0.650893
395.679351	0.646499
396.062410	0.646610
396.445408	0.652876
396.828343	0.652150
397.211217	0.652513
397.594028	0.668188
397.976778	0.663936
398.359466	0.666402
398.742092	0.667473
399.124656	0.683080
399.507158	0.678034
399.889598	0.681569
400.271977	0.681491
400.654294	0.691567
401.036549	0.697889
401.418742	0.708732
401.800874	0.705221
402.182944	0.710760
402.564952	0.712775
402.946898	0.721515
403.328783	0.730670
403.710606	0.746597
404.092367	0.738461
404.474067	0.750762
404.855705	0.758628
405.237282	0.770879
405.618797	0.772724
406.000250	0.779334
406.381642	0.782247
406.762972	0.794184
407.144240	0.803253
407.525447	0.810675
407.906593	0.816753
408.287677	0.823509
408.668700	0.835233
409.049661	0.841500
409.430560	0.847657
409.811399	0.858873
410.192176	0.860722
410.572891	0.870495
410.953545	0.874535
411.334138	0.886528
411.714669	0.891395
412.095139	0.901487
412.475547	0.904035
412.855894	0.912153
413.236180	0.917462
413.616405	0.924731
413.996568	0.928359
414.376670	0.935226
414.756711	0.940390
415.136691	0.944898
415.516609	0.947369
415.896466	0.952331
416.276262	0.955640
416.655997	0.960540
417.035670	0.962156
417.415283	0.965476
417.794834	0.969030
418.174324	0.972265
418.553753	0.975570
418.933121	0.976424
419.312428	0.979803
419.691674	0.981917
420.070859	0.983966
420.449983	0.985712
420.829045	0.985903
421.208047	0.989207
421.586988	0.989158
421.965867	0.989338
422.344686	0.991890
422.723444	0.992089
423.102141	0.993550
423.480777	0.993672
423.859352	0.995223
424.237866	0.995503
424.616319	0.995718
424.994712	0.997470
425.373044	0.996235
425.751314	0.997742
426.129524	0.998248
426.507673	0.996901
426.885762	0.997993
427.263789	0.997754
427.641756	0.998651
428.019662	0.997854
428.397508	0.998672
428.775292	0.998279
429.153016	0.998224
429.530679	0.998585
429.908282	1.000300
430.285824	0.997834
430.663305	0.999045
431.040726	0.999368
431.418086	0.999425
431.795385	0.999712
432.172624	1.000862
432.549802	0.999327
432.926920	1.000079
433.303977	0.998999
433.680974	0.999797
434.057910	1.000406
434.434786	0.998960
434.811601	0.999950
435.188355	1.000243
435.565050	1.000397
435.941683	0.999647
436.318257	0.998587
436.694770	0.999835
437.071222	1.000374
437.447614	0.999590
437.823946	1.000008
438.200218	0.999413
438.576429	0.999094
438.952580	1.000355
439.328670	0.999535
439.704700	0.999285
440.080670	0.999445
440.456580	0.999648
440.832429	0.999619
441.208218	1.000123
441.583947	1.000335
441.959616	0.999220
442.335224	1.000473
442.710773	1.000245
443.086261	1.000361
443.461689	0.999609
443.837057	0.999255
444.212365	1.000620
444.587612	1.000728
444.962800	1.000374
445.337927	0.999690
445.712995	0.998841
446.088002	0.999525
446.462949	0.999867
446.837837	1.001175
447.212664	0.999763
447.587431	1.000894
447.962139	0.999830
448.336786	0.999432
448.711374	0.999719
449.085901	0.998846
449.460369	1.000754
449.834776	0.999653
450.209124	0.999617
450.583412	1.000304
450.957640	0.999603
451.331808	1.000881
451.705917	0.998757
452.079965	1.000050
452.453954	1.000464
452.827883	0.999973
453.201752	1.000394
453.575562	0.999451
453.949311	0.999943
454.323001	0.998868
454.696632	0.999892
455.070202	0.999393
455.443713	0.999989
455.817164	0.999571
456.190556	0.999653
456.563888	1.000055
456.937160	1.000382
457.310373	0.999302
457.683526	0.999679
458.056619	1.000016
458.429653	0.999424
458.802628	0.999482
459.175542	0.999760
459.548398	0.999213
459.921194	1.000132
460.293930	1.000726
460.666607	1.000004
461.039224	0.999799
461.411782	1.000324
461.784280	0.999729
462.156719	0.999933
462.529099	0.999842
462.901419	0.999528
463.273680	0.999306
463.645882	0.999433
464.018024	1.000365
464.390106	0.999688
464.762130	0.999501
465.134094	0.999723
465.505999	0.999738
465.877845	0.999361
466.249631	0.999382
466.621358	0.998440
466.993026	0.999783
467.364634	0.999880
467.736184	0.999526
468.107674	0.999112
468.479105	0.999234
468.850477	0.999642
469.221790	0.999977
469.593043	0.999948
469.964238	0.999343
470.335373	0.999327
470.706449	0.999904
471.077467	0.998417
471.448425	1.000402
471.819324	0.999684
472.190164	0.999244
472.560945	0.999060
472.931667	0.998855
473.302330	0.999373
473.672934	0.999454
474.043479	0.999612
474.413965	0.999645
474.784393	0.998983
475.154761	0.998782
475.525070	0.998732
475.895321	1.000298
476.265513	1.000206
476.635645	1.000403
477.005719	0.999668
477.375734	0.998732
477.745691	0.999258
478.115588	0.998366
478.485427	0.998855
478.855207	0.999623
479.224928	0.999621
479.594591	0.999399
479.964194	0.999319
480.333739	0.999569
480.703226	0.998414
481.072653	0.998796
481.442022	0.999269
481.811333	0.998997
482.180584	0.999125
482.549777	0.999464
482.918912	0.999425
483.287988	0.999544
483.657005	0.999005
484.025964	0.998660
484.394864	0.999299
484.763706	0.999129
485.132489	0.999485
485.501213	0.999450
485.869879	0.999744
486.238487	0.998798
486.607036	0.999605
486.975527	0.999847
487.343959	0.999227
487.712333	0.999109
488.080648	0.998939
488.448905	0.999413
488.817104	0.998936
489.185244	0.999961
489.553326	0.999696
489.921350	0.999973
490.289315	0.999945
490.657222	0.998392
491.025070	0.999272
491.392861	0.999188
491.760593	0.999087
492.128267	0.999276
492.495883	0.998067
492.863440	0.999372
493.230939	0.999628
493.598380	0.999768
493.965763	0.999074
494.333088	0.998480
494.700354	0.998861
495.067563	0.999311
495.434713	0.999612
495.801805	0.998903
496.168839	0.999814
496.535815	0.999641
496.902733	0.998976
497.269593	0.998783
497.636395	0.999007
498.003139	0.998811
498.369825	0.999933
498.736453	0.999647
499.103023	1.000218
499.469535	0.999466
499.835989	0.999781
500.202385	0.999199
500.568723	0.999187
500.935003	0.999389
501.301226	0.999468
501.667390	0.998964
502.033497	0.998659
502.399546	0.998771
502.765537	0.999009
503.131470	0.999737
503.497345	0.999892
503.863163	0.999732
504.228923	0.999556
504.594625	0.998967
504.960269	0.999601
505.325856	0.999834
505.691385	1.000151
506.056856	0.999197
506.422270	0.999840
506.787625	0.999707
507.152924	0.999969
507.518164	0.999055
507.883347	0.999534
508.248472	0.999471
508.613540	0.999322
508.978550	0.999425
509.343503	0.999527
509.708398	0.999911
510.073236	0.999464
510.438016	0.998561
510.802738	0.998046
511.167403	0.998972
511.532010	0.999108
511.896561	0.999905
512.261053	0.999316
512.625488	0.999603
512.989866	0.999907
513.354186	0.998774
513.718449	0.999440
514.082655	0.999227
514.446803	0.999316
514.810894	1.000707
515.174927	0.999179
515.538904	1.000407
515.902822	0.999067
516.266684	0.999311
516.630488	0.999511
516.994235	0.999548
517.357925	0.999683
517.721558	0.999385
518.085133	0.998924
518.448651	0.999972
518.812112	0.999708
519.175516	0.999826
519.538863	0.998468
519.902152	0.999756
520.265385	0.999573
520.628560	0.999154
520.991678	0.999455
521.354739	0.999685
521.717743	0.999337
522.080690	0.999426
522.443580	0.999646
522.806413	0.998870
523.169189	1.000153
523.531908	0.998897
523.894569	0.999973
524.257174	0.999029
524.619722	0.999516
524.982213	0.999632
525.344647	0.999046
525.707025	0.999332
526.069345	0.998712
526.431608	0.999741
526.793815	0.999774
527.155964	1.000075
527.518057	0.999756
527.880093	0.999525
528.242072	0.999425
528.603995	0.999345
528.965860	0.999619
529.327669	0.999196
529.689421	0.999399
530.051117	0.999690
530.412755	0.999698
530.774337	0.998996
531.135862	0.999936
531.497331	0.998738
531.858743	0.999818
532.220098	0.999591
532.581396	0.999729
532.942638	0.999930
533.303824	1.000185
533.664953	0.999468
534.026025	1.000239
534.387040	1.000048
534.747999	0.999004
535.108902	0.999228
535.469748	1.000230
535.830537	1.000410
536.191270	0.999489
536.551947	0.999114
536.912567	0.999680
537.273131	0.999502
537.633638	0.999430
537.994089	1.000033
538.354483	0.999431
538.714821	0.999810
539.075103	0.999789
539.435328	0.999659
539.795497	1.000127
540.155609	0.999059
540.515665	0.999928
540.875665	0.999586
541.235609	0.999741
541.595496	0.998840
541.955328	0.999564
542.315102	0.999862
542.674821	0.999708
543.034483	1.000224
543.394090	0.999508
543.753640	0.999735
544.113134	0.999077
544.472571	0.999640
544.831953	0.999820
545.191278	0.999936
545.550548	0.999076
545.909761	0.999331
546.268918	1.000381
546.628019	1.000461
546.987064	0.998872
547.346053	0.999458
547.704986	0.999642
548.063863	0.999032
548.422684	1.000099
548.781449	0.999820
549.140158	0.999863
549.498811	0.999862
549.857408	0.998764
550.215949	0.998768
550.574434	0.999223
550.932864	0.999315
551.291237	0.998912
551.649555	0.999893
552.007817	0.999522
552.366022	1.000381
552.724173	0.999737
553.082267	0.999171
553.440305	0.999206
553.798288	0.999060
554.156215	0.999055
554.514086	0.999684
554.871902	0.999501
555.229661	0.998416
555.587365	0.999058
555.945014	0.999633
556.302606	0.999205
556.660143	0.999650
557.017625	1.000088
557.375050	0.998908
557.732421	0.999700
558.089735	0.998929
558.446994	0.998986
558.804197	0.999499
559.161345	0.998860
559.518437	0.999176
559.875474	1.000251
560.232455	1.000275
560.589381	0.999440
560.946251	0.999523
561.303065	1.000090
561.659825	0.999550
562.016528	0.999625
562.373177	0.999793
562.729770	0.998929
563.086307	0.998701
563.442789	0.999862
563.799216	0.998839
564.155587	0.999516
564.511904	1.000063
564.868164	0.998868
565.224370	0.999712
565.580520	1.000555
565.936615	0.999341
566.292654	0.999381
566.648638	0.999594
567.004567	0.999483
567.360441	0.999988
567.716260	0.999348
568.072023	0.999194
568.427732	0.999471
568.783385	0.999288
569.138982	0.999150
569.494525	0.999642
569.850013	0.999850
570.205445	0.999816
570.560823	0.999374
570.916145	0.999076
571.271412	0.999276
571.626625	0.999785
571.981782	0.999590
572.336884	0.999580
572.691931	0.999453
573.046923	0.999573
573.401860	0.998937
573.756743	0.999727
574.111570	0.999451
574.466342	1.000065
574.821059	0.999467
575.175722	1.000290
575.530330	0.999063
575.884882	0.999560
576.239380	1.000034
576.593823	0.999262
576.948211	0.999748
577.302544	0.999336
577.656823	0.999953
578.011047	0.998811
578.365216	0.999798
578.719330	0.999906
579.073389	0.998670
579.427394	0.999147
579.781344	1.000074
580.135239	0.998577
580.489080	0.999651
580.842866	0.999239
581.196597	0.999000
581.550273	0.998578
581.903895	1.000008
582.257463	0.999265
582.610975	0.999039
582.964434	0.999206
583.317837	0.999337
583.671186	0.999151
584.024481	0.999552
584.377721	0.998854
584.730906	0.999165
585.084037	1.000273
585.437113	1.000021
585.790135	0.999670
586.143103	0.999486
586.496016	0.999057
586.848874	0.999572
587.201679	0.999797
587.554428	0.999353
587.907124	1.000253
588.259765	0.999871
588.612352	0.999853
588.964884	1.000344
589.317362	0.999567
589.669786	0.999520
590.022155	0.999040
590.374470	0.999319
590.726731	0.999332
591.078937	0.999054
591.431090	0.999064
591.783188	0.998835
592.135232	1.000237
592.487222	0.998739
592.839157	0.998623
593.191038	0.999303
593.542866	0.999558
593.894639	0.998900
594.246358	0.999625
594.598022	1.000088
594.949633	0.999727
595.301190	0.998560
595.652692	0.999530
596.004141	0.999462
596.355535	0.998999
596.706876	0.999963
597.058162	0.999242
597.409395	0.999464
597.760573	0.999008
598.111698	0.998823
598.462768	0.999160
598.813785	0.998651
599.164748	0.999113
599.515657	0.999815
599.866511	0.999494
600.217312	0.999726
600.568060	0.999304
600.918753	0.999932
601.269392	1.000119
601.619978	0.999519
601.970510	0.999534
602.320988	0.999207
602.671412	0.999575
603.021783	1.000284
603.372100	1.000055
603.722363	0.999469
604.072572	0.999394
604.422728	0.998618
604.772830	0.999021
605.122878	0.999681
605.472872	0.999752
605.822813	0.999566
606.172701	0.999804
606.522534	1.000124
606.872314	0.999806
607.222041	0.999244
607.571714	1.000202
607.921333	0.998781
608.270899	0.999075
608.620411	0.998920
608.969870	0.999661
609.319276	0.999084
609.668627	1.000023
610.017926	0.999913
610.367171	0.999529
610.716362	0.999786
611.065500	0.999006
611.414585	0.999843
611.763616	0.998484
612.112594	0.999081
612.461518	0.998389
612.810389	0.999955
613.159207	0.999315
613.507971	0.999246
613.856682	0.999678
614.205340	0.998666
614.553945	0.999040
614.902496	0.999386
615.250994	0.999924
615.599439	0.999994
615.947830	0.998700
616.296169	0.998968
616.644454	1.000207
616.992686	0.999122
617.340864	0.999781
617.688990	0.998820
618.037063	0.999484
618.385082	0.999575
618.733048	0.998902
619.080961	0.999395
619.428821	0.998942
619.776628	0.998850
620.124382	1.000030
620.472083	1.000530
620.819731	1.000355
621.167326	0.999375
621.514868	0.999918
621.862357	0.999169
622.209793	0.999152
622.557176	0.999746
622.904506	0.999358
623.251783	0.999151
623.599007	0.999650
623.946179	0.999413
624.293297	0.999725
624.640363	1.000280
624.987376	0.998390
625.334336	0.999163
625.681243	0.998910
626.028097	0.999315
626.374899	0.999690
626.721647	1.000673
627.068343	0.999382
627.414987	0.999820
627.761577	0.998783
628.108115	0.999557
628.454600	0.999456
628.801032	0.999614
629.147412	0.998915
629.493739	0.999684
629.840014	0.998684
630.186236	0.998956
630.532405	0.999530
630.878521	0.998267
631.224585	0.999534
631.570597	0.998949
631.916556	0.999403
632.262462	0.998043
632.608316	0.999219
632.954117	0.998886
633.299866	0.999087
633.645562	0.998876
633.991206	0.999061
634.336797	0.999281
634.682336	0.999246
635.027823	0.999203
635.373257	0.999580
635.718639	1.000570
636.063968	0.999305
636.409245	0.999180
636.754470	0.999868
637.099642	0.999948
637.444762	1.000229
637.789829	0.998919
638.134845	0.998786
638.479808	0.999297
638.824719	0.999707
639.169577	0.999838
639.514383	0.999899
639.859137	0.999549
640.203839	0.999291
640.548489	0.999250
640.893086	0.998582
641.237632	0.998938
641.582125	0.999405
641.926566	1.000226
642.270955	0.999502
642.615292	0.999486
642.959576	0.999014
643.303809	0.999597
643.647990	0.998893
643.992118	0.999676
644.336195	0.998834
644.680219	0.999124
645.024192	0.999040
645.368112	0.999290
645.711981	0.998883
646.055797	0.998647
646.399562	0.999033
646.743274	0.999398
647.086935	0.998329
647.430544	0.999329
647.774101	0.998951
648.117606	0.999838
648.461059	0.999853
648.804460	0.998809
649.147810	0.999079
649.491108	0.998834
649.834354	0.999696
650.177548	0.998841
650.520690	0.998627
650.863781	0.998723
651.206820	0.999778
651.549807	0.998906
651.892742	0.999534
652.235626	0.999499
652.578458	0.999499
652.921238	0.999657
653.263967	0.999796
653.606644	0.999110
653.949269	1.000020
654.291843	0.998311
654.634365	0.999750
654.976836	0.999043
655.319255	0.999880
655.661622	0.999518
656.003938	0.998948
656.346203	0.998264
656.688416	0.999606
657.030577	0.998664
657.372687	0.999308
657.714746	0.998444
658.056753	0.999308
658.398708	0.998738
658.740612	0.999576
659.082465	0.999052
659.424266	0.999215
659.766016	0.999196
660.107715	0.999336
660.449362	0.999037
660.790958	0.998022
661.132503	0.999687
661.473996	0.998422
661.815438	0.999630
662.156829	0.998800
662.498168	0.999456
662.839456	0.998531
663.180693	0.998990
663.521879	0.998695
663.863013	0.999751
664.204097	0.997979
664.545129	0.999044
664.886110	0.999388
665.227040	0.999016
665.567918	0.998468
665.908746	0.998229
666.249522	0.999126
666.590248	0.998766
666.930922	0.998157
667.271545	0.998914
667.612118	0.998729
667.952639	0.999040
668.293109	0.998768
668.633528	0.998695
668.973896	0.999637
669.314213	0.998320
669.654480	0.998457
669.994695	0.997961
670.334859	0.998421
670.674973	0.998777
671.015035	0.998620
671.355047	0.998468
671.695008	0.998664
672.034918	0.998549
672.374777	0.998487
672.714585	0.999106
673.054342	0.999615
673.394049	0.998712
673.733705	0.998263
674.073310	0.998627
674.412864	0.998493
674.752368	0.998509
675.091820	0.999397
675.431223	0.999661
675.770574	0.998247
676.109875	0.998579
676.449125	0.998219
676.788324	0.998734
677.127473	0.999360
677.466571	0.998645
677.805619	0.998496
678.144616	0.999602
678.483562	0.999166
678.822458	0.999124
679.161303	0.998154
679.500098	0.998868
679.838842	0.999242
680.177535	0.998852
680.516179	0.998698
680.854771	0.998302
681.193314	0.998730
681.531805	0.998902
681.870247	0.998451
682.208638	0.998332
682.546978	0.998636
682.885268	0.998706
683.223508	0.999070
683.561697	0.998051
683.899836	0.998770
684.237925	0.998022
684.575963	0.998768
684.913951	0.998816
685.251889	0.998474
685.589776	0.998502
685.927614	0.999006
686.265401	0.998146
686.603137	0.998718
686.940824	0.998174
687.278460	0.999023
687.616046	0.998458
687.953582	0.999369
688.291068	0.999130
688.628504	0.998146
688.965889	0.997704
689.303224	0.997293
689.640510	0.998573
689.977745	0.997942
690.314930	0.997750
690.652065	0.998638
690.989150	0.997676
691.326185	0.998083
691.663170	0.998084
692.000105	0.998905
692.336990	0.998494
692.673825	0.998522
693.010610	0.998634
693.347345	0.998205
693.684030	0.998499
694.020665	0.997774
694.357251	0.998145
694.693786	0.998562
695.030272	0.997776
695.366707	0.997783
695.703093	0.998607
696.039429	0.997399
696.375716	0.999063
696.711952	0.998266
697.048139	0.998997
697.384276	0.997737
697.720363	0.997552
698.056400	0.997937
698.392388	0.997649
698.728326	0.997961
699.064214	0.999095
699.400053	0.998139
699.735842	0.998824
700.071581	0.998523
700.407270	0.998107
700.742910	0.999688
701.078501	0.998002
701.414042	0.998849
701.749533	0.997276
702.084974	0.998498
702.420366	0.998059
702.755709	0.998013
703.091002	0.997967
703.426246	0.998647
703.761440	0.999145
704.096584	0.997576
704.431679	0.997197
704.766725	0.998747
705.101721	0.999253
705.436668	0.998806
705.771565	0.997763
706.106413	0.997974
706.441212	0.998503
706.775961	0.998725
707.110661	0.997945
707.445311	0.998520
707.779913	0.999542
708.114465	0.999290
708.448967	0.998663
708.783421	0.998621
709.117825	0.998652
709.452180	0.997831
709.786485	0.998710
710.120742	0.998120
710.454949	0.997572
710.789107	0.998793
711.123216	0.997560
711.457275	0.998141
711.791286	0.998049
712.125247	0.999830
712.459159	0.998141
712.793023	0.998115
713.126837	0.998894
713.460602	0.997519
713.794318	0.997668
714.127985	0.997685
714.461602	0.998018
714.795171	0.997731
715.128691	0.997938
715.462162	0.999123
715.795584	0.998257
716.128957	0.998691
716.462281	0.998264
716.795556	0.998662
717.128782	0.998076
717.461960	0.997842
717.795088	0.998896
718.128167	0.999497
718.461198	0.997653
718.794180	0.998442
719.127113	0.998514
719.459997	0.998154
719.792833	0.998197
720.125619	0.996843
720.458357	0.998119
720.791046	0.999409
721.123686	0.998070
721.456278	0.998429
721.788821	0.998376
722.121315	0.999360
722.453761	0.998694
722.786158	0.997895
723.118506	0.998762
723.450805	0.998131
723.783056	0.998210
724.115259	0.997776
724.447412	0.999172
724.779518	0.999255
725.111574	0.997966
725.443582	0.998376
725.775542	0.997553
726.107453	0.998663
726.439315	0.998651
726.771129	0.999113
727.102895	0.998395
727.434612	0.998630
727.766281	0.998843
728.097901	0.998174
728.429473	0.998763
728.760996	0.997734
729.092471	0.998082
729.423897	0.999064
729.755276	0.998393
730.086606	0.997226
730.417887	0.998123
730.749120	0.998246
731.080305	0.997661
731.411442	0.997749
731.742530	0.996416
732.073570	0.997211
732.404562	0.996732
732.735506	0.998072
733.066401	0.997709
733.397249	0.998107
733.728048	0.997959
734.058798	0.998518
734.389501	0.998116
734.720156	0.998963
735.050762	0.998455
735.381320	0.997781
735.711831	0.997718
736.042293	0.998055
736.372707	0.998922
736.703073	0.996851
737.033391	0.997816
737.363661	0.997987
737.693883	0.998031
738.024056	0.997282
738.354182	0.998447
738.684260	0.997347
739.014290	0.998671
739.344272	0.997919
739.674207	0.998712
740.004093	0.998736
740.333931	0.998387
740.663722	0.998387
740.993464	0.998157
741.323159	0.998019
741.652806	0.998802
741.982405	0.998986
742.311956	0.998814
742.641460	0.997488
742.970915	0.998343
743.300323	0.996962
743.629683	0.998024
743.958996	1.000069
744.288260	0.996964
744.617477	0.998787
744.946647	0.998817
745.275768	0.998414
745.604842	0.998237
745.933869	0.997902
746.262847	0.997723
746.591778	0.997498
746.920662	0.999908
747.249498	0.998732
747.578286	0.998640
747.907027	0.997946
748.235720	0.998876
748.564365	0.998854
748.892963	0.997579
749.221514	0.998269
749.550017	0.998085
749.878473	0.998336
750.206881	0.999326
750.535242	0.998114
750.863555	0.997944
751.191821	0.998204
751.520039	0.998782
751.848210	0.996733
752.176334	0.997531
752.504411	0.998292
752.832440	0.997559
753.160421	0.998730
753.488356	0.998384
753.816243	0.997488
754.144082	0.997301
754.471875	0.998516
754.799620	0.998175
755.127318	0.997682
755.454969	0.998782
755.782572	0.999996
756.110129	0.998248
756.437638	0.998624
756.765100	0.998308
757.092515	0.998417
757.419882	0.999055
757.747203	0.998754
758.074477	0.999283
758.401703	0.998565
758.728882	0.998516
759.056014	0.998780
759.383099	0.998291
759.710138	0.997777
760.037129	0.998549
760.364073	0.998141
760.690970	0.998572
761.017820	0.997423
761.344623	0.998930
761.671379	0.998776
761.998088	0.998508
762.324751	0.997941
762.651366	0.997742
762.977935	0.997077
763.304456	0.997829
763.630931	0.996626
763.957359	0.996077
764.283740	0.996569
764.610074	0.996750
764.936362	0.996908
765.262602	0.998353
765.588796	0.998357
765.914943	0.997660
766.241044	0.998386
766.567097	0.997038
766.893104	0.998580
767.219064	0.997364
767.544978	0.998436
767.870845	0.999188
768.196665	0.999262
768.522438	0.998668
768.848165	0.998172
769.173846	0.998722
769.499479	0.999488
769.825066	0.998998
770.150607	0.998827
770.476101	0.997859
770.801548	0.998476
771.126949	1.000167
771.452303	0.999231
771.777611	0.999222
772.102872	1.000006
772.428087	0.998781
772.753256	0.999145
773.078378	0.999793
773.403453	0.999024
773.728482	0.999978
774.053465	0.998722
774.378401	0.998053
774.703291	0.999333
775.028135	0.999741
775.352932	0.997778
775.677683	0.999886
776.002388	0.999824
776.327046	0.998343
776.651658	0.999849
776.976224	1.000010
777.300743	0.998562
777.625216	0.998489
777.949643	0.998827
778.274024	0.998457
778.598359	0.999042
778.922647	0.998257
779.246889	0.999102
779.571086	0.998882
779.895236	0.999488
780.219339	0.999084
780.543397	0.998393
780.867409	0.999210
781.191374	0.998249
781.515294	0.999360
781.839167	0.999388
782.162995	0.999554
782.486776	0.998877
782.810511	0.999147
783.134201	0.999855
783.457844	1.000300
783.781441	0.998898
784.104993	0.999604
784.428498	0.999649
784.751958	1.000089
785.075372	0.998724
785.398739	0.997926
785.722061	0.997809
786.045337	0.999892
786.368568	0.999805
786.691752	0.999735
787.014891	0.999443
787.337983	0.997648
787.661030	0.998363
787.984031	0.999569
788.306987	0.999235
788.629897	0.997130
788.952760	0.999285
789.275579	0.999419
789.598351	0.998438
789.921078	1.000962
790.243759	0.999043
790.566395	0.999039
790.888984	0.998755
791.211529	0.998797
791.534027	0.998860
791.856480	0.999996
792.178888	0.998632
792.501249	0.998199
792.823566	0.999616
793.145836	0.998319
793.468062	0.998799
793.790241	0.999878
794.112375	0.998018
794.434464	0.999901
794.756507	0.999528
795.078505	1.000326
795.400457	0.999740
795.722364	0.998979
796.044226	0.999814
796.366042	0.998608
796.687812	0.997935
797.009538	0.998339
797.331218	1.000580
797.652852	0.999581
797.974442	0.998822
798.295986	0.999690
798.617484	0.998402
798.938938	0.998701
799.260346	0.998908
799.581709	0.998007
799.903026	0.999423
800.224299	0.997995
800.545526	0.998604
800.866708	0.998908
801.187845	0.998255
801.508936	0.999619
801.829983	0.998948
802.150984	0.999604
802.471940	0.999352
802.792851	0.998311
803.113717	1.000553
803.434538	0.999814
803.755314	1.000410
804.076045	0.999161
804.396731	0.997565
804.717372	0.998172
805.037967	1.001110
805.358518	0.999266
805.679024	0.998336
805.999485	0.998445
806.319901	0.999306
806.640272	1.000260
806.960598	0.999350
807.280879	0.998744
807.601115	0.999059
807.921306	0.999199
808.241453	0.998900
808.561554	0.998720
808.881611	0.999688
809.201623	0.998776
809.521590	0.998100
809.841513	0.999988
810.161390	0.998233
810.481223	0.998918
810.801011	0.999362
811.120755	0.999981
811.440453	0.998736
811.760107	0.999315
812.079716	0.998724
812.399281	0.998997
812.718801	0.999408
813.038276	0.999059
813.357707	0.999301
813.677093	0.999360
813.996434	0.999764
814.315731	1.000338
814.634983	0.999214
814.954191	1.000045
815.273354	0.998370
815.592473	0.998164
815.911547	0.999161
816.230577	0.998856
816.549562	0.999265
816.868502	0.998437
817.187399	0.999476
817.506250	0.999381
817.825058	0.997873
818.143821	0.998620
818.462539	0.998913
818.781213	0.998395
819.099843	0.999570
819.418429	0.997626
819.736970	0.999213
820.055466	0.996736
820.373919	0.997490
820.692327	0.996912
821.010691	0.997064
821.329011	0.995063
821.647286	0.993903
821.965517	0.992978
822.283704	0.992123
822.601847	0.991785
822.919945	0.992406
823.237999	0.992455
823.556010	0.993011
823.873976	0.993888
824.191897	0.995810
824.509775	0.995656
824.827609	0.995080
825.145398	0.996646
825.463144	0.995049
825.780845	0.995366
826.098502	0.996115
826.416116	0.996822
826.733685	0.995511
827.051210	0.994143
827.368692	0.993981
827.686129	0.994895
828.003522	0.995916
828.320872	0.996017
828.638177	0.997195
828.955439	0.998514
829.272656	0.998297
829.589830	0.997057
829.906960	0.997669
830.224046	0.997547
830.541088	0.998738
830.858086	0.997778
831.175041	0.999902
831.491952	0.997721
831.808819	0.997904
832.125642	0.998294
832.442421	0.999122
832.759157	0.999036
833.075849	0.996997
833.392497	0.997299
833.709101	0.996313
834.025662	0.997097
834.342179	0.996389
834.658653	0.998931
834.975083	0.997696
835.291469	0.998818
835.607811	0.997475
835.924110	0.997935
836.240366	1.000490
836.556578	0.998555
836.872746	0.999762
837.188871	0.998158
837.504952	0.997535
837.820990	0.999403
838.136984	0.997957
838.452935	0.998515
838.768842	0.999614
839.084706	0.998957
839.400526	0.999411
839.716303	0.998225
840.032037	0.998784
840.347727	0.999208
840.663373	0.997992
840.978977	0.997841
841.294537	0.999817
841.610054	0.998712
841.925527	0.999290
842.240957	0.998916
842.556344	0.999541
842.871687	0.999296
843.186987	0.998754
843.502244	1.000264
843.817458	0.998247
844.132629	0.998515
844.447756	0.998494
844.762840	0.999515
845.077881	1.000655
845.392879	0.998278
845.707833	0.998585
846.022745	0.999905
846.337613	0.999094
846.652438	0.999601
846.967221	0.999750
847.281960	1.000191
847.596656	0.999983
847.911309	1.000204
848.225919	0.999072
848.540485	1.000037
848.855009	1.000916
849.169490	0.998765
849.483928	0.999120
849.798323	0.998692
850.112675	0.999835
850.426984	1.000035
850.741251	1.000330
851.055474	0.999701
851.369654	0.999994
851.683792	1.000360
851.997887	0.999105
852.311938	0.999798
852.625947	0.999182
852.939914	0.999165
853.253837	0.999731
853.567718	1.000365
853.881555	0.999359
854.195350	0.999705
854.509103	0.999643
854.822812	0.999551
855.136479	0.999792
855.450103	1.000498
855.763685	0.999632
856.077224	0.999362
856.390720	0.999591
856.704173	1.000769
857.017584	1.000928
857.330953	0.999933
857.644278	0.999503
857.957561	0.999959
858.270802	0.999480
858.584000	0.999948
858.897155	0.998493
859.210268	0.999618
859.523339	1.001065
859.836367	0.999002
860.149352	0.998820
860.462295	0.998852
860.775195	1.000004
861.088054	0.998193
861.400869	1.000058
861.713642	0.998244
862.026373	0.999279
862.339062	0.999552
862.651708	0.999323
862.964312	0.999743
863.276873	0.999204
863.589392	1.000363
863.901869	0.999510
864.214303	0.999054
864.526696	1.000266
864.839045	1.000088
865.151353	0.999967
865.463619	0.998492
865.775842	0.999733
866.088023	1.000145
866.400162	0.998876
866.712258	1.000280
867.024313	0.999859
867.336325	0.999683
867.648296	1.000447
867.960224	0.999418
868.272110	0.999543
868.583954	0.999871
868.895755	0.999566
869.207515	0.999271
869.519233	1.000806
869.830909	0.998928
870.142542	0.999377
870.454134	0.999252
870.765684	0.998955
871.077191	0.998660
871.388657	0.999435
871.700081	0.999746
872.011463	0.999998
872.322803	1.000153
872.634101	0.998995
872.945357	0.999293
873.256571	0.998072
873.567744	1.000012
873.878874	0.999691
874.189963	0.999002
874.501010	1.000453
874.812015	0.999479
875.122979	0.999993
875.433900	0.998809
875.744780	0.999829
876.055618	0.998389
876.366415	0.998246
876.677169	0.998592
876.987882	0.999099
877.298554	0.999845
877.609183	0.998897
877.919771	0.999007
878.230317	0.999173
878.540822	0.998431
878.851285	0.998510
879.161707	0.998008
879.472087	0.999557
879.782425	0.998190
880.092722	0.997448
880.402977	0.995080
880.713191	0.994147
881.023363	0.993377
881.333494	0.993303
881.643583	0.993429
881.953631	0.992557
882.263637	0.992098
882.573602	0.993400
882.883526	0.992465
883.193408	0.994902
883.503248	0.995588
883.813048	0.995590
884.122806	0.996291
884.432522	0.996538
884.742197	0.998036
885.051831	0.996220
885.361424	0.997374
885.670975	0.998879
885.980485	0.997804
886.289954	0.997948
886.599382	0.997139
886.908768	0.999706
887.218113	0.997087
887.527417	0.998704
887.836680	0.999169
888.145901	0.998979
888.455082	1.000266
888.764221	1.000360
889.073319	0.998718
889.382376	0.999890
889.691392	0.998372
890.000366	0.998991
890.309300	0.998535
890.618193	0.999702
890.927044	0.999490
891.235855	0.998697
891.544625	0.998894
891.853353	0.999618
892.162041	0.997926
892.470687	0.999760
892.779293	0.999048
893.087858	0.998068
893.396381	0.997847
893.704864	0.997095
894.013306	0.996375
894.321707	0.997146
894.630068	0.996399
894.938387	0.995620
895.246665	0.996221
895.554903	0.995345
895.863100	0.996839
896.171256	0.996642
896.479371	0.998602
896.787446	0.997508
897.095480	0.998074
897.403473	0.998776
897.711425	0.999444
898.019336	0.998861
898.327207	0.999328
898.635038	0.998174
898.942827	0.999777
899.250576	0.998304
899.558284	0.999197
899.865952	0.998595
900.173579	0.999710
900.481165	0.999426
900.788711	0.999263
901.096216	0.999480
901.403681	0.998519
901.711105	0.998893
902.018489	0.999858
902.325832	0.999092
902.633135	0.998421
902.940397	0.999084
903.247619	0.998610
903.554800	0.997099
903.861941	0.997086
904.169041	0.996288
904.476101	0.996755
904.783121	0.995917
905.090100	0.995894
905.397039	0.995999
905.703938	0.996611
906.010796	0.996631
906.317614	0.997462
906.624391	0.998432
906.931129	0.999259
907.237826	0.998813
907.544483	0.999211
907.851099	0.998555
908.157675	0.998997
908.464211	0.998965
908.770707	0.998856
909.077163	0.999384
909.383578	0.998892
909.689954	0.998693
909.996289	0.999267
910.302584	0.999217
910.608839	1.000978
910.915054	0.999862
911.221229	1.000687
911.527363	0.999424
911.833458	0.999400
912.139513	0.999288
912.445527	1.000485
912.751502	0.999474
913.057436	0.998606
913.363331	1.000178
913.669186	1.000318
913.975000	0.998978
914.280775	0.999467
914.586510	0.998991
914.892205	0.997709
915.197859	0.997003
915.503475	0.997147
915.809050	0.996548
916.114585	0.995431
916.420081	0.997009
916.725536	0.996481
917.030952	0.995843
917.336328	0.995172
917.641665	0.996516
917.946961	0.997293
918.252218	0.996653
918.557435	0.997155
918.862612	0.998279
919.167750	0.998021
919.472848	0.999013
919.777906	1.000023
920.082925	0.999668
920.387904	0.999487
920.692843	0.999312
920.997743	0.997777
921.302603	0.998955
921.607423	0.998491
921.912204	0.999930
922.216946	1.000114
922.521647	0.999887
922.826310	0.999164
923.130932	1.000308
923.435516	0.999323
923.740059	0.999191
924.044564	0.999777
924.349028	0.999002
924.653454	0.999331
924.957840	0.998906
925.262186	0.998920
925.566493	1.000387
925.870761	0.999686
926.174989	0.999352
926.479178	0.999639
926.783328	0.999421
927.087438	0.999978
927.391509	0.999639
927.695541	1.000447
927.999533	1.000620
928.303486	0.999701
928.607400	1.000926
928.911275	1.000304
929.215110	1.000913
929.518906	1.000146
929.822663	1.000165
930.126381	1.000314
930.430060	0.999574
930.733699	1.000549
931.037299	1.000318
931.340861	0.999376
931.644383	0.999545
931.947866	0.998963
932.251309	1.001241
932.554714	0.999739
932.858080	1.000640
933.161407	0.998957
933.464694	0.999520
933.767943	0.999327
934.071153	1.000497
934.374323	1.000199
934.677455	1.000161
934.980548	0.998403
935.283602	1.000609
935.586617	0.999411
935.889593	1.000211
936.192530	0.999213
936.495428	1.000052
936.798287	0.998886
937.101108	0.999231
937.403890	0.999576
937.706632	1.001627
938.009336	0.999793
938.312002	0.999204
938.614628	1.000733
938.917216	0.999792
939.219765	0.999160
939.522275	0.999637
939.824747	1.000264
940.127179	1.000122
940.429573	1.001172
940.731929	0.999459
941.034246	0.998879
941.336524	0.998948
941.638763	1.000108
941.940964	0.999297
942.243126	0.998764
942.545250	1.000708
942.847335	0.999980
943.149381	0.999844
943.451389	0.998333
943.753359	0.999828
944.055290	1.000856
944.357182	0.999646
944.659036	1.000581
944.960851	0.999841
945.262628	0.999951
945.564367	1.000848
945.866067	0.999755
946.167729	1.000206
946.469352	1.000098
946.770937	0.997937
947.072484	1.000799
947.373992	1.000183
947.675462	0.999856
947.976893	0.999616
948.278286	1.000986
948.579641	1.001647
948.880958	0.999973
949.182236	0.999949
949.483476	0.999822
949.784678	1.000136
950.085841	0.998981
950.386967	0.999865
950.688054	0.999882
950.989103	0.998616
951.290114	0.998298
951.591087	1.000324
951.892021	0.999780
952.192917	0.999906
952.493776	0.999687
952.794596	0.999434
953.095378	0.999281
953.396122	0.999221
953.696828	1.000332
953.997496	1.000011
954.298126	1.000982
954.598718	0.999428
954.899272	0.999963
955.199788	0.999619
955.500266	0.999752
955.800706	1.001218
956.101108	0.999741
956.401472	1.000564
956.701798	0.999432
957.002087	0.999733
957.302337	1.000152
957.602550	1.000397
957.902724	0.999107
958.202861	0.999842
958.502960	0.998705
958.803022	1.001719
959.103045	0.999477
959.403031	1.000244
959.702979	1.000465
960.002889	0.999270
960.302762	0.997356
960.602596	1.000967
960.902393	0.999747
961.202153	0.999459
961.501875	0.999965
961.801559	0.999834
962.101205	0.999618
962.400814	1.000356
962.700385	1.001208
962.999918	0.999893
963.299414	0.998854
963.598873	1.000585
963.898293	1.000633
964.197677	0.998660
964.497022	1.000290
964.796331	0.999298
965.095601	1.000762
965.394835	0.999152
965.694030	1.001299
965.993189	0.999056
966.292309	0.999832
966.591393	0.999721
966.890439	1.001559
967.189447	0.999064
967.488419	1.000192
967.787353	1.000063
968.086249	0.999925
968.385108	0.999063
968.683930	1.000559
968.982714	0.999405
969.281462	0.999375
969.580172	0.999926
969.878844	0.999466
970.177480	1.001406
970.476078	1.001640
970.774639	1.000341
971.073162	1.000855
971.371649	1.000256
971.670098	0.999334
971.968510	0.999596
972.266885	1.000444
972.565223	0.999413
972.863524	0.998917
973.161788	0.999360
973.460014	1.000132
973.758204	0.998441
974.056356	1.000157
974.354471	1.000924
974.652550	1.000915
974.950591	0.999616
975.248595	0.999155
975.546563	1.001117
975.844493	1.000341
976.142386	0.999267
976.440243	1.000119
976.738062	1.001027
977.035845	0.999233
977.333590	1.001865
977.631299	0.998844
977.928971	0.999135
978.226606	1.000210
978.524204	0.999981
978.821765	1.000866
979.119290	0.999776
979.416777	1.000069
979.714228	1.000457
980.011642	1.000270
980.309020	0.999166
980.606360	0.999467
980.903664	1.000370
981.200931	0.999589
981.498162	1.000086
981.795356	0.999526
982.092513	1.000633
982.389633	1.001118
982.686717	0.999984
982.983764	0.999443
983.280775	0.999926
983.577749	1.000248
983.874686	0.998675
984.171587	0.999213
984.468451	0.999106
984.765279	1.000887
985.062070	0.999650
985.358824	0.999381
985.655543	0.999291
985.952224	1.000509
986.248869	0.999910
986.545478	1.001171
986.842050	1.000184
987.138586	0.998337
987.435086	1.000084
987.731549	1.000620
988.027975	1.000346
988.324366	0.999439
988.620719	0.999886
988.917037	1.000065
989.213318	1.000221
989.509563	0.999734
989.805772	1.001743
990.101944	1.001202
990.398080	1.000368
990.694180	1.000605
990.990244	1.000318
991.286271	1.000666
991.582262	1.000979
991.878217	0.999870
992.174136	1.000282
992.470019	1.000142
992.765865	1.001071
993.061676	1.000236
993.357450	1.000083
993.653188	1.000986
993.948890	0.999852
994.244556	1.000186
994.540186	0.999814
994.835780	0.999437
995.131337	1.000801
995.426859	1.000313
995.722345	0.999809
996.017795	1.000675
996.313208	0.999766
996.608586	1.001386
996.903928	1.000075
997.199234	1.000403
997.494504	1.002057
997.789738	0.998945
998.084936	1.000648
998.380099	1.000734
998.675225	1.000736
998.970316	1.000774
999.265371	0.999787
999.560390	1.000115
999.855373	0.999708
1000.150320	0.999907
1000.445232	1.000663
1000.740108	1.000553
1001.034948	0.998861
1001.329752	1.000918
1001.624521	0.999839
1001.919254	0.999370
1002.213951	1.000367
1002.508613	0.999971
1002.803239	0.999872
1003.097829	1.000508
1003.392384	1.000326
1003.686903	1.000245
1003.981386	0.999893
1004.275834	1.001428
1004.570246	0.998902
1004.864623	1.001568
1005.158964	0.999963
1005.453270	1.000838
1005.747540	0.999949
1006.041775	1.000616
1006.335974	1.000329
1006.630138	0.999535
1006.924266	0.999851
1007.218359	0.998484
1007.512416	1.001399
1007.806438	0.999736
1008.100425	1.000799
1008.394376	1.001520
1008.688292	0.998836
1008.982172	0.998948
1009.276017	1.000055
1009.569827	1.000390
1009.863602	0.999181
1010.157341	1.000810
1010.451045	1.000600
1010.744714	1.002750
1011.038347	1.000450
1011.331945	0.999379
1011.625508	1.000252
1011.919036	1.000691
1012.212528	1.001053
1012.505986	0.999999
1012.799408	1.000638
1013.092795	1.000153
1013.386147	1.000938
1013.679464	1.000764
1013.972745	0.999626
1014.265992	0.999748
1014.559204	1.000305
1014.852380	1.000848
1015.145521	0.999833
1015.438628	1.001013
1015.731699	0.999970
1016.024736	1.001681
1016.317737	1.000836
1016.610703	1.000084
1016.903635	1.000552
1017.196531	0.999957
1017.489393	0.998596
1017.782219	1.000318
1018.075011	1.000225
1018.367768	0.999857
1018.660490	1.000401
1018.953177	1.000401
1019.245829	1.000401
