Dividing Wavelength (nm)	Counts (n)	Blue Motor Position (mm): 7.100000	Red Motor Position (mm): 0.000000	
326.493990	1.005211
326.888308	1.005211
327.282561	1.005211
327.676750	1.006364
328.070874	1.006330
328.464933	1.006453
328.858929	1.006840
329.252859	1.006111
329.646726	1.005630
330.040528	1.005877
330.434265	1.007231
330.827938	1.005158
331.221547	1.005419
331.615091	1.006120
332.008571	1.006127
332.401986	1.004343
332.795338	1.004283
333.188625	1.005266
333.581847	1.004895
333.975006	1.005730
334.368100	1.005763
334.761129	1.004146
335.154095	1.004531
335.546996	1.003260
335.939833	0.998418
336.332606	0.999251
336.725315	0.998544
337.117960	0.998716
337.510540	0.998248
337.903056	0.999759
338.295508	1.000420
338.687896	0.999202
339.080220	0.999231
339.472480	0.998680
339.864676	0.999262
340.256807	0.997555
340.648875	0.998330
341.040879	0.998101
341.432818	0.999641
341.824694	0.998646
342.216506	1.000183
342.608253	0.999295
342.999937	0.997972
343.391557	0.998787
343.783113	1.000201
344.174605	0.999323
344.566033	0.997802
344.957397	0.999620
345.348697	0.998382
345.739934	0.998600
346.131106	0.998387
346.522215	0.997712
346.913260	0.998290
347.304241	0.998091
347.695159	0.997843
348.086012	0.998678
348.476802	0.998566
348.867528	0.996760
349.258191	0.999480
349.648789	0.998930
350.039324	0.998210
350.429796	0.998929
350.820203	0.996813
351.210548	0.997454
351.600828	0.999329
351.991045	0.998774
352.381198	0.998294
352.771288	0.997042
353.161314	0.998218
353.551276	0.997606
353.941175	0.996887
354.331010	0.998981
354.720782	0.998130
355.110490	0.998614
355.500135	0.998311
355.889717	0.997913
356.279235	0.997057
356.668689	0.998218
357.058080	0.997068
357.447408	0.997339
357.836672	0.996819
358.225873	0.996966
358.615010	0.997381
359.004084	0.995974
359.393095	0.996834
359.782043	0.997919
360.170927	0.998486
360.559748	0.997299
360.948505	0.997215
361.337199	0.997873
361.725830	0.996361
362.114398	0.997562
362.502903	0.996719
362.891344	0.996760
363.279722	0.995694
363.668037	0.998125
364.056289	0.997172
364.444478	0.998790
364.832603	0.996435
365.220665	0.996636
365.608665	0.995614
365.996601	0.996521
366.384474	0.995811
366.772284	0.996375
367.160031	0.996495
367.547715	0.995402
367.935336	0.994243
368.322893	0.994238
368.710388	0.992470
369.097820	0.990499
369.485189	0.987474
369.872495	0.986661
370.259738	0.984276
370.646918	0.981603
371.034035	0.979363
371.421090	0.976558
371.808081	0.970615
372.195010	0.969584
372.581875	0.962719
372.968678	0.958709
373.355418	0.955261
373.742096	0.947857
374.128710	0.945244
374.515262	0.940006
374.901751	0.933352
375.288177	0.928655
375.674540	0.922106
376.060841	0.915623
376.447079	0.908776
376.833254	0.903546
377.219367	0.897420
377.605417	0.885391
377.991404	0.882749
378.377329	0.876408
378.763191	0.869678
379.148991	0.860572
379.534727	0.853891
379.920402	0.845978
380.306013	0.841315
380.691563	0.829080
381.077049	0.822303
381.462474	0.818364
381.847835	0.806715
382.233134	0.801765
382.618371	0.802697
383.003545	0.784683
383.388657	0.782879
383.773706	0.775816
384.158693	0.771304
384.543618	0.766208
384.928480	0.757188
385.313280	0.747542
385.698017	0.746746
386.082692	0.735561
386.467305	0.734095
386.851856	0.728463
387.236344	0.722837
387.620770	0.717871
388.005133	0.711200
388.389435	0.706143
388.773674	0.703219
389.157851	0.695487
389.541965	0.692935
389.926018	0.699480
390.310008	0.685472
390.693936	0.683252
391.077802	0.675266
391.461606	0.677378
391.845348	0.666284
392.229027	0.665160
392.612645	0.663882
392.996200	0.650905
393.379694	0.643939
393.763125	0.634216
394.146494	0.638793
394.529801	0.629293
394.913047	0.620675
395.296230	0.627298
395.679351	0.618513
396.062410	0.615623
396.445408	0.617745
396.828343	0.613221
397.211217	0.608785
397.594028	0.620944
397.976778	0.610682
398.359466	0.607743
398.742092	0.602413
399.124656	0.615245
399.507158	0.603011
399.889598	0.600418
400.271977	0.591020
400.654294	0.595687
401.036549	0.594217
401.418742	0.598269
401.800874	0.584078
402.182944	0.581554
402.564952	0.572513
402.946898	0.574712
403.328783	0.575311
403.710606	0.586764
404.092367	0.561630
404.474067	0.567071
404.855705	0.565977
405.237282	0.574352
405.618797	0.560450
406.000250	0.556519
406.381642	0.546383
406.762972	0.551683
407.144240	0.549869
407.525447	0.549781
407.906593	0.543033
408.287677	0.538417
408.668700	0.546719
409.049661	0.540670
409.430560	0.536207
409.811399	0.543816
410.192176	0.526077
410.572891	0.533220
410.953545	0.521414
411.334138	0.534807
411.714669	0.527323
412.095139	0.539573
412.475547	0.523758
412.855894	0.525638
413.236180	0.524601
413.616405	0.529648
413.996568	0.520708
414.376670	0.526756
414.756711	0.531887
415.136691	0.528318
415.516609	0.519867
415.896466	0.516245
416.276262	0.512483
416.655997	0.513519
417.035670	0.495347
417.415283	0.487169
417.794834	0.492069
418.174324	0.497283
418.553753	0.506430
418.933121	0.488405
419.312428	0.482729
419.691674	0.487805
420.070859	0.475992
420.449983	0.484498
420.829045	0.473613
421.208047	0.482576
421.586988	0.475920
421.965867	0.474878
422.344686	0.463181
422.723444	0.476220
423.102141	0.492389
423.480777	0.466011
423.859352	0.486378
424.237866	0.463431
424.616319	0.464492
424.994712	0.455350
425.373044	0.465570
425.751314	0.454211
426.129524	0.470406
426.507673	0.453967
426.885762	0.447106
427.263789	0.452967
427.641756	0.462444
428.019662	0.452810
428.397508	0.451917
428.775292	0.456449
429.153016	0.447920
429.530679	0.454744
429.908282	0.447314
430.285824	0.457745
430.663305	0.436353
431.040726	0.457333
431.418086	0.457162
431.795385	0.449207
432.172624	0.448573
432.549802	0.447996
432.926920	0.447658
433.303977	0.446263
433.680974	0.444103
434.057910	0.442374
434.434786	0.441719
434.811601	0.444463
435.188355	0.426453
435.565050	0.436263
435.941683	0.437711
436.318257	0.421368
436.694770	0.422462
437.071222	0.420419
437.447614	0.424967
437.823946	0.431585
438.200218	0.421007
438.576429	0.430033
438.952580	0.423258
439.328670	0.419577
439.704700	0.426174
440.080670	0.427840
440.456580	0.408849
440.832429	0.416945
441.208218	0.428245
441.583947	0.417077
441.959616	0.417040
442.335224	0.422061
442.710773	0.413045
443.086261	0.410797
443.461689	0.424731
443.837057	0.414428
444.212365	0.404861
444.587612	0.411389
444.962800	0.401318
445.337927	0.403377
445.712995	0.428877
446.088002	0.391266
446.462949	0.401703
446.837837	0.406208
447.212664	0.394853
447.587431	0.387022
447.962139	0.356876
448.336786	0.315799
448.711374	0.326295
449.085901	0.370583
449.460369	0.375430
449.834776	0.378261
450.209124	0.357623
450.583412	0.350407
450.957640	0.343427
451.331808	0.354488
451.705917	0.378047
452.079965	0.382645
452.453954	0.371279
452.827883	0.377949
453.201752	0.372752
453.575562	0.383698
453.949311	0.372289
454.323001	0.378233
454.696632	0.374582
455.070202	0.366897
455.443713	0.358927
455.817164	0.353573
456.190556	0.349308
456.563888	0.346255
456.937160	0.343867
457.310373	0.361319
457.683526	0.359707
458.056619	0.365511
458.429653	0.366264
458.802628	0.370105
459.175542	0.363766
459.548398	0.346535
459.921194	0.338876
460.293930	0.338821
460.666607	0.317021
461.039224	0.304804
461.411782	0.300321
461.784280	0.299600
462.156719	0.303764
462.529099	0.308385
462.901419	0.324157
463.273680	0.328483
463.645882	0.327991
464.018024	0.334130
464.390106	0.326753
464.762130	0.311466
465.134094	0.294610
465.505999	0.263096
465.877845	0.233646
466.249631	0.220851
466.621358	0.228004
466.993026	0.242132
467.364634	0.248167
467.736184	0.256905
468.107674	0.265738
468.479105	0.265260
468.850477	0.271722
469.221790	0.278654
469.593043	0.288681
469.964238	0.293531
470.335373	0.292989
470.706449	0.291163
471.077467	0.291593
471.448425	0.253591
471.819324	0.229105
472.190164	0.228759
472.560945	0.257710
472.931667	0.279858
473.302330	0.284346
473.672934	0.296028
474.043479	0.284177
474.413965	0.286067
474.784393	0.289440
475.154761	0.284537
475.525070	0.281492
475.895321	0.287259
476.265513	0.281423
476.635645	0.276861
477.005719	0.276802
477.375734	0.273202
477.745691	0.266414
478.115588	0.262908
478.485427	0.256556
478.855207	0.243245
479.224928	0.225698
479.594591	0.213718
479.964194	0.217382
480.333739	0.218549
480.703226	0.219844
481.072653	0.218284
481.442022	0.213967
481.811333	0.210417
482.180584	0.214034
482.549777	0.219554
482.918912	0.222663
483.287988	0.222197
483.657005	0.222029
484.025964	0.228275
484.394864	0.225806
484.763706	0.226472
485.132489	0.231358
485.501213	0.232328
485.869879	0.230731
486.238487	0.233586
486.607036	0.231563
486.975527	0.236297
487.343959	0.232106
487.712333	0.231321
488.080648	0.232537
488.448905	0.231747
488.817104	0.232943
489.185244	0.227611
489.553326	0.224626
489.921350	0.214335
490.289315	0.196705
490.657222	0.191606
491.025070	0.192650
491.392861	0.194860
491.760593	0.200683
492.128267	0.206533
492.495883	0.211892
492.863440	0.218249
493.230939	0.224524
493.598380	0.226183
493.965763	0.228202
494.333088	0.230519
494.700354	0.231974
495.067563	0.231025
495.434713	0.234398
495.801805	0.231932
496.168839	0.233739
496.535815	0.235060
496.902733	0.234880
497.269593	0.236607
497.636395	0.234002
498.003139	0.234340
498.369825	0.237400
498.736453	0.233985
499.103023	0.235781
499.469535	0.235091
499.835989	0.235284
500.202385	0.235846
500.568723	0.239279
500.935003	0.234591
501.301226	0.238745
501.667390	0.233190
502.033497	0.231091
502.399546	0.233806
502.765537	0.235957
503.131470	0.234433
503.497345	0.230703
503.863163	0.239341
504.228923	0.232445
504.594625	0.230990
504.960269	0.236457
505.325856	0.231914
505.691385	0.236137
506.056856	0.232937
506.422270	0.232259
506.787625	0.234809
507.152924	0.232030
507.518164	0.232682
507.883347	0.234371
508.248472	0.236313
508.613540	0.230844
508.978550	0.233488
509.343503	0.234031
509.708398	0.231729
510.073236	0.229109
510.438016	0.229001
510.802738	0.229693
511.167403	0.229119
511.532010	0.231044
511.896561	0.226529
512.261053	0.224735
512.625488	0.227234
512.989866	0.227629
513.354186	0.227883
513.718449	0.229770
514.082655	0.226115
514.446803	0.228316
514.810894	0.225943
515.174927	0.228674
515.538904	0.228343
515.902822	0.225043
516.266684	0.227362
516.630488	0.228690
516.994235	0.227491
517.357925	0.226369
517.721558	0.224448
518.085133	0.224232
518.448651	0.224068
518.812112	0.226150
519.175516	0.225988
519.538863	0.223707
519.902152	0.225329
520.265385	0.222237
520.628560	0.223754
520.991678	0.224338
521.354739	0.223265
521.717743	0.224387
522.080690	0.224675
522.443580	0.222177
522.806413	0.223010
523.169189	0.222455
523.531908	0.221316
523.894569	0.224985
524.257174	0.224540
524.619722	0.222571
524.982213	0.223714
525.344647	0.222374
525.707025	0.223315
526.069345	0.221448
526.431608	0.223059
526.793815	0.221205
527.155964	0.225310
527.518057	0.224178
527.880093	0.225196
528.242072	0.223610
528.603995	0.225742
528.965860	0.227436
529.327669	0.226303
529.689421	0.227060
530.051117	0.227957
530.412755	0.225859
530.774337	0.227972
531.135862	0.228909
531.497331	0.227696
531.858743	0.230842
532.220098	0.227150
532.581396	0.230164
532.942638	0.230361
533.303824	0.231422
533.664953	0.230859
534.026025	0.233153
534.387040	0.230917
534.747999	0.230555
535.108902	0.229735
535.469748	0.234814
535.830537	0.232575
536.191270	0.232794
536.551947	0.232181
536.912567	0.232393
537.273131	0.234276
537.633638	0.234328
537.994089	0.235062
538.354483	0.235737
538.714821	0.232704
539.075103	0.232730
539.435328	0.233438
539.795497	0.237098
540.155609	0.233836
540.515665	0.231785
540.875665	0.237478
541.235609	0.236018
541.595496	0.236118
541.955328	0.232568
542.315102	0.235266
542.674821	0.236494
543.034483	0.236751
543.394090	0.236032
543.753640	0.237746
544.113134	0.233012
544.472571	0.236254
544.831953	0.233251
545.191278	0.237424
545.550548	0.236336
545.909761	0.233696
546.268918	0.234582
546.628019	0.232784
546.987064	0.235464
547.346053	0.237119
547.704986	0.234870
548.063863	0.235017
548.422684	0.235464
548.781449	0.237220
549.140158	0.235383
549.498811	0.237643
549.857408	0.240977
550.215949	0.235679
550.574434	0.238718
550.932864	0.236879
551.291237	0.235446
551.649555	0.237010
552.007817	0.236234
552.366022	0.237320
552.724173	0.237205
553.082267	0.237867
553.440305	0.234998
553.798288	0.239063
554.156215	0.235852
554.514086	0.236233
554.871902	0.239755
555.229661	0.238741
555.587365	0.239503
555.945014	0.241834
556.302606	0.238765
556.660143	0.241760
557.017625	0.238250
557.375050	0.240282
557.732421	0.237400
558.089735	0.239041
558.446994	0.239106
558.804197	0.238214
559.161345	0.238243
559.518437	0.241635
559.875474	0.239665
560.232455	0.239221
560.589381	0.240043
560.946251	0.240528
561.303065	0.238135
561.659825	0.239164
562.016528	0.240908
562.373177	0.243584
562.729770	0.240938
563.086307	0.242909
563.442789	0.240923
563.799216	0.243422
564.155587	0.242535
564.511904	0.243526
564.868164	0.243449
565.224370	0.243398
565.580520	0.245219
565.936615	0.245316
566.292654	0.248051
566.648638	0.245210
567.004567	0.246093
567.360441	0.246549
567.716260	0.248413
568.072023	0.246147
568.427732	0.246915
568.783385	0.249688
569.138982	0.247676
569.494525	0.247275
569.850013	0.250377
570.205445	0.248832
570.560823	0.250944
570.916145	0.253376
571.271412	0.251665
571.626625	0.252922
571.981782	0.253397
572.336884	0.254449
572.691931	0.254009
573.046923	0.255521
573.401860	0.256089
573.756743	0.258078
574.111570	0.256815
574.466342	0.257637
574.821059	0.256709
575.175722	0.259434
575.530330	0.259097
575.884882	0.259234
576.239380	0.261404
576.593823	0.262098
576.948211	0.261515
577.302544	0.264541
577.656823	0.264396
578.011047	0.264365
578.365216	0.265169
578.719330	0.267345
579.073389	0.266731
579.427394	0.267916
579.781344	0.268999
580.135239	0.270386
580.489080	0.270156
580.842866	0.273241
581.196597	0.273182
581.550273	0.271550
581.903895	0.272834
582.257463	0.270582
582.610975	0.274112
582.964434	0.273404
583.317837	0.275715
583.671186	0.276271
584.024481	0.276685
584.377721	0.278827
584.730906	0.279288
585.084037	0.278671
585.437113	0.280706
585.790135	0.280040
586.143103	0.283005
586.496016	0.284024
586.848874	0.281736
587.201679	0.282069
587.554428	0.285725
587.907124	0.284538
588.259765	0.285108
588.612352	0.285487
588.964884	0.289652
589.317362	0.288797
589.669786	0.289099
590.022155	0.287557
590.374470	0.286882
590.726731	0.288672
591.078937	0.293778
591.431090	0.290059
591.783188	0.294058
592.135232	0.294446
592.487222	0.294621
592.839157	0.292728
593.191038	0.295451
593.542866	0.297166
593.894639	0.300347
594.246358	0.298667
594.598022	0.297554
594.949633	0.301628
595.301190	0.302142
595.652692	0.301589
596.004141	0.297519
596.355535	0.305186
596.706876	0.306488
597.058162	0.308763
597.409395	0.306135
597.760573	0.303514
598.111698	0.307004
598.462768	0.307183
598.813785	0.308479
599.164748	0.309665
599.515657	0.310346
599.866511	0.314016
600.217312	0.309272
600.568060	0.314341
600.918753	0.310459
601.269392	0.311359
601.619978	0.314921
601.970510	0.312159
602.320988	0.312552
602.671412	0.310469
603.021783	0.313134
603.372100	0.314230
603.722363	0.313848
604.072572	0.314921
604.422728	0.314654
604.772830	0.316818
605.122878	0.316447
605.472872	0.316844
605.822813	0.315118
606.172701	0.318020
606.522534	0.315352
606.872314	0.315201
607.222041	0.316098
607.571714	0.314348
607.921333	0.315656
608.270899	0.315162
608.620411	0.312303
608.969870	0.316202
609.319276	0.316100
609.668627	0.315861
610.017926	0.314805
610.367171	0.313272
610.716362	0.314082
611.065500	0.314051
611.414585	0.313140
611.763616	0.313329
612.112594	0.313664
612.461518	0.313074
612.810389	0.310784
613.159207	0.313302
613.507971	0.314954
613.856682	0.311005
614.205340	0.311921
614.553945	0.309511
614.902496	0.313027
615.250994	0.310925
615.599439	0.311847
615.947830	0.311454
616.296169	0.312052
616.644454	0.311619
616.992686	0.311582
617.340864	0.309919
617.688990	0.313218
618.037063	0.309708
618.385082	0.311576
618.733048	0.308203
619.080961	0.310861
619.428821	0.310182
619.776628	0.310034
620.124382	0.312070
620.472083	0.312453
620.819731	0.311653
621.167326	0.315792
621.514868	0.315594
621.862357	0.319443
622.209793	0.319128
622.557176	0.321117
622.904506	0.322670
623.251783	0.325058
623.599007	0.327509
623.946179	0.326539
624.293297	0.329115
624.640363	0.332841
624.987376	0.333188
625.334336	0.335694
625.681243	0.337580
626.028097	0.338425
626.374899	0.339875
626.721647	0.340062
627.068343	0.342792
627.414987	0.344029
627.761577	0.346308
628.108115	0.344210
628.454600	0.349774
628.801032	0.346972
629.147412	0.349358
629.493739	0.349742
629.840014	0.352970
630.186236	0.350071
630.532405	0.355605
630.878521	0.352913
631.224585	0.355491
631.570597	0.358930
631.916556	0.357384
632.262462	0.356969
632.608316	0.359510
632.954117	0.360189
633.299866	0.361238
633.645562	0.361428
633.991206	0.366018
634.336797	0.368528
634.682336	0.371432
635.027823	0.373114
635.373257	0.373500
635.718639	0.377573
636.063968	0.376310
636.409245	0.382154
636.754470	0.382463
637.099642	0.384795
637.444762	0.388448
637.789829	0.387128
638.134845	0.390784
638.479808	0.391480
638.824719	0.391724
639.169577	0.396394
639.514383	0.394998
639.859137	0.399288
640.203839	0.398797
640.548489	0.399659
640.893086	0.400440
641.237632	0.402418
641.582125	0.401096
641.926566	0.403333
642.270955	0.402746
642.615292	0.402577
642.959576	0.401872
643.303809	0.403313
643.647990	0.402068
643.992118	0.403127
644.336195	0.405705
644.680219	0.404446
645.024192	0.405279
645.368112	0.399269
645.711981	0.397673
646.055797	0.392879
646.399562	0.395456
646.743274	0.388511
647.086935	0.384970
647.430544	0.384936
647.774101	0.383946
648.117606	0.384153
648.461059	0.384484
648.804460	0.386791
649.147810	0.391904
649.491108	0.393955
649.834354	0.395293
650.177548	0.400645
650.520690	0.406023
650.863781	0.406772
651.206820	0.406204
651.549807	0.410978
651.892742	0.415108
652.235626	0.414602
652.578458	0.415482
652.921238	0.421943
653.263967	0.419659
653.606644	0.423209
653.949269	0.423557
654.291843	0.427008
654.634365	0.423960
654.976836	0.427077
655.319255	0.427661
655.661622	0.428802
656.003938	0.428815
656.346203	0.431782
656.688416	0.429646
657.030577	0.432691
657.372687	0.435076
657.714746	0.435488
658.056753	0.432936
658.398708	0.436497
658.740612	0.438030
659.082465	0.433848
659.424266	0.434531
659.766016	0.433815
660.107715	0.437438
660.449362	0.435641
660.790958	0.436286
661.132503	0.437529
661.473996	0.434305
661.815438	0.435665
662.156829	0.436015
662.498168	0.436590
662.839456	0.437987
663.180693	0.436043
663.521879	0.435452
663.863013	0.436673
664.204097	0.434648
664.545129	0.431810
664.886110	0.432362
665.227040	0.430012
665.567918	0.432400
665.908746	0.429901
666.249522	0.430184
666.590248	0.430895
666.930922	0.428557
667.271545	0.427594
667.612118	0.428092
667.952639	0.429826
668.293109	0.428295
668.633528	0.430916
668.973896	0.430744
669.314213	0.431483
669.654480	0.433201
669.994695	0.433543
670.334859	0.434326
670.674973	0.434661
671.015035	0.434457
671.355047	0.434627
671.695008	0.435422
672.034918	0.437669
672.374777	0.436687
672.714585	0.438090
673.054342	0.438314
673.394049	0.438210
673.733705	0.435877
674.073310	0.437497
674.412864	0.440032
674.752368	0.440365
675.091820	0.441029
675.431223	0.445261
675.770574	0.445165
676.109875	0.448603
676.449125	0.448012
676.788324	0.450618
677.127473	0.455318
677.466571	0.455876
677.805619	0.457440
678.144616	0.458946
678.483562	0.460364
678.822458	0.463067
679.161303	0.463516
679.500098	0.464775
679.838842	0.466115
680.177535	0.464914
680.516179	0.464205
680.854771	0.463362
681.193314	0.456647
681.531805	0.447957
681.870247	0.436921
682.208638	0.429367
682.546978	0.427852
682.885268	0.430249
683.223508	0.436335
683.561697	0.440078
683.899836	0.442775
684.237925	0.446038
684.575963	0.449115
684.913951	0.452464
685.251889	0.447808
685.589776	0.449992
685.927614	0.452282
686.265401	0.446940
686.603137	0.448339
686.940824	0.442323
687.278460	0.441093
687.616046	0.439987
687.953582	0.435451
688.291068	0.437229
688.628504	0.432373
688.965889	0.434913
689.303224	0.438695
689.640510	0.442862
689.977745	0.448460
690.314930	0.456008
690.652065	0.460592
690.989150	0.467439
691.326185	0.475329
691.663170	0.480049
692.000105	0.486934
692.336990	0.493858
692.673825	0.496354
693.010610	0.503165
693.347345	0.509186
693.684030	0.510521
694.020665	0.515419
694.357251	0.523664
694.693786	0.523643
695.030272	0.527188
695.366707	0.531585
695.703093	0.534921
696.039429	0.532814
696.375716	0.534877
696.711952	0.537325
697.048139	0.539216
697.384276	0.541737
697.720363	0.540290
698.056400	0.539165
698.392388	0.544868
698.728326	0.547211
699.064214	0.550457
699.400053	0.550792
699.735842	0.555115
700.071581	0.557960
700.407270	0.560910
700.742910	0.563250
701.078501	0.569729
701.414042	0.570532
701.749533	0.573114
702.084974	0.582327
702.420366	0.575183
702.755709	0.582358
703.091002	0.590668
703.426246	0.584461
703.761440	0.589245
704.096584	0.594842
704.431679	0.591679
704.766725	0.593612
705.101721	0.595740
705.436668	0.592168
705.771565	0.598720
706.106413	0.594841
706.441212	0.591073
706.775961	0.590926
707.110661	0.592621
707.445311	0.589399
707.779913	0.586897
708.114465	0.585770
708.448967	0.582772
708.783421	0.574980
709.117825	0.570124
709.452180	0.569945
709.786485	0.563648
710.120742	0.554072
710.454949	0.555923
710.789107	0.548213
711.123216	0.538613
711.457275	0.540080
711.791286	0.533069
712.125247	0.532765
712.459159	0.542579
712.793023	0.534192
713.126837	0.539521
713.460602	0.540440
713.794318	0.548486
714.127985	0.547850
714.461602	0.558465
714.795171	0.560794
715.128691	0.568669
715.462162	0.575654
715.795584	0.582097
716.128957	0.584544
716.462281	0.591431
716.795556	0.594901
717.128782	0.601417
717.461960	0.609866
717.795088	0.608470
718.128167	0.615129
718.461198	0.622327
718.794180	0.623660
719.127113	0.626469
719.459997	0.629026
719.792833	0.635228
720.125619	0.636693
720.458357	0.642072
720.791046	0.642809
721.123686	0.646040
721.456278	0.653554
721.788821	0.650145
722.121315	0.655567
722.453761	0.658971
722.786158	0.656865
723.118506	0.654068
723.450805	0.661597
723.783056	0.657374
724.115259	0.655006
724.447412	0.654782
724.779518	0.655675
725.111574	0.655345
725.443582	0.650631
725.775542	0.654184
726.107453	0.646156
726.439315	0.646625
726.771129	0.644424
727.102895	0.639033
727.434612	0.632172
727.766281	0.630277
728.097901	0.629642
728.429473	0.628871
728.760996	0.627428
729.092471	0.627706
729.423897	0.631422
729.755276	0.629749
730.086606	0.631196
730.417887	0.625860
730.749120	0.616982
731.080305	0.608983
731.411442	0.605197
731.742530	0.607561
732.073570	0.607938
732.404562	0.602178
732.735506	0.603035
733.066401	0.606882
733.397249	0.616731
733.728048	0.627523
734.058798	0.639660
734.389501	0.650740
734.720156	0.660519
735.050762	0.667502
735.381320	0.668776
735.711831	0.676415
736.042293	0.682536
736.372707	0.679285
736.703073	0.683916
737.033391	0.684832
737.363661	0.682153
737.693883	0.678269
738.024056	0.677451
738.354182	0.677871
738.684260	0.667069
739.014290	0.664606
739.344272	0.664051
739.674207	0.658255
740.004093	0.658367
740.333931	0.659293
740.663722	0.659122
740.993464	0.659825
741.323159	0.663291
741.652806	0.668762
741.982405	0.673607
742.311956	0.678193
742.641460	0.680635
742.970915	0.683809
743.300323	0.690637
743.629683	0.695564
743.958996	0.699310
744.288260	0.702798
744.617477	0.709174
744.946647	0.710695
745.275768	0.716511
745.604842	0.716998
745.933869	0.726035
746.262847	0.727066
746.591778	0.720794
746.920662	0.727570
747.249498	0.733822
747.578286	0.725909
747.907027	0.721215
748.235720	0.721974
748.564365	0.718154
748.892963	0.717051
749.221514	0.720686
749.550017	0.725237
749.878473	0.726154
750.206881	0.732243
750.535242	0.733225
750.863555	0.731394
751.191821	0.732682
751.520039	0.736443
751.848210	0.739261
752.176334	0.734546
752.504411	0.733946
752.832440	0.740981
753.160421	0.743495
753.488356	0.742970
753.816243	0.740710
754.144082	0.748567
754.471875	0.752646
754.799620	0.748637
755.127318	0.750002
755.454969	0.750113
755.782572	0.750667
756.110129	0.753346
756.437638	0.757334
756.765100	0.754602
757.092515	0.752027
757.419882	0.751966
757.747203	0.755586
758.074477	0.756744
758.401703	0.753808
758.728882	0.748934
759.056014	0.747156
759.383099	0.746252
759.710138	0.747117
760.037129	0.744485
760.364073	0.738583
760.690970	0.741031
761.017820	0.744533
761.344623	0.742030
761.671379	0.733961
761.998088	0.722961
762.324751	0.701044
762.651366	0.660108
762.977935	0.595910
763.304456	0.549366
763.630931	0.541858
763.957359	0.577844
764.283740	0.619001
764.610074	0.647855
764.936362	0.677393
765.262602	0.703201
765.588796	0.723118
765.914943	0.738347
766.241044	0.754784
766.567097	0.761847
766.893104	0.770955
767.219064	0.775912
767.544978	0.783139
767.870845	0.794883
768.196665	0.798973
768.522438	0.797167
768.848165	0.798859
769.173846	0.807488
769.499479	0.811507
769.825066	0.814988
770.150607	0.819156
770.476101	0.816680
770.801548	0.817450
771.126949	0.827762
771.452303	0.831516
771.777611	0.831289
772.102872	0.829408
772.428087	0.835203
772.753256	0.839610
773.078378	0.840519
773.403453	0.847503
773.728482	0.851936
774.053465	0.846645
774.378401	0.850098
774.703291	0.857366
775.028135	0.859373
775.352932	0.857527
775.677683	0.861598
776.002388	0.862620
776.327046	0.862494
776.651658	0.865998
776.976224	0.868074
777.300743	0.867006
777.625216	0.869563
777.949643	0.871667
778.274024	0.871216
778.598359	0.873822
778.922647	0.873015
779.246889	0.874673
779.571086	0.876468
779.895236	0.878407
780.219339	0.877541
780.543397	0.873266
780.867409	0.872584
781.191374	0.873912
781.515294	0.876277
781.839167	0.875633
782.162995	0.877270
782.486776	0.875261
782.810511	0.876244
783.134201	0.880704
783.457844	0.878657
783.781441	0.880959
784.104993	0.884410
784.428498	0.885086
784.751958	0.883323
785.075372	0.883927
785.398739	0.887357
785.722061	0.882785
786.045337	0.881127
786.368568	0.884825
786.691752	0.886922
787.014891	0.874435
787.337983	0.865837
787.661030	0.858028
787.984031	0.843005
788.306987	0.832677
788.629897	0.831663
788.952760	0.837602
789.275579	0.842354
789.598351	0.856037
789.921078	0.868310
790.243759	0.870318
790.566395	0.874033
790.888984	0.881054
791.211529	0.885939
791.534027	0.888530
791.856480	0.890611
792.178888	0.894133
792.501249	0.896952
792.823566	0.899359
793.145836	0.897859
793.468062	0.899532
793.790241	0.901918
794.112375	0.898795
794.434464	0.895778
794.756507	0.894459
795.078505	0.891926
795.400457	0.888459
795.722364	0.876772
796.044226	0.872312
796.366042	0.870551
796.687812	0.872599
797.009538	0.869567
797.331218	0.874054
797.652852	0.878257
797.974442	0.880892
798.295986	0.883325
798.617484	0.884222
798.938938	0.888752
799.260346	0.891571
799.581709	0.893931
799.903026	0.896629
800.224299	0.897165
800.545526	0.900002
800.866708	0.903068
801.187845	0.906898
801.508936	0.906393
801.829983	0.903978
802.150984	0.909457
802.471940	0.912748
802.792851	0.911942
803.113717	0.912958
803.434538	0.912186
803.755314	0.913930
804.076045	0.913549
804.396731	0.914064
804.717372	0.913481
805.037967	0.916151
805.358518	0.913911
805.679024	0.910859
805.999485	0.912676
806.319901	0.910471
806.640272	0.914244
806.960598	0.911183
807.280879	0.909285
807.601115	0.908230
807.921306	0.911561
808.241453	0.911945
808.561554	0.909909
808.881611	0.910070
809.201623	0.911220
809.521590	0.912433
809.841513	0.912897
810.161390	0.910832
810.481223	0.912779
810.801011	0.916720
811.120755	0.918598
811.440453	0.917570
811.760107	0.917941
812.079716	0.916891
812.399281	0.920109
812.718801	0.921181
813.038276	0.922063
813.357707	0.922225
813.677093	0.921128
813.996434	0.921424
814.315731	0.924306
814.634983	0.925373
814.954191	0.924568
815.273354	0.919811
815.592473	0.918441
815.911547	0.918125
816.230577	0.915686
816.549562	0.913399
816.868502	0.913139
817.187399	0.911442
817.506250	0.908248
817.825058	0.908171
818.143821	0.905175
818.462539	0.901018
818.781213	0.894078
819.099843	0.884435
819.418429	0.868944
819.736970	0.854774
820.055466	0.836749
820.373919	0.815664
820.692327	0.787097
821.010691	0.754206
821.329011	0.680346
821.647286	0.570497
821.965517	0.463756
822.283704	0.421688
822.601847	0.425007
822.919945	0.464669
823.237999	0.503870
823.556010	0.547853
823.873976	0.599173
824.191897	0.647412
824.509775	0.686771
824.827609	0.725591
825.145398	0.746188
825.463144	0.747578
825.780845	0.731460
826.098502	0.713261
826.416116	0.672372
826.733685	0.630101
827.051210	0.623859
827.368692	0.637954
827.686129	0.674082
828.003522	0.723279
828.320872	0.765968
828.638177	0.805050
828.955439	0.832885
829.272656	0.850958
829.589830	0.865630
829.906960	0.879326
830.224046	0.889705
830.541088	0.899856
830.858086	0.903509
831.175041	0.908774
831.491952	0.906891
831.808819	0.904583
832.125642	0.898287
832.442421	0.887009
832.759157	0.866838
833.075849	0.825001
833.392497	0.767272
833.709101	0.732768
834.025662	0.742970
834.342179	0.773128
834.658653	0.808185
834.975083	0.838660
835.291469	0.863569
835.607811	0.882088
835.924110	0.896115
836.240366	0.911451
836.556578	0.921626
836.872746	0.926905
837.188871	0.933208
837.504952	0.936167
837.820990	0.940375
838.136984	0.942131
838.452935	0.945569
838.768842	0.946871
839.084706	0.940495
839.400526	0.918546
839.716303	0.881260
840.032037	0.863294
840.347727	0.867731
840.663373	0.883790
840.978977	0.903374
841.294537	0.923771
841.610054	0.936807
841.925527	0.943202
842.240957	0.948197
842.556344	0.954259
842.871687	0.959030
843.186987	0.962277
843.502244	0.963903
843.817458	0.964571
844.132629	0.967395
844.447756	0.970879
844.762840	0.971123
845.077881	0.971763
845.392879	0.970499
845.707833	0.973676
846.022745	0.974307
846.337613	0.974925
846.652438	0.975197
846.967221	0.976676
847.281960	0.976247
847.596656	0.976505
847.911309	0.977296
848.225919	0.977227
848.540485	0.978542
848.855009	0.979105
849.169490	0.978798
849.483928	0.977948
849.798323	0.977897
850.112675	0.981188
850.426984	0.978895
850.741251	0.980177
851.055474	0.979999
851.369654	0.978942
851.683792	0.977968
851.997887	0.980134
852.311938	0.980257
852.625947	0.978101
852.939914	0.977663
853.253837	0.980368
853.567718	0.980872
853.881555	0.978908
854.195350	0.979531
854.509103	0.979381
854.822812	0.980755
855.136479	0.980672
855.450103	0.979333
855.763685	0.979638
856.077224	0.979710
856.390720	0.980878
856.704173	0.979658
857.017584	0.979301
857.330953	0.977419
857.644278	0.978067
857.957561	0.979572
858.270802	0.979212
858.584000	0.978533
858.897155	0.977764
859.210268	0.977926
859.523339	0.980591
859.836367	0.981530
860.149352	0.980444
860.462295	0.980067
860.775195	0.980533
861.088054	0.979396
861.400869	0.980857
861.713642	0.979348
862.026373	0.982044
862.339062	0.981613
862.651708	0.979581
862.964312	0.978092
863.276873	0.979196
863.589392	0.978515
863.901869	0.977226
864.214303	0.975944
864.526696	0.975530
864.839045	0.976177
865.151353	0.974036
865.463619	0.972580
865.775842	0.973755
866.088023	0.975505
866.400162	0.974108
866.712258	0.976945
867.024313	0.974594
867.336325	0.976705
867.648296	0.975291
867.960224	0.974696
868.272110	0.974647
868.583954	0.977315
868.895755	0.977274
869.207515	0.974293
869.519233	0.973527
869.830909	0.972763
870.142542	0.973277
870.454134	0.974395
870.765684	0.972496
871.077191	0.971648
871.388657	0.970639
871.700081	0.971642
872.011463	0.972827
872.322803	0.971632
872.634101	0.969766
872.945357	0.968001
873.256571	0.966529
873.567744	0.966707
873.878874	0.968103
874.189963	0.968038
874.501010	0.967472
874.812015	0.965187
875.122979	0.965731
875.433900	0.966904
875.744780	0.968809
876.055618	0.966739
876.366415	0.965208
876.677169	0.965200
876.987882	0.966903
877.298554	0.967300
877.609183	0.964634
877.919771	0.962372
878.230317	0.961615
878.540822	0.957928
878.851285	0.955329
879.161707	0.949196
879.472087	0.940916
879.782425	0.926912
880.092722	0.898983
880.402977	0.852678
880.713191	0.796130
881.023363	0.739263
881.333494	0.705984
881.643583	0.683021
881.953631	0.685517
882.263637	0.714283
882.573602	0.752248
882.883526	0.776604
883.193408	0.798529
883.503248	0.819233
883.813048	0.843256
884.122806	0.868110
884.432522	0.887574
884.742197	0.903238
885.051831	0.912553
885.361424	0.920950
885.670975	0.931997
885.980485	0.939001
886.289954	0.942936
886.599382	0.945562
886.908768	0.949903
887.218113	0.953043
887.527417	0.957874
887.836680	0.960840
888.145901	0.962130
888.455082	0.965479
888.764221	0.967670
889.073319	0.968240
889.382376	0.969466
889.691392	0.968840
890.000366	0.970494
890.309300	0.969202
890.618193	0.968727
890.927044	0.967777
891.235855	0.967061
891.544625	0.967616
891.853353	0.967465
892.162041	0.965525
892.470687	0.961927
892.779293	0.956203
893.087858	0.953306
893.396381	0.947192
893.704864	0.934744
894.013306	0.916091
894.321707	0.894641
894.630068	0.882821
894.938387	0.878557
895.246665	0.882595
895.554903	0.892060
895.863100	0.906481
896.171256	0.917782
896.479371	0.933542
896.787446	0.942432
897.095480	0.947973
897.403473	0.951236
897.711425	0.953537
898.019336	0.960198
898.327207	0.962767
898.635038	0.962169
898.942827	0.963441
899.250576	0.966473
899.558284	0.968189
899.865952	0.970771
900.173579	0.970202
900.481165	0.971961
900.788711	0.973690
901.096216	0.975426
901.403681	0.976937
901.711105	0.976199
902.018489	0.977532
902.325832	0.974550
902.633135	0.975252
902.940397	0.971505
903.247619	0.961235
903.554800	0.941026
903.861941	0.908173
904.169041	0.876015
904.476101	0.862418
904.783121	0.864438
905.090100	0.878638
905.397039	0.898710
905.703938	0.916889
906.010796	0.932723
906.317614	0.946069
906.624391	0.955264
906.931129	0.962786
907.237826	0.968460
907.544483	0.973906
907.851099	0.977233
908.157675	0.978828
908.464211	0.982394
908.770707	0.982312
909.077163	0.986134
909.383578	0.985792
909.689954	0.985474
909.996289	0.985779
910.302584	0.987618
910.608839	0.989552
910.915054	0.987501
911.221229	0.988486
911.527363	0.987656
911.833458	0.987915
912.139513	0.987032
912.445527	0.987766
912.751502	0.985668
913.057436	0.982777
913.363331	0.982424
913.669186	0.980419
913.975000	0.975563
914.280775	0.970360
914.586510	0.964961
914.892205	0.953427
915.197859	0.936933
915.503475	0.915785
915.809050	0.898290
916.114585	0.892743
916.420081	0.891866
916.725536	0.891764
917.030952	0.898380
917.336328	0.908688
917.641665	0.919730
917.946961	0.932586
918.252218	0.942260
918.557435	0.948990
918.862612	0.955236
919.167750	0.959450
919.472848	0.964750
919.777906	0.970123
920.082925	0.973145
920.387904	0.974846
920.692843	0.976951
920.997743	0.976045
921.302603	0.979809
921.607423	0.980378
921.912204	0.982966
922.216946	0.984176
922.521647	0.985122
922.826310	0.985140
923.130932	0.988126
923.435516	0.988033
923.740059	0.988366
924.044564	0.987970
924.349028	0.988571
924.653454	0.992115
924.957840	0.990716
925.262186	0.991820
925.566493	0.992950
925.870761	0.993379
926.174989	0.993852
926.479178	0.995418
926.783328	0.994760
927.087438	0.995572
927.391509	0.994095
927.695541	0.995553
927.999533	0.997652
928.303486	0.996420
928.607400	0.997056
928.911275	0.997580
929.215110	0.997725
929.518906	0.997150
929.822663	0.998019
930.126381	0.997123
930.430060	0.997098
930.733699	0.996266
931.037299	0.997135
931.340861	0.997752
931.644383	0.995846
931.947866	0.996627
932.251309	0.997645
932.554714	0.996289
932.858080	0.997573
933.161407	0.995731
933.464694	0.996909
933.767943	0.997100
934.071153	0.996717
934.374323	0.998860
934.677455	0.997635
934.980548	0.997507
935.283602	0.999045
935.586617	0.997356
935.889593	0.998884
936.192530	0.998974
936.495428	0.997782
936.798287	0.997603
937.101108	0.997531
937.403890	0.996371
937.706632	0.996304
938.009336	0.994407
938.312002	0.993313
938.614628	0.993165
938.917216	0.990307
939.219765	0.991286
939.522275	0.991722
939.824747	0.991303
940.127179	0.991514
940.429573	0.995016
940.731929	0.991734
941.034246	0.992028
941.336524	0.992793
941.638763	0.993534
941.940964	0.993811
942.243126	0.994796
942.545250	0.994921
942.847335	0.994988
943.149381	0.997340
943.451389	0.995352
943.753359	0.995831
944.055290	0.996497
944.357182	0.997490
944.659036	0.996455
944.960851	0.997932
945.262628	0.997125
945.564367	0.996981
945.866067	0.996501
946.167729	0.996172
946.469352	0.997320
946.770937	0.994428
947.072484	0.997705
947.373992	0.996515
947.675462	0.996359
947.976893	0.996898
948.278286	0.999289
948.579641	0.999288
948.880958	0.997710
949.182236	0.998058
949.483476	0.998820
949.784678	0.997692
950.085841	0.997795
950.386967	0.998253
950.688054	0.997921
950.989103	0.996307
951.290114	0.996613
951.591087	0.996091
951.892021	0.996446
952.192917	0.996744
952.493776	0.996292
952.794596	0.996220
953.095378	0.995520
953.396122	0.996048
953.696828	0.996619
953.997496	0.997012
954.298126	0.997056
954.598718	0.997870
954.899272	0.997605
955.199788	0.997474
955.500266	0.999444
955.800706	0.999203
956.101108	0.999042
956.401472	1.000135
956.701798	0.999156
957.002087	1.000145
957.302337	0.999430
957.602550	0.999408
957.902724	1.000387
958.202861	1.000188
958.502960	0.999818
958.803022	1.000938
959.103045	1.000540
959.403031	1.002285
959.702979	1.002684
960.002889	1.001421
960.302762	1.000604
960.602596	1.002436
960.902393	1.002271
961.202153	1.001845
961.501875	1.002175
961.801559	1.001881
962.101205	1.001046
962.400814	1.004065
962.700385	1.003512
962.999918	1.001010
963.299414	1.001658
963.598873	1.002225
963.898293	1.000828
964.197677	1.002138
964.497022	1.002121
964.796331	1.002384
965.095601	1.002575
965.394835	1.001268
965.694030	1.003506
965.993189	1.001273
966.292309	1.001773
966.591393	1.000866
966.890439	1.002791
967.189447	1.002589
967.488419	1.001853
967.787353	1.001662
968.086249	1.002983
968.385108	1.002028
968.683930	1.002822
968.982714	1.002489
969.281462	1.002135
969.580172	1.000714
969.878844	1.002441
970.177480	1.001696
970.476078	1.002787
970.774639	1.002799
971.073162	1.002644
971.371649	1.000704
971.670098	1.001716
971.968510	1.001328
972.266885	1.001495
972.565223	1.001150
972.863524	1.001871
973.161788	1.001649
973.460014	1.002514
973.758204	1.000347
974.056356	1.001172
974.354471	1.000449
974.652550	1.001933
974.950591	1.001176
975.248595	1.000962
975.546563	1.002010
975.844493	1.003225
976.142386	1.001611
976.440243	1.002680
976.738062	1.002359
977.035845	1.001247
977.333590	1.003123
977.631299	1.001875
977.928971	1.001913
978.226606	1.002738
978.524204	1.002285
978.821765	1.003176
979.119290	1.003764
979.416777	1.001930
979.714228	1.001851
980.011642	1.003585
980.309020	1.001014
980.606360	1.001765
980.903664	1.001529
981.200931	1.001548
981.498162	1.002152
981.795356	1.000840
982.092513	1.000305
982.389633	1.000597
982.686717	0.998392
982.983764	0.998241
983.280775	0.997432
983.577749	0.998315
983.874686	0.997656
984.171587	0.998351
984.468451	0.999971
984.765279	1.000300
985.062070	1.000719
985.358824	1.001187
985.655543	1.002592
985.952224	1.003073
986.248869	1.001711
986.545478	1.003672
986.842050	1.002760
987.138586	1.002750
987.435086	1.003681
987.731549	1.004152
988.027975	1.003793
988.324366	1.002172
988.620719	1.004172
988.917037	1.003397
989.213318	1.002756
989.509563	1.002984
989.805772	1.003122
990.101944	1.003667
990.398080	1.002373
990.694180	1.004361
990.990244	1.004220
991.286271	1.002450
991.582262	1.003748
991.878217	1.002417
992.174136	1.003595
992.470019	1.002705
992.765865	1.005180
993.061676	1.003336
993.357450	1.003122
993.653188	1.004327
993.948890	1.002918
994.244556	1.002611
994.540186	1.002275
994.835780	1.003054
995.131337	1.002239
995.426859	1.002928
995.722345	1.002182
996.017795	1.001478
996.313208	1.002789
996.608586	1.002155
996.903928	1.002865
997.199234	1.002615
997.494504	1.003332
997.789738	1.001547
998.084936	1.002913
998.380099	1.002212
998.675225	1.003020
998.970316	1.003750
999.265371	1.003489
999.560390	1.003066
999.855373	1.004347
1000.150320	1.002949
1000.445232	1.004032
1000.740108	1.004069
1001.034948	1.002995
1001.329752	1.005056
1001.624521	1.003635
1001.919254	1.002509
1002.213951	1.003901
1002.508613	1.003661
1002.803239	1.003279
1003.097829	1.005290
1003.392384	1.003738
1003.686903	1.003753
1003.981386	1.003586
1004.275834	1.005739
1004.570246	1.002802
1004.864623	1.003952
1005.158964	1.003049
1005.453270	1.003173
1005.747540	1.002582
1006.041775	1.004191
1006.335974	1.004327
1006.630138	1.003785
1006.924266	1.002033
1007.218359	1.002424
1007.512416	1.005306
1007.806438	1.003603
1008.100425	1.003641
1008.394376	1.004997
1008.688292	1.003938
1008.982172	1.003101
1009.276017	1.003804
1009.569827	1.003918
1009.863602	1.002360
1010.157341	1.004920
1010.451045	1.004373
1010.744714	1.006008
1011.038347	1.004777
1011.331945	1.002781
1011.625508	1.004612
1011.919036	1.004837
1012.212528	1.005039
1012.505986	1.003827
1012.799408	1.004536
1013.092795	1.004043
1013.386147	1.004053
1013.679464	1.004485
1013.972745	1.003880
1014.265992	1.003449
1014.559204	1.001443
1014.852380	1.005191
1015.145521	1.003461
1015.438628	1.004262
1015.731699	1.003881
1016.024736	1.005022
1016.317737	1.004859
1016.610703	1.004195
1016.903635	1.003805
1017.196531	1.003809
1017.489393	1.004839
1017.782219	1.004183
1018.075011	1.002640
1018.367768	1.003725
1018.660490	1.004070
1018.953177	1.004070
1019.245829	1.004070
