Dividing Wavelength (nm)	Counts (n)	Blue Motor Position (mm): 0.000000	Red Motor Position (mm): 1.900000	
326.493990	2127.366923
326.888308	2127.366923
327.282561	2127.366923
327.676750	2084.517115
328.070874	2039.146731
328.464933	2071.914231
328.858929	2076.955385
329.252859	2081.996538
329.646726	2084.517115
330.040528	2076.955385
330.434265	2119.805192
330.827938	2117.284615
331.221547	2190.381346
331.615091	2180.299038
332.008571	2112.243462
332.401986	2213.066538
332.795338	2268.519231
333.188625	2248.354615
333.581847	2187.860769
333.975006	2336.574808
334.368100	2281.122115
334.761129	2349.177692
335.154095	2303.807308
335.546996	2349.177692
335.939833	2422.274423
336.332606	2329.013077
336.725315	2384.465769
337.117960	2371.862885
337.510540	2389.506923
337.903056	2450.000769
338.295508	2414.712692
338.687896	2487.809423
339.080220	2439.918462
339.472480	2409.671538
339.864676	2515.535769
340.256807	2437.397885
340.648875	2381.945192
341.040879	2550.823846
341.432818	2495.371154
341.824694	2452.521346
342.216506	2533.179808
342.608253	2510.494615
342.999937	2515.535769
343.391557	2497.891731
343.783113	2384.465769
344.174605	2414.712692
344.566033	2576.029615
344.957397	2452.521346
345.348697	2502.932885
345.739934	2467.644808
346.131106	2518.056346
346.522215	2533.179808
346.913260	2570.988462
347.304241	2500.412308
347.695159	2518.056346
348.086012	2502.932885
348.476802	2404.630385
348.867528	2460.083077
349.258191	2394.548077
349.648789	2442.439038
350.039324	2364.301154
350.429796	2467.644808
350.820203	2444.959615
351.210548	2513.015192
351.600828	2429.836154
351.991045	2482.768269
352.381198	2502.932885
352.771288	2376.904038
353.161314	2444.959615
353.551276	2460.083077
353.941175	2450.000769
354.331010	2394.548077
354.720782	2472.685962
355.110490	2397.068654
355.500135	2480.247692
355.889717	2490.330000
356.279235	2502.932885
356.668689	2374.383462
357.058080	2422.274423
357.447408	2439.918462
357.836672	2409.671538
358.225873	2510.494615
358.615010	2482.768269
359.004084	2334.054231
359.393095	2500.412308
359.782043	2419.753846
360.170927	2429.836154
360.559748	2429.836154
360.948505	2497.891731
361.337199	2379.424615
361.725830	2399.589231
362.114398	2394.548077
362.502903	2470.165385
362.891344	2477.727115
363.279722	2414.712692
363.668037	2460.083077
364.056289	2392.027500
364.444478	2444.959615
364.832603	2462.603654
365.220665	2452.521346
365.608665	2475.206538
365.996601	2525.618077
366.384474	2502.932885
366.772284	2424.795000
367.160031	2374.383462
367.547715	2462.603654
367.935336	2467.644808
368.322893	2505.453462
368.710388	2402.109808
369.097820	2447.480192
369.485189	2470.165385
369.872495	2467.644808
370.259738	2447.480192
370.646918	2465.124231
371.034035	2477.727115
371.421090	2490.330000
371.808081	2457.562500
372.195010	2518.056346
372.581875	2432.356731
372.968678	2518.056346
373.355418	2404.630385
373.742096	2427.315577
374.128710	2497.891731
374.515262	2470.165385
374.901751	2548.303269
375.288177	2477.727115
375.674540	2447.480192
376.060841	2457.562500
376.447079	2505.453462
376.833254	2548.303269
377.219367	2417.233269
377.605417	2417.233269
377.991404	2402.109808
378.377329	2462.603654
378.763191	2376.904038
379.148991	2472.685962
379.534727	2518.056346
379.920402	2409.671538
380.306013	2404.630385
380.691563	2397.068654
381.077049	2535.700385
381.462474	2447.480192
381.847835	2485.288846
382.233134	2432.356731
382.618371	2528.138654
383.003545	2402.109808
383.388657	2447.480192
383.773706	2507.974038
384.158693	2419.753846
384.543618	2497.891731
384.928480	2505.453462
385.313280	2477.727115
385.698017	2427.315577
386.082692	2535.700385
386.467305	2442.439038
386.851856	2392.027500
387.236344	2497.891731
387.620770	2518.056346
388.005133	2432.356731
388.389435	2550.823846
388.773674	2510.494615
389.157851	2427.315577
389.541965	2442.439038
389.926018	2455.041923
390.310008	2525.618077
390.693936	2520.576923
391.077802	2427.315577
391.461606	2470.165385
391.845348	2452.521346
392.229027	2407.150962
392.612645	2485.288846
392.996200	2487.809423
393.379694	2444.959615
393.763125	2480.247692
394.146494	2497.891731
394.529801	2518.056346
394.913047	2422.274423
395.296230	2513.015192
395.679351	2414.712692
396.062410	2523.097500
396.445408	2427.315577
396.828343	2530.659231
397.211217	2460.083077
397.594028	2513.015192
397.976778	2434.877308
398.359466	2502.932885
398.742092	2485.288846
399.124656	2434.877308
399.507158	2465.124231
399.889598	2502.932885
400.271977	2565.947308
400.654294	2487.809423
401.036549	2502.932885
401.418742	2452.521346
401.800874	2465.124231
402.182944	2402.109808
402.564952	2457.562500
402.946898	2424.795000
403.328783	2475.206538
403.710606	2442.439038
404.092367	2525.618077
404.474067	2487.809423
404.855705	2563.426731
405.237282	2442.439038
405.618797	2465.124231
406.000250	2502.932885
406.381642	2462.603654
406.762972	2475.206538
407.144240	2429.836154
407.525447	2437.397885
407.906593	2399.589231
408.287677	2470.165385
408.668700	2518.056346
409.049661	2444.959615
409.430560	2467.644808
409.811399	2439.918462
410.192176	2555.865000
410.572891	2497.891731
410.953545	2472.685962
411.334138	2447.480192
411.714669	2480.247692
412.095139	2412.192115
412.475547	2528.138654
412.855894	2465.124231
413.236180	2437.397885
413.616405	2470.165385
413.996568	2505.453462
414.376670	2518.056346
414.756711	2538.220962
415.136691	2497.891731
415.516609	2455.041923
415.896466	2543.262115
416.276262	2513.015192
416.655997	2518.056346
417.035670	2467.644808
417.415283	2452.521346
417.794834	2490.330000
418.174324	2540.741538
418.553753	2497.891731
418.933121	2467.644808
419.312428	2515.535769
419.691674	2495.371154
420.070859	2470.165385
420.449983	2437.397885
420.829045	2497.891731
421.208047	2442.439038
421.586988	2543.262115
421.965867	2500.412308
422.344686	2497.891731
422.723444	2507.974038
423.102141	2369.342308
423.480777	2515.535769
423.859352	2465.124231
424.237866	2472.685962
424.616319	2583.591346
424.994712	2434.877308
425.373044	2472.685962
425.751314	2467.644808
426.129524	2429.836154
426.507673	2470.165385
426.885762	2482.768269
427.263789	2399.589231
427.641756	2412.192115
428.019662	2535.700385
428.397508	2550.823846
428.775292	2455.041923
429.153016	2444.959615
429.530679	2455.041923
429.908282	2472.685962
430.285824	2399.589231
430.663305	2472.685962
431.040726	2523.097500
431.418086	2548.303269
431.795385	2424.795000
432.172624	2515.535769
432.549802	2525.618077
432.926920	2530.659231
433.303977	2457.562500
433.680974	2487.809423
434.057910	2563.426731
434.434786	2523.097500
434.811601	2505.453462
435.188355	2523.097500
435.565050	2457.562500
435.941683	2465.124231
436.318257	2480.247692
436.694770	2417.233269
437.071222	2530.659231
437.447614	2487.809423
437.823946	2482.768269
438.200218	2470.165385
438.576429	2573.509038
438.952580	2570.988462
439.328670	2487.809423
439.704700	2520.576923
440.080670	2460.083077
440.456580	2581.070769
440.832429	2424.795000
441.208218	2412.192115
441.583947	2576.029615
441.959616	2424.795000
442.335224	2455.041923
442.710773	2482.768269
443.086261	2465.124231
443.461689	2417.233269
443.837057	2462.603654
444.212365	2467.644808
444.587612	2505.453462
444.962800	2507.974038
445.337927	2553.344423
445.712995	2520.576923
446.088002	2452.521346
446.462949	2528.138654
446.837837	2392.027500
447.212664	2475.206538
447.587431	2409.671538
447.962139	2555.865000
448.336786	2437.397885
448.711374	2520.576923
449.085901	2502.932885
449.460369	2555.865000
449.834776	2492.850577
450.209124	2518.056346
450.583412	2520.576923
450.957640	2439.918462
451.331808	2497.891731
451.705917	2545.782692
452.079965	2558.385577
452.453954	2485.288846
452.827883	2515.535769
453.201752	2462.603654
453.575562	2402.109808
453.949311	2553.344423
454.323001	2533.179808
454.696632	2543.262115
455.070202	2434.877308
455.443713	2540.741538
455.817164	2510.494615
456.190556	2490.330000
456.563888	2525.618077
456.937160	2397.068654
457.310373	2530.659231
457.683526	2475.206538
458.056619	2374.383462
458.429653	2523.097500
458.802628	2442.439038
459.175542	2475.206538
459.548398	2457.562500
459.921194	2442.439038
460.293930	2520.576923
460.666607	2414.712692
461.039224	2497.891731
461.411782	2472.685962
461.784280	2550.823846
462.156719	2540.741538
462.529099	2487.809423
462.901419	2457.562500
463.273680	2450.000769
463.645882	2475.206538
464.018024	2505.453462
464.390106	2472.685962
464.762130	2472.685962
465.134094	2490.330000
465.505999	2427.315577
465.877845	2417.233269
466.249631	2535.700385
466.621358	2465.124231
466.993026	2520.576923
467.364634	2497.891731
467.736184	2482.768269
468.107674	2518.056346
468.479105	2573.509038
468.850477	2495.371154
469.221790	2603.755962
469.593043	2444.959615
469.964238	2492.850577
470.335373	2510.494615
470.706449	2502.932885
471.077467	2510.494615
471.448425	2518.056346
471.819324	2475.206538
472.190164	2525.618077
472.560945	2535.700385
472.931667	2470.165385
473.302330	2513.015192
473.672934	2533.179808
474.043479	2482.768269
474.413965	2412.192115
474.784393	2475.206538
475.154761	2460.083077
475.525070	2485.288846
475.895321	2419.753846
476.265513	2460.083077
476.635645	2482.768269
477.005719	2500.412308
477.375734	2492.850577
477.745691	2429.836154
478.115588	2470.165385
478.485427	2505.453462
478.855207	2540.741538
479.224928	2515.535769
479.594591	2470.165385
479.964194	2429.836154
480.333739	2523.097500
480.703226	2465.124231
481.072653	2442.439038
481.442022	2520.576923
481.811333	2470.165385
482.180584	2505.453462
482.549777	2518.056346
482.918912	2520.576923
483.287988	2434.877308
483.657005	2490.330000
484.025964	2432.356731
484.394864	2386.986346
484.763706	2510.494615
485.132489	2437.397885
485.501213	2455.041923
485.869879	2475.206538
486.238487	2407.150962
486.607036	2450.000769
486.975527	2447.480192
487.343959	2563.426731
487.712333	2513.015192
488.080648	2457.562500
488.448905	2520.576923
488.817104	2502.932885
489.185244	2495.371154
489.553326	2586.111923
489.921350	2502.932885
490.289315	2490.330000
490.657222	2550.823846
491.025070	2558.385577
491.392861	2477.727115
491.760593	2510.494615
492.128267	2485.288846
492.495883	2525.618077
492.863440	2477.727115
493.230939	2432.356731
493.598380	2535.700385
493.965763	2462.603654
494.333088	2497.891731
494.700354	2513.015192
495.067563	2465.124231
495.434713	2442.439038
495.801805	2505.453462
496.168839	2578.550192
496.535815	2455.041923
496.902733	2507.974038
497.269593	2525.618077
497.636395	2533.179808
498.003139	2457.562500
498.369825	2553.344423
498.736453	2523.097500
499.103023	2462.603654
499.469535	2429.836154
499.835989	2497.891731
500.202385	2495.371154
500.568723	2576.029615
500.935003	2409.671538
501.301226	2480.247692
501.667390	2457.562500
502.033497	2543.262115
502.399546	2472.685962
502.765537	2520.576923
503.131470	2470.165385
503.497345	2482.768269
503.863163	2470.165385
504.228923	2545.782692
504.594625	2490.330000
504.960269	2444.959615
505.325856	2525.618077
505.691385	2470.165385
506.056856	2467.644808
506.422270	2359.260000
506.787625	2467.644808
507.152924	2422.274423
507.518164	2535.700385
507.883347	2563.426731
508.248472	2470.165385
508.613540	2502.932885
508.978550	2490.330000
509.343503	2462.603654
509.708398	2505.453462
510.073236	2485.288846
510.438016	2535.700385
510.802738	2570.988462
511.167403	2485.288846
511.532010	2437.397885
511.896561	2528.138654
512.261053	2533.179808
512.625488	2525.618077
512.989866	2533.179808
513.354186	2467.644808
513.718449	2548.303269
514.082655	2485.288846
514.446803	2432.356731
514.810894	2570.988462
515.174927	2482.768269
515.538904	2482.768269
515.902822	2462.603654
516.266684	2535.700385
516.630488	2520.576923
516.994235	2525.618077
517.357925	2505.453462
517.721558	2500.412308
518.085133	2502.932885
518.448651	2530.659231
518.812112	2472.685962
519.175516	2558.385577
519.538863	2555.865000
519.902152	2460.083077
520.265385	2470.165385
520.628560	2576.029615
520.991678	2472.685962
521.354739	2513.015192
521.717743	2485.288846
522.080690	2500.412308
522.443580	2513.015192
522.806413	2520.576923
523.169189	2480.247692
523.531908	2518.056346
523.894569	2586.111923
524.257174	2560.906154
524.619722	2475.206538
524.982213	2480.247692
525.344647	2477.727115
525.707025	2507.974038
526.069345	2550.823846
526.431608	2412.192115
526.793815	2505.453462
527.155964	2563.426731
527.518057	2412.192115
527.880093	2545.782692
528.242072	2429.836154
528.603995	2497.891731
528.965860	2465.124231
529.327669	2535.700385
529.689421	2477.727115
530.051117	2545.782692
530.412755	2477.727115
530.774337	2553.344423
531.135862	2518.056346
531.497331	2432.356731
531.858743	2502.932885
532.220098	2538.220962
532.581396	2475.206538
532.942638	2553.344423
533.303824	2550.823846
533.664953	2545.782692
534.026025	2528.138654
534.387040	2452.521346
534.747999	2505.453462
535.108902	2465.124231
535.469748	2518.056346
535.830537	2407.150962
536.191270	2545.782692
536.551947	2432.356731
536.912567	2447.480192
537.273131	2492.850577
537.633638	2558.385577
537.994089	2447.480192
538.354483	2475.206538
538.714821	2462.603654
539.075103	2444.959615
539.435328	2523.097500
539.795497	2457.562500
540.155609	2497.891731
540.515665	2480.247692
540.875665	2487.809423
541.235609	2409.671538
541.595496	2467.644808
541.955328	2462.603654
542.315102	2505.453462
542.674821	2477.727115
543.034483	2565.947308
543.394090	2462.603654
543.753640	2525.618077
544.113134	2467.644808
544.472571	2482.768269
544.831953	2507.974038
545.191278	2581.070769
545.550548	2502.932885
545.909761	2548.303269
546.268918	2530.659231
546.628019	2523.097500
546.987064	2555.865000
547.346053	2450.000769
547.704986	2502.932885
548.063863	2444.959615
548.422684	2475.206538
548.781449	2457.562500
549.140158	2470.165385
549.498811	2540.741538
549.857408	2533.179808
550.215949	2432.356731
550.574434	2507.974038
550.932864	2550.823846
551.291237	2460.083077
551.649555	2555.865000
552.007817	2495.371154
552.366022	2507.974038
552.724173	2465.124231
553.082267	2480.247692
553.440305	2507.974038
553.798288	2608.797115
554.156215	2528.138654
554.514086	2467.644808
554.871902	2455.041923
555.229661	2457.562500
555.587365	2467.644808
555.945014	2507.974038
556.302606	2462.603654
556.660143	2523.097500
557.017625	2573.509038
557.375050	2502.932885
557.732421	2553.344423
558.089735	2505.453462
558.446994	2480.247692
558.804197	2495.371154
559.161345	2465.124231
559.518437	2515.535769
559.875474	2553.344423
560.232455	2540.741538
560.589381	2548.303269
560.946251	2502.932885
561.303065	2518.056346
561.659825	2525.618077
562.016528	2510.494615
562.373177	2447.480192
562.729770	2475.206538
563.086307	2427.315577
563.442789	2518.056346
563.799216	2485.288846
564.155587	2553.344423
564.511904	2502.932885
564.868164	2502.932885
565.224370	2487.809423
565.580520	2487.809423
565.936615	2520.576923
566.292654	2525.618077
566.648638	2409.671538
567.004567	2477.727115
567.360441	2462.603654
567.716260	2429.836154
568.072023	2523.097500
568.427732	2495.371154
568.783385	2386.986346
569.138982	2530.659231
569.494525	2404.630385
569.850013	2525.618077
570.205445	2588.632500
570.560823	2427.315577
570.916145	2510.494615
571.271412	2447.480192
571.626625	2518.056346
571.981782	2533.179808
572.336884	2482.768269
572.691931	2530.659231
573.046923	2523.097500
573.401860	2472.685962
573.756743	2505.453462
574.111570	2525.618077
574.466342	2550.823846
574.821059	2480.247692
575.175722	2490.330000
575.530330	2507.974038
575.884882	2462.603654
576.239380	2439.918462
576.593823	2540.741538
576.948211	2495.371154
577.302544	2497.891731
577.656823	2565.947308
578.011047	2490.330000
578.365216	2565.947308
578.719330	2472.685962
579.073389	2457.562500
579.427394	2477.727115
579.781344	2444.959615
580.135239	2502.932885
580.489080	2581.070769
580.842866	2538.220962
581.196597	2467.644808
581.550273	2513.015192
581.903895	2570.988462
582.257463	2576.029615
582.610975	2553.344423
582.964434	2502.932885
583.317837	2409.671538
583.671186	2555.865000
584.024481	2507.974038
584.377721	2540.741538
584.730906	2510.494615
585.084037	2540.741538
585.437113	2462.603654
585.790135	2533.179808
586.143103	2576.029615
586.496016	2550.823846
586.848874	2429.836154
587.201679	2444.959615
587.554428	2530.659231
587.907124	2523.097500
588.259765	2500.412308
588.612352	2505.453462
588.964884	2533.179808
589.317362	2606.276538
589.669786	2450.000769
590.022155	2424.795000
590.374470	2477.727115
590.726731	2555.865000
591.078937	2502.932885
591.431090	2470.165385
591.783188	2472.685962
592.135232	2538.220962
592.487222	2472.685962
592.839157	2591.153077
593.191038	2434.877308
593.542866	2404.630385
593.894639	2482.768269
594.246358	2455.041923
594.598022	2485.288846
594.949633	2588.632500
595.301190	2558.385577
595.652692	2555.865000
596.004141	2603.755962
596.355535	2412.192115
596.706876	2467.644808
597.058162	2402.109808
597.409395	2472.685962
597.760573	2540.741538
598.111698	2505.453462
598.462768	2543.262115
598.813785	2550.823846
599.164748	2470.165385
599.515657	2439.918462
599.866511	2432.356731
600.217312	2505.453462
600.568060	2475.206538
600.918753	2485.288846
601.269392	2490.330000
601.619978	2485.288846
601.970510	2477.727115
602.320988	2437.397885
602.671412	2563.426731
603.021783	2384.465769
603.372100	2497.891731
603.722363	2513.015192
604.072572	2523.097500
604.422728	2404.630385
604.772830	2427.315577
605.122878	2487.809423
605.472872	2520.576923
605.822813	2480.247692
606.172701	2447.480192
606.522534	2538.220962
606.872314	2462.603654
607.222041	2475.206538
607.571714	2394.548077
607.921333	2593.673654
608.270899	2422.274423
608.620411	2530.659231
608.969870	2563.426731
609.319276	2568.467885
609.668627	2444.959615
610.017926	2550.823846
610.367171	2490.330000
610.716362	2586.111923
611.065500	2497.891731
611.414585	2487.809423
611.763616	2510.494615
612.112594	2525.618077
612.461518	2482.768269
612.810389	2482.768269
613.159207	2553.344423
613.507971	2439.918462
613.856682	2477.727115
614.205340	2520.576923
614.553945	2465.124231
614.902496	2515.535769
615.250994	2475.206538
615.599439	2528.138654
615.947830	2450.000769
616.296169	2462.603654
616.644454	2538.220962
616.992686	2523.097500
617.340864	2553.344423
617.688990	2545.782692
618.037063	2540.741538
618.385082	2457.562500
618.733048	2500.412308
619.080961	2550.823846
619.428821	2422.274423
619.776628	2505.453462
620.124382	2482.768269
620.472083	2495.371154
620.819731	2470.165385
621.167326	2505.453462
621.514868	2502.932885
621.862357	2475.206538
622.209793	2513.015192
622.557176	2434.877308
622.904506	2452.521346
623.251783	2455.041923
623.599007	2452.521346
623.946179	2550.823846
624.293297	2507.974038
624.640363	2535.700385
624.987376	2447.480192
625.334336	2535.700385
625.681243	2495.371154
626.028097	2543.262115
626.374899	2402.109808
626.721647	2518.056346
627.068343	2472.685962
627.414987	2533.179808
627.761577	2535.700385
628.108115	2450.000769
628.454600	2563.426731
628.801032	2480.247692
629.147412	2480.247692
629.493739	2442.439038
629.840014	2560.906154
630.186236	2399.589231
630.532405	2540.741538
630.878521	2500.412308
631.224585	2581.070769
631.570597	2515.535769
631.916556	2485.288846
632.262462	2439.918462
632.608316	2490.330000
632.954117	2555.865000
633.299866	2568.467885
633.645562	2523.097500
633.991206	2520.576923
634.336797	2424.795000
634.682336	2538.220962
635.027823	2528.138654
635.373257	2414.712692
635.718639	2455.041923
636.063968	2477.727115
636.409245	2513.015192
636.754470	2467.644808
637.099642	2528.138654
637.444762	2598.714808
637.789829	2507.974038
638.134845	2505.453462
638.479808	2457.562500
638.824719	2497.891731
639.169577	2502.932885
639.514383	2482.768269
639.859137	2457.562500
640.203839	2553.344423
640.548489	2487.809423
640.893086	2429.836154
641.237632	2515.535769
641.582125	2482.768269
641.926566	2475.206538
642.270955	2492.850577
642.615292	2439.918462
642.959576	2558.385577
643.303809	2495.371154
643.647990	2518.056346
643.992118	2520.576923
644.336195	2535.700385
644.680219	2447.480192
645.024192	2482.768269
645.368112	2528.138654
645.711981	2495.371154
646.055797	2538.220962
646.399562	2447.480192
646.743274	2439.918462
647.086935	2513.015192
647.430544	2487.809423
647.774101	2487.809423
648.117606	2432.356731
648.461059	2510.494615
648.804460	2490.330000
649.147810	2513.015192
649.491108	2492.850577
649.834354	2581.070769
650.177548	2586.111923
650.520690	2505.453462
650.863781	2419.753846
651.206820	2500.412308
651.549807	2480.247692
651.892742	2538.220962
652.235626	2528.138654
652.578458	2414.712692
652.921238	2535.700385
653.263967	2555.865000
653.606644	2563.426731
653.949269	2447.480192
654.291843	2543.262115
654.634365	2442.439038
654.976836	2437.397885
655.319255	2560.906154
655.661622	2437.397885
656.003938	2591.153077
656.346203	2480.247692
656.688416	2497.891731
657.030577	2515.535769
657.372687	2467.644808
657.714746	2490.330000
658.056753	2641.564615
658.398708	2558.385577
658.740612	2492.850577
659.082465	2452.521346
659.424266	2490.330000
659.766016	2450.000769
660.107715	2502.932885
660.449362	2485.288846
660.790958	2576.029615
661.132503	2369.342308
661.473996	2515.535769
661.815438	2439.918462
662.156829	2548.303269
662.498168	2437.397885
662.839456	2485.288846
663.180693	2452.521346
663.521879	2520.576923
663.863013	2487.809423
664.204097	2497.891731
664.545129	2492.850577
664.886110	2520.576923
665.227040	2480.247692
665.567918	2543.262115
665.908746	2507.974038
666.249522	2535.700385
666.590248	2495.371154
666.930922	2540.741538
667.271545	2455.041923
667.612118	2507.974038
667.952639	2543.262115
668.293109	2482.768269
668.633528	2535.700385
668.973896	2578.550192
669.314213	2462.603654
669.654480	2611.317692
669.994695	2475.206538
670.334859	2492.850577
670.674973	2553.344423
671.015035	2510.494615
671.355047	2515.535769
671.695008	2492.850577
672.034918	2485.288846
672.374777	2530.659231
672.714585	2540.741538
673.054342	2528.138654
673.394049	2480.247692
673.733705	2472.685962
674.073310	2490.330000
674.412864	2550.823846
674.752368	2598.714808
675.091820	2525.618077
675.431223	2495.371154
675.770574	2510.494615
676.109875	2495.371154
676.449125	2432.356731
676.788324	2447.480192
677.127473	2452.521346
677.466571	2555.865000
677.805619	2558.385577
678.144616	2565.947308
678.483562	2422.274423
678.822458	2550.823846
679.161303	2457.562500
679.500098	2563.426731
679.838842	2472.685962
680.177535	2465.124231
680.516179	2455.041923
680.854771	2487.809423
681.193314	2525.618077
681.531805	2520.576923
681.870247	2507.974038
682.208638	2513.015192
682.546978	2563.426731
682.885268	2543.262115
683.223508	2540.741538
683.561697	2518.056346
683.899836	2490.330000
684.237925	2500.412308
684.575963	2530.659231
684.913951	2439.918462
685.251889	2558.385577
685.589776	2389.506923
685.927614	2530.659231
686.265401	2500.412308
686.603137	2465.124231
686.940824	2538.220962
687.278460	2515.535769
687.616046	2455.041923
687.953582	2480.247692
688.291068	2462.603654
688.628504	2518.056346
688.965889	2482.768269
689.303224	2528.138654
689.640510	2460.083077
689.977745	2475.206538
690.314930	2513.015192
690.652065	2505.453462
690.989150	2603.755962
691.326185	2485.288846
691.663170	2507.974038
692.000105	2450.000769
692.336990	2497.891731
692.673825	2520.576923
693.010610	2538.220962
693.347345	2457.562500
693.684030	2500.412308
694.020665	2482.768269
694.357251	2510.494615
694.693786	2513.015192
695.030272	2538.220962
695.366707	2480.247692
695.703093	2460.083077
696.039429	2525.618077
696.375716	2545.782692
696.711952	2482.768269
697.048139	2510.494615
697.384276	2520.576923
697.720363	2543.262115
698.056400	2533.179808
698.392388	2439.918462
698.728326	2409.671538
699.064214	2545.782692
699.400053	2545.782692
699.735842	2475.206538
700.071581	2530.659231
700.407270	2480.247692
700.742910	2437.397885
701.078501	2538.220962
701.414042	2462.603654
701.749533	2560.906154
702.084974	2495.371154
702.420366	2533.179808
702.755709	2497.891731
703.091002	2485.288846
703.426246	2505.453462
703.761440	2573.509038
704.096584	2354.218846
704.431679	2462.603654
704.766725	2462.603654
705.101721	2507.974038
705.436668	2545.782692
705.771565	2477.727115
706.106413	2606.276538
706.441212	2510.494615
706.775961	2442.439038
707.110661	2513.015192
707.445311	2472.685962
707.779913	2513.015192
708.114465	2525.618077
708.448967	2510.494615
708.783421	2565.947308
709.117825	2490.330000
709.452180	2535.700385
709.786485	2467.644808
710.120742	2540.741538
710.454949	2477.727115
710.789107	2520.576923
711.123216	2482.768269
711.457275	2507.974038
711.791286	2530.659231
712.125247	2497.891731
712.459159	2565.947308
712.793023	2490.330000
713.126837	2492.850577
713.460602	2586.111923
713.794318	2462.603654
714.127985	2381.945192
714.461602	2429.836154
714.795171	2485.288846
715.128691	2528.138654
715.462162	2540.741538
715.795584	2525.618077
716.128957	2530.659231
716.462281	2422.274423
716.795556	2422.274423
717.128782	2515.535769
717.461960	2386.986346
717.795088	2505.453462
718.128167	2480.247692
718.461198	2596.194231
718.794180	2457.562500
719.127113	2477.727115
719.459997	2422.274423
719.792833	2485.288846
720.125619	2427.315577
720.458357	2543.262115
720.791046	2548.303269
721.123686	2485.288846
721.456278	2497.891731
721.788821	2513.015192
722.121315	2429.836154
722.453761	2422.274423
722.786158	2507.974038
723.118506	2457.562500
723.450805	2550.823846
723.783056	2565.947308
724.115259	2490.330000
724.447412	2472.685962
724.779518	2553.344423
725.111574	2570.988462
725.443582	2462.603654
725.775542	2545.782692
726.107453	2525.618077
726.439315	2570.988462
726.771129	2480.247692
727.102895	2535.700385
727.434612	2518.056346
727.766281	2497.891731
728.097901	2535.700385
728.429473	2444.959615
728.760996	2402.109808
729.092471	2472.685962
729.423897	2523.097500
729.755276	2543.262115
730.086606	2553.344423
730.417887	2490.330000
730.749120	2525.618077
731.080305	2485.288846
731.411442	2500.412308
731.742530	2465.124231
732.073570	2470.165385
732.404562	2487.809423
732.735506	2568.467885
733.066401	2510.494615
733.397249	2452.521346
733.728048	2535.700385
734.058798	2513.015192
734.389501	2538.220962
734.720156	2490.330000
735.050762	2480.247692
735.381320	2538.220962
735.711831	2465.124231
736.042293	2371.862885
736.372707	2520.576923
736.703073	2490.330000
737.033391	2558.385577
737.363661	2598.714808
737.693883	2475.206538
738.024056	2480.247692
738.354182	2419.753846
738.684260	2538.220962
739.014290	2497.891731
739.344272	2573.509038
739.674207	2520.576923
740.004093	2545.782692
740.333931	2568.467885
740.663722	2462.603654
740.993464	2444.959615
741.323159	2586.111923
741.652806	2563.426731
741.982405	2472.685962
742.311956	2576.029615
742.641460	2487.809423
742.970915	2513.015192
743.300323	2505.453462
743.629683	2500.412308
743.958996	2381.945192
744.288260	2492.850577
744.617477	2540.741538
744.946647	2523.097500
745.275768	2399.589231
745.604842	2550.823846
745.933869	2485.288846
746.262847	2500.412308
746.591778	2505.453462
746.920662	2530.659231
747.249498	2485.288846
747.578286	2563.426731
747.907027	2465.124231
748.235720	2528.138654
748.564365	2515.535769
748.892963	2487.809423
749.221514	2470.165385
749.550017	2497.891731
749.878473	2593.673654
750.206881	2477.727115
750.535242	2467.644808
750.863555	2439.918462
751.191821	2518.056346
751.520039	2560.906154
751.848210	2497.891731
752.176334	2578.550192
752.504411	2465.124231
752.832440	2568.467885
753.160421	2530.659231
753.488356	2507.974038
753.816243	2462.603654
754.144082	2523.097500
754.471875	2502.932885
754.799620	2490.330000
755.127318	2513.015192
755.454969	2465.124231
755.782572	2490.330000
756.110129	2465.124231
756.437638	2550.823846
756.765100	2475.206538
757.092515	2472.685962
757.419882	2510.494615
757.747203	2437.397885
758.074477	2576.029615
758.401703	2457.562500
758.728882	2460.083077
759.056014	2570.988462
759.383099	2417.233269
759.710138	2543.262115
760.037129	2507.974038
760.364073	2500.412308
760.690970	2535.700385
761.017820	2432.356731
761.344623	2525.618077
761.671379	2472.685962
761.998088	2515.535769
762.324751	2538.220962
762.651366	2611.317692
762.977935	2528.138654
763.304456	2510.494615
763.630931	2502.932885
763.957359	2533.179808
764.283740	2500.412308
764.610074	2497.891731
764.936362	2475.206538
765.262602	2510.494615
765.588796	2510.494615
765.914943	2591.153077
766.241044	2533.179808
766.567097	2477.727115
766.893104	2495.371154
767.219064	2510.494615
767.544978	2510.494615
767.870845	2540.741538
768.196665	2492.850577
768.522438	2593.673654
768.848165	2550.823846
769.173846	2520.576923
769.499479	2495.371154
769.825066	2495.371154
770.150607	2495.371154
770.476101	2470.165385
770.801548	2545.782692
771.126949	2462.603654
771.452303	2558.385577
771.777611	2492.850577
772.102872	2550.823846
772.428087	2528.138654
772.753256	2490.330000
773.078378	2513.015192
773.403453	2424.795000
773.728482	2500.412308
774.053465	2482.768269
774.378401	2515.535769
774.703291	2480.247692
775.028135	2462.603654
775.352932	2545.782692
775.677683	2475.206538
776.002388	2518.056346
776.327046	2475.206538
776.651658	2520.576923
776.976224	2432.356731
777.300743	2472.685962
777.625216	2402.109808
777.949643	2477.727115
778.274024	2480.247692
778.598359	2429.836154
778.922647	2510.494615
779.246889	2475.206538
779.571086	2538.220962
779.895236	2414.712692
780.219339	2545.782692
780.543397	2505.453462
780.867409	2588.632500
781.191374	2578.550192
781.515294	2477.727115
781.839167	2477.727115
782.162995	2427.315577
782.486776	2497.891731
782.810511	2543.262115
783.134201	2442.439038
783.457844	2497.891731
783.781441	2533.179808
784.104993	2513.015192
784.428498	2510.494615
784.751958	2545.782692
785.075372	2482.768269
785.398739	2465.124231
785.722061	2434.877308
786.045337	2450.000769
786.368568	2442.439038
786.691752	2520.576923
787.014891	2442.439038
787.337983	2457.562500
787.661030	2465.124231
787.984031	2505.453462
788.306987	2505.453462
788.629897	2475.206538
788.952760	2518.056346
789.275579	2507.974038
789.598351	2548.303269
789.921078	2513.015192
790.243759	2492.850577
790.566395	2417.233269
790.888984	2518.056346
791.211529	2487.809423
791.534027	2490.330000
791.856480	2460.083077
792.178888	2538.220962
792.501249	2482.768269
792.823566	2558.385577
793.145836	2505.453462
793.468062	2470.165385
793.790241	2563.426731
794.112375	2545.782692
794.434464	2543.262115
794.756507	2482.768269
795.078505	2500.412308
795.400457	2596.194231
795.722364	2427.315577
796.044226	2525.618077
796.366042	2414.712692
796.687812	2535.700385
797.009538	2472.685962
797.331218	2482.768269
797.652852	2538.220962
797.974442	2432.356731
798.295986	2523.097500
798.617484	2560.906154
798.938938	2530.659231
799.260346	2497.891731
799.581709	2515.535769
799.903026	2450.000769
800.224299	2495.371154
800.545526	2555.865000
800.866708	2422.274423
801.187845	2538.220962
801.508936	2576.029615
801.829983	2497.891731
802.150984	2472.685962
802.471940	2560.906154
802.792851	2462.603654
803.113717	2543.262115
803.434538	2467.644808
803.755314	2505.453462
804.076045	2500.412308
804.396731	2439.918462
804.717372	2586.111923
805.037967	2497.891731
805.358518	2518.056346
805.679024	2530.659231
805.999485	2465.124231
806.319901	2593.673654
806.640272	2573.509038
806.960598	2376.904038
807.280879	2505.453462
807.601115	2518.056346
807.921306	2535.700385
808.241453	2515.535769
808.561554	2457.562500
808.881611	2513.015192
809.201623	2482.768269
809.521590	2533.179808
809.841513	2472.685962
810.161390	2588.632500
810.481223	2530.659231
810.801011	2500.412308
811.120755	2535.700385
811.440453	2470.165385
811.760107	2548.303269
812.079716	2480.247692
812.399281	2510.494615
812.718801	2472.685962
813.038276	2525.618077
813.357707	2513.015192
813.677093	2495.371154
813.996434	2434.877308
814.315731	2540.741538
814.634983	2492.850577
814.954191	2444.959615
815.273354	2477.727115
815.592473	2507.974038
815.911547	2439.918462
816.230577	2450.000769
816.549562	2623.920577
816.868502	2427.315577
817.187399	2472.685962
817.506250	2475.206538
817.825058	2586.111923
818.143821	2475.206538
818.462539	2518.056346
818.781213	2470.165385
819.099843	2523.097500
819.418429	2518.056346
819.736970	2523.097500
820.055466	2482.768269
820.373919	2485.288846
820.692327	2540.741538
821.010691	2437.397885
821.329011	2455.041923
821.647286	2530.659231
821.965517	2467.644808
822.283704	2429.836154
822.601847	2502.932885
822.919945	2482.768269
823.237999	2409.671538
823.556010	2472.685962
823.873976	2490.330000
824.191897	2505.453462
824.509775	2550.823846
824.827609	2525.618077
825.145398	2560.906154
825.463144	2475.206538
825.780845	2553.344423
826.098502	2500.412308
826.416116	2407.150962
826.733685	2535.700385
827.051210	2467.644808
827.368692	2515.535769
827.686129	2545.782692
828.003522	2502.932885
828.320872	2507.974038
828.638177	2467.644808
828.955439	2487.809423
829.272656	2472.685962
829.589830	2505.453462
829.906960	2472.685962
830.224046	2487.809423
830.541088	2497.891731
830.858086	2475.206538
831.175041	2492.850577
831.491952	2545.782692
831.808819	2472.685962
832.125642	2492.850577
832.442421	2482.768269
832.759157	2510.494615
833.075849	2497.891731
833.392497	2535.700385
833.709101	2500.412308
834.025662	2550.823846
834.342179	2495.371154
834.658653	2487.809423
834.975083	2452.521346
835.291469	2475.206538
835.607811	2586.111923
835.924110	2452.521346
836.240366	2523.097500
836.556578	2545.782692
836.872746	2553.344423
837.188871	2563.426731
837.504952	2525.618077
837.820990	2560.906154
838.136984	2472.685962
838.452935	2515.535769
838.768842	2520.576923
839.084706	2518.056346
839.400526	2470.165385
839.716303	2525.618077
840.032037	2492.850577
840.347727	2439.918462
840.663373	2497.891731
840.978977	2540.741538
841.294537	2497.891731
841.610054	2520.576923
841.925527	2475.206538
842.240957	2447.480192
842.556344	2455.041923
842.871687	2578.550192
843.186987	2540.741538
843.502244	2487.809423
843.817458	2497.891731
844.132629	2548.303269
844.447756	2447.480192
844.762840	2525.618077
845.077881	2457.562500
845.392879	2477.727115
845.707833	2457.562500
846.022745	2422.274423
846.337613	2563.426731
846.652438	2452.521346
846.967221	2502.932885
847.281960	2538.220962
847.596656	2505.453462
847.911309	2485.288846
848.225919	2470.165385
848.540485	2480.247692
848.855009	2452.521346
849.169490	2568.467885
849.483928	2513.015192
849.798323	2535.700385
850.112675	2520.576923
850.426984	2414.712692
850.741251	2507.974038
851.055474	2429.836154
851.369654	2497.891731
851.683792	2475.206538
851.997887	2497.891731
852.311938	2518.056346
852.625947	2505.453462
852.939914	2482.768269
853.253837	2553.344423
853.567718	2563.426731
853.881555	2507.974038
854.195350	2492.850577
854.509103	2439.918462
854.822812	2470.165385
855.136479	2460.083077
855.450103	2523.097500
855.763685	2419.753846
856.077224	2520.576923
856.390720	2475.206538
856.704173	2510.494615
857.017584	2480.247692
857.330953	2581.070769
857.644278	2515.535769
857.957561	2487.809423
858.270802	2455.041923
858.584000	2545.782692
858.897155	2480.247692
859.210268	2497.891731
859.523339	2427.315577
859.836367	2472.685962
860.149352	2573.509038
860.462295	2480.247692
860.775195	2502.932885
861.088054	2548.303269
861.400869	2434.877308
861.713642	2480.247692
862.026373	2475.206538
862.339062	2455.041923
862.651708	2548.303269
862.964312	2437.397885
863.276873	2470.165385
863.589392	2548.303269
863.901869	2487.809423
864.214303	2412.192115
864.526696	2472.685962
864.839045	2530.659231
865.151353	2492.850577
865.463619	2507.974038
865.775842	2470.165385
866.088023	2475.206538
866.400162	2565.947308
866.712258	2505.453462
867.024313	2523.097500
867.336325	2480.247692
867.648296	2507.974038
867.960224	2644.085192
868.272110	2553.344423
868.583954	2535.700385
868.895755	2475.206538
869.207515	2477.727115
869.519233	2369.342308
869.830909	2545.782692
870.142542	2492.850577
870.454134	2467.644808
870.765684	2497.891731
871.077191	2465.124231
871.388657	2563.426731
871.700081	2510.494615
872.011463	2497.891731
872.322803	2523.097500
872.634101	2518.056346
872.945357	2490.330000
873.256571	2505.453462
873.567744	2462.603654
873.878874	2540.741538
874.189963	2533.179808
874.501010	2475.206538
874.812015	2588.632500
875.122979	2505.453462
875.433900	2495.371154
875.744780	2470.165385
876.055618	2573.509038
876.366415	2523.097500
876.677169	2487.809423
876.987882	2563.426731
877.298554	2439.918462
877.609183	2475.206538
877.919771	2429.836154
878.230317	2583.591346
878.540822	2470.165385
878.851285	2404.630385
879.161707	2457.562500
879.472087	2480.247692
879.782425	2540.741538
880.092722	2520.576923
880.402977	2482.768269
880.713191	2548.303269
881.023363	2480.247692
881.333494	2439.918462
881.643583	2601.235385
881.953631	2480.247692
882.263637	2427.315577
882.573602	2490.330000
882.883526	2540.741538
883.193408	2460.083077
883.503248	2500.412308
883.813048	2497.891731
884.122806	2535.700385
884.432522	2475.206538
884.742197	2485.288846
885.051831	2485.288846
885.361424	2462.603654
885.670975	2502.932885
885.980485	2513.015192
886.289954	2477.727115
886.599382	2543.262115
886.908768	2560.906154
887.218113	2535.700385
887.527417	2490.330000
887.836680	2507.974038
888.145901	2565.947308
888.455082	2570.988462
888.764221	2477.727115
889.073319	2450.000769
889.382376	2528.138654
889.691392	2598.714808
890.000366	2530.659231
890.309300	2507.974038
890.618193	2530.659231
890.927044	2462.603654
891.235855	2492.850577
891.544625	2576.029615
891.853353	2437.397885
892.162041	2490.330000
892.470687	2520.576923
892.779293	2490.330000
893.087858	2543.262115
893.396381	2437.397885
893.704864	2424.795000
894.013306	2485.288846
894.321707	2515.535769
894.630068	2490.330000
894.938387	2467.644808
895.246665	2588.632500
895.554903	2487.809423
895.863100	2553.344423
896.171256	2490.330000
896.479371	2548.303269
896.787446	2467.644808
897.095480	2507.974038
897.403473	2560.906154
897.711425	2465.124231
898.019336	2472.685962
898.327207	2593.673654
898.635038	2513.015192
898.942827	2525.618077
899.250576	2513.015192
899.558284	2530.659231
899.865952	2555.865000
900.173579	2399.589231
900.481165	2573.509038
900.788711	2520.576923
901.096216	2404.630385
901.403681	2513.015192
901.711105	2495.371154
902.018489	2515.535769
902.325832	2570.988462
902.633135	2472.685962
902.940397	2500.412308
903.247619	2518.056346
903.554800	2523.097500
903.861941	2510.494615
904.169041	2510.494615
904.476101	2505.453462
904.783121	2442.439038
905.090100	2505.453462
905.397039	2570.988462
905.703938	2429.836154
906.010796	2518.056346
906.317614	2505.453462
906.624391	2528.138654
906.931129	2545.782692
907.237826	2434.877308
907.544483	2472.685962
907.851099	2442.439038
908.157675	2507.974038
908.464211	2472.685962
908.770707	2457.562500
909.077163	2525.618077
909.383578	2480.247692
909.689954	2533.179808
909.996289	2500.412308
910.302584	2518.056346
910.608839	2528.138654
910.915054	2540.741538
911.221229	2510.494615
911.527363	2465.124231
911.833458	2533.179808
912.139513	2502.932885
912.445527	2515.535769
912.751502	2424.795000
913.057436	2543.262115
913.363331	2570.988462
913.669186	2515.535769
913.975000	2528.138654
914.280775	2502.932885
914.586510	2510.494615
914.892205	2505.453462
915.197859	2467.644808
915.503475	2432.356731
915.809050	2525.618077
916.114585	2515.535769
916.420081	2533.179808
916.725536	2472.685962
917.030952	2591.153077
917.336328	2482.768269
917.641665	2457.562500
917.946961	2470.165385
918.252218	2555.865000
918.557435	2444.959615
918.862612	2475.206538
919.167750	2407.150962
919.472848	2460.083077
919.777906	2477.727115
920.082925	2492.850577
920.387904	2417.233269
920.692843	2533.179808
920.997743	2444.959615
921.302603	2482.768269
921.607423	2424.795000
921.912204	2573.509038
922.216946	2515.535769
922.521647	2477.727115
922.826310	2424.795000
923.130932	2427.315577
923.435516	2520.576923
923.740059	2482.768269
924.044564	2457.562500
924.349028	2543.262115
924.653454	2487.809423
924.957840	2399.589231
925.262186	2576.029615
925.566493	2553.344423
925.870761	2535.700385
926.174989	2523.097500
926.479178	2485.288846
926.783328	2543.262115
927.087438	2389.506923
927.391509	2543.262115
927.695541	2490.330000
927.999533	2402.109808
928.303486	2550.823846
928.607400	2500.412308
928.911275	2591.153077
929.215110	2565.947308
929.518906	2470.165385
929.822663	2495.371154
930.126381	2450.000769
930.430060	2439.918462
930.733699	2487.809423
931.037299	2586.111923
931.340861	2452.521346
931.644383	2550.823846
931.947866	2510.494615
932.251309	2462.603654
932.554714	2533.179808
932.858080	2480.247692
933.161407	2560.906154
933.464694	2419.753846
933.767943	2485.288846
934.071153	2480.247692
934.374323	2444.959615
934.677455	2485.288846
934.980548	2434.877308
935.283602	2507.974038
935.586617	2444.959615
935.889593	2442.439038
936.192530	2538.220962
936.495428	2442.439038
936.798287	2422.274423
937.101108	2487.809423
937.403890	2465.124231
937.706632	2523.097500
938.009336	2495.371154
938.312002	2550.823846
938.614628	2462.603654
938.917216	2487.809423
939.219765	2515.535769
939.522275	2477.727115
939.824747	2495.371154
940.127179	2505.453462
940.429573	2513.015192
940.731929	2467.644808
941.034246	2502.932885
941.336524	2447.480192
941.638763	2513.015192
941.940964	2444.959615
942.243126	2447.480192
942.545250	2520.576923
942.847335	2457.562500
943.149381	2560.906154
943.451389	2467.644808
943.753359	2538.220962
944.055290	2490.330000
944.357182	2558.385577
944.659036	2444.959615
944.960851	2472.685962
945.262628	2407.150962
945.564367	2525.618077
945.866067	2513.015192
946.167729	2462.603654
946.469352	2535.700385
946.770937	2437.397885
947.072484	2472.685962
947.373992	2565.947308
947.675462	2500.412308
947.976893	2412.192115
948.278286	2513.015192
948.579641	2480.247692
948.880958	2477.727115
949.182236	2535.700385
949.483476	2465.124231
949.784678	2439.918462
950.085841	2520.576923
950.386967	2497.891731
950.688054	2477.727115
950.989103	2417.233269
951.290114	2515.535769
951.591087	2455.041923
951.892021	2477.727115
952.192917	2457.562500
952.493776	2467.644808
952.794596	2543.262115
953.095378	2477.727115
953.396122	2482.768269
953.696828	2467.644808
953.997496	2487.809423
954.298126	2500.412308
954.598718	2477.727115
954.899272	2460.083077
955.199788	2487.809423
955.500266	2502.932885
955.800706	2460.083077
956.101108	2442.439038
956.401472	2530.659231
956.701798	2492.850577
957.002087	2545.782692
957.302337	2409.671538
957.602550	2490.330000
957.902724	2555.865000
958.202861	2475.206538
958.502960	2427.315577
958.803022	2455.041923
959.103045	2434.877308
959.403031	2472.685962
959.702979	2487.809423
960.002889	2442.439038
960.302762	2432.356731
960.602596	2497.891731
960.902393	2495.371154
961.202153	2518.056346
961.501875	2480.247692
961.801559	2570.988462
962.101205	2482.768269
962.400814	2437.397885
962.700385	2472.685962
962.999918	2465.124231
963.299414	2555.865000
963.598873	2490.330000
963.898293	2497.891731
964.197677	2495.371154
964.497022	2487.809423
964.796331	2492.850577
965.095601	2450.000769
965.394835	2437.397885
965.694030	2497.891731
965.993189	2442.439038
966.292309	2455.041923
966.591393	2530.659231
966.890439	2477.727115
967.189447	2528.138654
967.488419	2439.918462
967.787353	2533.179808
968.086249	2389.506923
968.385108	2472.685962
968.683930	2502.932885
968.982714	2460.083077
969.281462	2505.453462
969.580172	2480.247692
969.878844	2545.782692
970.177480	2545.782692
970.476078	2555.865000
970.774639	2487.809423
971.073162	2500.412308
971.371649	2513.015192
971.670098	2553.344423
971.968510	2477.727115
972.266885	2513.015192
972.565223	2525.618077
972.863524	2475.206538
973.161788	2490.330000
973.460014	2523.097500
973.758204	2475.206538
974.056356	2528.138654
974.354471	2492.850577
974.652550	2429.836154
974.950591	2384.465769
975.248595	2578.550192
975.546563	2477.727115
975.844493	2510.494615
976.142386	2444.959615
976.440243	2533.179808
976.738062	2386.986346
977.035845	2533.179808
977.333590	2535.700385
977.631299	2502.932885
977.928971	2399.589231
978.226606	2513.015192
978.524204	2510.494615
978.821765	2507.974038
979.119290	2460.083077
979.416777	2525.618077
979.714228	2485.288846
980.011642	2480.247692
980.309020	2417.233269
980.606360	2510.494615
980.903664	2518.056346
981.200931	2492.850577
981.498162	2576.029615
981.795356	2553.344423
982.092513	2429.836154
982.389633	2452.521346
982.686717	2475.206538
982.983764	2593.673654
983.280775	2530.659231
983.577749	2450.000769
983.874686	2560.906154
984.171587	2533.179808
984.468451	2495.371154
984.765279	2510.494615
985.062070	2586.111923
985.358824	2480.247692
985.655543	2505.453462
985.952224	2442.439038
986.248869	2485.288846
986.545478	2528.138654
986.842050	2434.877308
987.138586	2492.850577
987.435086	2429.836154
987.731549	2472.685962
988.027975	2492.850577
988.324366	2563.426731
988.620719	2525.618077
988.917037	2500.412308
989.213318	2450.000769
989.509563	2465.124231
989.805772	2475.206538
990.101944	2513.015192
990.398080	2444.959615
990.694180	2404.630385
990.990244	2432.356731
991.286271	2518.056346
991.582262	2530.659231
991.878217	2472.685962
992.174136	2472.685962
992.470019	2500.412308
992.765865	2442.439038
993.061676	2545.782692
993.357450	2470.165385
993.653188	2540.741538
993.948890	2450.000769
994.244556	2500.412308
994.540186	2497.891731
994.835780	2475.206538
995.131337	2520.576923
995.426859	2545.782692
995.722345	2404.630385
996.017795	2457.562500
996.313208	2553.344423
996.608586	2505.453462
996.903928	2407.150962
997.199234	2507.974038
997.494504	2477.727115
997.789738	2475.206538
998.084936	2492.850577
998.380099	2437.397885
998.675225	2513.015192
998.970316	2588.632500
999.265371	2437.397885
999.560390	2500.412308
999.855373	2507.974038
1000.150320	2525.618077
1000.445232	2553.344423
1000.740108	2457.562500
1001.034948	2470.165385
1001.329752	2482.768269
1001.624521	2457.562500
1001.919254	2525.618077
1002.213951	2507.974038
1002.508613	2379.424615
1002.803239	2560.906154
1003.097829	2548.303269
1003.392384	2538.220962
1003.686903	2422.274423
1003.981386	2444.959615
1004.275834	2525.618077
1004.570246	2482.768269
1004.864623	2457.562500
1005.158964	2460.083077
1005.453270	2492.850577
1005.747540	2437.397885
1006.041775	2525.618077
1006.335974	2366.821731
1006.630138	2495.371154
1006.924266	2475.206538
1007.218359	2528.138654
1007.512416	2412.192115
1007.806438	2518.056346
1008.100425	2467.644808
1008.394376	2523.097500
1008.688292	2523.097500
1008.982172	2450.000769
1009.276017	2523.097500
1009.569827	2578.550192
1009.863602	2450.000769
1010.157341	2495.371154
1010.451045	2525.618077
1010.744714	2434.877308
1011.038347	2538.220962
1011.331945	2505.453462
1011.625508	2533.179808
1011.919036	2397.068654
1012.212528	2497.891731
1012.505986	2462.603654
1012.799408	2472.685962
1013.092795	2455.041923
1013.386147	2487.809423
1013.679464	2487.809423
1013.972745	2409.671538
1014.265992	2404.630385
1014.559204	2417.233269
1014.852380	2477.727115
1015.145521	2462.603654
1015.438628	2510.494615
1015.731699	2447.480192
1016.024736	2432.356731
1016.317737	2548.303269
1016.610703	2470.165385
1016.903635	2505.453462
1017.196531	2502.932885
1017.489393	2475.206538
1017.782219	2497.891731
1018.075011	2429.836154
1018.367768	2477.727115
1018.660490	2505.453462
1018.953177	2505.453462
1019.245829	2505.453462
