Dividing Wavelength (nm)	Counts (n)	Blue Motor Position (mm): 0.000000	Red Motor Position (mm): 2.000000	
326.493990	2187.860769
326.888308	2187.860769
327.282561	2187.860769
327.676750	2185.340192
328.070874	2248.354615
328.464933	2112.243462
328.858929	2172.737308
329.252859	2238.272308
329.646726	2235.751731
330.040528	2223.148846
330.434265	2235.751731
330.827938	2134.928654
331.221547	2223.148846
331.615091	2205.504808
332.008571	2386.986346
332.401986	2326.492500
332.795338	2291.204423
333.188625	2356.739423
333.581847	2422.274423
333.975006	2291.204423
334.368100	2402.109808
334.761129	2389.506923
335.154095	2422.274423
335.546996	2439.918462
335.939833	2444.959615
336.332606	2480.247692
336.725315	2555.865000
337.117960	2470.165385
337.510540	2475.206538
337.903056	2558.385577
338.295508	2505.453462
338.687896	2497.891731
339.080220	2540.741538
339.472480	2538.220962
339.864676	2558.385577
340.256807	2538.220962
340.648875	2618.879423
341.040879	2626.441154
341.432818	2583.591346
341.824694	2588.632500
342.216506	2482.768269
342.608253	2618.879423
342.999937	2623.920577
343.391557	2555.865000
343.783113	2598.714808
344.174605	2616.358846
344.566033	2623.920577
344.957397	2596.194231
345.348697	2573.509038
345.739934	2482.768269
346.131106	2583.591346
346.522215	2475.206538
346.913260	2623.920577
347.304241	2626.441154
347.695159	2560.906154
348.086012	2545.782692
348.476802	2578.550192
348.867528	2540.741538
349.258191	2568.467885
349.648789	2596.194231
350.039324	2543.262115
350.429796	2558.385577
350.820203	2570.988462
351.210548	2543.262115
351.600828	2613.838269
351.991045	2490.330000
352.381198	2518.056346
352.771288	2591.153077
353.161314	2530.659231
353.551276	2596.194231
353.941175	2520.576923
354.331010	2497.891731
354.720782	2530.659231
355.110490	2611.317692
355.500135	2608.797115
355.889717	2550.823846
356.279235	2593.673654
356.668689	2591.153077
357.058080	2576.029615
357.447408	2568.467885
357.836672	2525.618077
358.225873	2535.700385
358.615010	2555.865000
359.004084	2588.632500
359.393095	2523.097500
359.782043	2477.727115
360.170927	2563.426731
360.559748	2578.550192
360.948505	2543.262115
361.337199	2606.276538
361.725830	2538.220962
362.114398	2525.618077
362.502903	2497.891731
362.891344	2439.918462
363.279722	2583.591346
363.668037	2618.879423
364.056289	2487.809423
364.444478	2538.220962
364.832603	2525.618077
365.220665	2470.165385
365.608665	2573.509038
365.996601	2543.262115
366.384474	2573.509038
366.772284	2548.303269
367.160031	2586.111923
367.547715	2646.605769
367.935336	2631.482308
368.322893	2535.700385
368.710388	2563.426731
369.097820	2613.838269
369.485189	2613.838269
369.872495	2560.906154
370.259738	2457.562500
370.646918	2591.153077
371.034035	2565.947308
371.421090	2490.330000
371.808081	2581.070769
372.195010	2497.891731
372.581875	2540.741538
372.968678	2543.262115
373.355418	2535.700385
373.742096	2550.823846
374.128710	2543.262115
374.515262	2661.729231
374.901751	2535.700385
375.288177	2492.850577
375.674540	2591.153077
376.060841	2540.741538
376.447079	2611.317692
376.833254	2639.044038
377.219367	2641.564615
377.605417	2626.441154
377.991404	2560.906154
378.377329	2495.371154
378.763191	2583.591346
379.148991	2586.111923
379.534727	2563.426731
379.920402	2631.482308
380.306013	2548.303269
380.691563	2505.453462
381.077049	2548.303269
381.462474	2596.194231
381.847835	2596.194231
382.233134	2548.303269
382.618371	2528.138654
383.003545	2563.426731
383.388657	2513.015192
383.773706	2578.550192
384.158693	2548.303269
384.543618	2553.344423
384.928480	2606.276538
385.313280	2520.576923
385.698017	2548.303269
386.082692	2563.426731
386.467305	2480.247692
386.851856	2553.344423
387.236344	2480.247692
387.620770	2573.509038
388.005133	2520.576923
388.389435	2576.029615
388.773674	2576.029615
389.157851	2621.400000
389.541965	2591.153077
389.926018	2586.111923
390.310008	2528.138654
390.693936	2538.220962
391.077802	2495.371154
391.461606	2550.823846
391.845348	2603.755962
392.229027	2507.974038
392.612645	2523.097500
392.996200	2558.385577
393.379694	2545.782692
393.763125	2601.235385
394.146494	2593.673654
394.529801	2611.317692
394.913047	2608.797115
395.296230	2593.673654
395.679351	2646.605769
396.062410	2616.358846
396.445408	2606.276538
396.828343	2563.426731
397.211217	2540.741538
397.594028	2558.385577
397.976778	2623.920577
398.359466	2558.385577
398.742092	2570.988462
399.124656	2560.906154
399.507158	2598.714808
399.889598	2470.165385
400.271977	2603.755962
400.654294	2565.947308
401.036549	2586.111923
401.418742	2543.262115
401.800874	2586.111923
402.182944	2626.441154
402.564952	2573.509038
402.946898	2543.262115
403.328783	2601.235385
403.710606	2588.632500
404.092367	2513.015192
404.474067	2646.605769
404.855705	2550.823846
405.237282	2611.317692
405.618797	2593.673654
406.000250	2444.959615
406.381642	2558.385577
406.762972	2540.741538
407.144240	2560.906154
407.525447	2576.029615
407.906593	2618.879423
408.287677	2588.632500
408.668700	2535.700385
409.049661	2565.947308
409.430560	2603.755962
409.811399	2528.138654
410.192176	2578.550192
410.572891	2578.550192
410.953545	2578.550192
411.334138	2601.235385
411.714669	2573.509038
412.095139	2644.085192
412.475547	2528.138654
412.855894	2543.262115
413.236180	2591.153077
413.616405	2616.358846
413.996568	2560.906154
414.376670	2593.673654
414.756711	2621.400000
415.136691	2606.276538
415.516609	2583.591346
415.896466	2656.688077
416.276262	2530.659231
416.655997	2611.317692
417.035670	2618.879423
417.415283	2586.111923
417.794834	2573.509038
418.174324	2576.029615
418.553753	2646.605769
418.933121	2573.509038
419.312428	2598.714808
419.691674	2530.659231
420.070859	2573.509038
420.449983	2573.509038
420.829045	2570.988462
421.208047	2598.714808
421.586988	2545.782692
421.965867	2606.276538
422.344686	2666.770385
422.723444	2586.111923
423.102141	2492.850577
423.480777	2613.838269
423.859352	2669.290962
424.237866	2603.755962
424.616319	2613.838269
424.994712	2666.770385
425.373044	2555.865000
425.751314	2684.414423
426.129524	2636.523462
426.507673	2646.605769
426.885762	2568.467885
427.263789	2689.455577
427.641756	2636.523462
428.019662	2573.509038
428.397508	2588.632500
428.775292	2583.591346
429.153016	2598.714808
429.530679	2593.673654
429.908282	2560.906154
430.285824	2623.920577
430.663305	2646.605769
431.040726	2649.126346
431.418086	2570.988462
431.795385	2621.400000
432.172624	2666.770385
432.549802	2689.455577
432.926920	2669.290962
433.303977	2545.782692
433.680974	2631.482308
434.057910	2649.126346
434.434786	2669.290962
434.811601	2618.879423
435.188355	2623.920577
435.565050	2676.852692
435.941683	2568.467885
436.318257	2593.673654
436.694770	2639.044038
437.071222	2611.317692
437.447614	2603.755962
437.823946	2553.344423
438.200218	2626.441154
438.576429	2644.085192
438.952580	2681.893846
439.328670	2681.893846
439.704700	2737.346538
440.080670	2664.249808
440.456580	2727.264231
440.832429	2732.305385
441.208218	2691.976154
441.583947	2659.208654
441.959616	2712.140769
442.335224	2729.784808
442.710773	2697.017308
443.086261	2762.552308
443.461689	2775.155192
443.837057	2888.581154
444.212365	2780.196346
444.587612	2800.360962
444.962800	2767.593462
445.337927	2903.704615
445.712995	2961.677885
446.088002	2996.965962
446.462949	3017.130577
446.837837	3032.254038
447.212664	3120.474231
447.587431	3087.706731
447.962139	3337.243846
448.336786	3584.260385
448.711374	3591.822115
449.085901	3410.340577
449.460369	3463.272692
449.834776	3634.671923
450.209124	3727.933269
450.583412	3901.853077
450.957640	3937.141154
451.331808	3919.497115
451.705917	3894.291346
452.079965	3879.167885
452.453954	4163.993077
452.827883	4136.266731
453.201752	4232.048654
453.575562	4385.803846
453.949311	4463.941731
454.323001	4728.602308
454.696632	4713.478846
455.070202	4998.304038
455.443713	5041.153846
455.817164	5331.020192
456.190556	5424.281538
456.563888	5542.748654
456.937160	5683.900962
457.310373	5731.791923
457.683526	6046.864038
458.056619	5898.150000
458.429653	6031.740577
458.802628	6122.481346
459.175542	6288.839423
459.548398	6913.942500
459.921194	7082.821154
460.293930	7465.948846
460.666607	7894.446923
461.039224	8506.947115
461.411782	9081.638654
461.784280	9121.967885
462.156719	9348.819808
462.529099	9184.982308
462.901419	9076.597500
463.273680	9051.391731
463.645882	9242.955577
464.018024	9321.093462
464.390106	9547.945385
464.762130	10465.435385
465.134094	11410.651731
465.505999	12706.228269
465.877845	15272.175577
466.249631	16857.618462
466.621358	16817.289231
466.993026	15922.484423
467.364634	15940.128462
467.736184	15045.323654
468.107674	15032.720769
468.479105	15461.218846
468.850477	14911.733077
469.221790	15259.572692
469.593043	14826.033462
469.964238	14518.523077
470.335373	14702.525192
470.706449	15214.202308
471.077467	15478.862885
471.448425	17555.818269
471.819324	21313.998462
472.190164	21858.443077
472.560945	18390.129231
472.931667	17432.310000
473.302330	17417.186538
473.672934	17013.894231
474.043479	17613.791538
474.413965	17381.898462
474.784393	17023.976538
475.154761	18150.674423
475.525070	18044.810192
475.895321	18264.100385
476.265513	18808.545000
476.635645	19451.292115
477.005719	19363.071923
477.375734	19874.749038
477.745691	20283.082500
478.115588	20646.045577
478.485427	21545.891538
478.855207	23191.828269
479.224928	25069.658077
479.594591	27381.027115
479.964194	26675.265577
480.333739	26753.403462
480.703226	27116.366538
481.072653	26382.878654
481.442022	27688.537500
481.811333	28273.311346
482.180584	28278.352500
482.549777	27386.068269
482.918912	27370.944808
483.287988	27509.576538
483.657005	26647.539231
484.025964	26755.924038
484.394864	26637.456923
484.763706	25944.298269
485.132489	25394.812500
485.501213	25750.213846
485.869879	25510.759038
486.238487	25503.197308
486.607036	25483.032692
486.975527	25006.643654
487.343959	25392.291923
487.712333	25074.699231
488.080648	24381.540577
488.448905	24860.450192
488.817104	24837.765000
489.185244	25374.647885
489.553326	25155.357692
489.921350	26667.703846
490.289315	28399.340192
490.657222	29699.957885
491.025070	29604.175962
491.392861	29152.992692
491.760593	28134.679615
492.128267	27028.146346
492.495883	26266.932115
492.863440	25120.069615
493.230939	24416.828654
493.598380	23398.515577
493.965763	22723.000962
494.333088	22468.422692
494.700354	22304.585192
495.067563	21714.770192
495.434713	21442.547885
495.801805	21548.412115
496.168839	21019.090962
496.535815	20371.302692
496.902733	20761.992115
497.269593	20106.642115
497.636395	19559.676923
498.003139	19360.551346
498.369825	19264.769423
498.736453	18944.656154
499.103023	18969.861923
499.469535	18788.380385
499.835989	18445.581923
500.202385	18180.921346
500.568723	17603.709231
500.935003	17732.258654
501.301226	17278.554808
501.667390	17727.217500
502.033497	17104.635000
502.399546	16771.918846
502.765537	16013.225192
503.131470	16109.007115
503.497345	16217.391923
503.863163	15483.904038
504.228923	15231.846346
504.594625	15108.338077
504.960269	14586.578654
505.325856	14994.912115
505.691385	14178.245192
506.056856	14233.697885
506.422270	14027.010577
506.787625	13548.100962
507.152924	13469.963077
507.518164	13313.687308
507.883347	12897.792115
508.248472	12592.802308
508.613540	12393.676731
508.978550	12365.950385
509.343503	12181.948269
509.708398	11801.341154
510.073236	11488.789615
510.438016	11619.859615
510.802738	11299.746346
511.167403	11025.003462
511.532010	10714.972500
511.896561	10659.519808
512.261053	10563.737885
512.625488	10271.350962
512.989866	9898.305577
513.354186	9782.359038
513.718449	9719.344615
514.082655	9263.120192
514.446803	8940.486346
514.810894	9116.926731
515.174927	8832.101538
515.538904	8569.961538
515.902822	8471.659038
516.266684	8234.724808
516.630488	8237.245385
516.994235	7854.117692
517.357925	7778.500385
517.721558	7612.142308
518.085133	7518.880962
518.448651	7390.331538
518.812112	7092.903462
519.175516	7095.424038
519.538863	7012.245000
519.902152	6727.419808
520.265385	6709.775769
520.628560	6440.074038
520.991678	6424.950577
521.354739	6253.551346
521.717743	5988.890769
522.080690	5935.958654
522.443580	5870.423654
522.806413	5600.721923
523.169189	5555.351538
523.531908	5444.446154
523.894569	5300.773269
524.257174	5232.717692
524.619722	5099.127115
524.982213	4945.371923
525.344647	4854.631154
525.707025	4867.234038
526.069345	4698.355385
526.431608	4600.052885
526.793815	4600.052885
527.155964	4463.941731
527.518057	4317.748269
527.880093	4305.145385
528.242072	4249.692692
528.603995	4199.281154
528.965860	4090.896346
529.327669	4113.581538
529.689421	4043.005385
530.051117	3944.702885
530.412755	3929.579423
530.774337	3722.892115
531.135862	3841.359231
531.497331	3795.988846
531.858743	3685.083462
532.220098	3657.357115
532.581396	3669.960000
532.942638	3503.601923
533.303824	3541.410577
533.664953	3445.628654
534.026025	3349.846731
534.387040	3367.490769
534.747999	3319.599808
535.108902	3276.750000
535.469748	3243.982500
535.830537	3261.626538
536.191270	3170.885769
536.551947	3175.926923
536.912567	3145.680000
537.273131	3037.295192
537.633638	3117.953654
537.994089	3218.776731
538.354483	3065.021538
538.714821	3080.145000
539.075103	2989.404231
539.435328	2989.404231
539.795497	3024.692308
540.155609	2883.540000
540.515665	2976.801346
540.875665	2911.266346
541.235609	2886.060577
541.595496	2923.869231
541.955328	2883.540000
542.315102	2928.910385
542.674821	2875.978269
543.034483	2848.251923
543.394090	2893.622308
543.753640	2812.963846
544.113134	2805.402115
544.472571	2812.963846
544.831953	2744.908269
545.191278	2671.811538
545.550548	2928.910385
545.909761	2818.005000
546.268918	2818.005000
546.628019	2772.634615
546.987064	2782.716923
547.346053	2795.319808
547.704986	2835.649038
548.063863	2684.414423
548.422684	2702.058462
548.781449	2712.140769
549.140158	2656.688077
549.498811	2707.099615
549.857408	2762.552308
550.215949	2651.646923
550.574434	2686.935000
550.932864	2714.661346
551.291237	2674.332115
551.649555	2656.688077
552.007817	2661.729231
552.366022	2770.114038
552.724173	2787.758077
553.082267	2686.935000
553.440305	2724.743654
553.798288	2651.646923
554.156215	2613.838269
554.514086	2684.414423
554.871902	2674.332115
555.229661	2681.893846
555.587365	2586.111923
555.945014	2636.523462
556.302606	2606.276538
556.660143	2606.276538
557.017625	2691.976154
557.375050	2644.085192
557.732421	2669.290962
558.089735	2634.002885
558.446994	2659.208654
558.804197	2707.099615
559.161345	2616.358846
559.518437	2719.702500
559.875474	2686.935000
560.232455	2674.332115
560.589381	2628.961731
560.946251	2694.496731
561.303065	2634.002885
561.659825	2623.920577
562.016528	2661.729231
562.373177	2669.290962
562.729770	2656.688077
563.086307	2676.852692
563.442789	2651.646923
563.799216	2702.058462
564.155587	2644.085192
564.511904	2679.373269
564.868164	2654.167500
565.224370	2671.811538
565.580520	2737.346538
565.936615	2626.441154
566.292654	2613.838269
566.648638	2656.688077
567.004567	2712.140769
567.360441	2618.879423
567.716260	2578.550192
568.072023	2651.646923
568.427732	2719.702500
568.783385	2651.646923
569.138982	2679.373269
569.494525	2644.085192
569.850013	2646.605769
570.205445	2613.838269
570.560823	2702.058462
570.916145	2623.920577
571.271412	2651.646923
571.626625	2613.838269
571.981782	2671.811538
572.336884	2681.893846
572.691931	2616.358846
573.046923	2606.276538
573.401860	2686.935000
573.756743	2570.988462
574.111570	2676.852692
574.466342	2588.632500
574.821059	2644.085192
575.175722	2603.755962
575.530330	2565.947308
575.884882	2659.208654
576.239380	2578.550192
576.593823	2732.305385
576.948211	2601.235385
577.302544	2664.249808
577.656823	2684.414423
578.011047	2553.344423
578.365216	2636.523462
578.719330	2671.811538
579.073389	2646.605769
579.427394	2606.276538
579.781344	2666.770385
580.135239	2679.373269
580.489080	2722.223077
580.842866	2654.167500
581.196597	2634.002885
581.550273	2694.496731
581.903895	2669.290962
582.257463	2565.947308
582.610975	2656.688077
582.964434	2661.729231
583.317837	2596.194231
583.671186	2563.426731
584.024481	2644.085192
584.377721	2684.414423
584.730906	2611.317692
585.084037	2654.167500
585.437113	2586.111923
585.790135	2666.770385
586.143103	2671.811538
586.496016	2596.194231
586.848874	2641.564615
587.201679	2538.220962
587.554428	2634.002885
587.907124	2666.770385
588.259765	2644.085192
588.612352	2691.976154
588.964884	2623.920577
589.317362	2626.441154
589.669786	2714.661346
590.022155	2671.811538
590.374470	2591.153077
590.726731	2722.223077
591.078937	2719.702500
591.431090	2641.564615
591.783188	2525.618077
592.135232	2591.153077
592.487222	2666.770385
592.839157	2588.632500
593.191038	2671.811538
593.542866	2623.920577
593.894639	2656.688077
594.246358	2618.879423
594.598022	2644.085192
594.949633	2661.729231
595.301190	2671.811538
595.652692	2623.920577
596.004141	2634.002885
596.355535	2545.782692
596.706876	2591.153077
597.058162	2661.729231
597.409395	2626.441154
597.760573	2646.605769
598.111698	2613.838269
598.462768	2596.194231
598.813785	2651.646923
599.164748	2618.879423
599.515657	2613.838269
599.866511	2631.482308
600.217312	2603.755962
600.568060	2626.441154
600.918753	2689.455577
601.269392	2611.317692
601.619978	2676.852692
601.970510	2691.976154
602.320988	2709.620192
602.671412	2724.743654
603.021783	2631.482308
603.372100	2598.714808
603.722363	2666.770385
604.072572	2644.085192
604.422728	2626.441154
604.772830	2606.276538
605.122878	2649.126346
605.472872	2684.414423
605.822813	2636.523462
606.172701	2578.550192
606.522534	2613.838269
606.872314	2684.414423
607.222041	2661.729231
607.571714	2518.056346
607.921333	2644.085192
608.270899	2621.400000
608.620411	2470.165385
608.969870	2606.276538
609.319276	2699.537885
609.668627	2530.659231
610.017926	2641.564615
610.367171	2621.400000
610.716362	2659.208654
611.065500	2618.879423
611.414585	2671.811538
611.763616	2646.605769
612.112594	2676.852692
612.461518	2669.290962
612.810389	2583.591346
613.159207	2752.470000
613.507971	2669.290962
613.856682	2618.879423
614.205340	2568.467885
614.553945	2691.976154
614.902496	2621.400000
615.250994	2634.002885
615.599439	2649.126346
615.947830	2598.714808
616.296169	2631.482308
616.644454	2671.811538
616.992686	2681.893846
617.340864	2598.714808
617.688990	2634.002885
618.037063	2681.893846
618.385082	2702.058462
618.733048	2651.646923
619.080961	2628.961731
619.428821	2636.523462
619.776628	2555.865000
620.124382	2661.729231
620.472083	2651.646923
620.819731	2613.838269
621.167326	2588.632500
621.514868	2613.838269
621.862357	2601.235385
622.209793	2581.070769
622.557176	2611.317692
622.904506	2714.661346
623.251783	2661.729231
623.599007	2621.400000
623.946179	2596.194231
624.293297	2621.400000
624.640363	2601.235385
624.987376	2611.317692
625.334336	2565.947308
625.681243	2679.373269
626.028097	2691.976154
626.374899	2676.852692
626.721647	2651.646923
627.068343	2694.496731
627.414987	2644.085192
627.761577	2570.988462
628.108115	2634.002885
628.454600	2651.646923
628.801032	2631.482308
629.147412	2606.276538
629.493739	2606.276538
629.840014	2631.482308
630.186236	2626.441154
630.532405	2626.441154
630.878521	2628.961731
631.224585	2628.961731
631.570597	2702.058462
631.916556	2659.208654
632.262462	2588.632500
632.608316	2634.002885
632.954117	2603.755962
633.299866	2671.811538
633.645562	2588.632500
633.991206	2649.126346
634.336797	2681.893846
634.682336	2586.111923
635.027823	2591.153077
635.373257	2669.290962
635.718639	2578.550192
636.063968	2666.770385
636.409245	2679.373269
636.754470	2621.400000
637.099642	2634.002885
637.444762	2689.455577
637.789829	2618.879423
638.134845	2548.303269
638.479808	2641.564615
638.824719	2596.194231
639.169577	2603.755962
639.514383	2558.385577
639.859137	2669.290962
640.203839	2646.605769
640.548489	2563.426731
640.893086	2691.976154
641.237632	2603.755962
641.582125	2583.591346
641.926566	2608.797115
642.270955	2586.111923
642.615292	2570.988462
642.959576	2651.646923
643.303809	2596.194231
643.647990	2553.344423
643.992118	2618.879423
644.336195	2661.729231
644.680219	2560.906154
645.024192	2618.879423
645.368112	2641.564615
645.711981	2654.167500
646.055797	2702.058462
646.399562	2697.017308
646.743274	2634.002885
647.086935	2611.317692
647.430544	2646.605769
647.774101	2691.976154
648.117606	2603.755962
648.461059	2712.140769
648.804460	2601.235385
649.147810	2558.385577
649.491108	2651.646923
649.834354	2591.153077
650.177548	2626.441154
650.520690	2722.223077
650.863781	2639.044038
651.206820	2727.264231
651.549807	2661.729231
651.892742	2634.002885
652.235626	2636.523462
652.578458	2618.879423
652.921238	2639.044038
653.263967	2565.947308
653.606644	2621.400000
653.949269	2613.838269
654.291843	2659.208654
654.634365	2497.891731
654.976836	2598.714808
655.319255	2646.605769
655.661622	2686.935000
656.003938	2664.249808
656.346203	2649.126346
656.688416	2644.085192
657.030577	2709.620192
657.372687	2618.879423
657.714746	2686.935000
658.056753	2608.797115
658.398708	2560.906154
658.740612	2669.290962
659.082465	2679.373269
659.424266	2644.085192
659.766016	2669.290962
660.107715	2631.482308
660.449362	2654.167500
660.790958	2628.961731
661.132503	2661.729231
661.473996	2593.673654
661.815438	2596.194231
662.156829	2671.811538
662.498168	2623.920577
662.839456	2646.605769
663.180693	2616.358846
663.521879	2654.167500
663.863013	2545.782692
664.204097	2621.400000
664.545129	2603.755962
664.886110	2659.208654
665.227040	2611.317692
665.567918	2649.126346
665.908746	2641.564615
666.249522	2606.276538
666.590248	2618.879423
666.930922	2646.605769
667.271545	2588.632500
667.612118	2661.729231
667.952639	2598.714808
668.293109	2618.879423
668.633528	2639.044038
668.973896	2669.290962
669.314213	2576.029615
669.654480	2639.044038
669.994695	2618.879423
670.334859	2639.044038
670.674973	2583.591346
671.015035	2548.303269
671.355047	2709.620192
671.695008	2613.838269
672.034918	2659.208654
672.374777	2656.688077
672.714585	2659.208654
673.054342	2623.920577
673.394049	2591.153077
673.733705	2563.426731
674.073310	2558.385577
674.412864	2644.085192
674.752368	2626.441154
675.091820	2631.482308
675.431223	2606.276538
675.770574	2669.290962
676.109875	2651.646923
676.449125	2639.044038
676.788324	2616.358846
677.127473	2598.714808
677.466571	2608.797115
677.805619	2666.770385
678.144616	2543.262115
678.483562	2588.632500
678.822458	2618.879423
679.161303	2618.879423
679.500098	2659.208654
679.838842	2555.865000
680.177535	2684.414423
680.516179	2644.085192
680.854771	2664.249808
681.193314	2583.591346
681.531805	2644.085192
681.870247	2656.688077
682.208638	2591.153077
682.546978	2611.317692
682.885268	2621.400000
683.223508	2545.782692
683.561697	2608.797115
683.899836	2535.700385
684.237925	2656.688077
684.575963	2570.988462
684.913951	2628.961731
685.251889	2699.537885
685.589776	2634.002885
685.927614	2689.455577
686.265401	2626.441154
686.603137	2613.838269
686.940824	2659.208654
687.278460	2646.605769
687.616046	2654.167500
687.953582	2613.838269
688.291068	2651.646923
688.628504	2608.797115
688.965889	2639.044038
689.303224	2651.646923
689.640510	2666.770385
689.977745	2616.358846
690.314930	2553.344423
690.652065	2674.332115
690.989150	2581.070769
691.326185	2704.579038
691.663170	2649.126346
692.000105	2621.400000
692.336990	2686.935000
692.673825	2666.770385
693.010610	2666.770385
693.347345	2639.044038
693.684030	2646.605769
694.020665	2669.290962
694.357251	2669.290962
694.693786	2669.290962
695.030272	2608.797115
695.366707	2664.249808
695.703093	2634.002885
696.039429	2674.332115
696.375716	2644.085192
696.711952	2628.961731
697.048139	2616.358846
697.384276	2656.688077
697.720363	2616.358846
698.056400	2631.482308
698.392388	2573.509038
698.728326	2578.550192
699.064214	2654.167500
699.400053	2618.879423
699.735842	2631.482308
700.071581	2606.276538
700.407270	2644.085192
700.742910	2596.194231
701.078501	2659.208654
701.414042	2616.358846
701.749533	2669.290962
702.084974	2666.770385
702.420366	2548.303269
702.755709	2613.838269
703.091002	2644.085192
703.426246	2573.509038
703.761440	2639.044038
704.096584	2583.591346
704.431679	2651.646923
704.766725	2641.564615
705.101721	2576.029615
705.436668	2674.332115
705.771565	2570.988462
706.106413	2626.441154
706.441212	2565.947308
706.775961	2744.908269
707.110661	2560.906154
707.445311	2591.153077
707.779913	2593.673654
708.114465	2613.838269
708.448967	2616.358846
708.783421	2631.482308
709.117825	2616.358846
709.452180	2596.194231
709.786485	2626.441154
710.120742	2654.167500
710.454949	2631.482308
710.789107	2634.002885
711.123216	2613.838269
711.457275	2628.961731
711.791286	2666.770385
712.125247	2591.153077
712.459159	2671.811538
712.793023	2616.358846
713.126837	2598.714808
713.460602	2628.961731
713.794318	2641.564615
714.127985	2666.770385
714.461602	2623.920577
714.795171	2654.167500
715.128691	2699.537885
715.462162	2606.276538
715.795584	2644.085192
716.128957	2606.276538
716.462281	2671.811538
716.795556	2578.550192
717.128782	2603.755962
717.461960	2631.482308
717.795088	2644.085192
718.128167	2601.235385
718.461198	2578.550192
718.794180	2631.482308
719.127113	2641.564615
719.459997	2586.111923
719.792833	2530.659231
720.125619	2618.879423
720.458357	2601.235385
720.791046	2651.646923
721.123686	2603.755962
721.456278	2596.194231
721.788821	2674.332115
722.121315	2636.523462
722.453761	2686.935000
722.786158	2631.482308
723.118506	2618.879423
723.450805	2535.700385
723.783056	2704.579038
724.115259	2634.002885
724.447412	2681.893846
724.779518	2598.714808
725.111574	2694.496731
725.443582	2596.194231
725.775542	2611.317692
726.107453	2606.276538
726.439315	2548.303269
726.771129	2596.194231
727.102895	2628.961731
727.434612	2591.153077
727.766281	2593.673654
728.097901	2528.138654
728.429473	2724.743654
728.760996	2674.332115
729.092471	2656.688077
729.423897	2631.482308
729.755276	2568.467885
730.086606	2626.441154
730.417887	2676.852692
730.749120	2588.632500
731.080305	2626.441154
731.411442	2664.249808
731.742530	2664.249808
732.073570	2714.661346
732.404562	2628.961731
732.735506	2613.838269
733.066401	2671.811538
733.397249	2601.235385
733.728048	2626.441154
734.058798	2623.920577
734.389501	2666.770385
734.720156	2601.235385
735.050762	2702.058462
735.381320	2588.632500
735.711831	2606.276538
736.042293	2679.373269
736.372707	2676.852692
736.703073	2576.029615
737.033391	2613.838269
737.363661	2618.879423
737.693883	2583.591346
738.024056	2548.303269
738.354182	2639.044038
738.684260	2581.070769
739.014290	2644.085192
739.344272	2591.153077
739.674207	2623.920577
740.004093	2568.467885
740.333931	2616.358846
740.663722	2661.729231
740.993464	2641.564615
741.323159	2626.441154
741.652806	2613.838269
741.982405	2613.838269
742.311956	2626.441154
742.641460	2686.935000
742.970915	2583.591346
743.300323	2641.564615
743.629683	2555.865000
743.958996	2608.797115
744.288260	2644.085192
744.617477	2626.441154
744.946647	2631.482308
745.275768	2654.167500
745.604842	2659.208654
745.933869	2666.770385
746.262847	2623.920577
746.591778	2570.988462
746.920662	2616.358846
747.249498	2644.085192
747.578286	2644.085192
747.907027	2636.523462
748.235720	2621.400000
748.564365	2618.879423
748.892963	2616.358846
749.221514	2626.441154
749.550017	2568.467885
749.878473	2550.823846
750.206881	2608.797115
750.535242	2654.167500
750.863555	2588.632500
751.191821	2664.249808
751.520039	2565.947308
751.848210	2649.126346
752.176334	2651.646923
752.504411	2598.714808
752.832440	2606.276538
753.160421	2704.579038
753.488356	2659.208654
753.816243	2550.823846
754.144082	2598.714808
754.471875	2628.961731
754.799620	2495.371154
755.127318	2618.879423
755.454969	2676.852692
755.782572	2714.661346
756.110129	2618.879423
756.437638	2634.002885
756.765100	2659.208654
757.092515	2623.920577
757.419882	2616.358846
757.747203	2583.591346
758.074477	2591.153077
758.401703	2694.496731
758.728882	2510.494615
759.056014	2608.797115
759.383099	2576.029615
759.710138	2656.688077
760.037129	2636.523462
760.364073	2616.358846
760.690970	2628.961731
761.017820	2583.591346
761.344623	2603.755962
761.671379	2578.550192
761.998088	2623.920577
762.324751	2588.632500
762.651366	2656.688077
762.977935	2661.729231
763.304456	2608.797115
763.630931	2641.564615
763.957359	2724.743654
764.283740	2664.249808
764.610074	2631.482308
764.936362	2603.755962
765.262602	2656.688077
765.588796	2671.811538
765.914943	2596.194231
766.241044	2591.153077
766.567097	2641.564615
766.893104	2623.920577
767.219064	2606.276538
767.544978	2659.208654
767.870845	2666.770385
768.196665	2591.153077
768.522438	2651.646923
768.848165	2507.974038
769.173846	2548.303269
769.499479	2603.755962
769.825066	2697.017308
770.150607	2586.111923
770.476101	2568.467885
770.801548	2634.002885
771.126949	2596.194231
771.452303	2613.838269
771.777611	2659.208654
772.102872	2548.303269
772.428087	2581.070769
772.753256	2598.714808
773.078378	2641.564615
773.403453	2684.414423
773.728482	2588.632500
774.053465	2530.659231
774.378401	2583.591346
774.703291	2621.400000
775.028135	2601.235385
775.352932	2563.426731
775.677683	2621.400000
776.002388	2565.947308
776.327046	2661.729231
776.651658	2525.618077
776.976224	2606.276538
777.300743	2676.852692
777.625216	2694.496731
777.949643	2621.400000
778.274024	2538.220962
778.598359	2523.097500
778.922647	2553.344423
779.246889	2626.441154
779.571086	2606.276538
779.895236	2639.044038
780.219339	2661.729231
780.543397	2626.441154
780.867409	2608.797115
781.191374	2598.714808
781.515294	2568.467885
781.839167	2651.646923
782.162995	2639.044038
782.486776	2578.550192
782.810511	2639.044038
783.134201	2603.755962
783.457844	2606.276538
783.781441	2492.850577
784.104993	2649.126346
784.428498	2553.344423
784.751958	2631.482308
785.075372	2623.920577
785.398739	2596.194231
785.722061	2608.797115
786.045337	2646.605769
786.368568	2555.865000
786.691752	2671.811538
787.014891	2583.591346
787.337983	2553.344423
787.661030	2578.550192
787.984031	2669.290962
788.306987	2621.400000
788.629897	2606.276538
788.952760	2621.400000
789.275579	2588.632500
789.598351	2659.208654
789.921078	2540.741538
790.243759	2553.344423
790.566395	2515.535769
790.888984	2704.579038
791.211529	2543.262115
791.534027	2641.564615
791.856480	2565.947308
792.178888	2543.262115
792.501249	2631.482308
792.823566	2631.482308
793.145836	2570.988462
793.468062	2518.056346
793.790241	2540.741538
794.112375	2621.400000
794.434464	2631.482308
794.756507	2671.811538
795.078505	2543.262115
795.400457	2616.358846
795.722364	2596.194231
796.044226	2661.729231
796.366042	2530.659231
796.687812	2656.688077
797.009538	2568.467885
797.331218	2563.426731
797.652852	2596.194231
797.974442	2586.111923
798.295986	2628.961731
798.617484	2583.591346
798.938938	2722.223077
799.260346	2598.714808
799.581709	2558.385577
799.903026	2664.249808
800.224299	2616.358846
800.545526	2651.646923
800.866708	2659.208654
801.187845	2588.632500
801.508936	2631.482308
801.829983	2598.714808
802.150984	2616.358846
802.471940	2664.249808
802.792851	2664.249808
803.113717	2626.441154
803.434538	2613.838269
803.755314	2608.797115
804.076045	2621.400000
804.396731	2656.688077
804.717372	2709.620192
805.037967	2697.017308
805.358518	2563.426731
805.679024	2581.070769
805.999485	2644.085192
806.319901	2598.714808
806.640272	2553.344423
806.960598	2636.523462
807.280879	2596.194231
807.601115	2671.811538
807.921306	2674.332115
808.241453	2596.194231
808.561554	2669.290962
808.881611	2538.220962
809.201623	2707.099615
809.521590	2636.523462
809.841513	2513.015192
810.161390	2548.303269
810.481223	2639.044038
810.801011	2664.249808
811.120755	2593.673654
811.440453	2641.564615
811.760107	2578.550192
812.079716	2644.085192
812.399281	2581.070769
812.718801	2621.400000
813.038276	2581.070769
813.357707	2613.838269
813.677093	2656.688077
813.996434	2570.988462
814.315731	2626.441154
814.634983	2565.947308
814.954191	2611.317692
815.273354	2618.879423
815.592473	2621.400000
815.911547	2613.838269
816.230577	2618.879423
816.549562	2545.782692
816.868502	2583.591346
817.187399	2576.029615
817.506250	2525.618077
817.825058	2628.961731
818.143821	2593.673654
818.462539	2601.235385
818.781213	2623.920577
819.099843	2578.550192
819.418429	2558.385577
819.736970	2641.564615
820.055466	2545.782692
820.373919	2525.618077
820.692327	2613.838269
821.010691	2659.208654
821.329011	2601.235385
821.647286	2608.797115
821.965517	2729.784808
822.283704	2666.770385
822.601847	2684.414423
822.919945	2838.169615
823.237999	2689.455577
823.556010	2634.002885
823.873976	2568.467885
824.191897	2626.441154
824.509775	2639.044038
824.827609	2623.920577
825.145398	2570.988462
825.463144	2563.426731
825.780845	2644.085192
826.098502	2634.002885
826.416116	2651.646923
826.733685	2676.852692
827.051210	2666.770385
827.368692	2646.605769
827.686129	2576.029615
828.003522	2666.770385
828.320872	2664.249808
828.638177	2704.579038
828.955439	2568.467885
829.272656	2573.509038
829.589830	2533.179808
829.906960	2555.865000
830.224046	2626.441154
830.541088	2659.208654
830.858086	2626.441154
831.175041	2636.523462
831.491952	2593.673654
831.808819	2613.838269
832.125642	2634.002885
832.442421	2623.920577
832.759157	2628.961731
833.075849	2535.700385
833.392497	2616.358846
833.709101	2631.482308
834.025662	2611.317692
834.342179	2603.755962
834.658653	2588.632500
834.975083	2628.961731
835.291469	2591.153077
835.607811	2681.893846
835.924110	2606.276538
836.240366	2639.044038
836.556578	2669.290962
836.872746	2686.935000
837.188871	2601.235385
837.504952	2634.002885
837.820990	2649.126346
838.136984	2538.220962
838.452935	2543.262115
838.768842	2621.400000
839.084706	2500.412308
839.400526	2689.455577
839.716303	2634.002885
840.032037	2530.659231
840.347727	2641.564615
840.663373	2671.811538
840.978977	2583.591346
841.294537	2500.412308
841.610054	2641.564615
841.925527	2621.400000
842.240957	2555.865000
842.556344	2651.646923
842.871687	2626.441154
843.186987	2581.070769
843.502244	2581.070769
843.817458	2588.632500
844.132629	2712.140769
844.447756	2563.426731
844.762840	2636.523462
845.077881	2611.317692
845.392879	2598.714808
845.707833	2601.235385
846.022745	2550.823846
846.337613	2573.509038
846.652438	2666.770385
846.967221	2639.044038
847.281960	2591.153077
847.596656	2586.111923
847.911309	2656.688077
848.225919	2558.385577
848.540485	2538.220962
848.855009	2515.535769
849.169490	2634.002885
849.483928	2679.373269
849.798323	2573.509038
850.112675	2644.085192
850.426984	2628.961731
850.741251	2596.194231
851.055474	2598.714808
851.369654	2475.206538
851.683792	2656.688077
851.997887	2608.797115
852.311938	2583.591346
852.625947	2603.755962
852.939914	2639.044038
853.253837	2623.920577
853.567718	2603.755962
853.881555	2591.153077
854.195350	2606.276538
854.509103	2538.220962
854.822812	2586.111923
855.136479	2591.153077
855.450103	2535.700385
855.763685	2618.879423
856.077224	2573.509038
856.390720	2588.632500
856.704173	2570.988462
857.017584	2608.797115
857.330953	2598.714808
857.644278	2550.823846
857.957561	2583.591346
858.270802	2646.605769
858.584000	2598.714808
858.897155	2639.044038
859.210268	2611.317692
859.523339	2591.153077
859.836367	2608.797115
860.149352	2628.961731
860.462295	2568.467885
860.775195	2591.153077
861.088054	2530.659231
861.400869	2613.838269
861.713642	2573.509038
862.026373	2613.838269
862.339062	2636.523462
862.651708	2616.358846
862.964312	2596.194231
863.276873	2535.700385
863.589392	2601.235385
863.901869	2593.673654
864.214303	2639.044038
864.526696	2618.879423
864.839045	2613.838269
865.151353	2606.276538
865.463619	2621.400000
865.775842	2593.673654
866.088023	2704.579038
866.400162	2560.906154
866.712258	2548.303269
867.024313	2631.482308
867.336325	2621.400000
867.648296	2530.659231
867.960224	2581.070769
868.272110	2583.591346
868.583954	2616.358846
868.895755	2596.194231
869.207515	2661.729231
869.519233	2591.153077
869.830909	2581.070769
870.142542	2618.879423
870.454134	2583.591346
870.765684	2591.153077
871.077191	2576.029615
871.388657	2621.400000
871.700081	2659.208654
872.011463	2686.935000
872.322803	2631.482308
872.634101	2507.974038
872.945357	2601.235385
873.256571	2588.632500
873.567744	2654.167500
873.878874	2576.029615
874.189963	2628.961731
874.501010	2621.400000
874.812015	2649.126346
875.122979	2606.276538
875.433900	2553.344423
875.744780	2513.015192
876.055618	2636.523462
876.366415	2573.509038
876.677169	2654.167500
876.987882	2570.988462
877.298554	2676.852692
877.609183	2568.467885
877.919771	2676.852692
878.230317	2606.276538
878.540822	2631.482308
878.851285	2618.879423
879.161707	2548.303269
879.472087	2608.797115
879.782425	2613.838269
880.092722	2581.070769
880.402977	2603.755962
880.713191	2603.755962
881.023363	2628.961731
881.333494	2636.523462
881.643583	2707.099615
881.953631	2717.181923
882.263637	2666.770385
882.573602	2603.755962
882.883526	2608.797115
883.193408	2578.550192
883.503248	2669.290962
883.813048	2654.167500
884.122806	2540.741538
884.432522	2644.085192
884.742197	2583.591346
885.051831	2538.220962
885.361424	2550.823846
885.670975	2515.535769
885.980485	2606.276538
886.289954	2651.646923
886.599382	2603.755962
886.908768	2591.153077
887.218113	2553.344423
887.527417	2578.550192
887.836680	2611.317692
888.145901	2560.906154
888.455082	2520.576923
888.764221	2616.358846
889.073319	2507.974038
889.382376	2570.988462
889.691392	2616.358846
890.000366	2636.523462
890.309300	2523.097500
890.618193	2644.085192
890.927044	2490.330000
891.235855	2583.591346
891.544625	2568.467885
891.853353	2641.564615
892.162041	2565.947308
892.470687	2540.741538
892.779293	2636.523462
893.087858	2588.632500
893.396381	2621.400000
893.704864	2664.249808
894.013306	2586.111923
894.321707	2573.509038
894.630068	2608.797115
894.938387	2606.276538
895.246665	2681.893846
895.554903	2603.755962
895.863100	2671.811538
896.171256	2608.797115
896.479371	2618.879423
896.787446	2555.865000
897.095480	2565.947308
897.403473	2540.741538
897.711425	2573.509038
898.019336	2528.138654
898.327207	2492.850577
898.635038	2578.550192
898.942827	2510.494615
899.250576	2560.906154
899.558284	2634.002885
899.865952	2666.770385
900.173579	2588.632500
900.481165	2480.247692
900.788711	2606.276538
901.096216	2545.782692
901.403681	2644.085192
901.711105	2649.126346
902.018489	2535.700385
902.325832	2634.002885
902.633135	2603.755962
902.940397	2631.482308
903.247619	2674.332115
903.554800	2674.332115
903.861941	2636.523462
904.169041	2621.400000
904.476101	2520.576923
904.783121	2596.194231
905.090100	2596.194231
905.397039	2603.755962
905.703938	2581.070769
906.010796	2686.935000
906.317614	2563.426731
906.624391	2573.509038
906.931129	2621.400000
907.237826	2565.947308
907.544483	2588.632500
907.851099	2616.358846
908.157675	2586.111923
908.464211	2576.029615
908.770707	2649.126346
909.077163	2598.714808
909.383578	2644.085192
909.689954	2603.755962
909.996289	2608.797115
910.302584	2639.044038
910.608839	2593.673654
910.915054	2697.017308
911.221229	2545.782692
911.527363	2568.467885
911.833458	2603.755962
912.139513	2626.441154
912.445527	2583.591346
912.751502	2639.044038
913.057436	2578.550192
913.363331	2676.852692
913.669186	2613.838269
913.975000	2540.741538
914.280775	2623.920577
914.586510	2593.673654
914.892205	2608.797115
915.197859	2636.523462
915.503475	2525.618077
915.809050	2596.194231
916.114585	2560.906154
916.420081	2613.838269
916.725536	2669.290962
917.030952	2563.426731
917.336328	2729.784808
917.641665	2596.194231
917.946961	2616.358846
918.252218	2704.579038
918.557435	2671.811538
918.862612	2558.385577
919.167750	2664.249808
919.472848	2543.262115
919.777906	2606.276538
920.082925	2621.400000
920.387904	2644.085192
920.692843	2621.400000
920.997743	2601.235385
921.302603	2518.056346
921.607423	2581.070769
921.912204	2621.400000
922.216946	2621.400000
922.521647	2535.700385
922.826310	2583.591346
923.130932	2681.893846
923.435516	2606.276538
923.740059	2495.371154
924.044564	2583.591346
924.349028	2646.605769
924.653454	2631.482308
924.957840	2603.755962
925.262186	2543.262115
925.566493	2606.276538
925.870761	2628.961731
926.174989	2565.947308
926.479178	2626.441154
926.783328	2576.029615
927.087438	2639.044038
927.391509	2634.002885
927.695541	2659.208654
927.999533	2684.414423
928.303486	2588.632500
928.607400	2639.044038
928.911275	2651.646923
929.215110	2603.755962
929.518906	2626.441154
929.822663	2628.961731
930.126381	2608.797115
930.430060	2570.988462
930.733699	2586.111923
931.037299	2588.632500
931.340861	2543.262115
931.644383	2568.467885
931.947866	2611.317692
932.251309	2644.085192
932.554714	2664.249808
932.858080	2621.400000
933.161407	2497.891731
933.464694	2576.029615
933.767943	2576.029615
934.071153	2560.906154
934.374323	2586.111923
934.677455	2553.344423
934.980548	2593.673654
935.283602	2618.879423
935.586617	2616.358846
935.889593	2543.262115
936.192530	2596.194231
936.495428	2581.070769
936.798287	2492.850577
937.101108	2563.426731
937.403890	2565.947308
937.706632	2578.550192
938.009336	2636.523462
938.312002	2545.782692
938.614628	2601.235385
938.917216	2568.467885
939.219765	2634.002885
939.522275	2548.303269
939.824747	2593.673654
940.127179	2651.646923
940.429573	2523.097500
940.731929	2611.317692
941.034246	2538.220962
941.336524	2500.412308
941.638763	2636.523462
941.940964	2545.782692
942.243126	2641.564615
942.545250	2618.879423
942.847335	2596.194231
943.149381	2644.085192
943.451389	2628.961731
943.753359	2631.482308
944.055290	2553.344423
944.357182	2543.262115
944.659036	2631.482308
944.960851	2618.879423
945.262628	2601.235385
945.564367	2475.206538
945.866067	2621.400000
946.167729	2550.823846
946.469352	2623.920577
946.770937	2676.852692
947.072484	2634.002885
947.373992	2555.865000
947.675462	2661.729231
947.976893	2505.453462
948.278286	2654.167500
948.579641	2505.453462
948.880958	2598.714808
949.182236	2636.523462
949.483476	2528.138654
949.784678	2626.441154
950.085841	2588.632500
950.386967	2563.426731
950.688054	2618.879423
950.989103	2593.673654
951.290114	2598.714808
951.591087	2623.920577
951.892021	2596.194231
952.192917	2654.167500
952.493776	2621.400000
952.794596	2528.138654
953.095378	2621.400000
953.396122	2593.673654
953.696828	2606.276538
953.997496	2601.235385
954.298126	2684.414423
954.598718	2550.823846
954.899272	2611.317692
955.199788	2603.755962
955.500266	2626.441154
955.800706	2591.153077
956.101108	2576.029615
956.401472	2576.029615
956.701798	2586.111923
957.002087	2583.591346
957.302337	2525.618077
957.602550	2573.509038
957.902724	2644.085192
958.202861	2513.015192
958.502960	2520.576923
958.803022	2583.591346
959.103045	2545.782692
959.403031	2545.782692
959.702979	2606.276538
960.002889	2555.865000
960.302762	2636.523462
960.602596	2528.138654
960.902393	2578.550192
961.202153	2623.920577
961.501875	2568.467885
961.801559	2659.208654
962.101205	2573.509038
962.400814	2568.467885
962.700385	2510.494615
962.999918	2649.126346
963.299414	2634.002885
963.598873	2581.070769
963.898293	2618.879423
964.197677	2530.659231
964.497022	2608.797115
964.796331	2611.317692
965.095601	2586.111923
965.394835	2618.879423
965.694030	2550.823846
965.993189	2523.097500
966.292309	2631.482308
966.591393	2628.961731
966.890439	2618.879423
967.189447	2576.029615
967.488419	2606.276538
967.787353	2621.400000
968.086249	2608.797115
968.385108	2548.303269
968.683930	2618.879423
968.982714	2649.126346
969.281462	2581.070769
969.580172	2492.850577
969.878844	2623.920577
970.177480	2659.208654
970.476078	2608.797115
970.774639	2606.276538
971.073162	2601.235385
971.371649	2601.235385
971.670098	2654.167500
971.968510	2528.138654
972.266885	2558.385577
972.565223	2651.646923
972.863524	2631.482308
973.161788	2520.576923
973.460014	2644.085192
973.758204	2553.344423
974.056356	2555.865000
974.354471	2661.729231
974.652550	2515.535769
974.950591	2505.453462
975.248595	2510.494615
975.546563	2618.879423
975.844493	2631.482308
976.142386	2502.932885
976.440243	2644.085192
976.738062	2671.811538
977.035845	2623.920577
977.333590	2550.823846
977.631299	2591.153077
977.928971	2621.400000
978.226606	2470.165385
978.524204	2581.070769
978.821765	2601.235385
979.119290	2596.194231
979.416777	2560.906154
979.714228	2651.646923
980.011642	2686.935000
980.309020	2636.523462
980.606360	2543.262115
980.903664	2576.029615
981.200931	2601.235385
981.498162	2578.550192
981.795356	2568.467885
982.092513	2636.523462
982.389633	2543.262115
982.686717	2586.111923
982.983764	2533.179808
983.280775	2568.467885
983.577749	2649.126346
983.874686	2576.029615
984.171587	2568.467885
984.468451	2646.605769
984.765279	2608.797115
985.062070	2669.290962
985.358824	2628.961731
985.655543	2634.002885
985.952224	2538.220962
986.248869	2588.632500
986.545478	2528.138654
986.842050	2573.509038
987.138586	2565.947308
987.435086	2598.714808
987.731549	2573.509038
988.027975	2623.920577
988.324366	2576.029615
988.620719	2533.179808
988.917037	2573.509038
989.213318	2535.700385
989.509563	2661.729231
989.805772	2603.755962
990.101944	2586.111923
990.398080	2611.317692
990.694180	2608.797115
990.990244	2616.358846
991.286271	2525.618077
991.582262	2608.797115
991.878217	2596.194231
992.174136	2533.179808
992.470019	2588.632500
992.765865	2689.455577
993.061676	2583.591346
993.357450	2634.002885
993.653188	2606.276538
993.948890	2558.385577
994.244556	2588.632500
994.540186	2591.153077
994.835780	2535.700385
995.131337	2618.879423
995.426859	2628.961731
995.722345	2659.208654
996.017795	2646.605769
996.313208	2588.632500
996.608586	2528.138654
996.903928	2578.550192
997.199234	2613.838269
997.494504	2588.632500
997.789738	2593.673654
998.084936	2568.467885
998.380099	2608.797115
998.675225	2550.823846
998.970316	2608.797115
999.265371	2616.358846
999.560390	2568.467885
999.855373	2644.085192
1000.150320	2586.111923
1000.445232	2603.755962
1000.740108	2593.673654
1001.034948	2664.249808
1001.329752	2616.358846
1001.624521	2659.208654
1001.919254	2601.235385
1002.213951	2576.029615
1002.508613	2636.523462
1002.803239	2628.961731
1003.097829	2558.385577
1003.392384	2465.124231
1003.686903	2573.509038
1003.981386	2558.385577
1004.275834	2513.015192
1004.570246	2573.509038
1004.864623	2588.632500
1005.158964	2565.947308
1005.453270	2608.797115
1005.747540	2636.523462
1006.041775	2601.235385
1006.335974	2603.755962
1006.630138	2689.455577
1006.924266	2583.591346
1007.218359	2518.056346
1007.512416	2661.729231
1007.806438	2581.070769
1008.100425	2593.673654
1008.394376	2545.782692
1008.688292	2548.303269
1008.982172	2606.276538
1009.276017	2520.576923
1009.569827	2636.523462
1009.863602	2578.550192
1010.157341	2563.426731
1010.451045	2578.550192
1010.744714	2581.070769
1011.038347	2659.208654
1011.331945	2568.467885
1011.625508	2540.741538
1011.919036	2543.262115
1012.212528	2626.441154
1012.505986	2654.167500
1012.799408	2533.179808
1013.092795	2616.358846
1013.386147	2596.194231
1013.679464	2583.591346
1013.972745	2621.400000
1014.265992	2596.194231
1014.559204	2634.002885
1014.852380	2593.673654
1015.145521	2621.400000
1015.438628	2611.317692
1015.731699	2573.509038
1016.024736	2636.523462
1016.317737	2565.947308
1016.610703	2636.523462
1016.903635	2606.276538
1017.196531	2581.070769
1017.489393	2603.755962
1017.782219	2689.455577
1018.075011	2588.632500
1018.367768	2654.167500
1018.660490	2535.700385
1018.953177	2535.700385
1019.245829	2535.700385
