Dividing Wavelength (nm)	Counts (n)	Blue Motor Position (mm): 0.000000	Red Motor Position (mm): 4.800000	
326.493990	2177.778462
326.888308	2177.778462
327.282561	2177.778462
327.676750	2099.640577
328.070874	2089.558269
328.464933	2046.708462
328.858929	2016.461538
329.252859	2107.202308
329.646726	2051.749615
330.040528	2107.202308
330.434265	2081.996538
330.827938	2167.696154
331.221547	2202.984231
331.615091	2175.257885
332.008571	2197.943077
332.401986	2114.764038
332.795338	2152.572692
333.188625	2230.710577
333.581847	2230.710577
333.975006	2278.601538
334.368100	2381.945192
334.761129	2301.286731
335.154095	2303.807308
335.546996	2318.930769
335.939833	2318.930769
336.332606	2364.301154
336.725315	2334.054231
337.117960	2386.986346
337.510540	2404.630385
337.903056	2485.288846
338.295508	2442.439038
338.687896	2407.150962
339.080220	2563.426731
339.472480	2371.862885
339.864676	2482.768269
340.256807	2485.288846
340.648875	2447.480192
341.040879	2485.288846
341.432818	2444.959615
341.824694	2444.959615
342.216506	2533.179808
342.608253	2462.603654
342.999937	2507.974038
343.391557	2427.315577
343.783113	2513.015192
344.174605	2485.288846
344.566033	2475.206538
344.957397	2356.739423
345.348697	2432.356731
345.739934	2510.494615
346.131106	2487.809423
346.522215	2477.727115
346.913260	2402.109808
347.304241	2384.465769
347.695159	2510.494615
348.086012	2447.480192
348.476802	2402.109808
348.867528	2409.671538
349.258191	2472.685962
349.648789	2389.506923
350.039324	2427.315577
350.429796	2434.877308
350.820203	2379.424615
351.210548	2429.836154
351.600828	2374.383462
351.991045	2492.850577
352.381198	2417.233269
352.771288	2444.959615
353.161314	2495.371154
353.551276	2402.109808
353.941175	2409.671538
354.331010	2452.521346
354.720782	2447.480192
355.110490	2392.027500
355.500135	2475.206538
355.889717	2485.288846
356.279235	2318.930769
356.668689	2412.192115
357.058080	2470.165385
357.447408	2497.891731
357.836672	2452.521346
358.225873	2434.877308
358.615010	2379.424615
359.004084	2480.247692
359.393095	2427.315577
359.782043	2389.506923
360.170927	2467.644808
360.559748	2434.877308
360.948505	2490.330000
361.337199	2417.233269
361.725830	2419.753846
362.114398	2523.097500
362.502903	2371.862885
362.891344	2450.000769
363.279722	2422.274423
363.668037	2455.041923
364.056289	2470.165385
364.444478	2465.124231
364.832603	2424.795000
365.220665	2480.247692
365.608665	2432.356731
365.996601	2480.247692
366.384474	2427.315577
366.772284	2462.603654
367.160031	2450.000769
367.547715	2465.124231
367.935336	2374.383462
368.322893	2497.891731
368.710388	2480.247692
369.097820	2414.712692
369.485189	2497.891731
369.872495	2427.315577
370.259738	2472.685962
370.646918	2475.206538
371.034035	2432.356731
371.421090	2417.233269
371.808081	2376.904038
372.195010	2460.083077
372.581875	2366.821731
372.968678	2460.083077
373.355418	2427.315577
373.742096	2457.562500
374.128710	2399.589231
374.515262	2472.685962
374.901751	2419.753846
375.288177	2518.056346
375.674540	2507.974038
376.060841	2434.877308
376.447079	2480.247692
376.833254	2510.494615
377.219367	2543.262115
377.605417	2447.480192
377.991404	2366.821731
378.377329	2369.342308
378.763191	2399.589231
379.148991	2414.712692
379.534727	2533.179808
379.920402	2523.097500
380.306013	2475.206538
380.691563	2505.453462
381.077049	2507.974038
381.462474	2510.494615
381.847835	2490.330000
382.233134	2407.150962
382.618371	2386.986346
383.003545	2422.274423
383.388657	2510.494615
383.773706	2399.589231
384.158693	2462.603654
384.543618	2482.768269
384.928480	2570.988462
385.313280	2500.412308
385.698017	2450.000769
386.082692	2450.000769
386.467305	2470.165385
386.851856	2475.206538
387.236344	2450.000769
387.620770	2455.041923
388.005133	2475.206538
388.389435	2495.371154
388.773674	2518.056346
389.157851	2490.330000
389.541965	2442.439038
389.926018	2492.850577
390.310008	2422.274423
390.693936	2487.809423
391.077802	2520.576923
391.461606	2364.301154
391.845348	2480.247692
392.229027	2439.918462
392.612645	2386.986346
392.996200	2515.535769
393.379694	2397.068654
393.763125	2495.371154
394.146494	2444.959615
394.529801	2487.809423
394.913047	2467.644808
395.296230	2533.179808
395.679351	2407.150962
396.062410	2462.603654
396.445408	2518.056346
396.828343	2432.356731
397.211217	2394.548077
397.594028	2462.603654
397.976778	2470.165385
398.359466	2502.932885
398.742092	2424.795000
399.124656	2452.521346
399.507158	2495.371154
399.889598	2490.330000
400.271977	2419.753846
400.654294	2477.727115
401.036549	2465.124231
401.418742	2482.768269
401.800874	2510.494615
402.182944	2455.041923
402.564952	2497.891731
402.946898	2518.056346
403.328783	2475.206538
403.710606	2530.659231
404.092367	2487.809423
404.474067	2472.685962
404.855705	2452.521346
405.237282	2492.850577
405.618797	2450.000769
406.000250	2513.015192
406.381642	2555.865000
406.762972	2450.000769
407.144240	2490.330000
407.525447	2424.795000
407.906593	2510.494615
408.287677	2533.179808
408.668700	2525.618077
409.049661	2555.865000
409.430560	2412.192115
409.811399	2394.548077
410.192176	2520.576923
410.572891	2507.974038
410.953545	2472.685962
411.334138	2460.083077
411.714669	2518.056346
412.095139	2560.906154
412.475547	2457.562500
412.855894	2470.165385
413.236180	2485.288846
413.616405	2553.344423
413.996568	2444.959615
414.376670	2538.220962
414.756711	2450.000769
415.136691	2528.138654
415.516609	2465.124231
415.896466	2528.138654
416.276262	2487.809423
416.655997	2485.288846
417.035670	2447.480192
417.415283	2462.603654
417.794834	2497.891731
418.174324	2457.562500
418.553753	2442.439038
418.933121	2482.768269
419.312428	2520.576923
419.691674	2528.138654
420.070859	2487.809423
420.449983	2394.548077
420.829045	2470.165385
421.208047	2429.836154
421.586988	2482.768269
421.965867	2523.097500
422.344686	2543.262115
422.723444	2505.453462
423.102141	2475.206538
423.480777	2485.288846
423.859352	2434.877308
424.237866	2429.836154
424.616319	2487.809423
424.994712	2457.562500
425.373044	2477.727115
425.751314	2543.262115
426.129524	2485.288846
426.507673	2427.315577
426.885762	2538.220962
427.263789	2412.192115
427.641756	2500.412308
428.019662	2462.603654
428.397508	2523.097500
428.775292	2462.603654
429.153016	2409.671538
429.530679	2470.165385
429.908282	2460.083077
430.285824	2505.453462
430.663305	2485.288846
431.040726	2500.412308
431.418086	2480.247692
431.795385	2500.412308
432.172624	2507.974038
432.549802	2513.015192
432.926920	2465.124231
433.303977	2525.618077
433.680974	2460.083077
434.057910	2452.521346
434.434786	2444.959615
434.811601	2467.644808
435.188355	2492.850577
435.565050	2429.836154
435.941683	2480.247692
436.318257	2381.945192
436.694770	2518.056346
437.071222	2515.535769
437.447614	2535.700385
437.823946	2475.206538
438.200218	2495.371154
438.576429	2523.097500
438.952580	2543.262115
439.328670	2497.891731
439.704700	2442.439038
440.080670	2472.685962
440.456580	2601.235385
440.832429	2424.795000
441.208218	2533.179808
441.583947	2455.041923
441.959616	2455.041923
442.335224	2510.494615
442.710773	2447.480192
443.086261	2460.083077
443.461689	2467.644808
443.837057	2513.015192
444.212365	2419.753846
444.587612	2507.974038
444.962800	2490.330000
445.337927	2502.932885
445.712995	2450.000769
446.088002	2465.124231
446.462949	2427.315577
446.837837	2450.000769
447.212664	2490.330000
447.587431	2515.535769
447.962139	2467.644808
448.336786	2407.150962
448.711374	2480.247692
449.085901	2490.330000
449.460369	2507.974038
449.834776	2442.439038
450.209124	2568.467885
450.583412	2434.877308
450.957640	2495.371154
451.331808	2533.179808
451.705917	2520.576923
452.079965	2502.932885
452.453954	2477.727115
452.827883	2427.315577
453.201752	2525.618077
453.575562	2475.206538
453.949311	2500.412308
454.323001	2402.109808
454.696632	2482.768269
455.070202	2467.644808
455.443713	2533.179808
455.817164	2455.041923
456.190556	2530.659231
456.563888	2500.412308
456.937160	2543.262115
457.310373	2530.659231
457.683526	2447.480192
458.056619	2485.288846
458.429653	2460.083077
458.802628	2475.206538
459.175542	2480.247692
459.548398	2533.179808
459.921194	2513.015192
460.293930	2460.083077
460.666607	2482.768269
461.039224	2500.412308
461.411782	2520.576923
461.784280	2515.535769
462.156719	2500.412308
462.529099	2500.412308
462.901419	2429.836154
463.273680	2520.576923
463.645882	2447.480192
464.018024	2490.330000
464.390106	2550.823846
464.762130	2485.288846
465.134094	2470.165385
465.505999	2437.397885
465.877845	2450.000769
466.249631	2500.412308
466.621358	2487.809423
466.993026	2465.124231
467.364634	2513.015192
467.736184	2555.865000
468.107674	2490.330000
468.479105	2467.644808
468.850477	2437.397885
469.221790	2515.535769
469.593043	2467.644808
469.964238	2470.165385
470.335373	2467.644808
470.706449	2548.303269
471.077467	2502.932885
471.448425	2487.809423
471.819324	2530.659231
472.190164	2548.303269
472.560945	2538.220962
472.931667	2455.041923
473.302330	2558.385577
473.672934	2460.083077
474.043479	2553.344423
474.413965	2538.220962
474.784393	2487.809423
475.154761	2462.603654
475.525070	2505.453462
475.895321	2444.959615
476.265513	2553.344423
476.635645	2442.439038
477.005719	2525.618077
477.375734	2472.685962
477.745691	2538.220962
478.115588	2439.918462
478.485427	2455.041923
478.855207	2437.397885
479.224928	2535.700385
479.594591	2437.397885
479.964194	2500.412308
480.333739	2452.521346
480.703226	2558.385577
481.072653	2412.192115
481.442022	2477.727115
481.811333	2439.918462
482.180584	2419.753846
482.549777	2407.150962
482.918912	2480.247692
483.287988	2447.480192
483.657005	2485.288846
484.025964	2485.288846
484.394864	2497.891731
484.763706	2520.576923
485.132489	2497.891731
485.501213	2507.974038
485.869879	2492.850577
486.238487	2523.097500
486.607036	2581.070769
486.975527	2467.644808
487.343959	2654.167500
487.712333	2586.111923
488.080648	2460.083077
488.448905	2510.494615
488.817104	2578.550192
489.185244	2495.371154
489.553326	2513.015192
489.921350	2490.330000
490.289315	2465.124231
490.657222	2457.562500
491.025070	2528.138654
491.392861	2460.083077
491.760593	2485.288846
492.128267	2543.262115
492.495883	2477.727115
492.863440	2513.015192
493.230939	2434.877308
493.598380	2558.385577
493.965763	2515.535769
494.333088	2533.179808
494.700354	2510.494615
495.067563	2583.591346
495.434713	2437.397885
495.801805	2533.179808
496.168839	2490.330000
496.535815	2475.206538
496.902733	2495.371154
497.269593	2533.179808
497.636395	2505.453462
498.003139	2450.000769
498.369825	2487.809423
498.736453	2432.356731
499.103023	2510.494615
499.469535	2452.521346
499.835989	2485.288846
500.202385	2402.109808
500.568723	2490.330000
500.935003	2460.083077
501.301226	2460.083077
501.667390	2528.138654
502.033497	2480.247692
502.399546	2460.083077
502.765537	2520.576923
503.131470	2460.083077
503.497345	2533.179808
503.863163	2475.206538
504.228923	2545.782692
504.594625	2555.865000
504.960269	2550.823846
505.325856	2515.535769
505.691385	2417.233269
506.056856	2543.262115
506.422270	2432.356731
506.787625	2510.494615
507.152924	2477.727115
507.518164	2422.274423
507.883347	2510.494615
508.248472	2525.618077
508.613540	2424.795000
508.978550	2523.097500
509.343503	2505.453462
509.708398	2419.753846
510.073236	2507.974038
510.438016	2548.303269
510.802738	2540.741538
511.167403	2487.809423
511.532010	2434.877308
511.896561	2412.192115
512.261053	2543.262115
512.625488	2490.330000
512.989866	2472.685962
513.354186	2427.315577
513.718449	2475.206538
514.082655	2475.206538
514.446803	2550.823846
514.810894	2460.083077
515.174927	2482.768269
515.538904	2487.809423
515.902822	2467.644808
516.266684	2455.041923
516.630488	2500.412308
516.994235	2485.288846
517.357925	2548.303269
517.721558	2442.439038
518.085133	2472.685962
518.448651	2434.877308
518.812112	2497.891731
519.175516	2447.480192
519.538863	2535.700385
519.902152	2475.206538
520.265385	2452.521346
520.628560	2492.850577
520.991678	2568.467885
521.354739	2543.262115
521.717743	2502.932885
522.080690	2581.070769
522.443580	2490.330000
522.806413	2502.932885
523.169189	2520.576923
523.531908	2480.247692
523.894569	2601.235385
524.257174	2460.083077
524.619722	2550.823846
524.982213	2495.371154
525.344647	2505.453462
525.707025	2525.618077
526.069345	2560.906154
526.431608	2545.782692
526.793815	2462.603654
527.155964	2502.932885
527.518057	2457.562500
527.880093	2495.371154
528.242072	2462.603654
528.603995	2500.412308
528.965860	2555.865000
529.327669	2457.562500
529.689421	2538.220962
530.051117	2611.317692
530.412755	2465.124231
530.774337	2518.056346
531.135862	2477.727115
531.497331	2558.385577
531.858743	2475.206538
532.220098	2528.138654
532.581396	2487.809423
532.942638	2533.179808
533.303824	2482.768269
533.664953	2513.015192
534.026025	2492.850577
534.387040	2497.891731
534.747999	2470.165385
535.108902	2525.618077
535.469748	2535.700385
535.830537	2460.083077
536.191270	2407.150962
536.551947	2520.576923
536.912567	2507.974038
537.273131	2553.344423
537.633638	2510.494615
537.994089	2573.509038
538.354483	2455.041923
538.714821	2507.974038
539.075103	2520.576923
539.435328	2465.124231
539.795497	2565.947308
540.155609	2518.056346
540.515665	2538.220962
540.875665	2500.412308
541.235609	2492.850577
541.595496	2543.262115
541.955328	2518.056346
542.315102	2502.932885
542.674821	2485.288846
543.034483	2439.918462
543.394090	2475.206538
543.753640	2507.974038
544.113134	2565.947308
544.472571	2523.097500
544.831953	2520.576923
545.191278	2502.932885
545.550548	2417.233269
545.909761	2583.591346
546.268918	2399.589231
546.628019	2450.000769
546.987064	2515.535769
547.346053	2588.632500
547.704986	2455.041923
548.063863	2439.918462
548.422684	2525.618077
548.781449	2543.262115
549.140158	2533.179808
549.498811	2432.356731
549.857408	2540.741538
550.215949	2497.891731
550.574434	2520.576923
550.932864	2460.083077
551.291237	2570.988462
551.649555	2485.288846
552.007817	2513.015192
552.366022	2510.494615
552.724173	2480.247692
553.082267	2490.330000
553.440305	2502.932885
553.798288	2505.453462
554.156215	2505.453462
554.514086	2500.412308
554.871902	2419.753846
555.229661	2540.741538
555.587365	2422.274423
555.945014	2523.097500
556.302606	2565.947308
556.660143	2520.576923
557.017625	2455.041923
557.375050	2500.412308
557.732421	2515.535769
558.089735	2402.109808
558.446994	2535.700385
558.804197	2528.138654
559.161345	2520.576923
559.518437	2452.521346
559.875474	2555.865000
560.232455	2437.397885
560.589381	2492.850577
560.946251	2424.795000
561.303065	2565.947308
561.659825	2513.015192
562.016528	2603.755962
562.373177	2525.618077
562.729770	2543.262115
563.086307	2462.603654
563.442789	2515.535769
563.799216	2384.465769
564.155587	2502.932885
564.511904	2485.288846
564.868164	2550.823846
565.224370	2482.768269
565.580520	2432.356731
565.936615	2530.659231
566.292654	2462.603654
566.648638	2444.959615
567.004567	2424.795000
567.360441	2460.083077
567.716260	2545.782692
568.072023	2460.083077
568.427732	2437.397885
568.783385	2528.138654
569.138982	2495.371154
569.494525	2447.480192
569.850013	2570.988462
570.205445	2457.562500
570.560823	2487.809423
570.916145	2507.974038
571.271412	2528.138654
571.626625	2520.576923
571.981782	2639.044038
572.336884	2407.150962
572.691931	2523.097500
573.046923	2518.056346
573.401860	2530.659231
573.756743	2578.550192
574.111570	2578.550192
574.466342	2480.247692
574.821059	2513.015192
575.175722	2555.865000
575.530330	2578.550192
575.884882	2432.356731
576.239380	2500.412308
576.593823	2666.770385
576.948211	2432.356731
577.302544	2548.303269
577.656823	2429.836154
578.011047	2515.535769
578.365216	2507.974038
578.719330	2450.000769
579.073389	2518.056346
579.427394	2500.412308
579.781344	2376.904038
580.135239	2427.315577
580.489080	2565.947308
580.842866	2528.138654
581.196597	2540.741538
581.550273	2482.768269
581.903895	2538.220962
582.257463	2497.891731
582.610975	2513.015192
582.964434	2465.124231
583.317837	2450.000769
583.671186	2568.467885
584.024481	2573.509038
584.377721	2505.453462
584.730906	2487.809423
585.084037	2520.576923
585.437113	2533.179808
585.790135	2490.330000
586.143103	2427.315577
586.496016	2558.385577
586.848874	2545.782692
587.201679	2540.741538
587.554428	2550.823846
587.907124	2437.397885
588.259765	2523.097500
588.612352	2467.644808
588.964884	2490.330000
589.317362	2429.836154
589.669786	2477.727115
590.022155	2470.165385
590.374470	2497.891731
590.726731	2455.041923
591.078937	2480.247692
591.431090	2492.850577
591.783188	2581.070769
592.135232	2462.603654
592.487222	2366.821731
592.839157	2535.700385
593.191038	2550.823846
593.542866	2460.083077
593.894639	2500.412308
594.246358	2422.274423
594.598022	2492.850577
594.949633	2530.659231
595.301190	2570.988462
595.652692	2455.041923
596.004141	2505.453462
596.355535	2500.412308
596.706876	2490.330000
597.058162	2535.700385
597.409395	2457.562500
597.760573	2497.891731
598.111698	2540.741538
598.462768	2444.959615
598.813785	2518.056346
599.164748	2533.179808
599.515657	2533.179808
599.866511	2555.865000
600.217312	2533.179808
600.568060	2553.344423
600.918753	2565.947308
601.269392	2530.659231
601.619978	2442.439038
601.970510	2475.206538
602.320988	2434.877308
602.671412	2558.385577
603.021783	2485.288846
603.372100	2480.247692
603.722363	2442.439038
604.072572	2507.974038
604.422728	2472.685962
604.772830	2528.138654
605.122878	2530.659231
605.472872	2470.165385
605.822813	2432.356731
606.172701	2525.618077
606.522534	2528.138654
606.872314	2475.206538
607.222041	2550.823846
607.571714	2455.041923
607.921333	2477.727115
608.270899	2477.727115
608.620411	2477.727115
608.969870	2475.206538
609.319276	2497.891731
609.668627	2538.220962
610.017926	2502.932885
610.367171	2502.932885
610.716362	2497.891731
611.065500	2492.850577
611.414585	2482.768269
611.763616	2485.288846
612.112594	2475.206538
612.461518	2452.521346
612.810389	2480.247692
613.159207	2515.535769
613.507971	2412.192115
613.856682	2472.685962
614.205340	2540.741538
614.553945	2480.247692
614.902496	2432.356731
615.250994	2515.535769
615.599439	2475.206538
615.947830	2500.412308
616.296169	2475.206538
616.644454	2576.029615
616.992686	2467.644808
617.340864	2477.727115
617.688990	2510.494615
618.037063	2533.179808
618.385082	2487.809423
618.733048	2437.397885
619.080961	2558.385577
619.428821	2596.194231
619.776628	2429.836154
620.124382	2447.480192
620.472083	2452.521346
620.819731	2588.632500
621.167326	2497.891731
621.514868	2535.700385
621.862357	2593.673654
622.209793	2555.865000
622.557176	2497.891731
622.904506	2533.179808
623.251783	2523.097500
623.599007	2545.782692
623.946179	2497.891731
624.293297	2507.974038
624.640363	2480.247692
624.987376	2495.371154
625.334336	2492.850577
625.681243	2523.097500
626.028097	2437.397885
626.374899	2480.247692
626.721647	2472.685962
627.068343	2525.618077
627.414987	2510.494615
627.761577	2518.056346
628.108115	2560.906154
628.454600	2520.576923
628.801032	2558.385577
629.147412	2560.906154
629.493739	2452.521346
629.840014	2565.947308
630.186236	2455.041923
630.532405	2528.138654
630.878521	2510.494615
631.224585	2545.782692
631.570597	2533.179808
631.916556	2543.262115
632.262462	2442.439038
632.608316	2535.700385
632.954117	2513.015192
633.299866	2535.700385
633.645562	2535.700385
633.991206	2465.124231
634.336797	2487.809423
634.682336	2515.535769
635.027823	2497.891731
635.373257	2523.097500
635.718639	2533.179808
636.063968	2497.891731
636.409245	2528.138654
636.754470	2497.891731
637.099642	2444.959615
637.444762	2475.206538
637.789829	2533.179808
638.134845	2442.439038
638.479808	2492.850577
638.824719	2447.480192
639.169577	2502.932885
639.514383	2535.700385
639.859137	2490.330000
640.203839	2470.165385
640.548489	2497.891731
640.893086	2530.659231
641.237632	2417.233269
641.582125	2520.576923
641.926566	2525.618077
642.270955	2507.974038
642.615292	2495.371154
642.959576	2462.603654
643.303809	2520.576923
643.647990	2477.727115
643.992118	2472.685962
644.336195	2422.274423
644.680219	2555.865000
645.024192	2485.288846
645.368112	2472.685962
645.711981	2520.576923
646.055797	2560.906154
646.399562	2513.015192
646.743274	2548.303269
647.086935	2460.083077
647.430544	2500.412308
647.774101	2495.371154
648.117606	2565.947308
648.461059	2487.809423
648.804460	2429.836154
649.147810	2490.330000
649.491108	2523.097500
649.834354	2437.397885
650.177548	2543.262115
650.520690	2520.576923
650.863781	2480.247692
651.206820	2465.124231
651.549807	2477.727115
651.892742	2515.535769
652.235626	2545.782692
652.578458	2470.165385
652.921238	2507.974038
653.263967	2502.932885
653.606644	2553.344423
653.949269	2548.303269
654.291843	2510.494615
654.634365	2497.891731
654.976836	2505.453462
655.319255	2455.041923
655.661622	2563.426731
656.003938	2470.165385
656.346203	2422.274423
656.688416	2492.850577
657.030577	2533.179808
657.372687	2530.659231
657.714746	2555.865000
658.056753	2475.206538
658.398708	2550.823846
658.740612	2470.165385
659.082465	2520.576923
659.424266	2432.356731
659.766016	2437.397885
660.107715	2530.659231
660.449362	2384.465769
660.790958	2450.000769
661.132503	2535.700385
661.473996	2487.809423
661.815438	2465.124231
662.156829	2422.274423
662.498168	2434.877308
662.839456	2492.850577
663.180693	2492.850577
663.521879	2492.850577
663.863013	2470.165385
664.204097	2457.562500
664.545129	2505.453462
664.886110	2545.782692
665.227040	2480.247692
665.567918	2460.083077
665.908746	2507.974038
666.249522	2563.426731
666.590248	2573.509038
666.930922	2505.453462
667.271545	2429.836154
667.612118	2507.974038
667.952639	2500.412308
668.293109	2520.576923
668.633528	2462.603654
668.973896	2545.782692
669.314213	2472.685962
669.654480	2450.000769
669.994695	2565.947308
670.334859	2520.576923
670.674973	2417.233269
671.015035	2399.589231
671.355047	2495.371154
671.695008	2523.097500
672.034918	2450.000769
672.374777	2452.521346
672.714585	2480.247692
673.054342	2523.097500
673.394049	2495.371154
673.733705	2455.041923
674.073310	2586.111923
674.412864	2465.124231
674.752368	2565.947308
675.091820	2492.850577
675.431223	2563.426731
675.770574	2497.891731
676.109875	2502.932885
676.449125	2472.685962
676.788324	2475.206538
677.127473	2465.124231
677.466571	2518.056346
677.805619	2565.947308
678.144616	2540.741538
678.483562	2502.932885
678.822458	2523.097500
679.161303	2583.591346
679.500098	2386.986346
679.838842	2540.741538
680.177535	2586.111923
680.516179	2465.124231
680.854771	2540.741538
681.193314	2492.850577
681.531805	2490.330000
681.870247	2447.480192
682.208638	2477.727115
682.546978	2560.906154
682.885268	2490.330000
683.223508	2485.288846
683.561697	2558.385577
683.899836	2518.056346
684.237925	2515.535769
684.575963	2389.506923
684.913951	2553.344423
685.251889	2507.974038
685.589776	2513.015192
685.927614	2462.603654
686.265401	2570.988462
686.603137	2515.535769
686.940824	2543.262115
687.278460	2505.453462
687.616046	2490.330000
687.953582	2444.959615
688.291068	2538.220962
688.628504	2560.906154
688.965889	2472.685962
689.303224	2500.412308
689.640510	2482.768269
689.977745	2578.550192
690.314930	2500.412308
690.652065	2495.371154
690.989150	2520.576923
691.326185	2419.753846
691.663170	2548.303269
692.000105	2550.823846
692.336990	2533.179808
692.673825	2515.535769
693.010610	2555.865000
693.347345	2417.233269
693.684030	2460.083077
694.020665	2480.247692
694.357251	2477.727115
694.693786	2442.439038
695.030272	2442.439038
695.366707	2530.659231
695.703093	2525.618077
696.039429	2497.891731
696.375716	2460.083077
696.711952	2520.576923
697.048139	2465.124231
697.384276	2533.179808
697.720363	2598.714808
698.056400	2490.330000
698.392388	2460.083077
698.728326	2538.220962
699.064214	2424.795000
699.400053	2497.891731
699.735842	2545.782692
700.071581	2404.630385
700.407270	2543.262115
700.742910	2513.015192
701.078501	2533.179808
701.414042	2543.262115
701.749533	2427.315577
702.084974	2485.288846
702.420366	2414.712692
702.755709	2550.823846
703.091002	2450.000769
703.426246	2432.356731
703.761440	2568.467885
704.096584	2523.097500
704.431679	2576.029615
704.766725	2455.041923
705.101721	2540.741538
705.436668	2492.850577
705.771565	2515.535769
706.106413	2507.974038
706.441212	2553.344423
706.775961	2540.741538
707.110661	2485.288846
707.445311	2487.809423
707.779913	2492.850577
708.114465	2520.576923
708.448967	2500.412308
708.783421	2467.644808
709.117825	2462.603654
709.452180	2540.741538
709.786485	2460.083077
710.120742	2500.412308
710.454949	2412.192115
710.789107	2530.659231
711.123216	2480.247692
711.457275	2505.453462
711.791286	2520.576923
712.125247	2475.206538
712.459159	2475.206538
712.793023	2419.753846
713.126837	2518.056346
713.460602	2510.494615
713.794318	2487.809423
714.127985	2472.685962
714.461602	2505.453462
714.795171	2563.426731
715.128691	2586.111923
715.462162	2442.439038
715.795584	2520.576923
716.128957	2563.426731
716.462281	2545.782692
716.795556	2558.385577
717.128782	2540.741538
717.461960	2485.288846
717.795088	2495.371154
718.128167	2518.056346
718.461198	2497.891731
718.794180	2520.576923
719.127113	2477.727115
719.459997	2442.439038
719.792833	2497.891731
720.125619	2447.480192
720.458357	2555.865000
720.791046	2472.685962
721.123686	2540.741538
721.456278	2472.685962
721.788821	2492.850577
722.121315	2422.274423
722.453761	2510.494615
722.786158	2470.165385
723.118506	2495.371154
723.450805	2450.000769
723.783056	2540.741538
724.115259	2439.918462
724.447412	2515.535769
724.779518	2528.138654
725.111574	2525.618077
725.443582	2611.317692
725.775542	2485.288846
726.107453	2472.685962
726.439315	2427.315577
726.771129	2513.015192
727.102895	2470.165385
727.434612	2538.220962
727.766281	2560.906154
728.097901	2502.932885
728.429473	2490.330000
728.760996	2359.260000
729.092471	2538.220962
729.423897	2525.618077
729.755276	2606.276538
730.086606	2495.371154
730.417887	2520.576923
730.749120	2558.385577
731.080305	2528.138654
731.411442	2412.192115
731.742530	2462.603654
732.073570	2409.671538
732.404562	2492.850577
732.735506	2563.426731
733.066401	2434.877308
733.397249	2470.165385
733.728048	2480.247692
734.058798	2500.412308
734.389501	2465.124231
734.720156	2417.233269
735.050762	2545.782692
735.381320	2576.029615
735.711831	2550.823846
736.042293	2467.644808
736.372707	2472.685962
736.703073	2472.685962
737.033391	2432.356731
737.363661	2404.630385
737.693883	2492.850577
738.024056	2455.041923
738.354182	2515.535769
738.684260	2515.535769
739.014290	2472.685962
739.344272	2540.741538
739.674207	2467.644808
740.004093	2528.138654
740.333931	2472.685962
740.663722	2545.782692
740.993464	2404.630385
741.323159	2492.850577
741.652806	2553.344423
741.982405	2480.247692
742.311956	2452.521346
742.641460	2467.644808
742.970915	2480.247692
743.300323	2414.712692
743.629683	2540.741538
743.958996	2555.865000
744.288260	2563.426731
744.617477	2450.000769
744.946647	2477.727115
745.275768	2379.424615
745.604842	2568.467885
745.933869	2480.247692
746.262847	2540.741538
746.591778	2482.768269
746.920662	2596.194231
747.249498	2482.768269
747.578286	2525.618077
747.907027	2515.535769
748.235720	2505.453462
748.564365	2518.056346
748.892963	2460.083077
749.221514	2502.932885
749.550017	2447.480192
749.878473	2462.603654
750.206881	2487.809423
750.535242	2510.494615
750.863555	2490.330000
751.191821	2422.274423
751.520039	2520.576923
751.848210	2538.220962
752.176334	2485.288846
752.504411	2525.618077
752.832440	2520.576923
753.160421	2470.165385
753.488356	2497.891731
753.816243	2432.356731
754.144082	2533.179808
754.471875	2414.712692
754.799620	2520.576923
755.127318	2437.397885
755.454969	2429.836154
755.782572	2515.535769
756.110129	2502.932885
756.437638	2540.741538
756.765100	2578.550192
757.092515	2565.947308
757.419882	2462.603654
757.747203	2470.165385
758.074477	2495.371154
758.401703	2502.932885
758.728882	2366.821731
759.056014	2470.165385
759.383099	2480.247692
759.710138	2462.603654
760.037129	2581.070769
760.364073	2543.262115
760.690970	2555.865000
761.017820	2485.288846
761.344623	2535.700385
761.671379	2545.782692
761.998088	2485.288846
762.324751	2492.850577
762.651366	2482.768269
762.977935	2492.850577
763.304456	2492.850577
763.630931	2497.891731
763.957359	2455.041923
764.283740	2439.918462
764.610074	2525.618077
764.936362	2490.330000
765.262602	2548.303269
765.588796	2457.562500
765.914943	2530.659231
766.241044	2492.850577
766.567097	2495.371154
766.893104	2513.015192
767.219064	2487.809423
767.544978	2444.959615
767.870845	2520.576923
768.196665	2492.850577
768.522438	2460.083077
768.848165	2467.644808
769.173846	2467.644808
769.499479	2520.576923
769.825066	2480.247692
770.150607	2520.576923
770.476101	2467.644808
770.801548	2533.179808
771.126949	2500.412308
771.452303	2515.535769
771.777611	2465.124231
772.102872	2553.344423
772.428087	2550.823846
772.753256	2414.712692
773.078378	2598.714808
773.403453	2513.015192
773.728482	2455.041923
774.053465	2616.358846
774.378401	2392.027500
774.703291	2528.138654
775.028135	2465.124231
775.352932	2492.850577
775.677683	2452.521346
776.002388	2540.741538
776.327046	2492.850577
776.651658	2578.550192
776.976224	2480.247692
777.300743	2500.412308
777.625216	2500.412308
777.949643	2475.206538
778.274024	2507.974038
778.598359	2465.124231
778.922647	2480.247692
779.246889	2475.206538
779.571086	2513.015192
779.895236	2528.138654
780.219339	2502.932885
780.543397	2505.453462
780.867409	2477.727115
781.191374	2465.124231
781.515294	2477.727115
781.839167	2485.288846
782.162995	2538.220962
782.486776	2548.303269
782.810511	2422.274423
783.134201	2442.439038
783.457844	2588.632500
783.781441	2452.521346
784.104993	2417.233269
784.428498	2495.371154
784.751958	2450.000769
785.075372	2482.768269
785.398739	2450.000769
785.722061	2513.015192
786.045337	2472.685962
786.368568	2525.618077
786.691752	2490.330000
787.014891	2460.083077
787.337983	2429.836154
787.661030	2490.330000
787.984031	2477.727115
788.306987	2520.576923
788.629897	2555.865000
788.952760	2515.535769
789.275579	2515.535769
789.598351	2588.632500
789.921078	2470.165385
790.243759	2502.932885
790.566395	2487.809423
790.888984	2497.891731
791.211529	2502.932885
791.534027	2545.782692
791.856480	2414.712692
792.178888	2563.426731
792.501249	2533.179808
792.823566	2505.453462
793.145836	2457.562500
793.468062	2563.426731
793.790241	2505.453462
794.112375	2535.700385
794.434464	2492.850577
794.756507	2598.714808
795.078505	2429.836154
795.400457	2507.974038
795.722364	2482.768269
796.044226	2576.029615
796.366042	2462.603654
796.687812	2576.029615
797.009538	2452.521346
797.331218	2530.659231
797.652852	2477.727115
797.974442	2450.000769
798.295986	2487.809423
798.617484	2555.865000
798.938938	2475.206538
799.260346	2528.138654
799.581709	2460.083077
799.903026	2497.891731
800.224299	2442.439038
800.545526	2548.303269
800.866708	2608.797115
801.187845	2485.288846
801.508936	2538.220962
801.829983	2565.947308
802.150984	2513.015192
802.471940	2523.097500
802.792851	2422.274423
803.113717	2472.685962
803.434538	2472.685962
803.755314	2530.659231
804.076045	2429.836154
804.396731	2485.288846
804.717372	2434.877308
805.037967	2475.206538
805.358518	2450.000769
805.679024	2455.041923
805.999485	2513.015192
806.319901	2467.644808
806.640272	2502.932885
806.960598	2545.782692
807.280879	2432.356731
807.601115	2480.247692
807.921306	2487.809423
808.241453	2460.083077
808.561554	2487.809423
808.881611	2515.535769
809.201623	2530.659231
809.521590	2452.521346
809.841513	2439.918462
810.161390	2518.056346
810.481223	2568.467885
810.801011	2384.465769
811.120755	2505.453462
811.440453	2490.330000
811.760107	2492.850577
812.079716	2432.356731
812.399281	2492.850577
812.718801	2487.809423
813.038276	2480.247692
813.357707	2450.000769
813.677093	2500.412308
813.996434	2460.083077
814.315731	2482.768269
814.634983	2555.865000
814.954191	2485.288846
815.273354	2515.535769
815.592473	2470.165385
815.911547	2565.947308
816.230577	2427.315577
816.549562	2422.274423
816.868502	2502.932885
817.187399	2530.659231
817.506250	2402.109808
817.825058	2513.015192
818.143821	2424.795000
818.462539	2480.247692
818.781213	2510.494615
819.099843	2500.412308
819.418429	2444.959615
819.736970	2502.932885
820.055466	2505.453462
820.373919	2485.288846
820.692327	2470.165385
821.010691	2487.809423
821.329011	2535.700385
821.647286	2492.850577
821.965517	2543.262115
822.283704	2439.918462
822.601847	2563.426731
822.919945	2487.809423
823.237999	2535.700385
823.556010	2505.453462
823.873976	2530.659231
824.191897	2550.823846
824.509775	2467.644808
824.827609	2528.138654
825.145398	2432.356731
825.463144	2545.782692
825.780845	2455.041923
826.098502	2422.274423
826.416116	2523.097500
826.733685	2545.782692
827.051210	2442.439038
827.368692	2538.220962
827.686129	2495.371154
828.003522	2434.877308
828.320872	2467.644808
828.638177	2555.865000
828.955439	2543.262115
829.272656	2553.344423
829.589830	2447.480192
829.906960	2412.192115
830.224046	2523.097500
830.541088	2581.070769
830.858086	2460.083077
831.175041	2543.262115
831.491952	2495.371154
831.808819	2520.576923
832.125642	2545.782692
832.442421	2444.959615
832.759157	2515.535769
833.075849	2568.467885
833.392497	2480.247692
833.709101	2497.891731
834.025662	2528.138654
834.342179	2422.274423
834.658653	2548.303269
834.975083	2450.000769
835.291469	2417.233269
835.607811	2538.220962
835.924110	2460.083077
836.240366	2543.262115
836.556578	2475.206538
836.872746	2608.797115
837.188871	2487.809423
837.504952	2439.918462
837.820990	2465.124231
838.136984	2457.562500
838.452935	2533.179808
838.768842	2437.397885
839.084706	2480.247692
839.400526	2447.480192
839.716303	2502.932885
840.032037	2475.206538
840.347727	2502.932885
840.663373	2555.865000
840.978977	2518.056346
841.294537	2545.782692
841.610054	2467.644808
841.925527	2530.659231
842.240957	2432.356731
842.556344	2548.303269
842.871687	2548.303269
843.186987	2482.768269
843.502244	2475.206538
843.817458	2510.494615
844.132629	2502.932885
844.447756	2472.685962
844.762840	2485.288846
845.077881	2507.974038
845.392879	2525.618077
845.707833	2505.453462
846.022745	2480.247692
846.337613	2422.274423
846.652438	2482.768269
846.967221	2472.685962
847.281960	2412.192115
847.596656	2490.330000
847.911309	2465.124231
848.225919	2560.906154
848.540485	2505.453462
848.855009	2419.753846
849.169490	2470.165385
849.483928	2507.974038
849.798323	2490.330000
850.112675	2518.056346
850.426984	2515.535769
850.741251	2450.000769
851.055474	2548.303269
851.369654	2460.083077
851.683792	2523.097500
851.997887	2543.262115
852.311938	2480.247692
852.625947	2477.727115
852.939914	2490.330000
853.253837	2490.330000
853.567718	2510.494615
853.881555	2495.371154
854.195350	2528.138654
854.509103	2535.700385
854.822812	2470.165385
855.136479	2475.206538
855.450103	2452.521346
855.763685	2412.192115
856.077224	2497.891731
856.390720	2545.782692
856.704173	2548.303269
857.017584	2480.247692
857.330953	2515.535769
857.644278	2457.562500
857.957561	2487.809423
858.270802	2452.521346
858.584000	2485.288846
858.897155	2533.179808
859.210268	2477.727115
859.523339	2482.768269
859.836367	2545.782692
860.149352	2528.138654
860.462295	2530.659231
860.775195	2533.179808
861.088054	2409.671538
861.400869	2442.439038
861.713642	2513.015192
862.026373	2545.782692
862.339062	2429.836154
862.651708	2475.206538
862.964312	2485.288846
863.276873	2490.330000
863.589392	2422.274423
863.901869	2470.165385
864.214303	2477.727115
864.526696	2487.809423
864.839045	2540.741538
865.151353	2500.412308
865.463619	2525.618077
865.775842	2543.262115
866.088023	2533.179808
866.400162	2369.342308
866.712258	2510.494615
867.024313	2497.891731
867.336325	2525.618077
867.648296	2339.095385
867.960224	2560.906154
868.272110	2475.206538
868.583954	2427.315577
868.895755	2462.603654
869.207515	2535.700385
869.519233	2409.671538
869.830909	2507.974038
870.142542	2497.891731
870.454134	2470.165385
870.765684	2553.344423
871.077191	2389.506923
871.388657	2573.509038
871.700081	2477.727115
872.011463	2510.494615
872.322803	2444.959615
872.634101	2455.041923
872.945357	2475.206538
873.256571	2442.439038
873.567744	2394.548077
873.878874	2523.097500
874.189963	2513.015192
874.501010	2487.809423
874.812015	2540.741538
875.122979	2437.397885
875.433900	2500.412308
875.744780	2485.288846
876.055618	2437.397885
876.366415	2439.918462
876.677169	2462.603654
876.987882	2465.124231
877.298554	2528.138654
877.609183	2472.685962
877.919771	2470.165385
878.230317	2465.124231
878.540822	2432.356731
878.851285	2457.562500
879.161707	2520.576923
879.472087	2495.371154
879.782425	2432.356731
880.092722	2480.247692
880.402977	2487.809423
880.713191	2510.494615
881.023363	2437.397885
881.333494	2495.371154
881.643583	2495.371154
881.953631	2462.603654
882.263637	2500.412308
882.573602	2462.603654
882.883526	2497.891731
883.193408	2507.974038
883.503248	2480.247692
883.813048	2434.877308
884.122806	2480.247692
884.432522	2447.480192
884.742197	2593.673654
885.051831	2545.782692
885.361424	2507.974038
885.670975	2631.482308
885.980485	2553.344423
886.289954	2520.576923
886.599382	2513.015192
886.908768	2507.974038
887.218113	2394.548077
887.527417	2424.795000
887.836680	2460.083077
888.145901	2485.288846
888.455082	2523.097500
888.764221	2432.356731
889.073319	2523.097500
889.382376	2429.836154
889.691392	2422.274423
890.000366	2460.083077
890.309300	2424.795000
890.618193	2576.029615
890.927044	2470.165385
891.235855	2439.918462
891.544625	2439.918462
891.853353	2502.932885
892.162041	2467.644808
892.470687	2444.959615
892.779293	2591.153077
893.087858	2419.753846
893.396381	2475.206538
893.704864	2472.685962
894.013306	2442.439038
894.321707	2510.494615
894.630068	2520.576923
894.938387	2467.644808
895.246665	2500.412308
895.554903	2545.782692
895.863100	2480.247692
896.171256	2495.371154
896.479371	2437.397885
896.787446	2495.371154
897.095480	2492.850577
897.403473	2490.330000
897.711425	2528.138654
898.019336	2553.344423
898.327207	2492.850577
898.635038	2455.041923
898.942827	2550.823846
899.250576	2452.521346
899.558284	2475.206538
899.865952	2530.659231
900.173579	2437.397885
900.481165	2485.288846
900.788711	2515.535769
901.096216	2543.262115
901.403681	2465.124231
901.711105	2563.426731
902.018489	2457.562500
902.325832	2422.274423
902.633135	2480.247692
902.940397	2432.356731
903.247619	2475.206538
903.554800	2452.521346
903.861941	2480.247692
904.169041	2399.589231
904.476101	2576.029615
904.783121	2558.385577
905.090100	2535.700385
905.397039	2505.453462
905.703938	2485.288846
906.010796	2528.138654
906.317614	2467.644808
906.624391	2497.891731
906.931129	2543.262115
907.237826	2467.644808
907.544483	2462.603654
907.851099	2502.932885
908.157675	2497.891731
908.464211	2581.070769
908.770707	2492.850577
909.077163	2439.918462
909.383578	2404.630385
909.689954	2543.262115
909.996289	2530.659231
910.302584	2475.206538
910.608839	2455.041923
910.915054	2452.521346
911.221229	2439.918462
911.527363	2550.823846
911.833458	2462.603654
912.139513	2578.550192
912.445527	2465.124231
912.751502	2495.371154
913.057436	2485.288846
913.363331	2495.371154
913.669186	2472.685962
913.975000	2487.809423
914.280775	2553.344423
914.586510	2487.809423
914.892205	2497.891731
915.197859	2505.453462
915.503475	2397.068654
915.809050	2510.494615
916.114585	2462.603654
916.420081	2477.727115
916.725536	2507.974038
917.030952	2497.891731
917.336328	2530.659231
917.641665	2475.206538
917.946961	2462.603654
918.252218	2402.109808
918.557435	2518.056346
918.862612	2540.741538
919.167750	2502.932885
919.472848	2500.412308
919.777906	2545.782692
920.082925	2457.562500
920.387904	2530.659231
920.692843	2434.877308
920.997743	2500.412308
921.302603	2502.932885
921.607423	2507.974038
921.912204	2460.083077
922.216946	2467.644808
922.521647	2439.918462
922.826310	2490.330000
923.130932	2397.068654
923.435516	2439.918462
923.740059	2502.932885
924.044564	2470.165385
924.349028	2414.712692
924.653454	2513.015192
924.957840	2465.124231
925.262186	2475.206538
925.566493	2485.288846
925.870761	2457.562500
926.174989	2429.836154
926.479178	2502.932885
926.783328	2543.262115
927.087438	2487.809423
927.391509	2477.727115
927.695541	2450.000769
927.999533	2545.782692
928.303486	2495.371154
928.607400	2518.056346
928.911275	2442.439038
929.215110	2439.918462
929.518906	2507.974038
929.822663	2528.138654
930.126381	2477.727115
930.430060	2495.371154
930.733699	2439.918462
931.037299	2452.521346
931.340861	2477.727115
931.644383	2482.768269
931.947866	2497.891731
932.251309	2530.659231
932.554714	2434.877308
932.858080	2472.685962
933.161407	2540.741538
933.464694	2492.850577
933.767943	2490.330000
934.071153	2513.015192
934.374323	2444.959615
934.677455	2515.535769
934.980548	2485.288846
935.283602	2530.659231
935.586617	2490.330000
935.889593	2482.768269
936.192530	2407.150962
936.495428	2442.439038
936.798287	2560.906154
937.101108	2434.877308
937.403890	2510.494615
937.706632	2533.179808
938.009336	2424.795000
938.312002	2485.288846
938.614628	2402.109808
938.917216	2470.165385
939.219765	2520.576923
939.522275	2381.945192
939.824747	2528.138654
940.127179	2480.247692
940.429573	2545.782692
940.731929	2565.947308
941.034246	2530.659231
941.336524	2482.768269
941.638763	2419.753846
941.940964	2573.509038
942.243126	2482.768269
942.545250	2510.494615
942.847335	2570.988462
943.149381	2515.535769
943.451389	2434.877308
943.753359	2495.371154
944.055290	2495.371154
944.357182	2515.535769
944.659036	2518.056346
944.960851	2442.439038
945.262628	2497.891731
945.564367	2573.509038
945.866067	2523.097500
946.167729	2487.809423
946.469352	2470.165385
946.770937	2518.056346
947.072484	2490.330000
947.373992	2535.700385
947.675462	2417.233269
947.976893	2520.576923
948.278286	2462.603654
948.579641	2475.206538
948.880958	2427.315577
949.182236	2447.480192
949.483476	2455.041923
949.784678	2439.918462
950.085841	2462.603654
950.386967	2462.603654
950.688054	2477.727115
950.989103	2538.220962
951.290114	2505.453462
951.591087	2480.247692
951.892021	2535.700385
952.192917	2442.439038
952.493776	2386.986346
952.794596	2497.891731
953.095378	2455.041923
953.396122	2412.192115
953.696828	2470.165385
953.997496	2452.521346
954.298126	2487.809423
954.598718	2407.150962
954.899272	2530.659231
955.199788	2505.453462
955.500266	2470.165385
955.800706	2492.850577
956.101108	2497.891731
956.401472	2460.083077
956.701798	2573.509038
957.002087	2470.165385
957.302337	2439.918462
957.602550	2502.932885
957.902724	2570.988462
958.202861	2480.247692
958.502960	2455.041923
958.803022	2460.083077
959.103045	2500.412308
959.403031	2525.618077
959.702979	2460.083077
960.002889	2472.685962
960.302762	2550.823846
960.602596	2460.083077
960.902393	2502.932885
961.202153	2460.083077
961.501875	2545.782692
961.801559	2505.453462
962.101205	2530.659231
962.400814	2424.795000
962.700385	2444.959615
962.999918	2467.644808
963.299414	2507.974038
963.598873	2601.235385
963.898293	2487.809423
964.197677	2477.727115
964.497022	2528.138654
964.796331	2518.056346
965.095601	2550.823846
965.394835	2437.397885
965.694030	2417.233269
965.993189	2457.562500
966.292309	2497.891731
966.591393	2465.124231
966.890439	2361.780577
967.189447	2518.056346
967.488419	2518.056346
967.787353	2487.809423
968.086249	2523.097500
968.385108	2419.753846
968.683930	2427.315577
968.982714	2457.562500
969.281462	2497.891731
969.580172	2480.247692
969.878844	2485.288846
970.177480	2452.521346
970.476078	2487.809423
970.774639	2457.562500
971.073162	2470.165385
971.371649	2497.891731
971.670098	2500.412308
971.968510	2518.056346
972.266885	2407.150962
972.565223	2560.906154
972.863524	2588.632500
973.161788	2535.700385
973.460014	2502.932885
973.758204	2528.138654
974.056356	2465.124231
974.354471	2563.426731
974.652550	2462.603654
974.950591	2480.247692
975.248595	2447.480192
975.546563	2553.344423
975.844493	2470.165385
976.142386	2530.659231
976.440243	2505.453462
976.738062	2482.768269
977.035845	2470.165385
977.333590	2515.535769
977.631299	2555.865000
977.928971	2487.809423
978.226606	2419.753846
978.524204	2470.165385
978.821765	2457.562500
979.119290	2538.220962
979.416777	2487.809423
979.714228	2455.041923
980.011642	2414.712692
980.309020	2548.303269
980.606360	2487.809423
980.903664	2487.809423
981.200931	2492.850577
981.498162	2432.356731
981.795356	2472.685962
982.092513	2548.303269
982.389633	2538.220962
982.686717	2460.083077
982.983764	2500.412308
983.280775	2545.782692
983.577749	2568.467885
983.874686	2507.974038
984.171587	2530.659231
984.468451	2450.000769
984.765279	2402.109808
985.062070	2492.850577
985.358824	2457.562500
985.655543	2500.412308
985.952224	2429.836154
986.248869	2525.618077
986.545478	2465.124231
986.842050	2538.220962
987.138586	2434.877308
987.435086	2455.041923
987.731549	2523.097500
988.027975	2492.850577
988.324366	2502.932885
988.620719	2472.685962
988.917037	2482.768269
989.213318	2535.700385
989.509563	2460.083077
989.805772	2555.865000
990.101944	2409.671538
990.398080	2530.659231
990.694180	2442.439038
990.990244	2500.412308
991.286271	2432.356731
991.582262	2545.782692
991.878217	2439.918462
992.174136	2535.700385
992.470019	2434.877308
992.765865	2465.124231
993.061676	2573.509038
993.357450	2460.083077
993.653188	2397.068654
993.948890	2447.480192
994.244556	2563.426731
994.540186	2581.070769
994.835780	2550.823846
995.131337	2608.797115
995.426859	2487.809423
995.722345	2480.247692
996.017795	2444.959615
996.313208	2419.753846
996.608586	2523.097500
996.903928	2467.644808
997.199234	2490.330000
997.494504	2497.891731
997.789738	2475.206538
998.084936	2601.235385
998.380099	2497.891731
998.675225	2510.494615
998.970316	2507.974038
999.265371	2492.850577
999.560390	2429.836154
999.855373	2492.850577
1000.150320	2424.795000
1000.445232	2563.426731
1000.740108	2495.371154
1001.034948	2490.330000
1001.329752	2429.836154
1001.624521	2452.521346
1001.919254	2460.083077
1002.213951	2477.727115
1002.508613	2455.041923
1002.803239	2419.753846
1003.097829	2465.124231
1003.392384	2525.618077
1003.686903	2467.644808
1003.981386	2502.932885
1004.275834	2485.288846
1004.570246	2507.974038
1004.864623	2477.727115
1005.158964	2492.850577
1005.453270	2480.247692
1005.747540	2462.603654
1006.041775	2427.315577
1006.335974	2543.262115
1006.630138	2419.753846
1006.924266	2434.877308
1007.218359	2520.576923
1007.512416	2422.274423
1007.806438	2424.795000
1008.100425	2570.988462
1008.394376	2518.056346
1008.688292	2510.494615
1008.982172	2480.247692
1009.276017	2477.727115
1009.569827	2424.795000
1009.863602	2497.891731
1010.157341	2560.906154
1010.451045	2470.165385
1010.744714	2467.644808
1011.038347	2548.303269
1011.331945	2513.015192
1011.625508	2540.741538
1011.919036	2359.260000
1012.212528	2543.262115
1012.505986	2523.097500
1012.799408	2525.618077
1013.092795	2555.865000
1013.386147	2404.630385
1013.679464	2434.877308
1013.972745	2414.712692
1014.265992	2437.397885
1014.559204	2417.233269
1014.852380	2492.850577
1015.145521	2492.850577
1015.438628	2558.385577
1015.731699	2507.974038
1016.024736	2462.603654
1016.317737	2540.741538
1016.610703	2470.165385
1016.903635	2502.932885
1017.196531	2467.644808
1017.489393	2530.659231
1017.782219	2485.288846
1018.075011	2520.576923
1018.367768	2450.000769
1018.660490	2457.562500
1018.953177	2457.562500
1019.245829	2457.562500
