Dividing Wavelength (nm)	Counts (n)	Blue Motor Position (mm): 0.000000	Red Motor Position (mm): 2.200000	
326.493990	2142.490385
326.888308	2142.490385
327.282561	2142.490385
327.676750	2104.681731
328.070874	2074.434808
328.464933	2064.352500
328.858929	2051.749615
329.252859	2056.790769
329.646726	2114.764038
330.040528	2099.640577
330.434265	2074.434808
330.827938	2129.887500
331.221547	2142.490385
331.615091	2200.463654
332.008571	2152.572692
332.401986	2180.299038
332.795338	2248.354615
333.188625	2230.710577
333.581847	2177.778462
333.975006	2291.204423
334.368100	2268.519231
334.761129	2318.930769
335.154095	2374.383462
335.546996	2329.013077
335.939833	2349.177692
336.332606	2344.136538
336.725315	2409.671538
337.117960	2462.603654
337.510540	2394.548077
337.903056	2389.506923
338.295508	2407.150962
338.687896	2429.836154
339.080220	2429.836154
339.472480	2553.344423
339.864676	2470.165385
340.256807	2422.274423
340.648875	2470.165385
341.040879	2490.330000
341.432818	2485.288846
341.824694	2480.247692
342.216506	2565.947308
342.608253	2384.465769
342.999937	2495.371154
343.391557	2507.974038
343.783113	2510.494615
344.174605	2538.220962
344.566033	2497.891731
344.957397	2518.056346
345.348697	2447.480192
345.739934	2515.535769
346.131106	2457.562500
346.522215	2407.150962
346.913260	2442.439038
347.304241	2442.439038
347.695159	2457.562500
348.086012	2492.850577
348.476802	2437.397885
348.867528	2444.959615
349.258191	2475.206538
349.648789	2437.397885
350.039324	2419.753846
350.429796	2497.891731
350.820203	2361.780577
351.210548	2427.315577
351.600828	2422.274423
351.991045	2344.136538
352.381198	2513.015192
352.771288	2424.795000
353.161314	2366.821731
353.551276	2379.424615
353.941175	2467.644808
354.331010	2455.041923
354.720782	2407.150962
355.110490	2437.397885
355.500135	2500.412308
355.889717	2381.945192
356.279235	2497.891731
356.668689	2447.480192
357.058080	2462.603654
357.447408	2505.453462
357.836672	2450.000769
358.225873	2528.138654
358.615010	2452.521346
359.004084	2434.877308
359.393095	2492.850577
359.782043	2379.424615
360.170927	2523.097500
360.559748	2439.918462
360.948505	2472.685962
361.337199	2460.083077
361.725830	2455.041923
362.114398	2424.795000
362.502903	2475.206538
362.891344	2495.371154
363.279722	2480.247692
363.668037	2507.974038
364.056289	2472.685962
364.444478	2442.439038
364.832603	2477.727115
365.220665	2450.000769
365.608665	2427.315577
365.996601	2434.877308
366.384474	2460.083077
366.772284	2482.768269
367.160031	2379.424615
367.547715	2432.356731
367.935336	2432.356731
368.322893	2414.712692
368.710388	2399.589231
369.097820	2475.206538
369.485189	2475.206538
369.872495	2404.630385
370.259738	2452.521346
370.646918	2480.247692
371.034035	2513.015192
371.421090	2457.562500
371.808081	2462.603654
372.195010	2414.712692
372.581875	2470.165385
372.968678	2414.712692
373.355418	2457.562500
373.742096	2384.465769
374.128710	2361.780577
374.515262	2424.795000
374.901751	2437.397885
375.288177	2402.109808
375.674540	2422.274423
376.060841	2525.618077
376.447079	2477.727115
376.833254	2533.179808
377.219367	2394.548077
377.605417	2500.412308
377.991404	2437.397885
378.377329	2492.850577
378.763191	2379.424615
379.148991	2523.097500
379.534727	2500.412308
379.920402	2452.521346
380.306013	2475.206538
380.691563	2480.247692
381.077049	2450.000769
381.462474	2510.494615
381.847835	2444.959615
382.233134	2513.015192
382.618371	2510.494615
383.003545	2414.712692
383.388657	2465.124231
383.773706	2407.150962
384.158693	2510.494615
384.543618	2475.206538
384.928480	2472.685962
385.313280	2417.233269
385.698017	2417.233269
386.082692	2399.589231
386.467305	2492.850577
386.851856	2500.412308
387.236344	2507.974038
387.620770	2402.109808
388.005133	2404.630385
388.389435	2404.630385
388.773674	2460.083077
389.157851	2487.809423
389.541965	2505.453462
389.926018	2462.603654
390.310008	2452.521346
390.693936	2555.865000
391.077802	2548.303269
391.461606	2497.891731
391.845348	2460.083077
392.229027	2490.330000
392.612645	2513.015192
392.996200	2417.233269
393.379694	2462.603654
393.763125	2379.424615
394.146494	2485.288846
394.529801	2444.959615
394.913047	2502.932885
395.296230	2510.494615
395.679351	2520.576923
396.062410	2507.974038
396.445408	2543.262115
396.828343	2465.124231
397.211217	2414.712692
397.594028	2485.288846
397.976778	2386.986346
398.359466	2465.124231
398.742092	2442.439038
399.124656	2497.891731
399.507158	2412.192115
399.889598	2472.685962
400.271977	2472.685962
400.654294	2520.576923
401.036549	2492.850577
401.418742	2520.576923
401.800874	2535.700385
402.182944	2465.124231
402.564952	2434.877308
402.946898	2460.083077
403.328783	2444.959615
403.710606	2472.685962
404.092367	2422.274423
404.474067	2502.932885
404.855705	2444.959615
405.237282	2422.274423
405.618797	2455.041923
406.000250	2530.659231
406.381642	2444.959615
406.762972	2417.233269
407.144240	2470.165385
407.525447	2447.480192
407.906593	2460.083077
408.287677	2548.303269
408.668700	2472.685962
409.049661	2424.795000
409.430560	2376.904038
409.811399	2535.700385
410.192176	2432.356731
410.572891	2540.741538
410.953545	2492.850577
411.334138	2492.850577
411.714669	2538.220962
412.095139	2490.330000
412.475547	2444.959615
412.855894	2540.741538
413.236180	2439.918462
413.616405	2568.467885
413.996568	2450.000769
414.376670	2513.015192
414.756711	2409.671538
415.136691	2495.371154
415.516609	2487.809423
415.896466	2475.206538
416.276262	2460.083077
416.655997	2550.823846
417.035670	2381.945192
417.415283	2502.932885
417.794834	2457.562500
418.174324	2450.000769
418.553753	2470.165385
418.933121	2480.247692
419.312428	2510.494615
419.691674	2437.397885
420.070859	2520.576923
420.449983	2495.371154
420.829045	2409.671538
421.208047	2530.659231
421.586988	2497.891731
421.965867	2505.453462
422.344686	2397.068654
422.723444	2535.700385
423.102141	2450.000769
423.480777	2442.439038
423.859352	2482.768269
424.237866	2482.768269
424.616319	2523.097500
424.994712	2490.330000
425.373044	2480.247692
425.751314	2505.453462
426.129524	2419.753846
426.507673	2535.700385
426.885762	2485.288846
427.263789	2470.165385
427.641756	2538.220962
428.019662	2490.330000
428.397508	2477.727115
428.775292	2472.685962
429.153016	2500.412308
429.530679	2417.233269
429.908282	2455.041923
430.285824	2462.603654
430.663305	2570.988462
431.040726	2545.782692
431.418086	2462.603654
431.795385	2452.521346
432.172624	2460.083077
432.549802	2455.041923
432.926920	2447.480192
433.303977	2505.453462
433.680974	2455.041923
434.057910	2439.918462
434.434786	2487.809423
434.811601	2513.015192
435.188355	2518.056346
435.565050	2467.644808
435.941683	2545.782692
436.318257	2482.768269
436.694770	2550.823846
437.071222	2502.932885
437.447614	2457.562500
437.823946	2447.480192
438.200218	2419.753846
438.576429	2434.877308
438.952580	2530.659231
439.328670	2477.727115
439.704700	2568.467885
440.080670	2414.712692
440.456580	2402.109808
440.832429	2520.576923
441.208218	2482.768269
441.583947	2502.932885
441.959616	2447.480192
442.335224	2520.576923
442.710773	2515.535769
443.086261	2530.659231
443.461689	2419.753846
443.837057	2467.644808
444.212365	2399.589231
444.587612	2472.685962
444.962800	2470.165385
445.337927	2570.988462
445.712995	2462.603654
446.088002	2530.659231
446.462949	2475.206538
446.837837	2404.630385
447.212664	2480.247692
447.587431	2470.165385
447.962139	2515.535769
448.336786	2462.603654
448.711374	2482.768269
449.085901	2450.000769
449.460369	2520.576923
449.834776	2538.220962
450.209124	2540.741538
450.583412	2576.029615
450.957640	2470.165385
451.331808	2490.330000
451.705917	2427.315577
452.079965	2444.959615
452.453954	2457.562500
452.827883	2465.124231
453.201752	2510.494615
453.575562	2467.644808
453.949311	2507.974038
454.323001	2467.644808
454.696632	2513.015192
455.070202	2470.165385
455.443713	2568.467885
455.817164	2462.603654
456.190556	2417.233269
456.563888	2485.288846
456.937160	2465.124231
457.310373	2422.274423
457.683526	2525.618077
458.056619	2502.932885
458.429653	2457.562500
458.802628	2442.439038
459.175542	2470.165385
459.548398	2437.397885
459.921194	2515.535769
460.293930	2523.097500
460.666607	2419.753846
461.039224	2495.371154
461.411782	2492.850577
461.784280	2437.397885
462.156719	2485.288846
462.529099	2550.823846
462.901419	2462.603654
463.273680	2550.823846
463.645882	2558.385577
464.018024	2528.138654
464.390106	2490.330000
464.762130	2475.206538
465.134094	2480.247692
465.505999	2492.850577
465.877845	2507.974038
466.249631	2540.741538
466.621358	2563.426731
466.993026	2530.659231
467.364634	2485.288846
467.736184	2528.138654
468.107674	2450.000769
468.479105	2545.782692
468.850477	2470.165385
469.221790	2497.891731
469.593043	2538.220962
469.964238	2510.494615
470.335373	2528.138654
470.706449	2515.535769
471.077467	2513.015192
471.448425	2482.768269
471.819324	2510.494615
472.190164	2422.274423
472.560945	2558.385577
472.931667	2545.782692
473.302330	2550.823846
473.672934	2424.795000
474.043479	2444.959615
474.413965	2417.233269
474.784393	2518.056346
475.154761	2480.247692
475.525070	2472.685962
475.895321	2492.850577
476.265513	2457.562500
476.635645	2497.891731
477.005719	2510.494615
477.375734	2500.412308
477.745691	2505.453462
478.115588	2467.644808
478.485427	2558.385577
478.855207	2465.124231
479.224928	2475.206538
479.594591	2462.603654
479.964194	2492.850577
480.333739	2507.974038
480.703226	2422.274423
481.072653	2502.932885
481.442022	2485.288846
481.811333	2555.865000
482.180584	2507.974038
482.549777	2500.412308
482.918912	2596.194231
483.287988	2482.768269
483.657005	2412.192115
484.025964	2553.344423
484.394864	2490.330000
484.763706	2492.850577
485.132489	2444.959615
485.501213	2439.918462
485.869879	2475.206538
486.238487	2550.823846
486.607036	2480.247692
486.975527	2538.220962
487.343959	2444.959615
487.712333	2492.850577
488.080648	2510.494615
488.448905	2465.124231
488.817104	2467.644808
489.185244	2548.303269
489.553326	2455.041923
489.921350	2520.576923
490.289315	2533.179808
490.657222	2553.344423
491.025070	2528.138654
491.392861	2482.768269
491.760593	2525.618077
492.128267	2470.165385
492.495883	2535.700385
492.863440	2548.303269
493.230939	2470.165385
493.598380	2578.550192
493.965763	2419.753846
494.333088	2563.426731
494.700354	2417.233269
495.067563	2525.618077
495.434713	2442.439038
495.801805	2565.947308
496.168839	2510.494615
496.535815	2477.727115
496.902733	2482.768269
497.269593	2470.165385
497.636395	2457.562500
498.003139	2389.506923
498.369825	2412.192115
498.736453	2470.165385
499.103023	2490.330000
499.469535	2598.714808
499.835989	2500.412308
500.202385	2530.659231
500.568723	2490.330000
500.935003	2535.700385
501.301226	2507.974038
501.667390	2505.453462
502.033497	2450.000769
502.399546	2475.206538
502.765537	2598.714808
503.131470	2442.439038
503.497345	2447.480192
503.863163	2535.700385
504.228923	2533.179808
504.594625	2432.356731
504.960269	2450.000769
505.325856	2397.068654
505.691385	2548.303269
506.056856	2465.124231
506.422270	2535.700385
506.787625	2450.000769
507.152924	2487.809423
507.518164	2523.097500
507.883347	2528.138654
508.248472	2407.150962
508.613540	2520.576923
508.978550	2543.262115
509.343503	2520.576923
509.708398	2583.591346
510.073236	2523.097500
510.438016	2505.453462
510.802738	2434.877308
511.167403	2434.877308
511.532010	2485.288846
511.896561	2535.700385
512.261053	2518.056346
512.625488	2472.685962
512.989866	2482.768269
513.354186	2563.426731
513.718449	2533.179808
514.082655	2492.850577
514.446803	2465.124231
514.810894	2540.741538
515.174927	2444.959615
515.538904	2429.836154
515.902822	2520.576923
516.266684	2568.467885
516.630488	2535.700385
516.994235	2412.192115
517.357925	2480.247692
517.721558	2535.700385
518.085133	2518.056346
518.448651	2422.274423
518.812112	2530.659231
519.175516	2510.494615
519.538863	2528.138654
519.902152	2538.220962
520.265385	2505.453462
520.628560	2450.000769
520.991678	2510.494615
521.354739	2502.932885
521.717743	2588.632500
522.080690	2507.974038
522.443580	2429.836154
522.806413	2535.700385
523.169189	2500.412308
523.531908	2502.932885
523.894569	2487.809423
524.257174	2515.535769
524.619722	2502.932885
524.982213	2424.795000
525.344647	2419.753846
525.707025	2518.056346
526.069345	2553.344423
526.431608	2545.782692
526.793815	2492.850577
527.155964	2530.659231
527.518057	2432.356731
527.880093	2581.070769
528.242072	2432.356731
528.603995	2520.576923
528.965860	2490.330000
529.327669	2530.659231
529.689421	2409.671538
530.051117	2540.741538
530.412755	2424.795000
530.774337	2505.453462
531.135862	2439.918462
531.497331	2505.453462
531.858743	2485.288846
532.220098	2432.356731
532.581396	2518.056346
532.942638	2434.877308
533.303824	2502.932885
533.664953	2553.344423
534.026025	2550.823846
534.387040	2533.179808
534.747999	2462.603654
535.108902	2444.959615
535.469748	2550.823846
535.830537	2444.959615
536.191270	2515.535769
536.551947	2475.206538
536.912567	2588.632500
537.273131	2505.453462
537.633638	2507.974038
537.994089	2487.809423
538.354483	2492.850577
538.714821	2442.439038
539.075103	2588.632500
539.435328	2507.974038
539.795497	2518.056346
540.155609	2485.288846
540.515665	2495.371154
540.875665	2497.891731
541.235609	2548.303269
541.595496	2563.426731
541.955328	2482.768269
542.315102	2518.056346
542.674821	2487.809423
543.034483	2543.262115
543.394090	2565.947308
543.753640	2480.247692
544.113134	2437.397885
544.472571	2533.179808
544.831953	2384.465769
545.191278	2558.385577
545.550548	2475.206538
545.909761	2437.397885
546.268918	2439.918462
546.628019	2563.426731
546.987064	2558.385577
547.346053	2573.509038
547.704986	2422.274423
548.063863	2434.877308
548.422684	2525.618077
548.781449	2447.480192
549.140158	2545.782692
549.498811	2470.165385
549.857408	2573.509038
550.215949	2588.632500
550.574434	2502.932885
550.932864	2427.315577
551.291237	2444.959615
551.649555	2460.083077
552.007817	2543.262115
552.366022	2419.753846
552.724173	2513.015192
553.082267	2497.891731
553.440305	2399.589231
553.798288	2515.535769
554.156215	2450.000769
554.514086	2510.494615
554.871902	2497.891731
555.229661	2495.371154
555.587365	2427.315577
555.945014	2505.453462
556.302606	2470.165385
556.660143	2533.179808
557.017625	2447.480192
557.375050	2462.603654
557.732421	2422.274423
558.089735	2434.877308
558.446994	2555.865000
558.804197	2502.932885
559.161345	2485.288846
559.518437	2525.618077
559.875474	2422.274423
560.232455	2462.603654
560.589381	2434.877308
560.946251	2442.439038
561.303065	2437.397885
561.659825	2581.070769
562.016528	2520.576923
562.373177	2528.138654
562.729770	2404.630385
563.086307	2442.439038
563.442789	2500.412308
563.799216	2444.959615
564.155587	2452.521346
564.511904	2462.603654
564.868164	2586.111923
565.224370	2555.865000
565.580520	2477.727115
565.936615	2495.371154
566.292654	2490.330000
566.648638	2528.138654
567.004567	2507.974038
567.360441	2518.056346
567.716260	2457.562500
568.072023	2490.330000
568.427732	2528.138654
568.783385	2588.632500
569.138982	2553.344423
569.494525	2452.521346
569.850013	2505.453462
570.205445	2568.467885
570.560823	2472.685962
570.916145	2555.865000
571.271412	2530.659231
571.626625	2568.467885
571.981782	2528.138654
572.336884	2525.618077
572.691931	2568.467885
573.046923	2399.589231
573.401860	2533.179808
573.756743	2437.397885
574.111570	2543.262115
574.466342	2487.809423
574.821059	2384.465769
575.175722	2450.000769
575.530330	2457.562500
575.884882	2429.836154
576.239380	2417.233269
576.593823	2558.385577
576.948211	2465.124231
577.302544	2452.521346
577.656823	2475.206538
578.011047	2472.685962
578.365216	2507.974038
578.719330	2548.303269
579.073389	2470.165385
579.427394	2502.932885
579.781344	2414.712692
580.135239	2513.015192
580.489080	2507.974038
580.842866	2470.165385
581.196597	2500.412308
581.550273	2518.056346
581.903895	2465.124231
582.257463	2523.097500
582.610975	2495.371154
582.964434	2485.288846
583.317837	2568.467885
583.671186	2462.603654
584.024481	2530.659231
584.377721	2457.562500
584.730906	2482.768269
585.084037	2442.439038
585.437113	2394.548077
585.790135	2550.823846
586.143103	2523.097500
586.496016	2414.712692
586.848874	2485.288846
587.201679	2482.768269
587.554428	2495.371154
587.907124	2495.371154
588.259765	2513.015192
588.612352	2442.439038
588.964884	2616.358846
589.317362	2598.714808
589.669786	2422.274423
590.022155	2485.288846
590.374470	2505.453462
590.726731	2528.138654
591.078937	2472.685962
591.431090	2419.753846
591.783188	2502.932885
592.135232	2457.562500
592.487222	2538.220962
592.839157	2565.947308
593.191038	2404.630385
593.542866	2505.453462
593.894639	2497.891731
594.246358	2427.315577
594.598022	2583.591346
594.949633	2518.056346
595.301190	2477.727115
595.652692	2518.056346
596.004141	2578.550192
596.355535	2470.165385
596.706876	2487.809423
597.058162	2533.179808
597.409395	2457.562500
597.760573	2538.220962
598.111698	2465.124231
598.462768	2543.262115
598.813785	2591.153077
599.164748	2502.932885
599.515657	2492.850577
599.866511	2462.603654
600.217312	2480.247692
600.568060	2550.823846
600.918753	2465.124231
601.269392	2384.465769
601.619978	2465.124231
601.970510	2525.618077
602.320988	2500.412308
602.671412	2447.480192
603.021783	2467.644808
603.372100	2523.097500
603.722363	2538.220962
604.072572	2550.823846
604.422728	2477.727115
604.772830	2533.179808
605.122878	2510.494615
605.472872	2528.138654
605.822813	2429.836154
606.172701	2543.262115
606.522534	2439.918462
606.872314	2520.576923
607.222041	2477.727115
607.571714	2545.782692
607.921333	2505.453462
608.270899	2455.041923
608.620411	2470.165385
608.969870	2583.591346
609.319276	2593.673654
609.668627	2497.891731
610.017926	2543.262115
610.367171	2475.206538
610.716362	2505.453462
611.065500	2414.712692
611.414585	2528.138654
611.763616	2530.659231
612.112594	2533.179808
612.461518	2482.768269
612.810389	2528.138654
613.159207	2427.315577
613.507971	2535.700385
613.856682	2465.124231
614.205340	2510.494615
614.553945	2548.303269
614.902496	2472.685962
615.250994	2513.015192
615.599439	2543.262115
615.947830	2495.371154
616.296169	2482.768269
616.644454	2560.906154
616.992686	2570.988462
617.340864	2520.576923
617.688990	2548.303269
618.037063	2540.741538
618.385082	2565.947308
618.733048	2480.247692
619.080961	2434.877308
619.428821	2452.521346
619.776628	2480.247692
620.124382	2513.015192
620.472083	2510.494615
620.819731	2452.521346
621.167326	2480.247692
621.514868	2505.453462
621.862357	2480.247692
622.209793	2475.206538
622.557176	2450.000769
622.904506	2465.124231
623.251783	2442.439038
623.599007	2490.330000
623.946179	2447.480192
624.293297	2465.124231
624.640363	2513.015192
624.987376	2616.358846
625.334336	2591.153077
625.681243	2538.220962
626.028097	2502.932885
626.374899	2439.918462
626.721647	2563.426731
627.068343	2480.247692
627.414987	2578.550192
627.761577	2490.330000
628.108115	2424.795000
628.454600	2505.453462
628.801032	2485.288846
629.147412	2502.932885
629.493739	2545.782692
629.840014	2442.439038
630.186236	2583.591346
630.532405	2513.015192
630.878521	2480.247692
631.224585	2487.809423
631.570597	2465.124231
631.916556	2470.165385
632.262462	2465.124231
632.608316	2465.124231
632.954117	2492.850577
633.299866	2502.932885
633.645562	2570.988462
633.991206	2548.303269
634.336797	2553.344423
634.682336	2495.371154
635.027823	2460.083077
635.373257	2414.712692
635.718639	2533.179808
636.063968	2475.206538
636.409245	2422.274423
636.754470	2540.741538
637.099642	2528.138654
637.444762	2500.412308
637.789829	2427.315577
638.134845	2419.753846
638.479808	2525.618077
638.824719	2432.356731
639.169577	2520.576923
639.514383	2538.220962
639.859137	2485.288846
640.203839	2437.397885
640.548489	2495.371154
640.893086	2460.083077
641.237632	2472.685962
641.582125	2472.685962
641.926566	2568.467885
642.270955	2432.356731
642.615292	2570.988462
642.959576	2520.576923
643.303809	2439.918462
643.647990	2523.097500
643.992118	2520.576923
644.336195	2525.618077
644.680219	2586.111923
645.024192	2485.288846
645.368112	2510.494615
645.711981	2470.165385
646.055797	2502.932885
646.399562	2563.426731
646.743274	2528.138654
647.086935	2515.535769
647.430544	2510.494615
647.774101	2460.083077
648.117606	2515.535769
648.461059	2543.262115
648.804460	2502.932885
649.147810	2500.412308
649.491108	2450.000769
649.834354	2447.480192
650.177548	2475.206538
650.520690	2500.412308
650.863781	2535.700385
651.206820	2465.124231
651.549807	2518.056346
651.892742	2543.262115
652.235626	2490.330000
652.578458	2442.439038
652.921238	2543.262115
653.263967	2482.768269
653.606644	2460.083077
653.949269	2465.124231
654.291843	2510.494615
654.634365	2530.659231
654.976836	2414.712692
655.319255	2550.823846
655.661622	2467.644808
656.003938	2455.041923
656.346203	2535.700385
656.688416	2543.262115
657.030577	2444.959615
657.372687	2502.932885
657.714746	2513.015192
658.056753	2528.138654
658.398708	2555.865000
658.740612	2507.974038
659.082465	2530.659231
659.424266	2500.412308
659.766016	2472.685962
660.107715	2442.439038
660.449362	2477.727115
660.790958	2525.618077
661.132503	2455.041923
661.473996	2621.400000
661.815438	2434.877308
662.156829	2467.644808
662.498168	2477.727115
662.839456	2467.644808
663.180693	2480.247692
663.521879	2427.315577
663.863013	2452.521346
664.204097	2472.685962
664.545129	2558.385577
664.886110	2439.918462
665.227040	2558.385577
665.567918	2576.029615
665.908746	2540.741538
666.249522	2593.673654
666.590248	2550.823846
666.930922	2553.344423
667.271545	2533.179808
667.612118	2525.618077
667.952639	2480.247692
668.293109	2470.165385
668.633528	2520.576923
668.973896	2450.000769
669.314213	2457.562500
669.654480	2606.276538
669.994695	2490.330000
670.334859	2505.453462
670.674973	2480.247692
671.015035	2518.056346
671.355047	2492.850577
671.695008	2475.206538
672.034918	2507.974038
672.374777	2455.041923
672.714585	2502.932885
673.054342	2465.124231
673.394049	2528.138654
673.733705	2533.179808
674.073310	2583.591346
674.412864	2444.959615
674.752368	2477.727115
675.091820	2452.521346
675.431223	2505.453462
675.770574	2485.288846
676.109875	2462.603654
676.449125	2427.315577
676.788324	2460.083077
677.127473	2583.591346
677.466571	2487.809423
677.805619	2555.865000
678.144616	2543.262115
678.483562	2429.836154
678.822458	2570.988462
679.161303	2442.439038
679.500098	2528.138654
679.838842	2450.000769
680.177535	2510.494615
680.516179	2596.194231
680.854771	2424.795000
681.193314	2497.891731
681.531805	2550.823846
681.870247	2535.700385
682.208638	2523.097500
682.546978	2507.974038
682.885268	2578.550192
683.223508	2485.288846
683.561697	2507.974038
683.899836	2535.700385
684.237925	2432.356731
684.575963	2507.974038
684.913951	2568.467885
685.251889	2543.262115
685.589776	2497.891731
685.927614	2560.906154
686.265401	2513.015192
686.603137	2538.220962
686.940824	2530.659231
687.278460	2528.138654
687.616046	2455.041923
687.953582	2495.371154
688.291068	2502.932885
688.628504	2520.576923
688.965889	2452.521346
689.303224	2578.550192
689.640510	2492.850577
689.977745	2500.412308
690.314930	2475.206538
690.652065	2540.741538
690.989150	2447.480192
691.326185	2465.124231
691.663170	2510.494615
692.000105	2538.220962
692.336990	2434.877308
692.673825	2528.138654
693.010610	2487.809423
693.347345	2550.823846
693.684030	2497.891731
694.020665	2507.974038
694.357251	2477.727115
694.693786	2492.850577
695.030272	2515.535769
695.366707	2513.015192
695.703093	2492.850577
696.039429	2613.838269
696.375716	2611.317692
696.711952	2513.015192
697.048139	2535.700385
697.384276	2434.877308
697.720363	2475.206538
698.056400	2535.700385
698.392388	2601.235385
698.728326	2467.644808
699.064214	2437.397885
699.400053	2538.220962
699.735842	2457.562500
700.071581	2520.576923
700.407270	2447.480192
700.742910	2533.179808
701.078501	2477.727115
701.414042	2518.056346
701.749533	2490.330000
702.084974	2472.685962
702.420366	2465.124231
702.755709	2533.179808
703.091002	2528.138654
703.426246	2530.659231
703.761440	2525.618077
704.096584	2497.891731
704.431679	2560.906154
704.766725	2492.850577
705.101721	2510.494615
705.436668	2507.974038
705.771565	2432.356731
706.106413	2596.194231
706.441212	2505.453462
706.775961	2520.576923
707.110661	2608.797115
707.445311	2530.659231
707.779913	2558.385577
708.114465	2502.932885
708.448967	2460.083077
708.783421	2457.562500
709.117825	2535.700385
709.452180	2442.439038
709.786485	2535.700385
710.120742	2444.959615
710.454949	2472.685962
710.789107	2472.685962
711.123216	2490.330000
711.457275	2376.904038
711.791286	2528.138654
712.125247	2490.330000
712.459159	2500.412308
712.793023	2520.576923
713.126837	2447.480192
713.460602	2513.015192
713.794318	2545.782692
714.127985	2525.618077
714.461602	2515.535769
714.795171	2513.015192
715.128691	2550.823846
715.462162	2563.426731
715.795584	2457.562500
716.128957	2518.056346
716.462281	2450.000769
716.795556	2505.453462
717.128782	2424.795000
717.461960	2497.891731
717.795088	2497.891731
718.128167	2450.000769
718.461198	2523.097500
718.794180	2432.356731
719.127113	2482.768269
719.459997	2497.891731
719.792833	2510.494615
720.125619	2470.165385
720.458357	2490.330000
720.791046	2455.041923
721.123686	2513.015192
721.456278	2525.618077
721.788821	2510.494615
722.121315	2550.823846
722.453761	2462.603654
722.786158	2389.506923
723.118506	2502.932885
723.450805	2500.412308
723.783056	2535.700385
724.115259	2444.959615
724.447412	2455.041923
724.779518	2510.494615
725.111574	2515.535769
725.443582	2381.945192
725.775542	2543.262115
726.107453	2533.179808
726.439315	2475.206538
726.771129	2573.509038
727.102895	2455.041923
727.434612	2434.877308
727.766281	2530.659231
728.097901	2482.768269
728.429473	2505.453462
728.760996	2452.521346
729.092471	2492.850577
729.423897	2555.865000
729.755276	2510.494615
730.086606	2457.562500
730.417887	2535.700385
730.749120	2495.371154
731.080305	2513.015192
731.411442	2540.741538
731.742530	2563.426731
732.073570	2472.685962
732.404562	2457.562500
732.735506	2409.671538
733.066401	2465.124231
733.397249	2510.494615
733.728048	2540.741538
734.058798	2528.138654
734.389501	2510.494615
734.720156	2427.315577
735.050762	2465.124231
735.381320	2540.741538
735.711831	2487.809423
736.042293	2565.947308
736.372707	2467.644808
736.703073	2538.220962
737.033391	2525.618077
737.363661	2442.439038
737.693883	2457.562500
738.024056	2563.426731
738.354182	2442.439038
738.684260	2563.426731
739.014290	2490.330000
739.344272	2538.220962
739.674207	2470.165385
740.004093	2485.288846
740.333931	2520.576923
740.663722	2490.330000
740.993464	2558.385577
741.323159	2525.618077
741.652806	2507.974038
741.982405	2510.494615
742.311956	2515.535769
742.641460	2568.467885
742.970915	2578.550192
743.300323	2487.809423
743.629683	2530.659231
743.958996	2457.562500
744.288260	2518.056346
744.617477	2462.603654
744.946647	2528.138654
745.275768	2570.988462
745.604842	2518.056346
745.933869	2513.015192
746.262847	2515.535769
746.591778	2513.015192
746.920662	2495.371154
747.249498	2502.932885
747.578286	2510.494615
747.907027	2518.056346
748.235720	2485.288846
748.564365	2513.015192
748.892963	2581.070769
749.221514	2470.165385
749.550017	2578.550192
749.878473	2477.727115
750.206881	2490.330000
750.535242	2455.041923
750.863555	2500.412308
751.191821	2467.644808
751.520039	2477.727115
751.848210	2525.618077
752.176334	2578.550192
752.504411	2500.412308
752.832440	2482.768269
753.160421	2472.685962
753.488356	2482.768269
753.816243	2482.768269
754.144082	2470.165385
754.471875	2460.083077
754.799620	2535.700385
755.127318	2545.782692
755.454969	2409.671538
755.782572	2414.712692
756.110129	2510.494615
756.437638	2482.768269
756.765100	2402.109808
757.092515	2510.494615
757.419882	2558.385577
757.747203	2465.124231
758.074477	2550.823846
758.401703	2480.247692
758.728882	2495.371154
759.056014	2492.850577
759.383099	2568.467885
759.710138	2470.165385
760.037129	2429.836154
760.364073	2482.768269
760.690970	2495.371154
761.017820	2558.385577
761.344623	2434.877308
761.671379	2434.877308
761.998088	2500.412308
762.324751	2412.192115
762.651366	2477.727115
762.977935	2487.809423
763.304456	2513.015192
763.630931	2424.795000
763.957359	2550.823846
764.283740	2538.220962
764.610074	2523.097500
764.936362	2399.589231
765.262602	2487.809423
765.588796	2480.247692
765.914943	2376.904038
766.241044	2545.782692
766.567097	2500.412308
766.893104	2462.603654
767.219064	2495.371154
767.544978	2583.591346
767.870845	2452.521346
768.196665	2540.741538
768.522438	2399.589231
768.848165	2477.727115
769.173846	2470.165385
769.499479	2540.741538
769.825066	2475.206538
770.150607	2500.412308
770.476101	2467.644808
770.801548	2545.782692
771.126949	2490.330000
771.452303	2553.344423
771.777611	2470.165385
772.102872	2538.220962
772.428087	2397.068654
772.753256	2505.453462
773.078378	2490.330000
773.403453	2555.865000
773.728482	2477.727115
774.053465	2482.768269
774.378401	2558.385577
774.703291	2485.288846
775.028135	2497.891731
775.352932	2472.685962
775.677683	2485.288846
776.002388	2422.274423
776.327046	2497.891731
776.651658	2518.056346
776.976224	2414.712692
777.300743	2528.138654
777.625216	2540.741538
777.949643	2518.056346
778.274024	2457.562500
778.598359	2492.850577
778.922647	2502.932885
779.246889	2540.741538
779.571086	2502.932885
779.895236	2533.179808
780.219339	2480.247692
780.543397	2414.712692
780.867409	2455.041923
781.191374	2374.383462
781.515294	2394.548077
781.839167	2404.630385
782.162995	2482.768269
782.486776	2462.603654
782.810511	2528.138654
783.134201	2462.603654
783.457844	2523.097500
783.781441	2444.959615
784.104993	2409.671538
784.428498	2447.480192
784.751958	2581.070769
785.075372	2475.206538
785.398739	2528.138654
785.722061	2434.877308
786.045337	2462.603654
786.368568	2560.906154
786.691752	2548.303269
787.014891	2467.644808
787.337983	2507.974038
787.661030	2550.823846
787.984031	2470.165385
788.306987	2523.097500
788.629897	2518.056346
788.952760	2487.809423
789.275579	2419.753846
789.598351	2601.235385
789.921078	2505.453462
790.243759	2417.233269
790.566395	2427.315577
790.888984	2485.288846
791.211529	2535.700385
791.534027	2462.603654
791.856480	2472.685962
792.178888	2422.274423
792.501249	2518.056346
792.823566	2472.685962
793.145836	2490.330000
793.468062	2550.823846
793.790241	2495.371154
794.112375	2543.262115
794.434464	2470.165385
794.756507	2490.330000
795.078505	2429.836154
795.400457	2543.262115
795.722364	2419.753846
796.044226	2560.906154
796.366042	2465.124231
796.687812	2500.412308
797.009538	2535.700385
797.331218	2480.247692
797.652852	2500.412308
797.974442	2528.138654
798.295986	2505.453462
798.617484	2502.932885
798.938938	2450.000769
799.260346	2560.906154
799.581709	2563.426731
799.903026	2487.809423
800.224299	2505.453462
800.545526	2480.247692
800.866708	2490.330000
801.187845	2515.535769
801.508936	2538.220962
801.829983	2472.685962
802.150984	2455.041923
802.471940	2565.947308
802.792851	2518.056346
803.113717	2497.891731
803.434538	2439.918462
803.755314	2578.550192
804.076045	2523.097500
804.396731	2513.015192
804.717372	2487.809423
805.037967	2455.041923
805.358518	2523.097500
805.679024	2465.124231
805.999485	2510.494615
806.319901	2513.015192
806.640272	2528.138654
806.960598	2510.494615
807.280879	2472.685962
807.601115	2505.453462
807.921306	2490.330000
808.241453	2518.056346
808.561554	2480.247692
808.881611	2525.618077
809.201623	2538.220962
809.521590	2495.371154
809.841513	2563.426731
810.161390	2444.959615
810.481223	2513.015192
810.801011	2447.480192
811.120755	2502.932885
811.440453	2525.618077
811.760107	2528.138654
812.079716	2470.165385
812.399281	2447.480192
812.718801	2535.700385
813.038276	2523.097500
813.357707	2518.056346
813.677093	2606.276538
813.996434	2487.809423
814.315731	2518.056346
814.634983	2424.795000
814.954191	2487.809423
815.273354	2482.768269
815.592473	2482.768269
815.911547	2402.109808
816.230577	2417.233269
816.549562	2513.015192
816.868502	2530.659231
817.187399	2525.618077
817.506250	2460.083077
817.825058	2472.685962
818.143821	2460.083077
818.462539	2460.083077
818.781213	2497.891731
819.099843	2565.947308
819.418429	2465.124231
819.736970	2485.288846
820.055466	2475.206538
820.373919	2477.727115
820.692327	2497.891731
821.010691	2492.850577
821.329011	2487.809423
821.647286	2477.727115
821.965517	2518.056346
822.283704	2513.015192
822.601847	2510.494615
822.919945	2462.603654
823.237999	2472.685962
823.556010	2528.138654
823.873976	2485.288846
824.191897	2495.371154
824.509775	2525.618077
824.827609	2475.206538
825.145398	2502.932885
825.463144	2467.644808
825.780845	2442.439038
826.098502	2482.768269
826.416116	2492.850577
826.733685	2455.041923
827.051210	2568.467885
827.368692	2505.453462
827.686129	2515.535769
828.003522	2500.412308
828.320872	2528.138654
828.638177	2437.397885
828.955439	2513.015192
829.272656	2472.685962
829.589830	2429.836154
829.906960	2523.097500
830.224046	2538.220962
830.541088	2429.836154
830.858086	2540.741538
831.175041	2560.906154
831.491952	2485.288846
831.808819	2507.974038
832.125642	2409.671538
832.442421	2535.700385
832.759157	2510.494615
833.075849	2578.550192
833.392497	2523.097500
833.709101	2460.083077
834.025662	2513.015192
834.342179	2500.412308
834.658653	2507.974038
834.975083	2439.918462
835.291469	2495.371154
835.607811	2475.206538
835.924110	2565.947308
836.240366	2442.439038
836.556578	2530.659231
836.872746	2528.138654
837.188871	2492.850577
837.504952	2487.809423
837.820990	2535.700385
838.136984	2540.741538
838.452935	2492.850577
838.768842	2520.576923
839.084706	2447.480192
839.400526	2507.974038
839.716303	2470.165385
840.032037	2480.247692
840.347727	2510.494615
840.663373	2397.068654
840.978977	2452.521346
841.294537	2606.276538
841.610054	2460.083077
841.925527	2586.111923
842.240957	2412.192115
842.556344	2475.206538
842.871687	2452.521346
843.186987	2490.330000
843.502244	2533.179808
843.817458	2525.618077
844.132629	2427.315577
844.447756	2560.906154
844.762840	2444.959615
845.077881	2475.206538
845.392879	2492.850577
845.707833	2523.097500
846.022745	2490.330000
846.337613	2472.685962
846.652438	2477.727115
846.967221	2470.165385
847.281960	2530.659231
847.596656	2450.000769
847.911309	2465.124231
848.225919	2513.015192
848.540485	2450.000769
848.855009	2520.576923
849.169490	2490.330000
849.483928	2502.932885
849.798323	2490.330000
850.112675	2545.782692
850.426984	2510.494615
850.741251	2480.247692
851.055474	2450.000769
851.369654	2414.712692
851.683792	2397.068654
851.997887	2505.453462
852.311938	2475.206538
852.625947	2419.753846
852.939914	2513.015192
853.253837	2518.056346
853.567718	2513.015192
853.881555	2467.644808
854.195350	2515.535769
854.509103	2450.000769
854.822812	2482.768269
855.136479	2535.700385
855.450103	2528.138654
855.763685	2482.768269
856.077224	2576.029615
856.390720	2475.206538
856.704173	2437.397885
857.017584	2502.932885
857.330953	2555.865000
857.644278	2497.891731
857.957561	2472.685962
858.270802	2432.356731
858.584000	2510.494615
858.897155	2523.097500
859.210268	2487.809423
859.523339	2550.823846
859.836367	2490.330000
860.149352	2525.618077
860.462295	2545.782692
860.775195	2442.439038
861.088054	2535.700385
861.400869	2414.712692
861.713642	2482.768269
862.026373	2507.974038
862.339062	2460.083077
862.651708	2477.727115
862.964312	2437.397885
863.276873	2444.959615
863.589392	2553.344423
863.901869	2399.589231
864.214303	2588.632500
864.526696	2427.315577
864.839045	2558.385577
865.151353	2450.000769
865.463619	2540.741538
865.775842	2568.467885
866.088023	2482.768269
866.400162	2558.385577
866.712258	2495.371154
867.024313	2505.453462
867.336325	2513.015192
867.648296	2465.124231
867.960224	2518.056346
868.272110	2457.562500
868.583954	2528.138654
868.895755	2465.124231
869.207515	2533.179808
869.519233	2563.426731
869.830909	2528.138654
870.142542	2361.780577
870.454134	2452.521346
870.765684	2480.247692
871.077191	2485.288846
871.388657	2523.097500
871.700081	2510.494615
872.011463	2540.741538
872.322803	2470.165385
872.634101	2457.562500
872.945357	2475.206538
873.256571	2540.741538
873.567744	2505.453462
873.878874	2510.494615
874.189963	2563.426731
874.501010	2507.974038
874.812015	2525.618077
875.122979	2543.262115
875.433900	2434.877308
875.744780	2485.288846
876.055618	2563.426731
876.366415	2523.097500
876.677169	2525.618077
876.987882	2457.562500
877.298554	2507.974038
877.609183	2419.753846
877.919771	2550.823846
878.230317	2447.480192
878.540822	2538.220962
878.851285	2432.356731
879.161707	2515.535769
879.472087	2530.659231
879.782425	2513.015192
880.092722	2548.303269
880.402977	2535.700385
880.713191	2482.768269
881.023363	2424.795000
881.333494	2465.124231
881.643583	2432.356731
881.953631	2538.220962
882.263637	2465.124231
882.573602	2427.315577
882.883526	2487.809423
883.193408	2429.836154
883.503248	2528.138654
883.813048	2543.262115
884.122806	2502.932885
884.432522	2513.015192
884.742197	2480.247692
885.051831	2487.809423
885.361424	2490.330000
885.670975	2495.371154
885.980485	2434.877308
886.289954	2530.659231
886.599382	2467.644808
886.908768	2485.288846
887.218113	2472.685962
887.527417	2558.385577
887.836680	2535.700385
888.145901	2538.220962
888.455082	2548.303269
888.764221	2495.371154
889.073319	2467.644808
889.382376	2462.603654
889.691392	2427.315577
890.000366	2533.179808
890.309300	2497.891731
890.618193	2432.356731
890.927044	2586.111923
891.235855	2533.179808
891.544625	2465.124231
891.853353	2462.603654
892.162041	2505.453462
892.470687	2452.521346
892.779293	2485.288846
893.087858	2447.480192
893.396381	2465.124231
893.704864	2397.068654
894.013306	2515.535769
894.321707	2407.150962
894.630068	2407.150962
894.938387	2371.862885
895.246665	2447.480192
895.554903	2507.974038
895.863100	2518.056346
896.171256	2452.521346
896.479371	2495.371154
896.787446	2563.426731
897.095480	2543.262115
897.403473	2472.685962
897.711425	2480.247692
898.019336	2492.850577
898.327207	2460.083077
898.635038	2520.576923
898.942827	2520.576923
899.250576	2570.988462
899.558284	2510.494615
899.865952	2434.877308
900.173579	2470.165385
900.481165	2495.371154
900.788711	2555.865000
901.096216	2444.959615
901.403681	2558.385577
901.711105	2510.494615
902.018489	2538.220962
902.325832	2558.385577
902.633135	2452.521346
902.940397	2482.768269
903.247619	2465.124231
903.554800	2523.097500
903.861941	2507.974038
904.169041	2540.741538
904.476101	2545.782692
904.783121	2558.385577
905.090100	2555.865000
905.397039	2538.220962
905.703938	2596.194231
906.010796	2437.397885
906.317614	2598.714808
906.624391	2462.603654
906.931129	2528.138654
907.237826	2563.426731
907.544483	2497.891731
907.851099	2492.850577
908.157675	2505.453462
908.464211	2523.097500
908.770707	2485.288846
909.077163	2467.644808
909.383578	2505.453462
909.689954	2502.932885
909.996289	2434.877308
910.302584	2497.891731
910.608839	2543.262115
910.915054	2432.356731
911.221229	2570.988462
911.527363	2457.562500
911.833458	2482.768269
912.139513	2505.453462
912.445527	2545.782692
912.751502	2485.288846
913.057436	2467.644808
913.363331	2480.247692
913.669186	2528.138654
913.975000	2492.850577
914.280775	2482.768269
914.586510	2361.780577
914.892205	2409.671538
915.197859	2492.850577
915.503475	2429.836154
915.809050	2535.700385
916.114585	2439.918462
916.420081	2500.412308
916.725536	2606.276538
917.030952	2455.041923
917.336328	2467.644808
917.641665	2439.918462
917.946961	2480.247692
918.252218	2442.439038
918.557435	2578.550192
918.862612	2523.097500
919.167750	2515.535769
919.472848	2560.906154
919.777906	2404.630385
920.082925	2472.685962
920.387904	2525.618077
920.692843	2513.015192
920.997743	2515.535769
921.302603	2472.685962
921.607423	2495.371154
921.912204	2467.644808
922.216946	2576.029615
922.521647	2583.591346
922.826310	2424.795000
923.130932	2417.233269
923.435516	2507.974038
923.740059	2573.509038
924.044564	2530.659231
924.349028	2563.426731
924.653454	2523.097500
924.957840	2482.768269
925.262186	2460.083077
925.566493	2525.618077
925.870761	2530.659231
926.174989	2480.247692
926.479178	2500.412308
926.783328	2550.823846
927.087438	2513.015192
927.391509	2439.918462
927.695541	2520.576923
927.999533	2450.000769
928.303486	2520.576923
928.607400	2394.548077
928.911275	2490.330000
929.215110	2450.000769
929.518906	2525.618077
929.822663	2475.206538
930.126381	2472.685962
930.430060	2409.671538
930.733699	2470.165385
931.037299	2553.344423
931.340861	2507.974038
931.644383	2586.111923
931.947866	2485.288846
932.251309	2470.165385
932.554714	2455.041923
932.858080	2467.644808
933.161407	2462.603654
933.464694	2518.056346
933.767943	2414.712692
934.071153	2487.809423
934.374323	2467.644808
934.677455	2485.288846
934.980548	2457.562500
935.283602	2513.015192
935.586617	2447.480192
935.889593	2497.891731
936.192530	2558.385577
936.495428	2583.591346
936.798287	2465.124231
937.101108	2502.932885
937.403890	2472.685962
937.706632	2497.891731
938.009336	2520.576923
938.312002	2553.344423
938.614628	2419.753846
938.917216	2470.165385
939.219765	2477.727115
939.522275	2455.041923
939.824747	2525.618077
940.127179	2505.453462
940.429573	2444.959615
940.731929	2523.097500
941.034246	2437.397885
941.336524	2477.727115
941.638763	2558.385577
941.940964	2533.179808
942.243126	2465.124231
942.545250	2467.644808
942.847335	2482.768269
943.149381	2533.179808
943.451389	2485.288846
943.753359	2513.015192
944.055290	2507.974038
944.357182	2495.371154
944.659036	2505.453462
944.960851	2497.891731
945.262628	2490.330000
945.564367	2447.480192
945.866067	2553.344423
946.167729	2472.685962
946.469352	2523.097500
946.770937	2525.618077
947.072484	2538.220962
947.373992	2379.424615
947.675462	2535.700385
947.976893	2434.877308
948.278286	2472.685962
948.579641	2472.685962
948.880958	2505.453462
949.182236	2548.303269
949.483476	2497.891731
949.784678	2460.083077
950.085841	2565.947308
950.386967	2518.056346
950.688054	2452.521346
950.989103	2507.974038
951.290114	2510.494615
951.591087	2407.150962
951.892021	2502.932885
952.192917	2404.630385
952.493776	2563.426731
952.794596	2505.453462
953.095378	2523.097500
953.396122	2439.918462
953.696828	2513.015192
953.997496	2364.301154
954.298126	2548.303269
954.598718	2455.041923
954.899272	2465.124231
955.199788	2460.083077
955.500266	2528.138654
955.800706	2513.015192
956.101108	2452.521346
956.401472	2513.015192
956.701798	2505.453462
957.002087	2518.056346
957.302337	2515.535769
957.602550	2515.535769
957.902724	2490.330000
958.202861	2482.768269
958.502960	2543.262115
958.803022	2482.768269
959.103045	2462.603654
959.403031	2510.494615
959.702979	2540.741538
960.002889	2465.124231
960.302762	2490.330000
960.602596	2570.988462
960.902393	2460.083077
961.202153	2520.576923
961.501875	2447.480192
961.801559	2530.659231
962.101205	2505.453462
962.400814	2530.659231
962.700385	2535.700385
962.999918	2482.768269
963.299414	2480.247692
963.598873	2432.356731
963.898293	2460.083077
964.197677	2467.644808
964.497022	2500.412308
964.796331	2540.741538
965.095601	2500.412308
965.394835	2505.453462
965.694030	2528.138654
965.993189	2404.630385
966.292309	2576.029615
966.591393	2520.576923
966.890439	2507.974038
967.189447	2477.727115
967.488419	2523.097500
967.787353	2507.974038
968.086249	2409.671538
968.385108	2538.220962
968.683930	2502.932885
968.982714	2500.412308
969.281462	2422.274423
969.580172	2560.906154
969.878844	2487.809423
970.177480	2460.083077
970.476078	2505.453462
970.774639	2510.494615
971.073162	2465.124231
971.371649	2467.644808
971.670098	2510.494615
971.968510	2462.603654
972.266885	2419.753846
972.565223	2543.262115
972.863524	2427.315577
973.161788	2540.741538
973.460014	2465.124231
973.758204	2414.712692
974.056356	2505.453462
974.354471	2437.397885
974.652550	2470.165385
974.950591	2482.768269
975.248595	2482.768269
975.546563	2497.891731
975.844493	2412.192115
976.142386	2565.947308
976.440243	2460.083077
976.738062	2444.959615
977.035845	2513.015192
977.333590	2510.494615
977.631299	2492.850577
977.928971	2434.877308
978.226606	2457.562500
978.524204	2520.576923
978.821765	2520.576923
979.119290	2465.124231
979.416777	2533.179808
979.714228	2528.138654
980.011642	2470.165385
980.309020	2475.206538
980.606360	2502.932885
980.903664	2545.782692
981.200931	2482.768269
981.498162	2570.988462
981.795356	2513.015192
982.092513	2470.165385
982.389633	2497.891731
982.686717	2439.918462
982.983764	2540.741538
983.280775	2399.589231
983.577749	2540.741538
983.874686	2497.891731
984.171587	2510.494615
984.468451	2550.823846
984.765279	2470.165385
985.062070	2545.782692
985.358824	2502.932885
985.655543	2414.712692
985.952224	2495.371154
986.248869	2530.659231
986.545478	2482.768269
986.842050	2439.918462
987.138586	2412.192115
987.435086	2513.015192
987.731549	2460.083077
988.027975	2515.535769
988.324366	2460.083077
988.620719	2374.383462
988.917037	2460.083077
989.213318	2465.124231
989.509563	2538.220962
989.805772	2450.000769
990.101944	2528.138654
990.398080	2409.671538
990.694180	2447.480192
990.990244	2467.644808
991.286271	2419.753846
991.582262	2422.274423
991.878217	2455.041923
992.174136	2482.768269
992.470019	2447.480192
992.765865	2455.041923
993.061676	2480.247692
993.357450	2452.521346
993.653188	2465.124231
993.948890	2518.056346
994.244556	2467.644808
994.540186	2419.753846
994.835780	2475.206538
995.131337	2492.850577
995.426859	2492.850577
995.722345	2472.685962
996.017795	2465.124231
996.313208	2487.809423
996.608586	2505.453462
996.903928	2490.330000
997.199234	2490.330000
997.494504	2447.480192
997.789738	2558.385577
998.084936	2472.685962
998.380099	2555.865000
998.675225	2565.947308
998.970316	2472.685962
999.265371	2497.891731
999.560390	2455.041923
999.855373	2533.179808
1000.150320	2497.891731
1000.445232	2399.589231
1000.740108	2513.015192
1001.034948	2533.179808
1001.329752	2515.535769
1001.624521	2563.426731
1001.919254	2525.618077
1002.213951	2480.247692
1002.508613	2581.070769
1002.803239	2462.603654
1003.097829	2429.836154
1003.392384	2563.426731
1003.686903	2480.247692
1003.981386	2515.535769
1004.275834	2470.165385
1004.570246	2525.618077
1004.864623	2444.959615
1005.158964	2485.288846
1005.453270	2477.727115
1005.747540	2535.700385
1006.041775	2497.891731
1006.335974	2447.480192
1006.630138	2538.220962
1006.924266	2502.932885
1007.218359	2487.809423
1007.512416	2502.932885
1007.806438	2462.603654
1008.100425	2467.644808
1008.394376	2429.836154
1008.688292	2452.521346
1008.982172	2465.124231
1009.276017	2419.753846
1009.569827	2447.480192
1009.863602	2485.288846
1010.157341	2576.029615
1010.451045	2482.768269
1010.744714	2495.371154
1011.038347	2442.439038
1011.331945	2417.233269
1011.625508	2502.932885
1011.919036	2465.124231
1012.212528	2467.644808
1012.505986	2535.700385
1012.799408	2588.632500
1013.092795	2565.947308
1013.386147	2462.603654
1013.679464	2538.220962
1013.972745	2452.521346
1014.265992	2507.974038
1014.559204	2477.727115
1014.852380	2475.206538
1015.145521	2497.891731
1015.438628	2515.535769
1015.731699	2437.397885
1016.024736	2523.097500
1016.317737	2507.974038
1016.610703	2412.192115
1016.903635	2432.356731
1017.196531	2538.220962
1017.489393	2439.918462
1017.782219	2502.932885
1018.075011	2460.083077
1018.367768	2570.988462
1018.660490	2518.056346
1018.953177	2518.056346
1019.245829	2518.056346
