Dividing Wavelength (nm)	Counts (n)	Blue Motor Position (mm): 0.000000	Red Motor Position (mm): 2.000000	
326.493990	2132.408077
326.888308	2132.408077
327.282561	2132.408077
327.676750	2034.105577
328.070874	2061.831923
328.464933	2039.146731
328.858929	2081.996538
329.252859	2089.558269
329.646726	2089.558269
330.040528	2069.393654
330.434265	2132.408077
330.827938	2165.175577
331.221547	2162.655000
331.615091	2097.120000
332.008571	2132.408077
332.401986	2240.792885
332.795338	2225.669423
333.188625	2215.587115
333.581847	2253.395769
333.975006	2286.163269
334.368100	2258.436923
334.761129	2245.834038
335.154095	2306.327885
335.546996	2392.027500
335.939833	2361.780577
336.332606	2313.889615
336.725315	2442.439038
337.117960	2482.768269
337.510540	2354.218846
337.903056	2389.506923
338.295508	2507.974038
338.687896	2429.836154
339.080220	2409.671538
339.472480	2482.768269
339.864676	2490.330000
340.256807	2452.521346
340.648875	2434.877308
341.040879	2379.424615
341.432818	2490.330000
341.824694	2404.630385
342.216506	2520.576923
342.608253	2437.397885
342.999937	2550.823846
343.391557	2505.453462
343.783113	2518.056346
344.174605	2434.877308
344.566033	2472.685962
344.957397	2505.453462
345.348697	2528.138654
345.739934	2477.727115
346.131106	2538.220962
346.522215	2465.124231
346.913260	2422.274423
347.304241	2533.179808
347.695159	2528.138654
348.086012	2482.768269
348.476802	2457.562500
348.867528	2414.712692
349.258191	2550.823846
349.648789	2457.562500
350.039324	2485.288846
350.429796	2457.562500
350.820203	2457.562500
351.210548	2409.671538
351.600828	2482.768269
351.991045	2422.274423
352.381198	2457.562500
352.771288	2452.521346
353.161314	2409.671538
353.551276	2495.371154
353.941175	2404.630385
354.331010	2402.109808
354.720782	2485.288846
355.110490	2424.795000
355.500135	2412.192115
355.889717	2412.192115
356.279235	2354.218846
356.668689	2417.233269
357.058080	2492.850577
357.447408	2404.630385
357.836672	2475.206538
358.225873	2457.562500
358.615010	2427.315577
359.004084	2480.247692
359.393095	2336.574808
359.782043	2533.179808
360.170927	2442.439038
360.559748	2381.945192
360.948505	2409.671538
361.337199	2437.397885
361.725830	2465.124231
362.114398	2404.630385
362.502903	2480.247692
362.891344	2495.371154
363.279722	2417.233269
363.668037	2467.644808
364.056289	2487.809423
364.444478	2429.836154
364.832603	2417.233269
365.220665	2452.521346
365.608665	2437.397885
365.996601	2487.809423
366.384474	2434.877308
366.772284	2432.356731
367.160031	2424.795000
367.547715	2472.685962
367.935336	2447.480192
368.322893	2462.603654
368.710388	2455.041923
369.097820	2482.768269
369.485189	2394.548077
369.872495	2412.192115
370.259738	2450.000769
370.646918	2523.097500
371.034035	2419.753846
371.421090	2548.303269
371.808081	2505.453462
372.195010	2439.918462
372.581875	2515.535769
372.968678	2510.494615
373.355418	2487.809423
373.742096	2492.850577
374.128710	2530.659231
374.515262	2447.480192
374.901751	2480.247692
375.288177	2442.439038
375.674540	2455.041923
376.060841	2520.576923
376.447079	2452.521346
376.833254	2480.247692
377.219367	2349.177692
377.605417	2442.439038
377.991404	2520.576923
378.377329	2500.412308
378.763191	2515.535769
379.148991	2490.330000
379.534727	2505.453462
379.920402	2490.330000
380.306013	2560.906154
380.691563	2457.562500
381.077049	2444.959615
381.462474	2442.439038
381.847835	2429.836154
382.233134	2389.506923
382.618371	2397.068654
383.003545	2447.480192
383.388657	2465.124231
383.773706	2455.041923
384.158693	2404.630385
384.543618	2417.233269
384.928480	2447.480192
385.313280	2462.603654
385.698017	2437.397885
386.082692	2417.233269
386.467305	2417.233269
386.851856	2447.480192
387.236344	2419.753846
387.620770	2397.068654
388.005133	2533.179808
388.389435	2432.356731
388.773674	2467.644808
389.157851	2515.535769
389.541965	2442.439038
389.926018	2475.206538
390.310008	2419.753846
390.693936	2513.015192
391.077802	2402.109808
391.461606	2510.494615
391.845348	2462.603654
392.229027	2515.535769
392.612645	2485.288846
392.996200	2434.877308
393.379694	2485.288846
393.763125	2419.753846
394.146494	2397.068654
394.529801	2457.562500
394.913047	2492.850577
395.296230	2477.727115
395.679351	2550.823846
396.062410	2507.974038
396.445408	2442.439038
396.828343	2586.111923
397.211217	2447.480192
397.594028	2439.918462
397.976778	2477.727115
398.359466	2434.877308
398.742092	2573.509038
399.124656	2477.727115
399.507158	2500.412308
399.889598	2457.562500
400.271977	2497.891731
400.654294	2480.247692
401.036549	2462.603654
401.418742	2419.753846
401.800874	2477.727115
402.182944	2523.097500
402.564952	2525.618077
402.946898	2455.041923
403.328783	2444.959615
403.710606	2407.150962
404.092367	2490.330000
404.474067	2482.768269
404.855705	2462.603654
405.237282	2442.439038
405.618797	2497.891731
406.000250	2414.712692
406.381642	2515.535769
406.762972	2525.618077
407.144240	2495.371154
407.525447	2457.562500
407.906593	2513.015192
408.287677	2462.603654
408.668700	2477.727115
409.049661	2437.397885
409.430560	2422.274423
409.811399	2460.083077
410.192176	2409.671538
410.572891	2457.562500
410.953545	2432.356731
411.334138	2485.288846
411.714669	2490.330000
412.095139	2414.712692
412.475547	2553.344423
412.855894	2480.247692
413.236180	2502.932885
413.616405	2434.877308
413.996568	2472.685962
414.376670	2500.412308
414.756711	2379.424615
415.136691	2505.453462
415.516609	2497.891731
415.896466	2434.877308
416.276262	2530.659231
416.655997	2490.330000
417.035670	2497.891731
417.415283	2482.768269
417.794834	2467.644808
418.174324	2450.000769
418.553753	2470.165385
418.933121	2492.850577
419.312428	2565.947308
419.691674	2462.603654
420.070859	2500.412308
420.449983	2510.494615
420.829045	2500.412308
421.208047	2437.397885
421.586988	2581.070769
421.965867	2480.247692
422.344686	2475.206538
422.723444	2424.795000
423.102141	2472.685962
423.480777	2470.165385
423.859352	2470.165385
424.237866	2513.015192
424.616319	2402.109808
424.994712	2460.083077
425.373044	2475.206538
425.751314	2455.041923
426.129524	2470.165385
426.507673	2480.247692
426.885762	2455.041923
427.263789	2502.932885
427.641756	2472.685962
428.019662	2515.535769
428.397508	2485.288846
428.775292	2533.179808
429.153016	2475.206538
429.530679	2500.412308
429.908282	2518.056346
430.285824	2548.303269
430.663305	2485.288846
431.040726	2533.179808
431.418086	2495.371154
431.795385	2513.015192
432.172624	2492.850577
432.549802	2457.562500
432.926920	2505.453462
433.303977	2477.727115
433.680974	2439.918462
434.057910	2520.576923
434.434786	2467.644808
434.811601	2452.521346
435.188355	2407.150962
435.565050	2414.712692
435.941683	2535.700385
436.318257	2457.562500
436.694770	2480.247692
437.071222	2477.727115
437.447614	2437.397885
437.823946	2553.344423
438.200218	2502.932885
438.576429	2434.877308
438.952580	2502.932885
439.328670	2462.603654
439.704700	2515.535769
440.080670	2470.165385
440.456580	2528.138654
440.832429	2535.700385
441.208218	2510.494615
441.583947	2523.097500
441.959616	2490.330000
442.335224	2513.015192
442.710773	2407.150962
443.086261	2515.535769
443.461689	2490.330000
443.837057	2555.865000
444.212365	2480.247692
444.587612	2528.138654
444.962800	2432.356731
445.337927	2414.712692
445.712995	2447.480192
446.088002	2495.371154
446.462949	2492.850577
446.837837	2434.877308
447.212664	2477.727115
447.587431	2558.385577
447.962139	2497.891731
448.336786	2535.700385
448.711374	2543.262115
449.085901	2497.891731
449.460369	2507.974038
449.834776	2513.015192
450.209124	2462.603654
450.583412	2606.276538
450.957640	2472.685962
451.331808	2422.274423
451.705917	2485.288846
452.079965	2525.618077
452.453954	2513.015192
452.827883	2540.741538
453.201752	2490.330000
453.575562	2533.179808
453.949311	2467.644808
454.323001	2530.659231
454.696632	2510.494615
455.070202	2505.453462
455.443713	2485.288846
455.817164	2422.274423
456.190556	2545.782692
456.563888	2434.877308
456.937160	2462.603654
457.310373	2457.562500
457.683526	2444.959615
458.056619	2487.809423
458.429653	2593.673654
458.802628	2515.535769
459.175542	2437.397885
459.548398	2507.974038
459.921194	2548.303269
460.293930	2520.576923
460.666607	2447.480192
461.039224	2462.603654
461.411782	2543.262115
461.784280	2457.562500
462.156719	2439.918462
462.529099	2447.480192
462.901419	2515.535769
463.273680	2525.618077
463.645882	2422.274423
464.018024	2515.535769
464.390106	2467.644808
464.762130	2518.056346
465.134094	2457.562500
465.505999	2475.206538
465.877845	2497.891731
466.249631	2472.685962
466.621358	2422.274423
466.993026	2437.397885
467.364634	2528.138654
467.736184	2452.521346
468.107674	2495.371154
468.479105	2409.671538
468.850477	2507.974038
469.221790	2412.192115
469.593043	2455.041923
469.964238	2558.385577
470.335373	2565.947308
470.706449	2482.768269
471.077467	2525.618077
471.448425	2472.685962
471.819324	2553.344423
472.190164	2497.891731
472.560945	2495.371154
472.931667	2482.768269
473.302330	2515.535769
473.672934	2485.288846
474.043479	2528.138654
474.413965	2472.685962
474.784393	2500.412308
475.154761	2467.644808
475.525070	2543.262115
475.895321	2497.891731
476.265513	2515.535769
476.635645	2450.000769
477.005719	2412.192115
477.375734	2510.494615
477.745691	2472.685962
478.115588	2407.150962
478.485427	2510.494615
478.855207	2470.165385
479.224928	2525.618077
479.594591	2500.412308
479.964194	2477.727115
480.333739	2515.535769
480.703226	2490.330000
481.072653	2568.467885
481.442022	2475.206538
481.811333	2467.644808
482.180584	2513.015192
482.549777	2570.988462
482.918912	2533.179808
483.287988	2457.562500
483.657005	2457.562500
484.025964	2460.083077
484.394864	2485.288846
484.763706	2444.959615
485.132489	2472.685962
485.501213	2533.179808
485.869879	2485.288846
486.238487	2462.603654
486.607036	2467.644808
486.975527	2485.288846
487.343959	2495.371154
487.712333	2477.727115
488.080648	2470.165385
488.448905	2497.891731
488.817104	2487.809423
489.185244	2507.974038
489.553326	2467.644808
489.921350	2480.247692
490.289315	2492.850577
490.657222	2482.768269
491.025070	2472.685962
491.392861	2492.850577
491.760593	2470.165385
492.128267	2444.959615
492.495883	2444.959615
492.863440	2515.535769
493.230939	2465.124231
493.598380	2450.000769
493.965763	2417.233269
494.333088	2487.809423
494.700354	2482.768269
495.067563	2497.891731
495.434713	2480.247692
495.801805	2558.385577
496.168839	2482.768269
496.535815	2505.453462
496.902733	2477.727115
497.269593	2500.412308
497.636395	2477.727115
498.003139	2470.165385
498.369825	2422.274423
498.736453	2533.179808
499.103023	2515.535769
499.469535	2518.056346
499.835989	2515.535769
500.202385	2570.988462
500.568723	2460.083077
500.935003	2492.850577
501.301226	2467.644808
501.667390	2482.768269
502.033497	2444.959615
502.399546	2455.041923
502.765537	2495.371154
503.131470	2578.550192
503.497345	2490.330000
503.863163	2492.850577
504.228923	2472.685962
504.594625	2452.521346
504.960269	2538.220962
505.325856	2485.288846
505.691385	2535.700385
506.056856	2550.823846
506.422270	2495.371154
506.787625	2513.015192
507.152924	2432.356731
507.518164	2513.015192
507.883347	2439.918462
508.248472	2513.015192
508.613540	2500.412308
508.978550	2480.247692
509.343503	2601.235385
509.708398	2475.206538
510.073236	2490.330000
510.438016	2455.041923
510.802738	2530.659231
511.167403	2485.288846
511.532010	2482.768269
511.896561	2470.165385
512.261053	2502.932885
512.625488	2444.959615
512.989866	2513.015192
513.354186	2409.671538
513.718449	2429.836154
514.082655	2530.659231
514.446803	2548.303269
514.810894	2490.330000
515.174927	2565.947308
515.538904	2450.000769
515.902822	2515.535769
516.266684	2518.056346
516.630488	2565.947308
516.994235	2538.220962
517.357925	2545.782692
517.721558	2482.768269
518.085133	2457.562500
518.448651	2523.097500
518.812112	2492.850577
519.175516	2513.015192
519.538863	2510.494615
519.902152	2507.974038
520.265385	2510.494615
520.628560	2601.235385
520.991678	2465.124231
521.354739	2555.865000
521.717743	2593.673654
522.080690	2485.288846
522.443580	2480.247692
522.806413	2538.220962
523.169189	2553.344423
523.531908	2560.906154
523.894569	2533.179808
524.257174	2525.618077
524.619722	2543.262115
524.982213	2505.453462
525.344647	2465.124231
525.707025	2450.000769
526.069345	2528.138654
526.431608	2490.330000
526.793815	2487.809423
527.155964	2462.603654
527.518057	2495.371154
527.880093	2553.344423
528.242072	2475.206538
528.603995	2467.644808
528.965860	2475.206538
529.327669	2432.356731
529.689421	2565.947308
530.051117	2528.138654
530.412755	2462.603654
530.774337	2513.015192
531.135862	2520.576923
531.497331	2538.220962
531.858743	2513.015192
532.220098	2439.918462
532.581396	2505.453462
532.942638	2490.330000
533.303824	2548.303269
533.664953	2535.700385
534.026025	2525.618077
534.387040	2432.356731
534.747999	2450.000769
535.108902	2412.192115
535.469748	2502.932885
535.830537	2533.179808
536.191270	2550.823846
536.551947	2434.877308
536.912567	2570.988462
537.273131	2500.412308
537.633638	2515.535769
537.994089	2565.947308
538.354483	2487.809423
538.714821	2570.988462
539.075103	2439.918462
539.435328	2492.850577
539.795497	2518.056346
540.155609	2598.714808
540.515665	2485.288846
540.875665	2525.618077
541.235609	2480.247692
541.595496	2568.467885
541.955328	2553.344423
542.315102	2533.179808
542.674821	2513.015192
543.034483	2450.000769
543.394090	2507.974038
543.753640	2475.206538
544.113134	2444.959615
544.472571	2520.576923
544.831953	2475.206538
545.191278	2477.727115
545.550548	2507.974038
545.909761	2502.932885
546.268918	2500.412308
546.628019	2442.439038
546.987064	2502.932885
547.346053	2482.768269
547.704986	2520.576923
548.063863	2560.906154
548.422684	2480.247692
548.781449	2495.371154
549.140158	2470.165385
549.498811	2485.288846
549.857408	2490.330000
550.215949	2535.700385
550.574434	2472.685962
550.932864	2515.535769
551.291237	2442.439038
551.649555	2470.165385
552.007817	2452.521346
552.366022	2500.412308
552.724173	2568.467885
553.082267	2545.782692
553.440305	2520.576923
553.798288	2530.659231
554.156215	2490.330000
554.514086	2452.521346
554.871902	2386.986346
555.229661	2535.700385
555.587365	2475.206538
555.945014	2515.535769
556.302606	2465.124231
556.660143	2442.439038
557.017625	2558.385577
557.375050	2573.509038
557.732421	2502.932885
558.089735	2452.521346
558.446994	2490.330000
558.804197	2482.768269
559.161345	2601.235385
559.518437	2485.288846
559.875474	2490.330000
560.232455	2535.700385
560.589381	2500.412308
560.946251	2691.976154
561.303065	2467.644808
561.659825	2550.823846
562.016528	2472.685962
562.373177	2485.288846
562.729770	2530.659231
563.086307	2462.603654
563.442789	2641.564615
563.799216	2495.371154
564.155587	2538.220962
564.511904	2490.330000
564.868164	2586.111923
565.224370	2470.165385
565.580520	2497.891731
565.936615	2513.015192
566.292654	2495.371154
566.648638	2397.068654
567.004567	2495.371154
567.360441	2513.015192
567.716260	2465.124231
568.072023	2492.850577
568.427732	2513.015192
568.783385	2477.727115
569.138982	2515.535769
569.494525	2427.315577
569.850013	2535.700385
570.205445	2485.288846
570.560823	2477.727115
570.916145	2487.809423
571.271412	2492.850577
571.626625	2452.521346
571.981782	2543.262115
572.336884	2477.727115
572.691931	2497.891731
573.046923	2601.235385
573.401860	2510.494615
573.756743	2550.823846
574.111570	2482.768269
574.466342	2528.138654
574.821059	2550.823846
575.175722	2500.412308
575.530330	2515.535769
575.884882	2490.330000
576.239380	2578.550192
576.593823	2515.535769
576.948211	2490.330000
577.302544	2452.521346
577.656823	2505.453462
578.011047	2407.150962
578.365216	2477.727115
578.719330	2555.865000
579.073389	2560.906154
579.427394	2482.768269
579.781344	2392.027500
580.135239	2563.426731
580.489080	2563.426731
580.842866	2596.194231
581.196597	2460.083077
581.550273	2520.576923
581.903895	2455.041923
582.257463	2510.494615
582.610975	2477.727115
582.964434	2495.371154
583.317837	2505.453462
583.671186	2507.974038
584.024481	2631.482308
584.377721	2457.562500
584.730906	2528.138654
585.084037	2553.344423
585.437113	2457.562500
585.790135	2520.576923
586.143103	2603.755962
586.496016	2588.632500
586.848874	2500.412308
587.201679	2452.521346
587.554428	2429.836154
587.907124	2475.206538
588.259765	2467.644808
588.612352	2500.412308
588.964884	2515.535769
589.317362	2576.029615
589.669786	2518.056346
590.022155	2518.056346
590.374470	2540.741538
590.726731	2618.879423
591.078937	2502.932885
591.431090	2528.138654
591.783188	2513.015192
592.135232	2515.535769
592.487222	2518.056346
592.839157	2485.288846
593.191038	2477.727115
593.542866	2480.247692
593.894639	2528.138654
594.246358	2457.562500
594.598022	2538.220962
594.949633	2518.056346
595.301190	2560.906154
595.652692	2472.685962
596.004141	2452.521346
596.355535	2538.220962
596.706876	2518.056346
597.058162	2475.206538
597.409395	2460.083077
597.760573	2485.288846
598.111698	2462.603654
598.462768	2497.891731
598.813785	2442.439038
599.164748	2570.988462
599.515657	2523.097500
599.866511	2450.000769
600.217312	2427.315577
600.568060	2450.000769
600.918753	2535.700385
601.269392	2470.165385
601.619978	2525.618077
601.970510	2518.056346
602.320988	2450.000769
602.671412	2497.891731
603.021783	2470.165385
603.372100	2533.179808
603.722363	2563.426731
604.072572	2490.330000
604.422728	2381.945192
604.772830	2520.576923
605.122878	2490.330000
605.472872	2505.453462
605.822813	2460.083077
606.172701	2500.412308
606.522534	2570.988462
606.872314	2455.041923
607.222041	2462.603654
607.571714	2495.371154
607.921333	2460.083077
608.270899	2545.782692
608.620411	2563.426731
608.969870	2480.247692
609.319276	2482.768269
609.668627	2424.795000
610.017926	2518.056346
610.367171	2485.288846
610.716362	2530.659231
611.065500	2505.453462
611.414585	2543.262115
611.763616	2487.809423
612.112594	2447.480192
612.461518	2485.288846
612.810389	2608.797115
613.159207	2460.083077
613.507971	2497.891731
613.856682	2477.727115
614.205340	2563.426731
614.553945	2502.932885
614.902496	2444.959615
615.250994	2442.439038
615.599439	2482.768269
615.947830	2480.247692
616.296169	2450.000769
616.644454	2417.233269
616.992686	2409.671538
617.340864	2520.576923
617.688990	2500.412308
618.037063	2530.659231
618.385082	2432.356731
618.733048	2465.124231
619.080961	2439.918462
619.428821	2389.506923
619.776628	2495.371154
620.124382	2439.918462
620.472083	2447.480192
620.819731	2470.165385
621.167326	2525.618077
621.514868	2427.315577
621.862357	2505.453462
622.209793	2472.685962
622.557176	2475.206538
622.904506	2608.797115
623.251783	2497.891731
623.599007	2513.015192
623.946179	2565.947308
624.293297	2583.591346
624.640363	2568.467885
624.987376	2467.644808
625.334336	2480.247692
625.681243	2437.397885
626.028097	2434.877308
626.374899	2482.768269
626.721647	2487.809423
627.068343	2444.959615
627.414987	2528.138654
627.761577	2528.138654
628.108115	2510.494615
628.454600	2502.932885
628.801032	2533.179808
629.147412	2528.138654
629.493739	2482.768269
629.840014	2450.000769
630.186236	2495.371154
630.532405	2545.782692
630.878521	2472.685962
631.224585	2520.576923
631.570597	2525.618077
631.916556	2523.097500
632.262462	2492.850577
632.608316	2465.124231
632.954117	2485.288846
633.299866	2507.974038
633.645562	2495.371154
633.991206	2535.700385
634.336797	2397.068654
634.682336	2518.056346
635.027823	2513.015192
635.373257	2507.974038
635.718639	2402.109808
636.063968	2432.356731
636.409245	2452.521346
636.754470	2540.741538
637.099642	2497.891731
637.444762	2485.288846
637.789829	2465.124231
638.134845	2470.165385
638.479808	2545.782692
638.824719	2472.685962
639.169577	2507.974038
639.514383	2497.891731
639.859137	2475.206538
640.203839	2507.974038
640.548489	2601.235385
640.893086	2472.685962
641.237632	2548.303269
641.582125	2548.303269
641.926566	2548.303269
642.270955	2465.124231
642.615292	2439.918462
642.959576	2407.150962
643.303809	2492.850577
643.647990	2507.974038
643.992118	2523.097500
644.336195	2555.865000
644.680219	2513.015192
645.024192	2480.247692
645.368112	2513.015192
645.711981	2470.165385
646.055797	2427.315577
646.399562	2480.247692
646.743274	2520.576923
647.086935	2414.712692
647.430544	2520.576923
647.774101	2578.550192
648.117606	2530.659231
648.461059	2601.235385
648.804460	2487.809423
649.147810	2540.741538
649.491108	2523.097500
649.834354	2424.795000
650.177548	2560.906154
650.520690	2548.303269
650.863781	2520.576923
651.206820	2409.671538
651.549807	2573.509038
651.892742	2540.741538
652.235626	2412.192115
652.578458	2455.041923
652.921238	2500.412308
653.263967	2535.700385
653.606644	2540.741538
653.949269	2515.535769
654.291843	2497.891731
654.634365	2404.630385
654.976836	2507.974038
655.319255	2470.165385
655.661622	2452.521346
656.003938	2588.632500
656.346203	2487.809423
656.688416	2507.974038
657.030577	2505.453462
657.372687	2535.700385
657.714746	2507.974038
658.056753	2553.344423
658.398708	2573.509038
658.740612	2497.891731
659.082465	2553.344423
659.424266	2457.562500
659.766016	2475.206538
660.107715	2540.741538
660.449362	2568.467885
660.790958	2439.918462
661.132503	2502.932885
661.473996	2523.097500
661.815438	2596.194231
662.156829	2462.603654
662.498168	2495.371154
662.839456	2490.330000
663.180693	2409.671538
663.521879	2507.974038
663.863013	2520.576923
664.204097	2513.015192
664.545129	2535.700385
664.886110	2515.535769
665.227040	2477.727115
665.567918	2409.671538
665.908746	2520.576923
666.249522	2538.220962
666.590248	2487.809423
666.930922	2442.439038
667.271545	2525.618077
667.612118	2535.700385
667.952639	2487.809423
668.293109	2553.344423
668.633528	2485.288846
668.973896	2492.850577
669.314213	2513.015192
669.654480	2407.150962
669.994695	2460.083077
670.334859	2543.262115
670.674973	2475.206538
671.015035	2475.206538
671.355047	2487.809423
671.695008	2455.041923
672.034918	2555.865000
672.374777	2502.932885
672.714585	2523.097500
673.054342	2472.685962
673.394049	2533.179808
673.733705	2386.986346
674.073310	2540.741538
674.412864	2485.288846
674.752368	2424.795000
675.091820	2555.865000
675.431223	2442.439038
675.770574	2460.083077
676.109875	2477.727115
676.449125	2563.426731
676.788324	2457.562500
677.127473	2505.453462
677.466571	2515.535769
677.805619	2407.150962
678.144616	2505.453462
678.483562	2452.521346
678.822458	2482.768269
679.161303	2558.385577
679.500098	2507.974038
679.838842	2452.521346
680.177535	2500.412308
680.516179	2480.247692
680.854771	2528.138654
681.193314	2543.262115
681.531805	2515.535769
681.870247	2510.494615
682.208638	2465.124231
682.546978	2472.685962
682.885268	2480.247692
683.223508	2492.850577
683.561697	2455.041923
683.899836	2538.220962
684.237925	2570.988462
684.575963	2555.865000
684.913951	2490.330000
685.251889	2608.797115
685.589776	2467.644808
685.927614	2429.836154
686.265401	2543.262115
686.603137	2444.959615
686.940824	2482.768269
687.278460	2447.480192
687.616046	2530.659231
687.953582	2460.083077
688.291068	2492.850577
688.628504	2535.700385
688.965889	2482.768269
689.303224	2460.083077
689.640510	2480.247692
689.977745	2450.000769
690.314930	2528.138654
690.652065	2450.000769
690.989150	2450.000769
691.326185	2550.823846
691.663170	2525.618077
692.000105	2558.385577
692.336990	2560.906154
692.673825	2480.247692
693.010610	2495.371154
693.347345	2528.138654
693.684030	2492.850577
694.020665	2455.041923
694.357251	2485.288846
694.693786	2452.521346
695.030272	2533.179808
695.366707	2525.618077
695.703093	2523.097500
696.039429	2482.768269
696.375716	2455.041923
696.711952	2505.453462
697.048139	2462.603654
697.384276	2515.535769
697.720363	2530.659231
698.056400	2467.644808
698.392388	2457.562500
698.728326	2450.000769
699.064214	2442.439038
699.400053	2490.330000
699.735842	2548.303269
700.071581	2392.027500
700.407270	2455.041923
700.742910	2520.576923
701.078501	2475.206538
701.414042	2507.974038
701.749533	2515.535769
702.084974	2528.138654
702.420366	2480.247692
702.755709	2447.480192
703.091002	2397.068654
703.426246	2528.138654
703.761440	2528.138654
704.096584	2520.576923
704.431679	2467.644808
704.766725	2447.480192
705.101721	2482.768269
705.436668	2422.274423
705.771565	2515.535769
706.106413	2437.397885
706.441212	2533.179808
706.775961	2490.330000
707.110661	2530.659231
707.445311	2518.056346
707.779913	2492.850577
708.114465	2500.412308
708.448967	2560.906154
708.783421	2565.947308
709.117825	2402.109808
709.452180	2455.041923
709.786485	2550.823846
710.120742	2525.618077
710.454949	2538.220962
710.789107	2550.823846
711.123216	2538.220962
711.457275	2570.988462
711.791286	2558.385577
712.125247	2457.562500
712.459159	2485.288846
712.793023	2442.439038
713.126837	2555.865000
713.460602	2492.850577
713.794318	2518.056346
714.127985	2492.850577
714.461602	2500.412308
714.795171	2472.685962
715.128691	2505.453462
715.462162	2447.480192
715.795584	2510.494615
716.128957	2429.836154
716.462281	2495.371154
716.795556	2422.274423
717.128782	2422.274423
717.461960	2510.494615
717.795088	2434.877308
718.128167	2427.315577
718.461198	2515.535769
718.794180	2520.576923
719.127113	2450.000769
719.459997	2447.480192
719.792833	2513.015192
720.125619	2422.274423
720.458357	2404.630385
720.791046	2470.165385
721.123686	2442.439038
721.456278	2570.988462
721.788821	2525.618077
722.121315	2513.015192
722.453761	2520.576923
722.786158	2429.836154
723.118506	2565.947308
723.450805	2563.426731
723.783056	2424.795000
724.115259	2505.453462
724.447412	2434.877308
724.779518	2593.673654
725.111574	2419.753846
725.443582	2452.521346
725.775542	2553.344423
726.107453	2492.850577
726.439315	2450.000769
726.771129	2545.782692
727.102895	2485.288846
727.434612	2465.124231
727.766281	2384.465769
728.097901	2434.877308
728.429473	2477.727115
728.760996	2492.850577
729.092471	2513.015192
729.423897	2528.138654
729.755276	2538.220962
730.086606	2513.015192
730.417887	2581.070769
730.749120	2465.124231
731.080305	2472.685962
731.411442	2588.632500
731.742530	2490.330000
732.073570	2439.918462
732.404562	2513.015192
732.735506	2510.494615
733.066401	2507.974038
733.397249	2495.371154
733.728048	2475.206538
734.058798	2570.988462
734.389501	2490.330000
734.720156	2513.015192
735.050762	2417.233269
735.381320	2497.891731
735.711831	2545.782692
736.042293	2429.836154
736.372707	2500.412308
736.703073	2507.974038
737.033391	2563.426731
737.363661	2467.644808
737.693883	2510.494615
738.024056	2475.206538
738.354182	2427.315577
738.684260	2490.330000
739.014290	2513.015192
739.344272	2535.700385
739.674207	2492.850577
740.004093	2538.220962
740.333931	2500.412308
740.663722	2460.083077
740.993464	2422.274423
741.323159	2480.247692
741.652806	2442.439038
741.982405	2510.494615
742.311956	2500.412308
742.641460	2510.494615
742.970915	2510.494615
743.300323	2510.494615
743.629683	2510.494615
743.958996	2475.206538
744.288260	2465.124231
744.617477	2500.412308
744.946647	2550.823846
745.275768	2500.412308
745.604842	2497.891731
745.933869	2548.303269
746.262847	2500.412308
746.591778	2485.288846
746.920662	2545.782692
747.249498	2502.932885
747.578286	2412.192115
747.907027	2475.206538
748.235720	2502.932885
748.564365	2487.809423
748.892963	2495.371154
749.221514	2434.877308
749.550017	2467.644808
749.878473	2475.206538
750.206881	2518.056346
750.535242	2457.562500
750.863555	2487.809423
751.191821	2452.521346
751.520039	2472.685962
751.848210	2467.644808
752.176334	2523.097500
752.504411	2442.439038
752.832440	2530.659231
753.160421	2520.576923
753.488356	2477.727115
753.816243	2515.535769
754.144082	2485.288846
754.471875	2535.700385
754.799620	2490.330000
755.127318	2487.809423
755.454969	2487.809423
755.782572	2472.685962
756.110129	2497.891731
756.437638	2570.988462
756.765100	2507.974038
757.092515	2518.056346
757.419882	2606.276538
757.747203	2548.303269
758.074477	2606.276538
758.401703	2502.932885
758.728882	2472.685962
759.056014	2477.727115
759.383099	2457.562500
759.710138	2487.809423
760.037129	2570.988462
760.364073	2525.618077
760.690970	2573.509038
761.017820	2462.603654
761.344623	2482.768269
761.671379	2535.700385
761.998088	2492.850577
762.324751	2565.947308
762.651366	2495.371154
762.977935	2525.618077
763.304456	2497.891731
763.630931	2470.165385
763.957359	2482.768269
764.283740	2528.138654
764.610074	2472.685962
764.936362	2497.891731
765.262602	2495.371154
765.588796	2439.918462
765.914943	2472.685962
766.241044	2586.111923
766.567097	2432.356731
766.893104	2502.932885
767.219064	2470.165385
767.544978	2485.288846
767.870845	2452.521346
768.196665	2515.535769
768.522438	2490.330000
768.848165	2510.494615
769.173846	2447.480192
769.499479	2450.000769
769.825066	2548.303269
770.150607	2530.659231
770.476101	2495.371154
770.801548	2462.603654
771.126949	2510.494615
771.452303	2507.974038
771.777611	2535.700385
772.102872	2502.932885
772.428087	2555.865000
772.753256	2475.206538
773.078378	2583.591346
773.403453	2407.150962
773.728482	2434.877308
774.053465	2558.385577
774.378401	2482.768269
774.703291	2500.412308
775.028135	2467.644808
775.352932	2502.932885
775.677683	2472.685962
776.002388	2505.453462
776.327046	2545.782692
776.651658	2568.467885
776.976224	2450.000769
777.300743	2510.494615
777.625216	2523.097500
777.949643	2462.603654
778.274024	2528.138654
778.598359	2465.124231
778.922647	2510.494615
779.246889	2455.041923
779.571086	2515.535769
779.895236	2487.809423
780.219339	2528.138654
780.543397	2434.877308
780.867409	2477.727115
781.191374	2452.521346
781.515294	2502.932885
781.839167	2442.439038
782.162995	2538.220962
782.486776	2477.727115
782.810511	2475.206538
783.134201	2515.535769
783.457844	2510.494615
783.781441	2472.685962
784.104993	2533.179808
784.428498	2472.685962
784.751958	2472.685962
785.075372	2596.194231
785.398739	2520.576923
785.722061	2520.576923
786.045337	2515.535769
786.368568	2455.041923
786.691752	2497.891731
787.014891	2470.165385
787.337983	2505.453462
787.661030	2407.150962
787.984031	2477.727115
788.306987	2492.850577
788.629897	2550.823846
788.952760	2432.356731
789.275579	2523.097500
789.598351	2432.356731
789.921078	2450.000769
790.243759	2475.206538
790.566395	2470.165385
790.888984	2490.330000
791.211529	2460.083077
791.534027	2525.618077
791.856480	2447.480192
792.178888	2480.247692
792.501249	2505.453462
792.823566	2414.712692
793.145836	2558.385577
793.468062	2472.685962
793.790241	2530.659231
794.112375	2492.850577
794.434464	2467.644808
794.756507	2477.727115
795.078505	2530.659231
795.400457	2540.741538
795.722364	2480.247692
796.044226	2452.521346
796.366042	2447.480192
796.687812	2515.535769
797.009538	2505.453462
797.331218	2480.247692
797.652852	2485.288846
797.974442	2386.986346
798.295986	2472.685962
798.617484	2492.850577
798.938938	2540.741538
799.260346	2477.727115
799.581709	2558.385577
799.903026	2465.124231
800.224299	2500.412308
800.545526	2560.906154
800.866708	2533.179808
801.187845	2583.591346
801.508936	2462.603654
801.829983	2510.494615
802.150984	2455.041923
802.471940	2530.659231
802.792851	2530.659231
803.113717	2444.959615
803.434538	2520.576923
803.755314	2462.603654
804.076045	2500.412308
804.396731	2419.753846
804.717372	2477.727115
805.037967	2505.453462
805.358518	2505.453462
805.679024	2520.576923
805.999485	2429.836154
806.319901	2482.768269
806.640272	2452.521346
806.960598	2482.768269
807.280879	2530.659231
807.601115	2490.330000
807.921306	2500.412308
808.241453	2485.288846
808.561554	2475.206538
808.881611	2525.618077
809.201623	2419.753846
809.521590	2475.206538
809.841513	2457.562500
810.161390	2507.974038
810.481223	2538.220962
810.801011	2455.041923
811.120755	2513.015192
811.440453	2548.303269
811.760107	2462.603654
812.079716	2563.426731
812.399281	2523.097500
812.718801	2510.494615
813.038276	2472.685962
813.357707	2591.153077
813.677093	2515.535769
813.996434	2475.206538
814.315731	2455.041923
814.634983	2525.618077
814.954191	2424.795000
815.273354	2563.426731
815.592473	2422.274423
815.911547	2442.439038
816.230577	2472.685962
816.549562	2558.385577
816.868502	2555.865000
817.187399	2540.741538
817.506250	2565.947308
817.825058	2475.206538
818.143821	2543.262115
818.462539	2457.562500
818.781213	2570.988462
819.099843	2447.480192
819.418429	2513.015192
819.736970	2505.453462
820.055466	2528.138654
820.373919	2545.782692
820.692327	2573.509038
821.010691	2460.083077
821.329011	2502.932885
821.647286	2366.821731
821.965517	2457.562500
822.283704	2419.753846
822.601847	2450.000769
822.919945	2570.988462
823.237999	2417.233269
823.556010	2543.262115
823.873976	2510.494615
824.191897	2434.877308
824.509775	2505.453462
824.827609	2447.480192
825.145398	2495.371154
825.463144	2455.041923
825.780845	2513.015192
826.098502	2432.356731
826.416116	2462.603654
826.733685	2432.356731
827.051210	2477.727115
827.368692	2570.988462
827.686129	2520.576923
828.003522	2480.247692
828.320872	2550.823846
828.638177	2462.603654
828.955439	2550.823846
829.272656	2475.206538
829.589830	2460.083077
829.906960	2550.823846
830.224046	2500.412308
830.541088	2485.288846
830.858086	2588.632500
831.175041	2444.959615
831.491952	2490.330000
831.808819	2540.741538
832.125642	2507.974038
832.442421	2507.974038
832.759157	2523.097500
833.075849	2470.165385
833.392497	2510.494615
833.709101	2497.891731
834.025662	2513.015192
834.342179	2444.959615
834.658653	2465.124231
834.975083	2500.412308
835.291469	2467.644808
835.607811	2414.712692
835.924110	2568.467885
836.240366	2492.850577
836.556578	2465.124231
836.872746	2548.303269
837.188871	2583.591346
837.504952	2573.509038
837.820990	2409.671538
838.136984	2482.768269
838.452935	2392.027500
838.768842	2399.589231
839.084706	2475.206538
839.400526	2460.083077
839.716303	2515.535769
840.032037	2470.165385
840.347727	2520.576923
840.663373	2523.097500
840.978977	2525.618077
841.294537	2543.262115
841.610054	2505.453462
841.925527	2394.548077
842.240957	2505.453462
842.556344	2477.727115
842.871687	2450.000769
843.186987	2492.850577
843.502244	2407.150962
843.817458	2477.727115
844.132629	2538.220962
844.447756	2550.823846
844.762840	2540.741538
845.077881	2437.397885
845.392879	2397.068654
845.707833	2507.974038
846.022745	2439.918462
846.337613	2555.865000
846.652438	2462.603654
846.967221	2573.509038
847.281960	2447.480192
847.596656	2560.906154
847.911309	2492.850577
848.225919	2535.700385
848.540485	2460.083077
848.855009	2457.562500
849.169490	2470.165385
849.483928	2424.795000
849.798323	2482.768269
850.112675	2500.412308
850.426984	2487.809423
850.741251	2500.412308
851.055474	2422.274423
851.369654	2470.165385
851.683792	2480.247692
851.997887	2407.150962
852.311938	2490.330000
852.625947	2429.836154
852.939914	2540.741538
853.253837	2434.877308
853.567718	2442.439038
853.881555	2465.124231
854.195350	2535.700385
854.509103	2495.371154
854.822812	2507.974038
855.136479	2505.453462
855.450103	2548.303269
855.763685	2452.521346
856.077224	2492.850577
856.390720	2502.932885
856.704173	2513.015192
857.017584	2427.315577
857.330953	2475.206538
857.644278	2455.041923
857.957561	2495.371154
858.270802	2470.165385
858.584000	2568.467885
858.897155	2492.850577
859.210268	2528.138654
859.523339	2477.727115
859.836367	2550.823846
860.149352	2543.262115
860.462295	2465.124231
860.775195	2533.179808
861.088054	2518.056346
861.400869	2510.494615
861.713642	2515.535769
862.026373	2477.727115
862.339062	2495.371154
862.651708	2513.015192
862.964312	2540.741538
863.276873	2583.591346
863.589392	2497.891731
863.901869	2482.768269
864.214303	2450.000769
864.526696	2520.576923
864.839045	2404.630385
865.151353	2442.439038
865.463619	2404.630385
865.775842	2490.330000
866.088023	2520.576923
866.400162	2487.809423
866.712258	2495.371154
867.024313	2513.015192
867.336325	2455.041923
867.648296	2444.959615
867.960224	2482.768269
868.272110	2553.344423
868.583954	2500.412308
868.895755	2477.727115
869.207515	2563.426731
869.519233	2500.412308
869.830909	2490.330000
870.142542	2490.330000
870.454134	2432.356731
870.765684	2444.959615
871.077191	2444.959615
871.388657	2480.247692
871.700081	2460.083077
872.011463	2444.959615
872.322803	2533.179808
872.634101	2513.015192
872.945357	2495.371154
873.256571	2495.371154
873.567744	2543.262115
873.878874	2475.206538
874.189963	2485.288846
874.501010	2407.150962
874.812015	2568.467885
875.122979	2500.412308
875.433900	2482.768269
875.744780	2593.673654
876.055618	2437.397885
876.366415	2507.974038
876.677169	2480.247692
876.987882	2545.782692
877.298554	2515.535769
877.609183	2553.344423
877.919771	2462.603654
878.230317	2515.535769
878.540822	2462.603654
878.851285	2588.632500
879.161707	2485.288846
879.472087	2505.453462
879.782425	2467.644808
880.092722	2570.988462
880.402977	2538.220962
880.713191	2497.891731
881.023363	2457.562500
881.333494	2482.768269
881.643583	2424.795000
881.953631	2482.768269
882.263637	2472.685962
882.573602	2492.850577
882.883526	2490.330000
883.193408	2523.097500
883.503248	2404.630385
883.813048	2505.453462
884.122806	2505.453462
884.432522	2424.795000
884.742197	2530.659231
885.051831	2538.220962
885.361424	2538.220962
885.670975	2573.509038
885.980485	2457.562500
886.289954	2510.494615
886.599382	2528.138654
886.908768	2603.755962
887.218113	2495.371154
887.527417	2497.891731
887.836680	2450.000769
888.145901	2563.426731
888.455082	2555.865000
888.764221	2563.426731
889.073319	2467.644808
889.382376	2500.412308
889.691392	2525.618077
890.000366	2497.891731
890.309300	2419.753846
890.618193	2472.685962
890.927044	2490.330000
891.235855	2618.879423
891.544625	2472.685962
891.853353	2485.288846
892.162041	2485.288846
892.470687	2414.712692
892.779293	2487.809423
893.087858	2490.330000
893.396381	2573.509038
893.704864	2472.685962
894.013306	2462.603654
894.321707	2507.974038
894.630068	2495.371154
894.938387	2450.000769
895.246665	2455.041923
895.554903	2485.288846
895.863100	2482.768269
896.171256	2513.015192
896.479371	2490.330000
896.787446	2518.056346
897.095480	2477.727115
897.403473	2520.576923
897.711425	2470.165385
898.019336	2530.659231
898.327207	2507.974038
898.635038	2523.097500
898.942827	2485.288846
899.250576	2450.000769
899.558284	2485.288846
899.865952	2452.521346
900.173579	2510.494615
900.481165	2422.274423
900.788711	2525.618077
901.096216	2442.439038
901.403681	2490.330000
901.711105	2505.453462
902.018489	2495.371154
902.325832	2366.821731
902.633135	2475.206538
902.940397	2450.000769
903.247619	2472.685962
903.554800	2492.850577
903.861941	2472.685962
904.169041	2568.467885
904.476101	2379.424615
904.783121	2480.247692
905.090100	2500.412308
905.397039	2515.535769
905.703938	2623.920577
906.010796	2480.247692
906.317614	2601.235385
906.624391	2500.412308
906.931129	2528.138654
907.237826	2500.412308
907.544483	2530.659231
907.851099	2495.371154
908.157675	2475.206538
908.464211	2366.821731
908.770707	2510.494615
909.077163	2530.659231
909.383578	2487.809423
909.689954	2613.838269
909.996289	2513.015192
910.302584	2490.330000
910.608839	2545.782692
910.915054	2452.521346
911.221229	2465.124231
911.527363	2545.782692
911.833458	2429.836154
912.139513	2533.179808
912.445527	2495.371154
912.751502	2538.220962
913.057436	2412.192115
913.363331	2505.453462
913.669186	2429.836154
913.975000	2507.974038
914.280775	2497.891731
914.586510	2555.865000
914.892205	2492.850577
915.197859	2530.659231
915.503475	2492.850577
915.809050	2472.685962
916.114585	2417.233269
916.420081	2535.700385
916.725536	2606.276538
917.030952	2550.823846
917.336328	2570.988462
917.641665	2467.644808
917.946961	2523.097500
918.252218	2507.974038
918.557435	2495.371154
918.862612	2520.576923
919.167750	2558.385577
919.472848	2490.330000
919.777906	2407.150962
920.082925	2497.891731
920.387904	2470.165385
920.692843	2482.768269
920.997743	2495.371154
921.302603	2462.603654
921.607423	2523.097500
921.912204	2550.823846
922.216946	2500.412308
922.521647	2447.480192
922.826310	2460.083077
923.130932	2530.659231
923.435516	2450.000769
923.740059	2450.000769
924.044564	2472.685962
924.349028	2535.700385
924.653454	2485.288846
924.957840	2520.576923
925.262186	2414.712692
925.566493	2525.618077
925.870761	2447.480192
926.174989	2492.850577
926.479178	2510.494615
926.783328	2447.480192
927.087438	2538.220962
927.391509	2492.850577
927.695541	2444.959615
927.999533	2495.371154
928.303486	2528.138654
928.607400	2502.932885
928.911275	2515.535769
929.215110	2492.850577
929.518906	2507.974038
929.822663	2497.891731
930.126381	2520.576923
930.430060	2437.397885
930.733699	2505.453462
931.037299	2452.521346
931.340861	2513.015192
931.644383	2444.959615
931.947866	2487.809423
932.251309	2528.138654
932.554714	2540.741538
932.858080	2510.494615
933.161407	2523.097500
933.464694	2417.233269
933.767943	2462.603654
934.071153	2525.618077
934.374323	2525.618077
934.677455	2475.206538
934.980548	2492.850577
935.283602	2399.589231
935.586617	2467.644808
935.889593	2492.850577
936.192530	2482.768269
936.495428	2424.795000
936.798287	2545.782692
937.101108	2386.986346
937.403890	2495.371154
937.706632	2475.206538
938.009336	2502.932885
938.312002	2497.891731
938.614628	2452.521346
938.917216	2482.768269
939.219765	2482.768269
939.522275	2470.165385
939.824747	2523.097500
940.127179	2439.918462
940.429573	2525.618077
940.731929	2439.918462
941.034246	2555.865000
941.336524	2480.247692
941.638763	2439.918462
941.940964	2482.768269
942.243126	2525.618077
942.545250	2487.809423
942.847335	2535.700385
943.149381	2434.877308
943.451389	2510.494615
943.753359	2402.109808
944.055290	2407.150962
944.357182	2487.809423
944.659036	2573.509038
944.960851	2424.795000
945.262628	2429.836154
945.564367	2608.797115
945.866067	2472.685962
946.167729	2424.795000
946.469352	2497.891731
946.770937	2444.959615
947.072484	2563.426731
947.373992	2475.206538
947.675462	2523.097500
947.976893	2553.344423
948.278286	2477.727115
948.579641	2490.330000
948.880958	2543.262115
949.182236	2379.424615
949.483476	2439.918462
949.784678	2507.974038
950.085841	2480.247692
950.386967	2510.494615
950.688054	2424.795000
950.989103	2480.247692
951.290114	2407.150962
951.591087	2525.618077
951.892021	2460.083077
952.192917	2523.097500
952.493776	2439.918462
952.794596	2563.426731
953.095378	2518.056346
953.396122	2530.659231
953.696828	2450.000769
953.997496	2535.700385
954.298126	2490.330000
954.598718	2477.727115
954.899272	2505.453462
955.199788	2354.218846
955.500266	2538.220962
955.800706	2409.671538
956.101108	2528.138654
956.401472	2523.097500
956.701798	2487.809423
957.002087	2497.891731
957.302337	2475.206538
957.602550	2487.809423
957.902724	2419.753846
958.202861	2497.891731
958.502960	2507.974038
958.803022	2442.439038
959.103045	2533.179808
959.403031	2485.288846
959.702979	2523.097500
960.002889	2497.891731
960.302762	2525.618077
960.602596	2444.959615
960.902393	2538.220962
961.202153	2480.247692
961.501875	2487.809423
961.801559	2502.932885
962.101205	2487.809423
962.400814	2502.932885
962.700385	2555.865000
962.999918	2492.850577
963.299414	2480.247692
963.598873	2437.397885
963.898293	2379.424615
964.197677	2528.138654
964.497022	2450.000769
964.796331	2495.371154
965.095601	2487.809423
965.394835	2444.959615
965.694030	2553.344423
965.993189	2434.877308
966.292309	2447.480192
966.591393	2513.015192
966.890439	2417.233269
967.189447	2520.576923
967.488419	2386.986346
967.787353	2513.015192
968.086249	2475.206538
968.385108	2513.015192
968.683930	2581.070769
968.982714	2502.932885
969.281462	2530.659231
969.580172	2472.685962
969.878844	2495.371154
970.177480	2455.041923
970.476078	2505.453462
970.774639	2470.165385
971.073162	2429.836154
971.371649	2513.015192
971.670098	2507.974038
971.968510	2442.439038
972.266885	2470.165385
972.565223	2475.206538
972.863524	2475.206538
973.161788	2427.315577
973.460014	2555.865000
973.758204	2520.576923
974.056356	2523.097500
974.354471	2583.591346
974.652550	2492.850577
974.950591	2452.521346
975.248595	2485.288846
975.546563	2470.165385
975.844493	2394.548077
976.142386	2535.700385
976.440243	2591.153077
976.738062	2553.344423
977.035845	2450.000769
977.333590	2482.768269
977.631299	2432.356731
977.928971	2510.494615
978.226606	2550.823846
978.524204	2414.712692
978.821765	2505.453462
979.119290	2495.371154
979.416777	2540.741538
979.714228	2540.741538
980.011642	2497.891731
980.309020	2452.521346
980.606360	2422.274423
980.903664	2470.165385
981.200931	2525.618077
981.498162	2497.891731
981.795356	2460.083077
982.092513	2515.535769
982.389633	2460.083077
982.686717	2518.056346
982.983764	2437.397885
983.280775	2550.823846
983.577749	2502.932885
983.874686	2586.111923
984.171587	2507.974038
984.468451	2507.974038
984.765279	2495.371154
985.062070	2460.083077
985.358824	2482.768269
985.655543	2482.768269
985.952224	2452.521346
986.248869	2513.015192
986.545478	2545.782692
986.842050	2455.041923
987.138586	2434.877308
987.435086	2470.165385
987.731549	2450.000769
988.027975	2523.097500
988.324366	2477.727115
988.620719	2376.904038
988.917037	2581.070769
989.213318	2480.247692
989.509563	2465.124231
989.805772	2457.562500
990.101944	2442.439038
990.398080	2485.288846
990.694180	2520.576923
990.990244	2452.521346
991.286271	2447.480192
991.582262	2500.412308
991.878217	2513.015192
992.174136	2520.576923
992.470019	2515.535769
992.765865	2467.644808
993.061676	2550.823846
993.357450	2540.741538
993.653188	2470.165385
993.948890	2523.097500
994.244556	2442.439038
994.540186	2510.494615
994.835780	2460.083077
995.131337	2460.083077
995.426859	2505.453462
995.722345	2450.000769
996.017795	2434.877308
996.313208	2500.412308
996.608586	2515.535769
996.903928	2528.138654
997.199234	2450.000769
997.494504	2507.974038
997.789738	2495.371154
998.084936	2407.150962
998.380099	2568.467885
998.675225	2439.918462
998.970316	2442.439038
999.265371	2452.521346
999.560390	2518.056346
999.855373	2452.521346
1000.150320	2439.918462
1000.445232	2525.618077
1000.740108	2434.877308
1001.034948	2427.315577
1001.329752	2485.288846
1001.624521	2475.206538
1001.919254	2432.356731
1002.213951	2528.138654
1002.508613	2553.344423
1002.803239	2482.768269
1003.097829	2523.097500
1003.392384	2525.618077
1003.686903	2477.727115
1003.981386	2505.453462
1004.275834	2515.535769
1004.570246	2520.576923
1004.864623	2528.138654
1005.158964	2492.850577
1005.453270	2563.426731
1005.747540	2462.603654
1006.041775	2470.165385
1006.335974	2467.644808
1006.630138	2535.700385
1006.924266	2424.795000
1007.218359	2540.741538
1007.512416	2480.247692
1007.806438	2578.550192
1008.100425	2447.480192
1008.394376	2513.015192
1008.688292	2576.029615
1008.982172	2470.165385
1009.276017	2528.138654
1009.569827	2492.850577
1009.863602	2490.330000
1010.157341	2482.768269
1010.451045	2480.247692
1010.744714	2467.644808
1011.038347	2490.330000
1011.331945	2485.288846
1011.625508	2429.836154
1011.919036	2545.782692
1012.212528	2533.179808
1012.505986	2555.865000
1012.799408	2513.015192
1013.092795	2429.836154
1013.386147	2442.439038
1013.679464	2480.247692
1013.972745	2482.768269
1014.265992	2545.782692
1014.559204	2570.988462
1014.852380	2515.535769
1015.145521	2475.206538
1015.438628	2470.165385
1015.731699	2523.097500
1016.024736	2530.659231
1016.317737	2558.385577
1016.610703	2492.850577
1016.903635	2434.877308
1017.196531	2490.330000
1017.489393	2394.548077
1017.782219	2492.850577
1018.075011	2540.741538
1018.367768	2492.850577
1018.660490	2480.247692
1018.953177	2480.247692
1019.245829	2480.247692
