Dividing Wavelength (nm)	Counts (n)	Blue Motor Position (mm): 0.000000	Red Motor Position (mm): 5.200000	
326.493990	2097.120000
326.888308	2097.120000
327.282561	2097.120000
327.676750	2044.187885
328.070874	2066.873077
328.464933	2061.831923
328.858929	2102.161154
329.252859	2046.708462
329.646726	2074.434808
330.040528	2056.790769
330.434265	2109.722885
330.827938	2139.969808
331.221547	2213.066538
331.615091	2185.340192
332.008571	2223.148846
332.401986	2142.490385
332.795338	2238.272308
333.188625	2210.545962
333.581847	2265.998654
333.975006	2301.286731
334.368100	2230.710577
334.761129	2404.630385
335.154095	2369.342308
335.546996	2301.286731
335.939833	2394.548077
336.332606	2318.930769
336.725315	2397.068654
337.117960	2349.177692
337.510540	2344.136538
337.903056	2427.315577
338.295508	2404.630385
338.687896	2452.521346
339.080220	2434.877308
339.472480	2392.027500
339.864676	2371.862885
340.256807	2412.192115
340.648875	2470.165385
341.040879	2477.727115
341.432818	2510.494615
341.824694	2480.247692
342.216506	2495.371154
342.608253	2354.218846
342.999937	2507.974038
343.391557	2444.959615
343.783113	2525.618077
344.174605	2497.891731
344.566033	2518.056346
344.957397	2487.809423
345.348697	2472.685962
345.739934	2492.850577
346.131106	2472.685962
346.522215	2457.562500
346.913260	2412.192115
347.304241	2409.671538
347.695159	2485.288846
348.086012	2429.836154
348.476802	2427.315577
348.867528	2409.671538
349.258191	2475.206538
349.648789	2412.192115
350.039324	2465.124231
350.429796	2477.727115
350.820203	2404.630385
351.210548	2462.603654
351.600828	2500.412308
351.991045	2528.138654
352.381198	2507.974038
352.771288	2457.562500
353.161314	2475.206538
353.551276	2374.383462
353.941175	2523.097500
354.331010	2402.109808
354.720782	2402.109808
355.110490	2513.015192
355.500135	2407.150962
355.889717	2384.465769
356.279235	2354.218846
356.668689	2485.288846
357.058080	2470.165385
357.447408	2523.097500
357.836672	2422.274423
358.225873	2533.179808
358.615010	2452.521346
359.004084	2465.124231
359.393095	2510.494615
359.782043	2450.000769
360.170927	2409.671538
360.559748	2495.371154
360.948505	2381.945192
361.337199	2450.000769
361.725830	2394.548077
362.114398	2414.712692
362.502903	2442.439038
362.891344	2490.330000
363.279722	2490.330000
363.668037	2437.397885
364.056289	2422.274423
364.444478	2550.823846
364.832603	2490.330000
365.220665	2475.206538
365.608665	2462.603654
365.996601	2450.000769
366.384474	2419.753846
366.772284	2495.371154
367.160031	2427.315577
367.547715	2389.506923
367.935336	2404.630385
368.322893	2455.041923
368.710388	2492.850577
369.097820	2502.932885
369.485189	2414.712692
369.872495	2296.245577
370.259738	2417.233269
370.646918	2429.836154
371.034035	2475.206538
371.421090	2422.274423
371.808081	2422.274423
372.195010	2442.439038
372.581875	2465.124231
372.968678	2447.480192
373.355418	2450.000769
373.742096	2520.576923
374.128710	2444.959615
374.515262	2477.727115
374.901751	2392.027500
375.288177	2480.247692
375.674540	2419.753846
376.060841	2427.315577
376.447079	2497.891731
376.833254	2384.465769
377.219367	2495.371154
377.605417	2480.247692
377.991404	2487.809423
378.377329	2392.027500
378.763191	2492.850577
379.148991	2462.603654
379.534727	2465.124231
379.920402	2412.192115
380.306013	2475.206538
380.691563	2450.000769
381.077049	2409.671538
381.462474	2492.850577
381.847835	2434.877308
382.233134	2462.603654
382.618371	2465.124231
383.003545	2520.576923
383.388657	2576.029615
383.773706	2432.356731
384.158693	2510.494615
384.543618	2452.521346
384.928480	2470.165385
385.313280	2513.015192
385.698017	2505.453462
386.082692	2500.412308
386.467305	2404.630385
386.851856	2510.494615
387.236344	2434.877308
387.620770	2412.192115
388.005133	2510.494615
388.389435	2507.974038
388.773674	2450.000769
389.157851	2442.439038
389.541965	2465.124231
389.926018	2399.589231
390.310008	2513.015192
390.693936	2465.124231
391.077802	2581.070769
391.461606	2492.850577
391.845348	2530.659231
392.229027	2480.247692
392.612645	2507.974038
392.996200	2490.330000
393.379694	2535.700385
393.763125	2424.795000
394.146494	2530.659231
394.529801	2467.644808
394.913047	2520.576923
395.296230	2452.521346
395.679351	2533.179808
396.062410	2419.753846
396.445408	2407.150962
396.828343	2404.630385
397.211217	2525.618077
397.594028	2434.877308
397.976778	2485.288846
398.359466	2407.150962
398.742092	2538.220962
399.124656	2467.644808
399.507158	2497.891731
399.889598	2417.233269
400.271977	2432.356731
400.654294	2507.974038
401.036549	2492.850577
401.418742	2518.056346
401.800874	2452.521346
402.182944	2576.029615
402.564952	2457.562500
402.946898	2404.630385
403.328783	2472.685962
403.710606	2485.288846
404.092367	2432.356731
404.474067	2467.644808
404.855705	2482.768269
405.237282	2429.836154
405.618797	2402.109808
406.000250	2465.124231
406.381642	2558.385577
406.762972	2515.535769
407.144240	2485.288846
407.525447	2444.959615
407.906593	2346.657115
408.287677	2457.562500
408.668700	2442.439038
409.049661	2528.138654
409.430560	2442.439038
409.811399	2462.603654
410.192176	2422.274423
410.572891	2560.906154
410.953545	2487.809423
411.334138	2500.412308
411.714669	2510.494615
412.095139	2475.206538
412.475547	2379.424615
412.855894	2472.685962
413.236180	2470.165385
413.616405	2465.124231
413.996568	2452.521346
414.376670	2379.424615
414.756711	2470.165385
415.136691	2560.906154
415.516609	2417.233269
415.896466	2515.535769
416.276262	2414.712692
416.655997	2444.959615
417.035670	2490.330000
417.415283	2457.562500
417.794834	2523.097500
418.174324	2588.632500
418.553753	2492.850577
418.933121	2444.959615
419.312428	2482.768269
419.691674	2384.465769
420.070859	2548.303269
420.449983	2444.959615
420.829045	2427.315577
421.208047	2444.959615
421.586988	2452.521346
421.965867	2422.274423
422.344686	2497.891731
422.723444	2447.480192
423.102141	2432.356731
423.480777	2465.124231
423.859352	2520.576923
424.237866	2492.850577
424.616319	2533.179808
424.994712	2475.206538
425.373044	2472.685962
425.751314	2485.288846
426.129524	2480.247692
426.507673	2460.083077
426.885762	2492.850577
427.263789	2460.083077
427.641756	2513.015192
428.019662	2450.000769
428.397508	2485.288846
428.775292	2601.235385
429.153016	2596.194231
429.530679	2485.288846
429.908282	2429.836154
430.285824	2482.768269
430.663305	2434.877308
431.040726	2472.685962
431.418086	2487.809423
431.795385	2505.453462
432.172624	2460.083077
432.549802	2447.480192
432.926920	2520.576923
433.303977	2523.097500
433.680974	2477.727115
434.057910	2470.165385
434.434786	2452.521346
434.811601	2495.371154
435.188355	2460.083077
435.565050	2497.891731
435.941683	2475.206538
436.318257	2465.124231
436.694770	2432.356731
437.071222	2424.795000
437.447614	2543.262115
437.823946	2477.727115
438.200218	2588.632500
438.576429	2470.165385
438.952580	2477.727115
439.328670	2515.535769
439.704700	2472.685962
440.080670	2467.644808
440.456580	2495.371154
440.832429	2528.138654
441.208218	2482.768269
441.583947	2404.630385
441.959616	2457.562500
442.335224	2437.397885
442.710773	2467.644808
443.086261	2465.124231
443.461689	2447.480192
443.837057	2472.685962
444.212365	2518.056346
444.587612	2482.768269
444.962800	2502.932885
445.337927	2477.727115
445.712995	2520.576923
446.088002	2472.685962
446.462949	2475.206538
446.837837	2525.618077
447.212664	2437.397885
447.587431	2485.288846
447.962139	2525.618077
448.336786	2548.303269
448.711374	2487.809423
449.085901	2432.356731
449.460369	2543.262115
449.834776	2467.644808
450.209124	2528.138654
450.583412	2502.932885
450.957640	2565.947308
451.331808	2535.700385
451.705917	2558.385577
452.079965	2513.015192
452.453954	2485.288846
452.827883	2412.192115
453.201752	2437.397885
453.575562	2487.809423
453.949311	2495.371154
454.323001	2507.974038
454.696632	2434.877308
455.070202	2482.768269
455.443713	2412.192115
455.817164	2427.315577
456.190556	2538.220962
456.563888	2507.974038
456.937160	2505.453462
457.310373	2450.000769
457.683526	2543.262115
458.056619	2457.562500
458.429653	2472.685962
458.802628	2518.056346
459.175542	2404.630385
459.548398	2555.865000
459.921194	2462.603654
460.293930	2550.823846
460.666607	2467.644808
461.039224	2563.426731
461.411782	2523.097500
461.784280	2485.288846
462.156719	2470.165385
462.529099	2558.385577
462.901419	2495.371154
463.273680	2520.576923
463.645882	2523.097500
464.018024	2414.712692
464.390106	2432.356731
464.762130	2432.356731
465.134094	2485.288846
465.505999	2470.165385
465.877845	2482.768269
466.249631	2455.041923
466.621358	2475.206538
466.993026	2462.603654
467.364634	2535.700385
467.736184	2480.247692
468.107674	2523.097500
468.479105	2422.274423
468.850477	2465.124231
469.221790	2497.891731
469.593043	2475.206538
469.964238	2475.206538
470.335373	2515.535769
470.706449	2402.109808
471.077467	2538.220962
471.448425	2518.056346
471.819324	2482.768269
472.190164	2558.385577
472.560945	2465.124231
472.931667	2518.056346
473.302330	2477.727115
473.672934	2505.453462
474.043479	2427.315577
474.413965	2548.303269
474.784393	2513.015192
475.154761	2467.644808
475.525070	2528.138654
475.895321	2563.426731
476.265513	2558.385577
476.635645	2500.412308
477.005719	2381.945192
477.375734	2452.521346
477.745691	2530.659231
478.115588	2477.727115
478.485427	2414.712692
478.855207	2530.659231
479.224928	2455.041923
479.594591	2404.630385
479.964194	2497.891731
480.333739	2518.056346
480.703226	2525.618077
481.072653	2513.015192
481.442022	2538.220962
481.811333	2447.480192
482.180584	2467.644808
482.549777	2528.138654
482.918912	2450.000769
483.287988	2507.974038
483.657005	2487.809423
484.025964	2578.550192
484.394864	2477.727115
484.763706	2419.753846
485.132489	2518.056346
485.501213	2502.932885
485.869879	2457.562500
486.238487	2502.932885
486.607036	2560.906154
486.975527	2497.891731
487.343959	2545.782692
487.712333	2437.397885
488.080648	2540.741538
488.448905	2444.959615
488.817104	2477.727115
489.185244	2573.509038
489.553326	2497.891731
489.921350	2485.288846
490.289315	2432.356731
490.657222	2417.233269
491.025070	2560.906154
491.392861	2487.809423
491.760593	2497.891731
492.128267	2450.000769
492.495883	2467.644808
492.863440	2510.494615
493.230939	2528.138654
493.598380	2563.426731
493.965763	2439.918462
494.333088	2523.097500
494.700354	2434.877308
495.067563	2538.220962
495.434713	2540.741538
495.801805	2520.576923
496.168839	2480.247692
496.535815	2477.727115
496.902733	2417.233269
497.269593	2495.371154
497.636395	2475.206538
498.003139	2455.041923
498.369825	2507.974038
498.736453	2497.891731
499.103023	2533.179808
499.469535	2563.426731
499.835989	2518.056346
500.202385	2427.315577
500.568723	2497.891731
500.935003	2520.576923
501.301226	2540.741538
501.667390	2502.932885
502.033497	2558.385577
502.399546	2523.097500
502.765537	2530.659231
503.131470	2399.589231
503.497345	2465.124231
503.863163	2472.685962
504.228923	2500.412308
504.594625	2520.576923
504.960269	2450.000769
505.325856	2452.521346
505.691385	2576.029615
506.056856	2465.124231
506.422270	2525.618077
506.787625	2455.041923
507.152924	2450.000769
507.518164	2462.603654
507.883347	2558.385577
508.248472	2523.097500
508.613540	2502.932885
508.978550	2490.330000
509.343503	2450.000769
509.708398	2502.932885
510.073236	2510.494615
510.438016	2495.371154
510.802738	2576.029615
511.167403	2460.083077
511.532010	2500.412308
511.896561	2475.206538
512.261053	2578.550192
512.625488	2513.015192
512.989866	2475.206538
513.354186	2545.782692
513.718449	2523.097500
514.082655	2442.439038
514.446803	2530.659231
514.810894	2437.397885
515.174927	2502.932885
515.538904	2540.741538
515.902822	2545.782692
516.266684	2465.124231
516.630488	2487.809423
516.994235	2560.906154
517.357925	2515.535769
517.721558	2447.480192
518.085133	2548.303269
518.448651	2422.274423
518.812112	2439.918462
519.175516	2477.727115
519.538863	2482.768269
519.902152	2497.891731
520.265385	2429.836154
520.628560	2444.959615
520.991678	2497.891731
521.354739	2505.453462
521.717743	2386.986346
522.080690	2480.247692
522.443580	2462.603654
522.806413	2563.426731
523.169189	2538.220962
523.531908	2477.727115
523.894569	2444.959615
524.257174	2560.906154
524.619722	2530.659231
524.982213	2472.685962
525.344647	2538.220962
525.707025	2447.480192
526.069345	2480.247692
526.431608	2500.412308
526.793815	2490.330000
527.155964	2477.727115
527.518057	2457.562500
527.880093	2409.671538
528.242072	2490.330000
528.603995	2439.918462
528.965860	2518.056346
529.327669	2472.685962
529.689421	2485.288846
530.051117	2500.412308
530.412755	2500.412308
530.774337	2543.262115
531.135862	2510.494615
531.497331	2452.521346
531.858743	2540.741538
532.220098	2520.576923
532.581396	2510.494615
532.942638	2480.247692
533.303824	2490.330000
533.664953	2570.988462
534.026025	2616.358846
534.387040	2570.988462
534.747999	2470.165385
535.108902	2530.659231
535.469748	2480.247692
535.830537	2528.138654
536.191270	2530.659231
536.551947	2510.494615
536.912567	2540.741538
537.273131	2505.453462
537.633638	2462.603654
537.994089	2490.330000
538.354483	2434.877308
538.714821	2500.412308
539.075103	2477.727115
539.435328	2555.865000
539.795497	2475.206538
540.155609	2447.480192
540.515665	2525.618077
540.875665	2548.303269
541.235609	2487.809423
541.595496	2467.644808
541.955328	2452.521346
542.315102	2507.974038
542.674821	2528.138654
543.034483	2543.262115
543.394090	2477.727115
543.753640	2591.153077
544.113134	2467.644808
544.472571	2497.891731
544.831953	2510.494615
545.191278	2472.685962
545.550548	2505.453462
545.909761	2507.974038
546.268918	2437.397885
546.628019	2505.453462
546.987064	2540.741538
547.346053	2497.891731
547.704986	2573.509038
548.063863	2477.727115
548.422684	2528.138654
548.781449	2515.535769
549.140158	2437.397885
549.498811	2576.029615
549.857408	2492.850577
550.215949	2518.056346
550.574434	2568.467885
550.932864	2568.467885
551.291237	2507.974038
551.649555	2540.741538
552.007817	2513.015192
552.366022	2386.986346
552.724173	2548.303269
553.082267	2492.850577
553.440305	2475.206538
553.798288	2570.988462
554.156215	2492.850577
554.514086	2457.562500
554.871902	2520.576923
555.229661	2447.480192
555.587365	2520.576923
555.945014	2520.576923
556.302606	2417.233269
556.660143	2439.918462
557.017625	2467.644808
557.375050	2505.453462
557.732421	2510.494615
558.089735	2538.220962
558.446994	2444.959615
558.804197	2543.262115
559.161345	2477.727115
559.518437	2480.247692
559.875474	2482.768269
560.232455	2487.809423
560.589381	2540.741538
560.946251	2497.891731
561.303065	2485.288846
561.659825	2409.671538
562.016528	2497.891731
562.373177	2455.041923
562.729770	2518.056346
563.086307	2452.521346
563.442789	2460.083077
563.799216	2548.303269
564.155587	2457.562500
564.511904	2598.714808
564.868164	2439.918462
565.224370	2545.782692
565.580520	2457.562500
565.936615	2497.891731
566.292654	2538.220962
566.648638	2515.535769
567.004567	2528.138654
567.360441	2482.768269
567.716260	2477.727115
568.072023	2497.891731
568.427732	2528.138654
568.783385	2513.015192
569.138982	2505.453462
569.494525	2467.644808
569.850013	2598.714808
570.205445	2528.138654
570.560823	2480.247692
570.916145	2472.685962
571.271412	2492.850577
571.626625	2518.056346
571.981782	2502.932885
572.336884	2460.083077
572.691931	2490.330000
573.046923	2485.288846
573.401860	2518.056346
573.756743	2530.659231
574.111570	2455.041923
574.466342	2525.618077
574.821059	2548.303269
575.175722	2492.850577
575.530330	2555.865000
575.884882	2507.974038
576.239380	2533.179808
576.593823	2593.673654
576.948211	2505.453462
577.302544	2538.220962
577.656823	2482.768269
578.011047	2505.453462
578.365216	2490.330000
578.719330	2492.850577
579.073389	2462.603654
579.427394	2530.659231
579.781344	2457.562500
580.135239	2505.453462
580.489080	2429.836154
580.842866	2560.906154
581.196597	2550.823846
581.550273	2497.891731
581.903895	2538.220962
582.257463	2525.618077
582.610975	2500.412308
582.964434	2490.330000
583.317837	2548.303269
583.671186	2447.480192
584.024481	2568.467885
584.377721	2530.659231
584.730906	2465.124231
585.084037	2442.439038
585.437113	2457.562500
585.790135	2518.056346
586.143103	2490.330000
586.496016	2437.397885
586.848874	2520.576923
587.201679	2437.397885
587.554428	2543.262115
587.907124	2520.576923
588.259765	2437.397885
588.612352	2500.412308
588.964884	2593.673654
589.317362	2419.753846
589.669786	2520.576923
590.022155	2472.685962
590.374470	2450.000769
590.726731	2500.412308
591.078937	2505.453462
591.431090	2570.988462
591.783188	2500.412308
592.135232	2439.918462
592.487222	2535.700385
592.839157	2492.850577
593.191038	2570.988462
593.542866	2515.535769
593.894639	2485.288846
594.246358	2477.727115
594.598022	2510.494615
594.949633	2530.659231
595.301190	2502.932885
595.652692	2528.138654
596.004141	2568.467885
596.355535	2495.371154
596.706876	2465.124231
597.058162	2510.494615
597.409395	2538.220962
597.760573	2568.467885
598.111698	2437.397885
598.462768	2548.303269
598.813785	2500.412308
599.164748	2487.809423
599.515657	2467.644808
599.866511	2523.097500
600.217312	2442.439038
600.568060	2394.548077
600.918753	2538.220962
601.269392	2538.220962
601.619978	2490.330000
601.970510	2470.165385
602.320988	2543.262115
602.671412	2502.932885
603.021783	2523.097500
603.372100	2530.659231
603.722363	2560.906154
604.072572	2520.576923
604.422728	2545.782692
604.772830	2550.823846
605.122878	2495.371154
605.472872	2414.712692
605.822813	2480.247692
606.172701	2497.891731
606.522534	2560.906154
606.872314	2447.480192
607.222041	2507.974038
607.571714	2505.453462
607.921333	2513.015192
608.270899	2545.782692
608.620411	2482.768269
608.969870	2482.768269
609.319276	2472.685962
609.668627	2450.000769
610.017926	2492.850577
610.367171	2495.371154
610.716362	2555.865000
611.065500	2475.206538
611.414585	2455.041923
611.763616	2586.111923
612.112594	2543.262115
612.461518	2548.303269
612.810389	2502.932885
613.159207	2548.303269
613.507971	2578.550192
613.856682	2485.288846
614.205340	2513.015192
614.553945	2560.906154
614.902496	2457.562500
615.250994	2381.945192
615.599439	2502.932885
615.947830	2475.206538
616.296169	2560.906154
616.644454	2477.727115
616.992686	2439.918462
617.340864	2515.535769
617.688990	2447.480192
618.037063	2510.494615
618.385082	2563.426731
618.733048	2540.741538
619.080961	2507.974038
619.428821	2568.467885
619.776628	2409.671538
620.124382	2565.947308
620.472083	2439.918462
620.819731	2482.768269
621.167326	2437.397885
621.514868	2470.165385
621.862357	2492.850577
622.209793	2470.165385
622.557176	2505.453462
622.904506	2578.550192
623.251783	2495.371154
623.599007	2485.288846
623.946179	2455.041923
624.293297	2492.850577
624.640363	2492.850577
624.987376	2533.179808
625.334336	2437.397885
625.681243	2447.480192
626.028097	2439.918462
626.374899	2520.576923
626.721647	2480.247692
627.068343	2422.274423
627.414987	2477.727115
627.761577	2545.782692
628.108115	2470.165385
628.454600	2485.288846
628.801032	2434.877308
629.147412	2538.220962
629.493739	2528.138654
629.840014	2581.070769
630.186236	2513.015192
630.532405	2422.274423
630.878521	2492.850577
631.224585	2487.809423
631.570597	2545.782692
631.916556	2409.671538
632.262462	2520.576923
632.608316	2490.330000
632.954117	2422.274423
633.299866	2472.685962
633.645562	2505.453462
633.991206	2500.412308
634.336797	2480.247692
634.682336	2535.700385
635.027823	2490.330000
635.373257	2523.097500
635.718639	2485.288846
636.063968	2404.630385
636.409245	2447.480192
636.754470	2560.906154
637.099642	2555.865000
637.444762	2533.179808
637.789829	2452.521346
638.134845	2533.179808
638.479808	2545.782692
638.824719	2462.603654
639.169577	2460.083077
639.514383	2505.453462
639.859137	2480.247692
640.203839	2482.768269
640.548489	2515.535769
640.893086	2555.865000
641.237632	2462.603654
641.582125	2555.865000
641.926566	2505.453462
642.270955	2588.632500
642.615292	2487.809423
642.959576	2515.535769
643.303809	2497.891731
643.647990	2492.850577
643.992118	2523.097500
644.336195	2563.426731
644.680219	2447.480192
645.024192	2442.439038
645.368112	2515.535769
645.711981	2470.165385
646.055797	2520.576923
646.399562	2538.220962
646.743274	2475.206538
647.086935	2507.974038
647.430544	2505.453462
647.774101	2455.041923
648.117606	2578.550192
648.461059	2502.932885
648.804460	2467.644808
649.147810	2366.821731
649.491108	2558.385577
649.834354	2482.768269
650.177548	2505.453462
650.520690	2518.056346
650.863781	2487.809423
651.206820	2452.521346
651.549807	2570.988462
651.892742	2502.932885
652.235626	2381.945192
652.578458	2528.138654
652.921238	2460.083077
653.263967	2530.659231
653.606644	2444.959615
653.949269	2515.535769
654.291843	2513.015192
654.634365	2450.000769
654.976836	2545.782692
655.319255	2467.644808
655.661622	2507.974038
656.003938	2419.753846
656.346203	2414.712692
656.688416	2497.891731
657.030577	2492.850577
657.372687	2502.932885
657.714746	2465.124231
658.056753	2518.056346
658.398708	2462.603654
658.740612	2460.083077
659.082465	2530.659231
659.424266	2472.685962
659.766016	2467.644808
660.107715	2490.330000
660.449362	2455.041923
660.790958	2545.782692
661.132503	2505.453462
661.473996	2553.344423
661.815438	2555.865000
662.156829	2472.685962
662.498168	2518.056346
662.839456	2533.179808
663.180693	2439.918462
663.521879	2452.521346
663.863013	2535.700385
664.204097	2447.480192
664.545129	2515.535769
664.886110	2520.576923
665.227040	2455.041923
665.567918	2573.509038
665.908746	2507.974038
666.249522	2623.920577
666.590248	2611.317692
666.930922	2548.303269
667.271545	2520.576923
667.612118	2528.138654
667.952639	2409.671538
668.293109	2505.453462
668.633528	2462.603654
668.973896	2560.906154
669.314213	2518.056346
669.654480	2450.000769
669.994695	2513.015192
670.334859	2520.576923
670.674973	2485.288846
671.015035	2472.685962
671.355047	2429.836154
671.695008	2500.412308
672.034918	2429.836154
672.374777	2472.685962
672.714585	2485.288846
673.054342	2500.412308
673.394049	2470.165385
673.733705	2480.247692
674.073310	2465.124231
674.412864	2447.480192
674.752368	2465.124231
675.091820	2530.659231
675.431223	2480.247692
675.770574	2523.097500
676.109875	2442.439038
676.449125	2467.644808
676.788324	2555.865000
677.127473	2465.124231
677.466571	2535.700385
677.805619	2409.671538
678.144616	2563.426731
678.483562	2518.056346
678.822458	2528.138654
679.161303	2462.603654
679.500098	2576.029615
679.838842	2616.358846
680.177535	2502.932885
680.516179	2457.562500
680.854771	2565.947308
681.193314	2482.768269
681.531805	2573.509038
681.870247	2490.330000
682.208638	2533.179808
682.546978	2442.439038
682.885268	2450.000769
683.223508	2530.659231
683.561697	2485.288846
683.899836	2520.576923
684.237925	2490.330000
684.575963	2490.330000
684.913951	2505.453462
685.251889	2502.932885
685.589776	2611.317692
685.927614	2535.700385
686.265401	2540.741538
686.603137	2558.385577
686.940824	2495.371154
687.278460	2495.371154
687.616046	2467.644808
687.953582	2515.535769
688.291068	2437.397885
688.628504	2437.397885
688.965889	2502.932885
689.303224	2543.262115
689.640510	2467.644808
689.977745	2447.480192
690.314930	2447.480192
690.652065	2485.288846
690.989150	2490.330000
691.326185	2588.632500
691.663170	2457.562500
692.000105	2533.179808
692.336990	2462.603654
692.673825	2505.453462
693.010610	2457.562500
693.347345	2457.562500
693.684030	2576.029615
694.020665	2460.083077
694.357251	2397.068654
694.693786	2472.685962
695.030272	2457.562500
695.366707	2497.891731
695.703093	2515.535769
696.039429	2427.315577
696.375716	2429.836154
696.711952	2462.603654
697.048139	2447.480192
697.384276	2553.344423
697.720363	2553.344423
698.056400	2616.358846
698.392388	2460.083077
698.728326	2528.138654
699.064214	2505.453462
699.400053	2596.194231
699.735842	2381.945192
700.071581	2505.453462
700.407270	2513.015192
700.742910	2422.274423
701.078501	2437.397885
701.414042	2540.741538
701.749533	2578.550192
702.084974	2500.412308
702.420366	2460.083077
702.755709	2497.891731
703.091002	2570.988462
703.426246	2507.974038
703.761440	2500.412308
704.096584	2510.494615
704.431679	2457.562500
704.766725	2576.029615
705.101721	2467.644808
705.436668	2576.029615
705.771565	2485.288846
706.106413	2573.509038
706.441212	2397.068654
706.775961	2523.097500
707.110661	2523.097500
707.445311	2497.891731
707.779913	2530.659231
708.114465	2487.809423
708.448967	2485.288846
708.783421	2555.865000
709.117825	2502.932885
709.452180	2611.317692
709.786485	2477.727115
710.120742	2477.727115
710.454949	2497.891731
710.789107	2560.906154
711.123216	2530.659231
711.457275	2437.397885
711.791286	2397.068654
712.125247	2472.685962
712.459159	2470.165385
712.793023	2515.535769
713.126837	2497.891731
713.460602	2492.850577
713.794318	2505.453462
714.127985	2450.000769
714.461602	2467.644808
714.795171	2487.809423
715.128691	2525.618077
715.462162	2472.685962
715.795584	2525.618077
716.128957	2513.015192
716.462281	2573.509038
716.795556	2492.850577
717.128782	2565.947308
717.461960	2553.344423
717.795088	2429.836154
718.128167	2470.165385
718.461198	2480.247692
718.794180	2568.467885
719.127113	2560.906154
719.459997	2505.453462
719.792833	2480.247692
720.125619	2455.041923
720.458357	2533.179808
720.791046	2495.371154
721.123686	2548.303269
721.456278	2520.576923
721.788821	2523.097500
722.121315	2495.371154
722.453761	2452.521346
722.786158	2543.262115
723.118506	2444.959615
723.450805	2500.412308
723.783056	2548.303269
724.115259	2520.576923
724.447412	2560.906154
724.779518	2497.891731
725.111574	2545.782692
725.443582	2472.685962
725.775542	2545.782692
726.107453	2470.165385
726.439315	2457.562500
726.771129	2482.768269
727.102895	2460.083077
727.434612	2482.768269
727.766281	2520.576923
728.097901	2482.768269
728.429473	2505.453462
728.760996	2465.124231
729.092471	2450.000769
729.423897	2465.124231
729.755276	2505.453462
730.086606	2538.220962
730.417887	2538.220962
730.749120	2505.453462
731.080305	2492.850577
731.411442	2422.274423
731.742530	2497.891731
732.073570	2528.138654
732.404562	2553.344423
732.735506	2565.947308
733.066401	2434.877308
733.397249	2442.439038
733.728048	2533.179808
734.058798	2480.247692
734.389501	2538.220962
734.720156	2533.179808
735.050762	2465.124231
735.381320	2495.371154
735.711831	2510.494615
736.042293	2523.097500
736.372707	2475.206538
736.703073	2467.644808
737.033391	2467.644808
737.363661	2470.165385
737.693883	2505.453462
738.024056	2518.056346
738.354182	2513.015192
738.684260	2472.685962
739.014290	2515.535769
739.344272	2422.274423
739.674207	2538.220962
740.004093	2485.288846
740.333931	2565.947308
740.663722	2578.550192
740.993464	2450.000769
741.323159	2492.850577
741.652806	2543.262115
741.982405	2427.315577
742.311956	2422.274423
742.641460	2495.371154
742.970915	2525.618077
743.300323	2429.836154
743.629683	2487.809423
743.958996	2470.165385
744.288260	2502.932885
744.617477	2452.521346
744.946647	2525.618077
745.275768	2507.974038
745.604842	2606.276538
745.933869	2581.070769
746.262847	2576.029615
746.591778	2507.974038
746.920662	2553.344423
747.249498	2588.632500
747.578286	2439.918462
747.907027	2477.727115
748.235720	2482.768269
748.564365	2480.247692
748.892963	2492.850577
749.221514	2530.659231
749.550017	2497.891731
749.878473	2550.823846
750.206881	2555.865000
750.535242	2515.535769
750.863555	2495.371154
751.191821	2492.850577
751.520039	2404.630385
751.848210	2553.344423
752.176334	2452.521346
752.504411	2513.015192
752.832440	2530.659231
753.160421	2442.439038
753.488356	2525.618077
753.816243	2444.959615
754.144082	2606.276538
754.471875	2434.877308
754.799620	2389.506923
755.127318	2523.097500
755.454969	2593.673654
755.782572	2467.644808
756.110129	2533.179808
756.437638	2505.453462
756.765100	2520.576923
757.092515	2404.630385
757.419882	2482.768269
757.747203	2455.041923
758.074477	2563.426731
758.401703	2419.753846
758.728882	2558.385577
759.056014	2470.165385
759.383099	2518.056346
759.710138	2480.247692
760.037129	2455.041923
760.364073	2538.220962
760.690970	2581.070769
761.017820	2482.768269
761.344623	2450.000769
761.671379	2447.480192
761.998088	2533.179808
762.324751	2450.000769
762.651366	2460.083077
762.977935	2450.000769
763.304456	2507.974038
763.630931	2560.906154
763.957359	2470.165385
764.283740	2540.741538
764.610074	2460.083077
764.936362	2482.768269
765.262602	2460.083077
765.588796	2495.371154
765.914943	2444.959615
766.241044	2545.782692
766.567097	2570.988462
766.893104	2570.988462
767.219064	2492.850577
767.544978	2608.797115
767.870845	2457.562500
768.196665	2570.988462
768.522438	2510.494615
768.848165	2500.412308
769.173846	2497.891731
769.499479	2538.220962
769.825066	2500.412308
770.150607	2555.865000
770.476101	2480.247692
770.801548	2487.809423
771.126949	2518.056346
771.452303	2581.070769
771.777611	2467.644808
772.102872	2475.206538
772.428087	2588.632500
772.753256	2563.426731
773.078378	2500.412308
773.403453	2422.274423
773.728482	2462.603654
774.053465	2593.673654
774.378401	2480.247692
774.703291	2530.659231
775.028135	2530.659231
775.352932	2485.288846
775.677683	2460.083077
776.002388	2581.070769
776.327046	2510.494615
776.651658	2439.918462
776.976224	2518.056346
777.300743	2465.124231
777.625216	2490.330000
777.949643	2470.165385
778.274024	2505.453462
778.598359	2447.480192
778.922647	2548.303269
779.246889	2505.453462
779.571086	2500.412308
779.895236	2553.344423
780.219339	2543.262115
780.543397	2482.768269
780.867409	2457.562500
781.191374	2545.782692
781.515294	2455.041923
781.839167	2565.947308
782.162995	2545.782692
782.486776	2432.356731
782.810511	2427.315577
783.134201	2598.714808
783.457844	2492.850577
783.781441	2518.056346
784.104993	2439.918462
784.428498	2513.015192
784.751958	2538.220962
785.075372	2460.083077
785.398739	2548.303269
785.722061	2480.247692
786.045337	2359.260000
786.368568	2528.138654
786.691752	2490.330000
787.014891	2472.685962
787.337983	2399.589231
787.661030	2505.453462
787.984031	2492.850577
788.306987	2389.506923
788.629897	2399.589231
788.952760	2576.029615
789.275579	2528.138654
789.598351	2520.576923
789.921078	2485.288846
790.243759	2495.371154
790.566395	2477.727115
790.888984	2447.480192
791.211529	2480.247692
791.534027	2518.056346
791.856480	2487.809423
792.178888	2568.467885
792.501249	2452.521346
792.823566	2530.659231
793.145836	2497.891731
793.468062	2548.303269
793.790241	2457.562500
794.112375	2485.288846
794.434464	2570.988462
794.756507	2462.603654
795.078505	2497.891731
795.400457	2467.644808
795.722364	2412.192115
796.044226	2550.823846
796.366042	2409.671538
796.687812	2548.303269
797.009538	2518.056346
797.331218	2434.877308
797.652852	2470.165385
797.974442	2495.371154
798.295986	2452.521346
798.617484	2528.138654
798.938938	2507.974038
799.260346	2429.836154
799.581709	2502.932885
799.903026	2470.165385
800.224299	2507.974038
800.545526	2482.768269
800.866708	2510.494615
801.187845	2495.371154
801.508936	2389.506923
801.829983	2482.768269
802.150984	2586.111923
802.471940	2490.330000
802.792851	2528.138654
803.113717	2510.494615
803.434538	2419.753846
803.755314	2563.426731
804.076045	2379.424615
804.396731	2502.932885
804.717372	2480.247692
805.037967	2455.041923
805.358518	2480.247692
805.679024	2510.494615
805.999485	2505.453462
806.319901	2465.124231
806.640272	2442.439038
806.960598	2540.741538
807.280879	2470.165385
807.601115	2518.056346
807.921306	2487.809423
808.241453	2475.206538
808.561554	2495.371154
808.881611	2495.371154
809.201623	2487.809423
809.521590	2417.233269
809.841513	2523.097500
810.161390	2583.591346
810.481223	2427.315577
810.801011	2613.838269
811.120755	2507.974038
811.440453	2515.535769
811.760107	2535.700385
812.079716	2462.603654
812.399281	2475.206538
812.718801	2467.644808
813.038276	2447.480192
813.357707	2543.262115
813.677093	2555.865000
813.996434	2432.356731
814.315731	2422.274423
814.634983	2502.932885
814.954191	2550.823846
815.273354	2482.768269
815.592473	2505.453462
815.911547	2495.371154
816.230577	2515.535769
816.549562	2505.453462
816.868502	2490.330000
817.187399	2482.768269
817.506250	2487.809423
817.825058	2417.233269
818.143821	2513.015192
818.462539	2455.041923
818.781213	2500.412308
819.099843	2492.850577
819.418429	2548.303269
819.736970	2424.795000
820.055466	2452.521346
820.373919	2520.576923
820.692327	2505.453462
821.010691	2492.850577
821.329011	2477.727115
821.647286	2439.918462
821.965517	2515.535769
822.283704	2407.150962
822.601847	2480.247692
822.919945	2573.509038
823.237999	2450.000769
823.556010	2427.315577
823.873976	2492.850577
824.191897	2520.576923
824.509775	2414.712692
824.827609	2429.836154
825.145398	2487.809423
825.463144	2505.453462
825.780845	2530.659231
826.098502	2417.233269
826.416116	2505.453462
826.733685	2462.603654
827.051210	2467.644808
827.368692	2450.000769
827.686129	2507.974038
828.003522	2538.220962
828.320872	2510.494615
828.638177	2472.685962
828.955439	2359.260000
829.272656	2507.974038
829.589830	2437.397885
829.906960	2409.671538
830.224046	2500.412308
830.541088	2439.918462
830.858086	2518.056346
831.175041	2477.727115
831.491952	2495.371154
831.808819	2555.865000
832.125642	2470.165385
832.442421	2528.138654
832.759157	2558.385577
833.075849	2507.974038
833.392497	2518.056346
833.709101	2535.700385
834.025662	2477.727115
834.342179	2492.850577
834.658653	2462.603654
834.975083	2417.233269
835.291469	2538.220962
835.607811	2472.685962
835.924110	2480.247692
836.240366	2560.906154
836.556578	2442.439038
836.872746	2407.150962
837.188871	2530.659231
837.504952	2530.659231
837.820990	2490.330000
838.136984	2490.330000
838.452935	2553.344423
838.768842	2424.795000
839.084706	2470.165385
839.400526	2525.618077
839.716303	2576.029615
840.032037	2490.330000
840.347727	2507.974038
840.663373	2475.206538
840.978977	2447.480192
841.294537	2553.344423
841.610054	2550.823846
841.925527	2447.480192
842.240957	2492.850577
842.556344	2507.974038
842.871687	2470.165385
843.186987	2510.494615
843.502244	2507.974038
843.817458	2550.823846
844.132629	2467.644808
844.447756	2515.535769
844.762840	2490.330000
845.077881	2518.056346
845.392879	2505.453462
845.707833	2513.015192
846.022745	2538.220962
846.337613	2429.836154
846.652438	2447.480192
846.967221	2447.480192
847.281960	2535.700385
847.596656	2608.797115
847.911309	2429.836154
848.225919	2492.850577
848.540485	2472.685962
848.855009	2558.385577
849.169490	2467.644808
849.483928	2450.000769
849.798323	2520.576923
850.112675	2444.959615
850.426984	2497.891731
850.741251	2467.644808
851.055474	2490.330000
851.369654	2555.865000
851.683792	2518.056346
851.997887	2497.891731
852.311938	2467.644808
852.625947	2545.782692
852.939914	2487.809423
853.253837	2472.685962
853.567718	2452.521346
853.881555	2497.891731
854.195350	2543.262115
854.509103	2507.974038
854.822812	2389.506923
855.136479	2399.589231
855.450103	2523.097500
855.763685	2450.000769
856.077224	2553.344423
856.390720	2455.041923
856.704173	2540.741538
857.017584	2495.371154
857.330953	2510.494615
857.644278	2439.918462
857.957561	2472.685962
858.270802	2465.124231
858.584000	2538.220962
858.897155	2500.412308
859.210268	2424.795000
859.523339	2455.041923
859.836367	2568.467885
860.149352	2543.262115
860.462295	2460.083077
860.775195	2477.727115
861.088054	2518.056346
861.400869	2523.097500
861.713642	2510.494615
862.026373	2495.371154
862.339062	2412.192115
862.651708	2497.891731
862.964312	2555.865000
863.276873	2419.753846
863.589392	2538.220962
863.901869	2460.083077
864.214303	2412.192115
864.526696	2538.220962
864.839045	2560.906154
865.151353	2513.015192
865.463619	2520.576923
865.775842	2475.206538
866.088023	2578.550192
866.400162	2434.877308
866.712258	2500.412308
867.024313	2470.165385
867.336325	2533.179808
867.648296	2487.809423
867.960224	2482.768269
868.272110	2525.618077
868.583954	2510.494615
868.895755	2485.288846
869.207515	2497.891731
869.519233	2510.494615
869.830909	2548.303269
870.142542	2505.453462
870.454134	2467.644808
870.765684	2543.262115
871.077191	2565.947308
871.388657	2507.974038
871.700081	2568.467885
872.011463	2598.714808
872.322803	2500.412308
872.634101	2502.932885
872.945357	2533.179808
873.256571	2392.027500
873.567744	2492.850577
873.878874	2490.330000
874.189963	2490.330000
874.501010	2530.659231
874.812015	2444.959615
875.122979	2520.576923
875.433900	2480.247692
875.744780	2560.906154
876.055618	2424.795000
876.366415	2538.220962
876.677169	2404.630385
876.987882	2565.947308
877.298554	2550.823846
877.609183	2452.521346
877.919771	2447.480192
878.230317	2507.974038
878.540822	2482.768269
878.851285	2495.371154
879.161707	2520.576923
879.472087	2492.850577
879.782425	2462.603654
880.092722	2555.865000
880.402977	2427.315577
880.713191	2565.947308
881.023363	2485.288846
881.333494	2555.865000
881.643583	2452.521346
881.953631	2578.550192
882.263637	2386.986346
882.573602	2502.932885
882.883526	2533.179808
883.193408	2470.165385
883.503248	2533.179808
883.813048	2487.809423
884.122806	2490.330000
884.432522	2450.000769
884.742197	2505.453462
885.051831	2480.247692
885.361424	2407.150962
885.670975	2535.700385
885.980485	2419.753846
886.289954	2497.891731
886.599382	2429.836154
886.908768	2543.262115
887.218113	2462.603654
887.527417	2510.494615
887.836680	2528.138654
888.145901	2424.795000
888.455082	2560.906154
888.764221	2525.618077
889.073319	2455.041923
889.382376	2417.233269
889.691392	2502.932885
890.000366	2450.000769
890.309300	2497.891731
890.618193	2432.356731
890.927044	2467.644808
891.235855	2434.877308
891.544625	2475.206538
891.853353	2528.138654
892.162041	2439.918462
892.470687	2538.220962
892.779293	2437.397885
893.087858	2548.303269
893.396381	2502.932885
893.704864	2555.865000
894.013306	2573.509038
894.321707	2457.562500
894.630068	2502.932885
894.938387	2439.918462
895.246665	2437.397885
895.554903	2475.206538
895.863100	2437.397885
896.171256	2470.165385
896.479371	2490.330000
896.787446	2412.192115
897.095480	2457.562500
897.403473	2507.974038
897.711425	2510.494615
898.019336	2485.288846
898.327207	2409.671538
898.635038	2507.974038
898.942827	2513.015192
899.250576	2424.795000
899.558284	2447.480192
899.865952	2399.589231
900.173579	2533.179808
900.481165	2475.206538
900.788711	2492.850577
901.096216	2482.768269
901.403681	2429.836154
901.711105	2465.124231
902.018489	2518.056346
902.325832	2460.083077
902.633135	2550.823846
902.940397	2450.000769
903.247619	2502.932885
903.554800	2482.768269
903.861941	2470.165385
904.169041	2500.412308
904.476101	2475.206538
904.783121	2485.288846
905.090100	2460.083077
905.397039	2460.083077
905.703938	2419.753846
906.010796	2432.356731
906.317614	2477.727115
906.624391	2525.618077
906.931129	2460.083077
907.237826	2495.371154
907.544483	2434.877308
907.851099	2548.303269
908.157675	2492.850577
908.464211	2591.153077
908.770707	2502.932885
909.077163	2457.562500
909.383578	2553.344423
909.689954	2540.741538
909.996289	2515.535769
910.302584	2525.618077
910.608839	2457.562500
910.915054	2404.630385
911.221229	2510.494615
911.527363	2402.109808
911.833458	2507.974038
912.139513	2563.426731
912.445527	2513.015192
912.751502	2475.206538
913.057436	2470.165385
913.363331	2543.262115
913.669186	2414.712692
913.975000	2424.795000
914.280775	2467.644808
914.586510	2419.753846
914.892205	2550.823846
915.197859	2492.850577
915.503475	2523.097500
915.809050	2472.685962
916.114585	2525.618077
916.420081	2455.041923
916.725536	2495.371154
917.030952	2429.836154
917.336328	2450.000769
917.641665	2457.562500
917.946961	2502.932885
918.252218	2472.685962
918.557435	2455.041923
918.862612	2455.041923
919.167750	2497.891731
919.472848	2455.041923
919.777906	2444.959615
920.082925	2507.974038
920.387904	2528.138654
920.692843	2502.932885
920.997743	2482.768269
921.302603	2513.015192
921.607423	2513.015192
921.912204	2563.426731
922.216946	2545.782692
922.521647	2505.453462
922.826310	2530.659231
923.130932	2500.412308
923.435516	2550.823846
923.740059	2613.838269
924.044564	2513.015192
924.349028	2404.630385
924.653454	2515.535769
924.957840	2485.288846
925.262186	2606.276538
925.566493	2450.000769
925.870761	2482.768269
926.174989	2427.315577
926.479178	2588.632500
926.783328	2467.644808
927.087438	2495.371154
927.391509	2500.412308
927.695541	2482.768269
927.999533	2452.521346
928.303486	2457.562500
928.607400	2528.138654
928.911275	2530.659231
929.215110	2550.823846
929.518906	2545.782692
929.822663	2543.262115
930.126381	2482.768269
930.430060	2455.041923
930.733699	2414.712692
931.037299	2462.603654
931.340861	2450.000769
931.644383	2460.083077
931.947866	2487.809423
932.251309	2482.768269
932.554714	2540.741538
932.858080	2485.288846
933.161407	2450.000769
933.464694	2482.768269
933.767943	2444.959615
934.071153	2480.247692
934.374323	2402.109808
934.677455	2570.988462
934.980548	2500.412308
935.283602	2432.356731
935.586617	2485.288846
935.889593	2480.247692
936.192530	2515.535769
936.495428	2505.453462
936.798287	2485.288846
937.101108	2497.891731
937.403890	2570.988462
937.706632	2417.233269
938.009336	2381.945192
938.312002	2583.591346
938.614628	2563.426731
938.917216	2475.206538
939.219765	2437.397885
939.522275	2495.371154
939.824747	2485.288846
940.127179	2586.111923
940.429573	2487.809423
940.731929	2477.727115
941.034246	2507.974038
941.336524	2502.932885
941.638763	2497.891731
941.940964	2437.397885
942.243126	2432.356731
942.545250	2427.315577
942.847335	2450.000769
943.149381	2538.220962
943.451389	2553.344423
943.753359	2475.206538
944.055290	2523.097500
944.357182	2465.124231
944.659036	2533.179808
944.960851	2485.288846
945.262628	2523.097500
945.564367	2591.153077
945.866067	2513.015192
946.167729	2439.918462
946.469352	2437.397885
946.770937	2465.124231
947.072484	2495.371154
947.373992	2495.371154
947.675462	2525.618077
947.976893	2593.673654
948.278286	2437.397885
948.579641	2518.056346
948.880958	2487.809423
949.182236	2518.056346
949.483476	2490.330000
949.784678	2513.015192
950.085841	2513.015192
950.386967	2502.932885
950.688054	2513.015192
950.989103	2510.494615
951.290114	2450.000769
951.591087	2439.918462
951.892021	2520.576923
952.192917	2485.288846
952.493776	2510.494615
952.794596	2455.041923
953.095378	2409.671538
953.396122	2439.918462
953.696828	2452.521346
953.997496	2495.371154
954.298126	2507.974038
954.598718	2550.823846
954.899272	2475.206538
955.199788	2545.782692
955.500266	2482.768269
955.800706	2518.056346
956.101108	2460.083077
956.401472	2543.262115
956.701798	2513.015192
957.002087	2485.288846
957.302337	2427.315577
957.602550	2515.535769
957.902724	2444.959615
958.202861	2545.782692
958.502960	2497.891731
958.803022	2533.179808
959.103045	2457.562500
959.403031	2533.179808
959.702979	2543.262115
960.002889	2538.220962
960.302762	2510.494615
960.602596	2472.685962
960.902393	2530.659231
961.202153	2525.618077
961.501875	2518.056346
961.801559	2576.029615
962.101205	2515.535769
962.400814	2495.371154
962.700385	2482.768269
962.999918	2518.056346
963.299414	2452.521346
963.598873	2543.262115
963.898293	2523.097500
964.197677	2550.823846
964.497022	2518.056346
964.796331	2465.124231
965.095601	2475.206538
965.394835	2450.000769
965.694030	2475.206538
965.993189	2482.768269
966.292309	2538.220962
966.591393	2588.632500
966.890439	2485.288846
967.189447	2497.891731
967.488419	2460.083077
967.787353	2462.603654
968.086249	2492.850577
968.385108	2482.768269
968.683930	2427.315577
968.982714	2565.947308
969.281462	2520.576923
969.580172	2455.041923
969.878844	2560.906154
970.177480	2528.138654
970.476078	2533.179808
970.774639	2535.700385
971.073162	2351.698269
971.371649	2419.753846
971.670098	2513.015192
971.968510	2490.330000
972.266885	2518.056346
972.565223	2570.988462
972.863524	2570.988462
973.161788	2485.288846
973.460014	2450.000769
973.758204	2548.303269
974.056356	2389.506923
974.354471	2480.247692
974.652550	2543.262115
974.950591	2465.124231
975.248595	2513.015192
975.546563	2510.494615
975.844493	2485.288846
976.142386	2515.535769
976.440243	2523.097500
976.738062	2409.671538
977.035845	2510.494615
977.333590	2442.439038
977.631299	2553.344423
977.928971	2505.453462
978.226606	2439.918462
978.524204	2515.535769
978.821765	2419.753846
979.119290	2465.124231
979.416777	2487.809423
979.714228	2455.041923
980.011642	2427.315577
980.309020	2470.165385
980.606360	2533.179808
980.903664	2568.467885
981.200931	2472.685962
981.498162	2563.426731
981.795356	2455.041923
982.092513	2475.206538
982.389633	2447.480192
982.686717	2460.083077
982.983764	2444.959615
983.280775	2502.932885
983.577749	2462.603654
983.874686	2528.138654
984.171587	2535.700385
984.468451	2462.603654
984.765279	2505.453462
985.062070	2530.659231
985.358824	2502.932885
985.655543	2472.685962
985.952224	2475.206538
986.248869	2492.850577
986.545478	2434.877308
986.842050	2530.659231
987.138586	2480.247692
987.435086	2447.480192
987.731549	2565.947308
988.027975	2507.974038
988.324366	2525.618077
988.620719	2450.000769
988.917037	2502.932885
989.213318	2533.179808
989.509563	2538.220962
989.805772	2492.850577
990.101944	2505.453462
990.398080	2465.124231
990.694180	2500.412308
990.990244	2427.315577
991.286271	2515.535769
991.582262	2482.768269
991.878217	2558.385577
992.174136	2480.247692
992.470019	2482.768269
992.765865	2467.644808
993.061676	2560.906154
993.357450	2442.439038
993.653188	2434.877308
993.948890	2505.453462
994.244556	2432.356731
994.540186	2439.918462
994.835780	2465.124231
995.131337	2422.274423
995.426859	2502.932885
995.722345	2460.083077
996.017795	2439.918462
996.313208	2518.056346
996.608586	2450.000769
996.903928	2495.371154
997.199234	2505.453462
997.494504	2485.288846
997.789738	2578.550192
998.084936	2455.041923
998.380099	2507.974038
998.675225	2482.768269
998.970316	2376.904038
999.265371	2487.809423
999.560390	2497.891731
999.855373	2568.467885
1000.150320	2545.782692
1000.445232	2533.179808
1000.740108	2477.727115
1001.034948	2513.015192
1001.329752	2477.727115
1001.624521	2497.891731
1001.919254	2475.206538
1002.213951	2563.426731
1002.508613	2535.700385
1002.803239	2472.685962
1003.097829	2487.809423
1003.392384	2543.262115
1003.686903	2455.041923
1003.981386	2472.685962
1004.275834	2424.795000
1004.570246	2346.657115
1004.864623	2596.194231
1005.158964	2543.262115
1005.453270	2555.865000
1005.747540	2447.480192
1006.041775	2432.356731
1006.335974	2417.233269
1006.630138	2535.700385
1006.924266	2492.850577
1007.218359	2548.303269
1007.512416	2450.000769
1007.806438	2553.344423
1008.100425	2497.891731
1008.394376	2500.412308
1008.688292	2492.850577
1008.982172	2485.288846
1009.276017	2560.906154
1009.569827	2452.521346
1009.863602	2540.741538
1010.157341	2530.659231
1010.451045	2533.179808
1010.744714	2429.836154
1011.038347	2384.465769
1011.331945	2510.494615
1011.625508	2570.988462
1011.919036	2555.865000
1012.212528	2565.947308
1012.505986	2417.233269
1012.799408	2434.877308
1013.092795	2535.700385
1013.386147	2507.974038
1013.679464	2477.727115
1013.972745	2523.097500
1014.265992	2437.397885
1014.559204	2507.974038
1014.852380	2548.303269
1015.145521	2487.809423
1015.438628	2545.782692
1015.731699	2518.056346
1016.024736	2427.315577
1016.317737	2502.932885
1016.610703	2467.644808
1016.903635	2497.891731
1017.196531	2467.644808
1017.489393	2563.426731
1017.782219	2495.371154
1018.075011	2548.303269
1018.367768	2487.809423
1018.660490	2553.344423
1018.953177	2553.344423
1019.245829	2553.344423
