Dividing Wavelength (nm)	Counts (n)	Blue Motor Position (mm): 0.000000	Red Motor Position (mm): 2.800000	
326.493990	2124.846346
326.888308	2124.846346
327.282561	2124.846346
327.676750	2104.681731
328.070874	2104.681731
328.464933	2054.270192
328.858929	2117.284615
329.252859	2124.846346
329.646726	2079.475962
330.040528	2119.805192
330.434265	2104.681731
330.827938	2081.996538
331.221547	2165.175577
331.615091	2223.148846
332.008571	2142.490385
332.401986	2205.504808
332.795338	2250.875192
333.188625	2215.587115
333.581847	2271.039808
333.975006	2240.792885
334.368100	2326.492500
334.761129	2349.177692
335.154095	2296.245577
335.546996	2349.177692
335.939833	2364.301154
336.332606	2326.492500
336.725315	2288.683846
337.117960	2386.986346
337.510540	2369.342308
337.903056	2346.657115
338.295508	2432.356731
338.687896	2495.371154
339.080220	2558.385577
339.472480	2429.836154
339.864676	2502.932885
340.256807	2364.301154
340.648875	2437.397885
341.040879	2538.220962
341.432818	2480.247692
341.824694	2586.111923
342.216506	2533.179808
342.608253	2477.727115
342.999937	2497.891731
343.391557	2465.124231
343.783113	2462.603654
344.174605	2460.083077
344.566033	2462.603654
344.957397	2528.138654
345.348697	2427.315577
345.739934	2545.782692
346.131106	2520.576923
346.522215	2460.083077
346.913260	2432.356731
347.304241	2452.521346
347.695159	2487.809423
348.086012	2505.453462
348.476802	2480.247692
348.867528	2384.465769
349.258191	2439.918462
349.648789	2442.439038
350.039324	2392.027500
350.429796	2404.630385
350.820203	2432.356731
351.210548	2500.412308
351.600828	2414.712692
351.991045	2450.000769
352.381198	2402.109808
352.771288	2540.741538
353.161314	2450.000769
353.551276	2472.685962
353.941175	2379.424615
354.331010	2510.494615
354.720782	2480.247692
355.110490	2490.330000
355.500135	2429.836154
355.889717	2444.959615
356.279235	2399.589231
356.668689	2480.247692
357.058080	2455.041923
357.447408	2384.465769
357.836672	2361.780577
358.225873	2465.124231
358.615010	2399.589231
359.004084	2422.274423
359.393095	2437.397885
359.782043	2515.535769
360.170927	2518.056346
360.559748	2424.795000
360.948505	2515.535769
361.337199	2392.027500
361.725830	2417.233269
362.114398	2417.233269
362.502903	2437.397885
362.891344	2457.562500
363.279722	2434.877308
363.668037	2457.562500
364.056289	2437.397885
364.444478	2412.192115
364.832603	2397.068654
365.220665	2427.315577
365.608665	2447.480192
365.996601	2452.521346
366.384474	2485.288846
366.772284	2447.480192
367.160031	2563.426731
367.547715	2437.397885
367.935336	2495.371154
368.322893	2371.862885
368.710388	2442.439038
369.097820	2465.124231
369.485189	2477.727115
369.872495	2402.109808
370.259738	2505.453462
370.646918	2394.548077
371.034035	2513.015192
371.421090	2447.480192
371.808081	2535.700385
372.195010	2447.480192
372.581875	2548.303269
372.968678	2439.918462
373.355418	2407.150962
373.742096	2467.644808
374.128710	2442.439038
374.515262	2371.862885
374.901751	2495.371154
375.288177	2467.644808
375.674540	2518.056346
376.060841	2404.630385
376.447079	2505.453462
376.833254	2487.809423
377.219367	2452.521346
377.605417	2447.480192
377.991404	2502.932885
378.377329	2497.891731
378.763191	2397.068654
379.148991	2455.041923
379.534727	2548.303269
379.920402	2444.959615
380.306013	2437.397885
380.691563	2452.521346
381.077049	2467.644808
381.462474	2412.192115
381.847835	2417.233269
382.233134	2558.385577
382.618371	2505.453462
383.003545	2462.603654
383.388657	2354.218846
383.773706	2472.685962
384.158693	2482.768269
384.543618	2397.068654
384.928480	2394.548077
385.313280	2467.644808
385.698017	2450.000769
386.082692	2384.465769
386.467305	2462.603654
386.851856	2502.932885
387.236344	2507.974038
387.620770	2429.836154
388.005133	2497.891731
388.389435	2455.041923
388.773674	2515.535769
389.157851	2452.521346
389.541965	2485.288846
389.926018	2442.439038
390.310008	2563.426731
390.693936	2507.974038
391.077802	2429.836154
391.461606	2462.603654
391.845348	2495.371154
392.229027	2450.000769
392.612645	2427.315577
392.996200	2475.206538
393.379694	2460.083077
393.763125	2422.274423
394.146494	2399.589231
394.529801	2467.644808
394.913047	2472.685962
395.296230	2475.206538
395.679351	2465.124231
396.062410	2495.371154
396.445408	2432.356731
396.828343	2576.029615
397.211217	2513.015192
397.594028	2513.015192
397.976778	2407.150962
398.359466	2439.918462
398.742092	2507.974038
399.124656	2444.959615
399.507158	2515.535769
399.889598	2467.644808
400.271977	2414.712692
400.654294	2487.809423
401.036549	2472.685962
401.418742	2457.562500
401.800874	2477.727115
402.182944	2442.439038
402.564952	2462.603654
402.946898	2460.083077
403.328783	2427.315577
403.710606	2402.109808
404.092367	2374.383462
404.474067	2550.823846
404.855705	2450.000769
405.237282	2437.397885
405.618797	2439.918462
406.000250	2467.644808
406.381642	2455.041923
406.762972	2535.700385
407.144240	2412.192115
407.525447	2586.111923
407.906593	2422.274423
408.287677	2477.727115
408.668700	2477.727115
409.049661	2424.795000
409.430560	2422.274423
409.811399	2495.371154
410.192176	2457.562500
410.572891	2437.397885
410.953545	2563.426731
411.334138	2470.165385
411.714669	2472.685962
412.095139	2437.397885
412.475547	2472.685962
412.855894	2480.247692
413.236180	2565.947308
413.616405	2485.288846
413.996568	2538.220962
414.376670	2470.165385
414.756711	2475.206538
415.136691	2442.439038
415.516609	2533.179808
415.896466	2528.138654
416.276262	2510.494615
416.655997	2502.932885
417.035670	2525.618077
417.415283	2500.412308
417.794834	2442.439038
418.174324	2414.712692
418.553753	2505.453462
418.933121	2422.274423
419.312428	2510.494615
419.691674	2500.412308
420.070859	2472.685962
420.449983	2412.192115
420.829045	2545.782692
421.208047	2485.288846
421.586988	2455.041923
421.965867	2510.494615
422.344686	2530.659231
422.723444	2452.521346
423.102141	2518.056346
423.480777	2472.685962
423.859352	2475.206538
424.237866	2495.371154
424.616319	2505.453462
424.994712	2417.233269
425.373044	2475.206538
425.751314	2538.220962
426.129524	2507.974038
426.507673	2528.138654
426.885762	2513.015192
427.263789	2497.891731
427.641756	2482.768269
428.019662	2482.768269
428.397508	2518.056346
428.775292	2475.206538
429.153016	2533.179808
429.530679	2439.918462
429.908282	2439.918462
430.285824	2472.685962
430.663305	2422.274423
431.040726	2520.576923
431.418086	2500.412308
431.795385	2505.453462
432.172624	2550.823846
432.549802	2475.206538
432.926920	2540.741538
433.303977	2475.206538
433.680974	2407.150962
434.057910	2414.712692
434.434786	2477.727115
434.811601	2455.041923
435.188355	2462.603654
435.565050	2477.727115
435.941683	2543.262115
436.318257	2477.727115
436.694770	2477.727115
437.071222	2419.753846
437.447614	2487.809423
437.823946	2520.576923
438.200218	2513.015192
438.576429	2487.809423
438.952580	2485.288846
439.328670	2467.644808
439.704700	2485.288846
440.080670	2520.576923
440.456580	2538.220962
440.832429	2482.768269
441.208218	2462.603654
441.583947	2452.521346
441.959616	2525.618077
442.335224	2452.521346
442.710773	2394.548077
443.086261	2465.124231
443.461689	2510.494615
443.837057	2487.809423
444.212365	2429.836154
444.587612	2553.344423
444.962800	2427.315577
445.337927	2465.124231
445.712995	2538.220962
446.088002	2550.823846
446.462949	2545.782692
446.837837	2507.974038
447.212664	2502.932885
447.587431	2452.521346
447.962139	2434.877308
448.336786	2573.509038
448.711374	2497.891731
449.085901	2540.741538
449.460369	2586.111923
449.834776	2452.521346
450.209124	2510.494615
450.583412	2538.220962
450.957640	2490.330000
451.331808	2487.809423
451.705917	2384.465769
452.079965	2444.959615
452.453954	2482.768269
452.827883	2444.959615
453.201752	2437.397885
453.575562	2442.439038
453.949311	2452.521346
454.323001	2470.165385
454.696632	2588.632500
455.070202	2407.150962
455.443713	2444.959615
455.817164	2530.659231
456.190556	2495.371154
456.563888	2457.562500
456.937160	2422.274423
457.310373	2502.932885
457.683526	2450.000769
458.056619	2482.768269
458.429653	2417.233269
458.802628	2485.288846
459.175542	2424.795000
459.548398	2510.494615
459.921194	2505.453462
460.293930	2432.356731
460.666607	2361.780577
461.039224	2507.974038
461.411782	2495.371154
461.784280	2427.315577
462.156719	2460.083077
462.529099	2500.412308
462.901419	2422.274423
463.273680	2452.521346
463.645882	2452.521346
464.018024	2520.576923
464.390106	2465.124231
464.762130	2525.618077
465.134094	2455.041923
465.505999	2510.494615
465.877845	2460.083077
466.249631	2477.727115
466.621358	2432.356731
466.993026	2452.521346
467.364634	2460.083077
467.736184	2450.000769
468.107674	2477.727115
468.479105	2480.247692
468.850477	2465.124231
469.221790	2444.959615
469.593043	2560.906154
469.964238	2513.015192
470.335373	2500.412308
470.706449	2492.850577
471.077467	2523.097500
471.448425	2465.124231
471.819324	2505.453462
472.190164	2596.194231
472.560945	2480.247692
472.931667	2530.659231
473.302330	2502.932885
473.672934	2422.274423
474.043479	2502.932885
474.413965	2515.535769
474.784393	2455.041923
475.154761	2505.453462
475.525070	2560.906154
475.895321	2465.124231
476.265513	2462.603654
476.635645	2467.644808
477.005719	2442.439038
477.375734	2475.206538
477.745691	2437.397885
478.115588	2540.741538
478.485427	2482.768269
478.855207	2576.029615
479.224928	2518.056346
479.594591	2553.344423
479.964194	2470.165385
480.333739	2510.494615
480.703226	2543.262115
481.072653	2452.521346
481.442022	2500.412308
481.811333	2444.959615
482.180584	2525.618077
482.549777	2510.494615
482.918912	2470.165385
483.287988	2500.412308
483.657005	2523.097500
484.025964	2497.891731
484.394864	2540.741538
484.763706	2490.330000
485.132489	2510.494615
485.501213	2550.823846
485.869879	2437.397885
486.238487	2525.618077
486.607036	2591.153077
486.975527	2495.371154
487.343959	2490.330000
487.712333	2447.480192
488.080648	2502.932885
488.448905	2510.494615
488.817104	2457.562500
489.185244	2475.206538
489.553326	2558.385577
489.921350	2460.083077
490.289315	2490.330000
490.657222	2457.562500
491.025070	2513.015192
491.392861	2462.603654
491.760593	2505.453462
492.128267	2429.836154
492.495883	2507.974038
492.863440	2475.206538
493.230939	2611.317692
493.598380	2518.056346
493.965763	2540.741538
494.333088	2502.932885
494.700354	2518.056346
495.067563	2465.124231
495.434713	2553.344423
495.801805	2450.000769
496.168839	2550.823846
496.535815	2467.644808
496.902733	2518.056346
497.269593	2530.659231
497.636395	2490.330000
498.003139	2510.494615
498.369825	2513.015192
498.736453	2578.550192
499.103023	2555.865000
499.469535	2495.371154
499.835989	2505.453462
500.202385	2485.288846
500.568723	2472.685962
500.935003	2497.891731
501.301226	2507.974038
501.667390	2538.220962
502.033497	2513.015192
502.399546	2515.535769
502.765537	2548.303269
503.131470	2492.850577
503.497345	2427.315577
503.863163	2510.494615
504.228923	2472.685962
504.594625	2533.179808
504.960269	2540.741538
505.325856	2457.562500
505.691385	2581.070769
506.056856	2450.000769
506.422270	2535.700385
506.787625	2510.494615
507.152924	2513.015192
507.518164	2470.165385
507.883347	2515.535769
508.248472	2477.727115
508.613540	2510.494615
508.978550	2455.041923
509.343503	2485.288846
509.708398	2533.179808
510.073236	2462.603654
510.438016	2555.865000
510.802738	2507.974038
511.167403	2528.138654
511.532010	2455.041923
511.896561	2500.412308
512.261053	2467.644808
512.625488	2492.850577
512.989866	2477.727115
513.354186	2472.685962
513.718449	2596.194231
514.082655	2538.220962
514.446803	2505.453462
514.810894	2487.809423
515.174927	2515.535769
515.538904	2482.768269
515.902822	2533.179808
516.266684	2523.097500
516.630488	2507.974038
516.994235	2538.220962
517.357925	2465.124231
517.721558	2455.041923
518.085133	2439.918462
518.448651	2447.480192
518.812112	2482.768269
519.175516	2523.097500
519.538863	2487.809423
519.902152	2399.589231
520.265385	2518.056346
520.628560	2450.000769
520.991678	2470.165385
521.354739	2523.097500
521.717743	2510.494615
522.080690	2518.056346
522.443580	2460.083077
522.806413	2545.782692
523.169189	2535.700385
523.531908	2470.165385
523.894569	2482.768269
524.257174	2591.153077
524.619722	2573.509038
524.982213	2513.015192
525.344647	2510.494615
525.707025	2485.288846
526.069345	2500.412308
526.431608	2424.795000
526.793815	2510.494615
527.155964	2515.535769
527.518057	2457.562500
527.880093	2515.535769
528.242072	2502.932885
528.603995	2409.671538
528.965860	2558.385577
529.327669	2392.027500
529.689421	2477.727115
530.051117	2439.918462
530.412755	2515.535769
530.774337	2462.603654
531.135862	2596.194231
531.497331	2497.891731
531.858743	2540.741538
532.220098	2523.097500
532.581396	2434.877308
532.942638	2427.315577
533.303824	2507.974038
533.664953	2460.083077
534.026025	2414.712692
534.387040	2543.262115
534.747999	2502.932885
535.108902	2462.603654
535.469748	2455.041923
535.830537	2543.262115
536.191270	2611.317692
536.551947	2480.247692
536.912567	2535.700385
537.273131	2477.727115
537.633638	2500.412308
537.994089	2621.400000
538.354483	2480.247692
538.714821	2553.344423
539.075103	2492.850577
539.435328	2505.453462
539.795497	2545.782692
540.155609	2500.412308
540.515665	2525.618077
540.875665	2510.494615
541.235609	2472.685962
541.595496	2563.426731
541.955328	2545.782692
542.315102	2553.344423
542.674821	2576.029615
543.034483	2540.741538
543.394090	2490.330000
543.753640	2588.632500
544.113134	2535.700385
544.472571	2432.356731
544.831953	2490.330000
545.191278	2510.494615
545.550548	2487.809423
545.909761	2472.685962
546.268918	2510.494615
546.628019	2475.206538
546.987064	2525.618077
547.346053	2442.439038
547.704986	2399.589231
548.063863	2485.288846
548.422684	2477.727115
548.781449	2472.685962
549.140158	2505.453462
549.498811	2560.906154
549.857408	2593.673654
550.215949	2568.467885
550.574434	2510.494615
550.932864	2462.603654
551.291237	2414.712692
551.649555	2495.371154
552.007817	2482.768269
552.366022	2465.124231
552.724173	2480.247692
553.082267	2523.097500
553.440305	2543.262115
553.798288	2505.453462
554.156215	2558.385577
554.514086	2424.795000
554.871902	2530.659231
555.229661	2576.029615
555.587365	2533.179808
555.945014	2497.891731
556.302606	2482.768269
556.660143	2555.865000
557.017625	2548.303269
557.375050	2490.330000
557.732421	2528.138654
558.089735	2515.535769
558.446994	2558.385577
558.804197	2487.809423
559.161345	2535.700385
559.518437	2422.274423
559.875474	2528.138654
560.232455	2487.809423
560.589381	2472.685962
560.946251	2497.891731
561.303065	2439.918462
561.659825	2492.850577
562.016528	2502.932885
562.373177	2510.494615
562.729770	2462.603654
563.086307	2465.124231
563.442789	2510.494615
563.799216	2500.412308
564.155587	2530.659231
564.511904	2560.906154
564.868164	2578.550192
565.224370	2525.618077
565.580520	2525.618077
565.936615	2515.535769
566.292654	2560.906154
566.648638	2467.644808
567.004567	2397.068654
567.360441	2533.179808
567.716260	2397.068654
568.072023	2515.535769
568.427732	2497.891731
568.783385	2558.385577
569.138982	2510.494615
569.494525	2497.891731
569.850013	2523.097500
570.205445	2507.974038
570.560823	2588.632500
570.916145	2429.836154
571.271412	2548.303269
571.626625	2475.206538
571.981782	2573.509038
572.336884	2507.974038
572.691931	2470.165385
573.046923	2492.850577
573.401860	2563.426731
573.756743	2404.630385
574.111570	2543.262115
574.466342	2414.712692
574.821059	2485.288846
575.175722	2465.124231
575.530330	2507.974038
575.884882	2455.041923
576.239380	2513.015192
576.593823	2518.056346
576.948211	2472.685962
577.302544	2437.397885
577.656823	2563.426731
578.011047	2510.494615
578.365216	2568.467885
578.719330	2485.288846
579.073389	2528.138654
579.427394	2545.782692
579.781344	2455.041923
580.135239	2437.397885
580.489080	2513.015192
580.842866	2487.809423
581.196597	2422.274423
581.550273	2583.591346
581.903895	2487.809423
582.257463	2510.494615
582.610975	2467.644808
582.964434	2520.576923
583.317837	2525.618077
583.671186	2538.220962
584.024481	2550.823846
584.377721	2477.727115
584.730906	2550.823846
585.084037	2502.932885
585.437113	2432.356731
585.790135	2465.124231
586.143103	2568.467885
586.496016	2429.836154
586.848874	2550.823846
587.201679	2465.124231
587.554428	2528.138654
587.907124	2518.056346
588.259765	2520.576923
588.612352	2465.124231
588.964884	2502.932885
589.317362	2507.974038
589.669786	2477.727115
590.022155	2444.959615
590.374470	2543.262115
590.726731	2480.247692
591.078937	2543.262115
591.431090	2467.644808
591.783188	2447.480192
592.135232	2515.535769
592.487222	2460.083077
592.839157	2434.877308
593.191038	2492.850577
593.542866	2452.521346
593.894639	2513.015192
594.246358	2455.041923
594.598022	2462.603654
594.949633	2444.959615
595.301190	2540.741538
595.652692	2500.412308
596.004141	2482.768269
596.355535	2505.453462
596.706876	2543.262115
597.058162	2500.412308
597.409395	2586.111923
597.760573	2470.165385
598.111698	2492.850577
598.462768	2450.000769
598.813785	2520.576923
599.164748	2412.192115
599.515657	2460.083077
599.866511	2520.576923
600.217312	2429.836154
600.568060	2535.700385
600.918753	2429.836154
601.269392	2606.276538
601.619978	2480.247692
601.970510	2500.412308
602.320988	2538.220962
602.671412	2500.412308
603.021783	2523.097500
603.372100	2535.700385
603.722363	2510.494615
604.072572	2502.932885
604.422728	2525.618077
604.772830	2525.618077
605.122878	2518.056346
605.472872	2525.618077
605.822813	2495.371154
606.172701	2523.097500
606.522534	2417.233269
606.872314	2497.891731
607.222041	2507.974038
607.571714	2457.562500
607.921333	2535.700385
608.270899	2412.192115
608.620411	2477.727115
608.969870	2502.932885
609.319276	2482.768269
609.668627	2477.727115
610.017926	2465.124231
610.367171	2497.891731
610.716362	2545.782692
611.065500	2444.959615
611.414585	2507.974038
611.763616	2427.315577
612.112594	2477.727115
612.461518	2543.262115
612.810389	2472.685962
613.159207	2507.974038
613.507971	2467.644808
613.856682	2603.755962
614.205340	2576.029615
614.553945	2465.124231
614.902496	2513.015192
615.250994	2538.220962
615.599439	2505.453462
615.947830	2452.521346
616.296169	2487.809423
616.644454	2520.576923
616.992686	2386.986346
617.340864	2518.056346
617.688990	2540.741538
618.037063	2492.850577
618.385082	2495.371154
618.733048	2518.056346
619.080961	2477.727115
619.428821	2475.206538
619.776628	2434.877308
620.124382	2452.521346
620.472083	2432.356731
620.819731	2487.809423
621.167326	2462.603654
621.514868	2507.974038
621.862357	2475.206538
622.209793	2475.206538
622.557176	2528.138654
622.904506	2485.288846
623.251783	2457.562500
623.599007	2507.974038
623.946179	2457.562500
624.293297	2523.097500
624.640363	2482.768269
624.987376	2497.891731
625.334336	2467.644808
625.681243	2502.932885
626.028097	2545.782692
626.374899	2470.165385
626.721647	2462.603654
627.068343	2427.315577
627.414987	2465.124231
627.761577	2482.768269
628.108115	2520.576923
628.454600	2535.700385
628.801032	2477.727115
629.147412	2523.097500
629.493739	2455.041923
629.840014	2520.576923
630.186236	2538.220962
630.532405	2447.480192
630.878521	2565.947308
631.224585	2507.974038
631.570597	2455.041923
631.916556	2442.439038
632.262462	2482.768269
632.608316	2548.303269
632.954117	2462.603654
633.299866	2407.150962
633.645562	2545.782692
633.991206	2550.823846
634.336797	2528.138654
634.682336	2424.795000
635.027823	2502.932885
635.373257	2457.562500
635.718639	2520.576923
636.063968	2497.891731
636.409245	2472.685962
636.754470	2555.865000
637.099642	2528.138654
637.444762	2399.589231
637.789829	2432.356731
638.134845	2495.371154
638.479808	2462.603654
638.824719	2538.220962
639.169577	2434.877308
639.514383	2470.165385
639.859137	2553.344423
640.203839	2485.288846
640.548489	2457.562500
640.893086	2523.097500
641.237632	2495.371154
641.582125	2535.700385
641.926566	2477.727115
642.270955	2467.644808
642.615292	2424.795000
642.959576	2507.974038
643.303809	2472.685962
643.647990	2502.932885
643.992118	2482.768269
644.336195	2513.015192
644.680219	2447.480192
645.024192	2535.700385
645.368112	2510.494615
645.711981	2525.618077
646.055797	2485.288846
646.399562	2442.439038
646.743274	2487.809423
647.086935	2444.959615
647.430544	2513.015192
647.774101	2487.809423
648.117606	2540.741538
648.461059	2497.891731
648.804460	2507.974038
649.147810	2404.630385
649.491108	2442.439038
649.834354	2434.877308
650.177548	2558.385577
650.520690	2386.986346
650.863781	2452.521346
651.206820	2480.247692
651.549807	2502.932885
651.892742	2518.056346
652.235626	2603.755962
652.578458	2520.576923
652.921238	2545.782692
653.263967	2515.535769
653.606644	2497.891731
653.949269	2505.453462
654.291843	2555.865000
654.634365	2457.562500
654.976836	2437.397885
655.319255	2447.480192
655.661622	2573.509038
656.003938	2513.015192
656.346203	2528.138654
656.688416	2482.768269
657.030577	2442.439038
657.372687	2434.877308
657.714746	2455.041923
658.056753	2502.932885
658.398708	2460.083077
658.740612	2450.000769
659.082465	2412.192115
659.424266	2462.603654
659.766016	2505.453462
660.107715	2495.371154
660.449362	2505.453462
660.790958	2399.589231
661.132503	2480.247692
661.473996	2477.727115
661.815438	2477.727115
662.156829	2457.562500
662.498168	2545.782692
662.839456	2455.041923
663.180693	2472.685962
663.521879	2533.179808
663.863013	2538.220962
664.204097	2457.562500
664.545129	2518.056346
664.886110	2505.453462
665.227040	2510.494615
665.567918	2487.809423
665.908746	2432.356731
666.249522	2442.439038
666.590248	2518.056346
666.930922	2555.865000
667.271545	2502.932885
667.612118	2520.576923
667.952639	2570.988462
668.293109	2492.850577
668.633528	2533.179808
668.973896	2495.371154
669.314213	2490.330000
669.654480	2439.918462
669.994695	2424.795000
670.334859	2434.877308
670.674973	2593.673654
671.015035	2470.165385
671.355047	2475.206538
671.695008	2482.768269
672.034918	2442.439038
672.374777	2535.700385
672.714585	2460.083077
673.054342	2528.138654
673.394049	2480.247692
673.733705	2444.959615
674.073310	2578.550192
674.412864	2409.671538
674.752368	2457.562500
675.091820	2480.247692
675.431223	2502.932885
675.770574	2528.138654
676.109875	2444.959615
676.449125	2492.850577
676.788324	2505.453462
677.127473	2475.206538
677.466571	2447.480192
677.805619	2553.344423
678.144616	2404.630385
678.483562	2472.685962
678.822458	2518.056346
679.161303	2558.385577
679.500098	2525.618077
679.838842	2477.727115
680.177535	2404.630385
680.516179	2472.685962
680.854771	2523.097500
681.193314	2442.439038
681.531805	2437.397885
681.870247	2497.891731
682.208638	2515.535769
682.546978	2450.000769
682.885268	2485.288846
683.223508	2487.809423
683.561697	2492.850577
683.899836	2407.150962
684.237925	2505.453462
684.575963	2518.056346
684.913951	2452.521346
685.251889	2581.070769
685.589776	2568.467885
685.927614	2482.768269
686.265401	2492.850577
686.603137	2485.288846
686.940824	2480.247692
687.278460	2457.562500
687.616046	2565.947308
687.953582	2520.576923
688.291068	2432.356731
688.628504	2510.494615
688.965889	2593.673654
689.303224	2472.685962
689.640510	2460.083077
689.977745	2510.494615
690.314930	2424.795000
690.652065	2485.288846
690.989150	2475.206538
691.326185	2586.111923
691.663170	2505.453462
692.000105	2452.521346
692.336990	2573.509038
692.673825	2432.356731
693.010610	2598.714808
693.347345	2467.644808
693.684030	2555.865000
694.020665	2495.371154
694.357251	2586.111923
694.693786	2462.603654
695.030272	2497.891731
695.366707	2497.891731
695.703093	2563.426731
696.039429	2472.685962
696.375716	2455.041923
696.711952	2507.974038
697.048139	2487.809423
697.384276	2545.782692
697.720363	2540.741538
698.056400	2543.262115
698.392388	2492.850577
698.728326	2558.385577
699.064214	2477.727115
699.400053	2570.988462
699.735842	2581.070769
700.071581	2419.753846
700.407270	2462.603654
700.742910	2533.179808
701.078501	2540.741538
701.414042	2515.535769
701.749533	2424.795000
702.084974	2530.659231
702.420366	2434.877308
702.755709	2475.206538
703.091002	2477.727115
703.426246	2543.262115
703.761440	2444.959615
704.096584	2583.591346
704.431679	2502.932885
704.766725	2548.303269
705.101721	2550.823846
705.436668	2462.603654
705.771565	2480.247692
706.106413	2540.741538
706.441212	2442.439038
706.775961	2485.288846
707.110661	2460.083077
707.445311	2520.576923
707.779913	2434.877308
708.114465	2586.111923
708.448967	2497.891731
708.783421	2510.494615
709.117825	2500.412308
709.452180	2507.974038
709.786485	2487.809423
710.120742	2518.056346
710.454949	2450.000769
710.789107	2510.494615
711.123216	2518.056346
711.457275	2462.603654
711.791286	2528.138654
712.125247	2505.453462
712.459159	2475.206538
712.793023	2487.809423
713.126837	2419.753846
713.460602	2507.974038
713.794318	2447.480192
714.127985	2422.274423
714.461602	2528.138654
714.795171	2495.371154
715.128691	2467.644808
715.462162	2361.780577
715.795584	2560.906154
716.128957	2523.097500
716.462281	2462.603654
716.795556	2467.644808
717.128782	2510.494615
717.461960	2409.671538
717.795088	2480.247692
718.128167	2480.247692
718.461198	2497.891731
718.794180	2414.712692
719.127113	2490.330000
719.459997	2535.700385
719.792833	2500.412308
720.125619	2518.056346
720.458357	2412.192115
720.791046	2505.453462
721.123686	2427.315577
721.456278	2394.548077
721.788821	2477.727115
722.121315	2364.301154
722.453761	2462.603654
722.786158	2442.439038
723.118506	2523.097500
723.450805	2472.685962
723.783056	2548.303269
724.115259	2490.330000
724.447412	2465.124231
724.779518	2455.041923
725.111574	2480.247692
725.443582	2487.809423
725.775542	2369.342308
726.107453	2472.685962
726.439315	2427.315577
726.771129	2576.029615
727.102895	2502.932885
727.434612	2450.000769
727.766281	2419.753846
728.097901	2513.015192
728.429473	2487.809423
728.760996	2439.918462
729.092471	2495.371154
729.423897	2414.712692
729.755276	2560.906154
730.086606	2523.097500
730.417887	2480.247692
730.749120	2507.974038
731.080305	2472.685962
731.411442	2515.535769
731.742530	2389.506923
732.073570	2525.618077
732.404562	2467.644808
732.735506	2515.535769
733.066401	2553.344423
733.397249	2555.865000
733.728048	2457.562500
734.058798	2472.685962
734.389501	2578.550192
734.720156	2470.165385
735.050762	2482.768269
735.381320	2528.138654
735.711831	2540.741538
736.042293	2487.809423
736.372707	2500.412308
736.703073	2455.041923
737.033391	2487.809423
737.363661	2490.330000
737.693883	2543.262115
738.024056	2490.330000
738.354182	2437.397885
738.684260	2573.509038
739.014290	2470.165385
739.344272	2429.836154
739.674207	2505.453462
740.004093	2593.673654
740.333931	2490.330000
740.663722	2414.712692
740.993464	2455.041923
741.323159	2457.562500
741.652806	2465.124231
741.982405	2389.506923
742.311956	2507.974038
742.641460	2457.562500
742.970915	2477.727115
743.300323	2492.850577
743.629683	2480.247692
743.958996	2513.015192
744.288260	2507.974038
744.617477	2507.974038
744.946647	2540.741538
745.275768	2540.741538
745.604842	2500.412308
745.933869	2487.809423
746.262847	2477.727115
746.591778	2560.906154
746.920662	2510.494615
747.249498	2525.618077
747.578286	2467.644808
747.907027	2487.809423
748.235720	2500.412308
748.564365	2470.165385
748.892963	2487.809423
749.221514	2472.685962
749.550017	2538.220962
749.878473	2505.453462
750.206881	2490.330000
750.535242	2533.179808
750.863555	2490.330000
751.191821	2482.768269
751.520039	2482.768269
751.848210	2450.000769
752.176334	2505.453462
752.504411	2470.165385
752.832440	2530.659231
753.160421	2480.247692
753.488356	2450.000769
753.816243	2397.068654
754.144082	2520.576923
754.471875	2535.700385
754.799620	2560.906154
755.127318	2480.247692
755.454969	2553.344423
755.782572	2581.070769
756.110129	2518.056346
756.437638	2424.795000
756.765100	2490.330000
757.092515	2616.358846
757.419882	2475.206538
757.747203	2482.768269
758.074477	2462.603654
758.401703	2475.206538
758.728882	2507.974038
759.056014	2487.809423
759.383099	2429.836154
759.710138	2525.618077
760.037129	2437.397885
760.364073	2482.768269
760.690970	2528.138654
761.017820	2500.412308
761.344623	2538.220962
761.671379	2422.274423
761.998088	2470.165385
762.324751	2528.138654
762.651366	2450.000769
762.977935	2578.550192
763.304456	2419.753846
763.630931	2480.247692
763.957359	2518.056346
764.283740	2525.618077
764.610074	2447.480192
764.936362	2495.371154
765.262602	2490.330000
765.588796	2437.397885
765.914943	2432.356731
766.241044	2452.521346
766.567097	2492.850577
766.893104	2485.288846
767.219064	2427.315577
767.544978	2414.712692
767.870845	2475.206538
768.196665	2490.330000
768.522438	2523.097500
768.848165	2412.192115
769.173846	2427.315577
769.499479	2497.891731
769.825066	2525.618077
770.150607	2470.165385
770.476101	2520.576923
770.801548	2477.727115
771.126949	2518.056346
771.452303	2462.603654
771.777611	2500.412308
772.102872	2545.782692
772.428087	2462.603654
772.753256	2507.974038
773.078378	2560.906154
773.403453	2525.618077
773.728482	2502.932885
774.053465	2581.070769
774.378401	2442.439038
774.703291	2450.000769
775.028135	2497.891731
775.352932	2520.576923
775.677683	2530.659231
776.002388	2581.070769
776.327046	2500.412308
776.651658	2573.509038
776.976224	2500.412308
777.300743	2510.494615
777.625216	2429.836154
777.949643	2555.865000
778.274024	2429.836154
778.598359	2545.782692
778.922647	2429.836154
779.246889	2465.124231
779.571086	2528.138654
779.895236	2540.741538
780.219339	2573.509038
780.543397	2500.412308
780.867409	2492.850577
781.191374	2507.974038
781.515294	2510.494615
781.839167	2475.206538
782.162995	2530.659231
782.486776	2465.124231
782.810511	2507.974038
783.134201	2540.741538
783.457844	2457.562500
783.781441	2414.712692
784.104993	2507.974038
784.428498	2497.891731
784.751958	2485.288846
785.075372	2553.344423
785.398739	2487.809423
785.722061	2523.097500
786.045337	2523.097500
786.368568	2492.850577
786.691752	2485.288846
787.014891	2528.138654
787.337983	2530.659231
787.661030	2490.330000
787.984031	2455.041923
788.306987	2613.838269
788.629897	2487.809423
788.952760	2450.000769
789.275579	2510.494615
789.598351	2462.603654
789.921078	2495.371154
790.243759	2528.138654
790.566395	2505.453462
790.888984	2505.453462
791.211529	2429.836154
791.534027	2507.974038
791.856480	2518.056346
792.178888	2482.768269
792.501249	2477.727115
792.823566	2540.741538
793.145836	2518.056346
793.468062	2553.344423
793.790241	2480.247692
794.112375	2432.356731
794.434464	2505.453462
794.756507	2442.439038
795.078505	2525.618077
795.400457	2455.041923
795.722364	2450.000769
796.044226	2492.850577
796.366042	2495.371154
796.687812	2492.850577
797.009538	2482.768269
797.331218	2570.988462
797.652852	2460.083077
797.974442	2548.303269
798.295986	2470.165385
798.617484	2465.124231
798.938938	2515.535769
799.260346	2475.206538
799.581709	2538.220962
799.903026	2450.000769
800.224299	2523.097500
800.545526	2573.509038
800.866708	2467.644808
801.187845	2432.356731
801.508936	2490.330000
801.829983	2505.453462
802.150984	2470.165385
802.471940	2477.727115
802.792851	2444.959615
803.113717	2480.247692
803.434538	2397.068654
803.755314	2475.206538
804.076045	2507.974038
804.396731	2513.015192
804.717372	2525.618077
805.037967	2513.015192
805.358518	2518.056346
805.679024	2543.262115
805.999485	2434.877308
806.319901	2482.768269
806.640272	2414.712692
806.960598	2502.932885
807.280879	2480.247692
807.601115	2462.603654
807.921306	2470.165385
808.241453	2518.056346
808.561554	2465.124231
808.881611	2515.535769
809.201623	2535.700385
809.521590	2490.330000
809.841513	2568.467885
810.161390	2447.480192
810.481223	2507.974038
810.801011	2437.397885
811.120755	2460.083077
811.440453	2402.109808
811.760107	2457.562500
812.079716	2593.673654
812.399281	2502.932885
812.718801	2520.576923
813.038276	2470.165385
813.357707	2492.850577
813.677093	2500.412308
813.996434	2490.330000
814.315731	2475.206538
814.634983	2510.494615
814.954191	2525.618077
815.273354	2450.000769
815.592473	2450.000769
815.911547	2533.179808
816.230577	2475.206538
816.549562	2472.685962
816.868502	2515.535769
817.187399	2485.288846
817.506250	2490.330000
817.825058	2467.644808
818.143821	2500.412308
818.462539	2513.015192
818.781213	2538.220962
819.099843	2515.535769
819.418429	2447.480192
819.736970	2510.494615
820.055466	2565.947308
820.373919	2477.727115
820.692327	2467.644808
821.010691	2477.727115
821.329011	2480.247692
821.647286	2538.220962
821.965517	2513.015192
822.283704	2442.439038
822.601847	2467.644808
822.919945	2399.589231
823.237999	2492.850577
823.556010	2545.782692
823.873976	2550.823846
824.191897	2397.068654
824.509775	2495.371154
824.827609	2434.877308
825.145398	2543.262115
825.463144	2465.124231
825.780845	2477.727115
826.098502	2432.356731
826.416116	2492.850577
826.733685	2480.247692
827.051210	2518.056346
827.368692	2427.315577
827.686129	2490.330000
828.003522	2515.535769
828.320872	2500.412308
828.638177	2507.974038
828.955439	2462.603654
829.272656	2475.206538
829.589830	2568.467885
829.906960	2434.877308
830.224046	2397.068654
830.541088	2495.371154
830.858086	2477.727115
831.175041	2533.179808
831.491952	2487.809423
831.808819	2462.603654
832.125642	2482.768269
832.442421	2487.809423
832.759157	2626.441154
833.075849	2487.809423
833.392497	2540.741538
833.709101	2510.494615
834.025662	2492.850577
834.342179	2593.673654
834.658653	2467.644808
834.975083	2495.371154
835.291469	2470.165385
835.607811	2450.000769
835.924110	2570.988462
836.240366	2492.850577
836.556578	2507.974038
836.872746	2470.165385
837.188871	2565.947308
837.504952	2434.877308
837.820990	2515.535769
838.136984	2432.356731
838.452935	2424.795000
838.768842	2492.850577
839.084706	2507.974038
839.400526	2518.056346
839.716303	2439.918462
840.032037	2563.426731
840.347727	2429.836154
840.663373	2523.097500
840.978977	2603.755962
841.294537	2455.041923
841.610054	2480.247692
841.925527	2460.083077
842.240957	2465.124231
842.556344	2460.083077
842.871687	2432.356731
843.186987	2535.700385
843.502244	2530.659231
843.817458	2467.644808
844.132629	2520.576923
844.447756	2495.371154
844.762840	2482.768269
845.077881	2450.000769
845.392879	2507.974038
845.707833	2500.412308
846.022745	2462.603654
846.337613	2505.453462
846.652438	2525.618077
846.967221	2553.344423
847.281960	2490.330000
847.596656	2505.453462
847.911309	2467.644808
848.225919	2462.603654
848.540485	2505.453462
848.855009	2475.206538
849.169490	2497.891731
849.483928	2427.315577
849.798323	2515.535769
850.112675	2568.467885
850.426984	2457.562500
850.741251	2533.179808
851.055474	2523.097500
851.369654	2543.262115
851.683792	2502.932885
851.997887	2417.233269
852.311938	2535.700385
852.625947	2495.371154
852.939914	2485.288846
853.253837	2505.453462
853.567718	2502.932885
853.881555	2518.056346
854.195350	2543.262115
854.509103	2407.150962
854.822812	2412.192115
855.136479	2515.535769
855.450103	2487.809423
855.763685	2485.288846
856.077224	2472.685962
856.390720	2495.371154
856.704173	2487.809423
857.017584	2457.562500
857.330953	2578.550192
857.644278	2480.247692
857.957561	2513.015192
858.270802	2472.685962
858.584000	2467.644808
858.897155	2472.685962
859.210268	2540.741538
859.523339	2581.070769
859.836367	2515.535769
860.149352	2477.727115
860.462295	2500.412308
860.775195	2495.371154
861.088054	2439.918462
861.400869	2392.027500
861.713642	2472.685962
862.026373	2429.836154
862.339062	2487.809423
862.651708	2500.412308
862.964312	2520.576923
863.276873	2545.782692
863.589392	2505.453462
863.901869	2523.097500
864.214303	2505.453462
864.526696	2520.576923
864.839045	2462.603654
865.151353	2573.509038
865.463619	2560.906154
865.775842	2477.727115
866.088023	2505.453462
866.400162	2591.153077
866.712258	2490.330000
867.024313	2540.741538
867.336325	2477.727115
867.648296	2518.056346
867.960224	2429.836154
868.272110	2465.124231
868.583954	2550.823846
868.895755	2417.233269
869.207515	2513.015192
869.519233	2525.618077
869.830909	2457.562500
870.142542	2485.288846
870.454134	2492.850577
870.765684	2455.041923
871.077191	2518.056346
871.388657	2573.509038
871.700081	2427.315577
872.011463	2450.000769
872.322803	2507.974038
872.634101	2523.097500
872.945357	2550.823846
873.256571	2467.644808
873.567744	2429.836154
873.878874	2543.262115
874.189963	2490.330000
874.501010	2450.000769
874.812015	2467.644808
875.122979	2495.371154
875.433900	2510.494615
875.744780	2591.153077
876.055618	2500.412308
876.366415	2472.685962
876.677169	2457.562500
876.987882	2470.165385
877.298554	2429.836154
877.609183	2535.700385
877.919771	2545.782692
878.230317	2497.891731
878.540822	2465.124231
878.851285	2530.659231
879.161707	2593.673654
879.472087	2523.097500
879.782425	2457.562500
880.092722	2518.056346
880.402977	2455.041923
880.713191	2444.959615
881.023363	2470.165385
881.333494	2487.809423
881.643583	2402.109808
881.953631	2613.838269
882.263637	2578.550192
882.573602	2460.083077
882.883526	2513.015192
883.193408	2465.124231
883.503248	2490.330000
883.813048	2477.727115
884.122806	2475.206538
884.432522	2535.700385
884.742197	2452.521346
885.051831	2490.330000
885.361424	2548.303269
885.670975	2523.097500
885.980485	2432.356731
886.289954	2480.247692
886.599382	2470.165385
886.908768	2412.192115
887.218113	2480.247692
887.527417	2444.959615
887.836680	2439.918462
888.145901	2505.453462
888.455082	2470.165385
888.764221	2525.618077
889.073319	2487.809423
889.382376	2505.453462
889.691392	2467.644808
890.000366	2495.371154
890.309300	2507.974038
890.618193	2462.603654
890.927044	2447.480192
891.235855	2513.015192
891.544625	2492.850577
891.853353	2492.850577
892.162041	2525.618077
892.470687	2487.809423
892.779293	2424.795000
893.087858	2570.988462
893.396381	2505.453462
893.704864	2497.891731
894.013306	2457.562500
894.321707	2543.262115
894.630068	2424.795000
894.938387	2432.356731
895.246665	2513.015192
895.554903	2442.439038
895.863100	2444.959615
896.171256	2492.850577
896.479371	2475.206538
896.787446	2475.206538
897.095480	2545.782692
897.403473	2502.932885
897.711425	2545.782692
898.019336	2502.932885
898.327207	2427.315577
898.635038	2462.603654
898.942827	2480.247692
899.250576	2492.850577
899.558284	2439.918462
899.865952	2502.932885
900.173579	2576.029615
900.481165	2444.959615
900.788711	2520.576923
901.096216	2520.576923
901.403681	2505.453462
901.711105	2422.274423
902.018489	2477.727115
902.325832	2520.576923
902.633135	2379.424615
902.940397	2487.809423
903.247619	2530.659231
903.554800	2497.891731
903.861941	2419.753846
904.169041	2510.494615
904.476101	2487.809423
904.783121	2520.576923
905.090100	2402.109808
905.397039	2500.412308
905.703938	2505.453462
906.010796	2553.344423
906.317614	2465.124231
906.624391	2455.041923
906.931129	2480.247692
907.237826	2553.344423
907.544483	2424.795000
907.851099	2492.850577
908.157675	2558.385577
908.464211	2475.206538
908.770707	2530.659231
909.077163	2422.274423
909.383578	2525.618077
909.689954	2467.644808
909.996289	2487.809423
910.302584	2530.659231
910.608839	2439.918462
910.915054	2497.891731
911.221229	2467.644808
911.527363	2528.138654
911.833458	2414.712692
912.139513	2439.918462
912.445527	2502.932885
912.751502	2548.303269
913.057436	2513.015192
913.363331	2427.315577
913.669186	2525.618077
913.975000	2470.165385
914.280775	2477.727115
914.586510	2444.959615
914.892205	2482.768269
915.197859	2528.138654
915.503475	2495.371154
915.809050	2442.439038
916.114585	2507.974038
916.420081	2520.576923
916.725536	2502.932885
917.030952	2533.179808
917.336328	2470.165385
917.641665	2518.056346
917.946961	2500.412308
918.252218	2490.330000
918.557435	2535.700385
918.862612	2419.753846
919.167750	2523.097500
919.472848	2455.041923
919.777906	2505.453462
920.082925	2502.932885
920.387904	2485.288846
920.692843	2394.548077
920.997743	2588.632500
921.302603	2477.727115
921.607423	2434.877308
921.912204	2528.138654
922.216946	2447.480192
922.521647	2497.891731
922.826310	2447.480192
923.130932	2472.685962
923.435516	2407.150962
923.740059	2533.179808
924.044564	2518.056346
924.349028	2472.685962
924.653454	2505.453462
924.957840	2376.904038
925.262186	2495.371154
925.566493	2507.974038
925.870761	2535.700385
926.174989	2457.562500
926.479178	2432.356731
926.783328	2548.303269
927.087438	2467.644808
927.391509	2477.727115
927.695541	2472.685962
927.999533	2384.465769
928.303486	2407.150962
928.607400	2497.891731
928.911275	2447.480192
929.215110	2586.111923
929.518906	2487.809423
929.822663	2492.850577
930.126381	2507.974038
930.430060	2412.192115
930.733699	2492.850577
931.037299	2452.521346
931.340861	2460.083077
931.644383	2447.480192
931.947866	2399.589231
932.251309	2535.700385
932.554714	2424.795000
932.858080	2505.453462
933.161407	2482.768269
933.464694	2394.548077
933.767943	2528.138654
934.071153	2553.344423
934.374323	2472.685962
934.677455	2515.535769
934.980548	2477.727115
935.283602	2492.850577
935.586617	2505.453462
935.889593	2515.535769
936.192530	2507.974038
936.495428	2523.097500
936.798287	2515.535769
937.101108	2452.521346
937.403890	2487.809423
937.706632	2422.274423
938.009336	2525.618077
938.312002	2442.439038
938.614628	2525.618077
938.917216	2482.768269
939.219765	2475.206538
939.522275	2472.685962
939.824747	2480.247692
940.127179	2588.632500
940.429573	2455.041923
940.731929	2558.385577
941.034246	2470.165385
941.336524	2434.877308
941.638763	2482.768269
941.940964	2548.303269
942.243126	2477.727115
942.545250	2455.041923
942.847335	2482.768269
943.149381	2480.247692
943.451389	2528.138654
943.753359	2482.768269
944.055290	2513.015192
944.357182	2470.165385
944.659036	2560.906154
944.960851	2492.850577
945.262628	2500.412308
945.564367	2591.153077
945.866067	2470.165385
946.167729	2550.823846
946.469352	2576.029615
946.770937	2586.111923
947.072484	2500.412308
947.373992	2530.659231
947.675462	2560.906154
947.976893	2487.809423
948.278286	2502.932885
948.579641	2550.823846
948.880958	2515.535769
949.182236	2510.494615
949.483476	2482.768269
949.784678	2510.494615
950.085841	2455.041923
950.386967	2497.891731
950.688054	2394.548077
950.989103	2480.247692
951.290114	2434.877308
951.591087	2457.562500
951.892021	2457.562500
952.192917	2417.233269
952.493776	2555.865000
952.794596	2568.467885
953.095378	2492.850577
953.396122	2462.603654
953.696828	2497.891731
953.997496	2482.768269
954.298126	2533.179808
954.598718	2480.247692
954.899272	2475.206538
955.199788	2548.303269
955.500266	2525.618077
955.800706	2485.288846
956.101108	2525.618077
956.401472	2432.356731
956.701798	2553.344423
957.002087	2553.344423
957.302337	2472.685962
957.602550	2492.850577
957.902724	2505.453462
958.202861	2434.877308
958.502960	2470.165385
958.803022	2495.371154
959.103045	2485.288846
959.403031	2528.138654
959.702979	2573.509038
960.002889	2389.506923
960.302762	2487.809423
960.602596	2487.809423
960.902393	2487.809423
961.202153	2419.753846
961.501875	2359.260000
961.801559	2513.015192
962.101205	2533.179808
962.400814	2598.714808
962.700385	2404.630385
962.999918	2480.247692
963.299414	2500.412308
963.598873	2470.165385
963.898293	2497.891731
964.197677	2437.397885
964.497022	2510.494615
964.796331	2450.000769
965.095601	2495.371154
965.394835	2518.056346
965.694030	2497.891731
965.993189	2480.247692
966.292309	2439.918462
966.591393	2452.521346
966.890439	2558.385577
967.189447	2563.426731
967.488419	2480.247692
967.787353	2460.083077
968.086249	2490.330000
968.385108	2523.097500
968.683930	2424.795000
968.982714	2490.330000
969.281462	2510.494615
969.580172	2495.371154
969.878844	2560.906154
970.177480	2452.521346
970.476078	2419.753846
970.774639	2429.836154
971.073162	2528.138654
971.371649	2470.165385
971.670098	2444.959615
971.968510	2540.741538
972.266885	2490.330000
972.565223	2553.344423
972.863524	2490.330000
973.161788	2502.932885
973.460014	2490.330000
973.758204	2465.124231
974.056356	2444.959615
974.354471	2500.412308
974.652550	2465.124231
974.950591	2424.795000
975.248595	2422.274423
975.546563	2538.220962
975.844493	2515.535769
976.142386	2548.303269
976.440243	2568.467885
976.738062	2465.124231
977.035845	2462.603654
977.333590	2497.891731
977.631299	2482.768269
977.928971	2497.891731
978.226606	2472.685962
978.524204	2369.342308
978.821765	2477.727115
979.119290	2470.165385
979.416777	2366.821731
979.714228	2535.700385
980.011642	2606.276538
980.309020	2432.356731
980.606360	2550.823846
980.903664	2477.727115
981.200931	2507.974038
981.498162	2598.714808
981.795356	2465.124231
982.092513	2434.877308
982.389633	2507.974038
982.686717	2432.356731
982.983764	2487.809423
983.280775	2457.562500
983.577749	2583.591346
983.874686	2407.150962
984.171587	2490.330000
984.468451	2472.685962
984.765279	2412.192115
985.062070	2374.383462
985.358824	2628.961731
985.655543	2535.700385
985.952224	2409.671538
986.248869	2505.453462
986.545478	2442.439038
986.842050	2502.932885
987.138586	2462.603654
987.435086	2515.535769
987.731549	2462.603654
988.027975	2490.330000
988.324366	2424.795000
988.620719	2374.383462
988.917037	2568.467885
989.213318	2429.836154
989.509563	2555.865000
989.805772	2548.303269
990.101944	2437.397885
990.398080	2528.138654
990.694180	2510.494615
990.990244	2437.397885
991.286271	2523.097500
991.582262	2533.179808
991.878217	2452.521346
992.174136	2520.576923
992.470019	2472.685962
992.765865	2495.371154
993.061676	2439.918462
993.357450	2545.782692
993.653188	2540.741538
993.948890	2480.247692
994.244556	2487.809423
994.540186	2555.865000
994.835780	2457.562500
995.131337	2520.576923
995.426859	2591.153077
995.722345	2553.344423
996.017795	2558.385577
996.313208	2457.562500
996.608586	2470.165385
996.903928	2485.288846
997.199234	2470.165385
997.494504	2518.056346
997.789738	2563.426731
998.084936	2434.877308
998.380099	2402.109808
998.675225	2475.206538
998.970316	2477.727115
999.265371	2500.412308
999.560390	2457.562500
999.855373	2540.741538
1000.150320	2492.850577
1000.445232	2477.727115
1000.740108	2545.782692
1001.034948	2412.192115
1001.329752	2500.412308
1001.624521	2460.083077
1001.919254	2533.179808
1002.213951	2502.932885
1002.508613	2470.165385
1002.803239	2439.918462
1003.097829	2485.288846
1003.392384	2485.288846
1003.686903	2520.576923
1003.981386	2510.494615
1004.275834	2550.823846
1004.570246	2513.015192
1004.864623	2462.603654
1005.158964	2520.576923
1005.453270	2555.865000
1005.747540	2414.712692
1006.041775	2414.712692
1006.335974	2429.836154
1006.630138	2535.700385
1006.924266	2507.974038
1007.218359	2492.850577
1007.512416	2487.809423
1007.806438	2439.918462
1008.100425	2553.344423
1008.394376	2386.986346
1008.688292	2485.288846
1008.982172	2507.974038
1009.276017	2475.206538
1009.569827	2520.576923
1009.863602	2452.521346
1010.157341	2507.974038
1010.451045	2513.015192
1010.744714	2462.603654
1011.038347	2404.630385
1011.331945	2525.618077
1011.625508	2447.480192
1011.919036	2439.918462
1012.212528	2550.823846
1012.505986	2533.179808
1012.799408	2644.085192
1013.092795	2528.138654
1013.386147	2525.618077
1013.679464	2565.947308
1013.972745	2444.959615
1014.265992	2500.412308
1014.559204	2518.056346
1014.852380	2538.220962
1015.145521	2533.179808
1015.438628	2573.509038
1015.731699	2495.371154
1016.024736	2563.426731
1016.317737	2583.591346
1016.610703	2465.124231
1016.903635	2515.535769
1017.196531	2487.809423
1017.489393	2505.453462
1017.782219	2490.330000
1018.075011	2482.768269
1018.367768	2523.097500
1018.660490	2543.262115
1018.953177	2543.262115
1019.245829	2543.262115
