Dividing Wavelength (nm)	Counts (n)	Blue Motor Position (mm): 0.000000	Red Motor Position (mm): 6.500000	
326.493990	2132.408077
326.888308	2132.408077
327.282561	2132.408077
327.676750	2114.764038
328.070874	2051.749615
328.464933	2064.352500
328.858929	2046.708462
329.252859	2132.408077
329.646726	2084.517115
330.040528	2165.175577
330.434265	2180.299038
330.827938	2081.996538
331.221547	2235.751731
331.615091	2235.751731
332.008571	2134.928654
332.401986	2238.272308
332.795338	2195.422500
333.188625	2281.122115
333.581847	2245.834038
333.975006	2265.998654
334.368100	2298.766154
334.761129	2286.163269
335.154095	2359.260000
335.546996	2321.451346
335.939833	2336.574808
336.332606	2344.136538
336.725315	2331.533654
337.117960	2369.342308
337.510540	2389.506923
337.903056	2457.562500
338.295508	2477.727115
338.687896	2429.836154
339.080220	2450.000769
339.472480	2535.700385
339.864676	2457.562500
340.256807	2533.179808
340.648875	2404.630385
341.040879	2510.494615
341.432818	2507.974038
341.824694	2533.179808
342.216506	2510.494615
342.608253	2447.480192
342.999937	2444.959615
343.391557	2437.397885
343.783113	2480.247692
344.174605	2455.041923
344.566033	2437.397885
344.957397	2513.015192
345.348697	2518.056346
345.739934	2490.330000
346.131106	2462.603654
346.522215	2462.603654
346.913260	2419.753846
347.304241	2518.056346
347.695159	2429.836154
348.086012	2465.124231
348.476802	2480.247692
348.867528	2535.700385
349.258191	2427.315577
349.648789	2460.083077
350.039324	2402.109808
350.429796	2419.753846
350.820203	2447.480192
351.210548	2477.727115
351.600828	2450.000769
351.991045	2450.000769
352.381198	2429.836154
352.771288	2497.891731
353.161314	2407.150962
353.551276	2374.383462
353.941175	2394.548077
354.331010	2429.836154
354.720782	2467.644808
355.110490	2432.356731
355.500135	2447.480192
355.889717	2502.932885
356.279235	2434.877308
356.668689	2432.356731
357.058080	2460.083077
357.447408	2452.521346
357.836672	2495.371154
358.225873	2407.150962
358.615010	2409.671538
359.004084	2389.506923
359.393095	2460.083077
359.782043	2381.945192
360.170927	2487.809423
360.559748	2429.836154
360.948505	2409.671538
361.337199	2510.494615
361.725830	2409.671538
362.114398	2533.179808
362.502903	2434.877308
362.891344	2439.918462
363.279722	2364.301154
363.668037	2510.494615
364.056289	2450.000769
364.444478	2371.862885
364.832603	2490.330000
365.220665	2422.274423
365.608665	2465.124231
365.996601	2409.671538
366.384474	2480.247692
366.772284	2439.918462
367.160031	2485.288846
367.547715	2392.027500
367.935336	2439.918462
368.322893	2465.124231
368.710388	2409.671538
369.097820	2538.220962
369.485189	2495.371154
369.872495	2359.260000
370.259738	2427.315577
370.646918	2424.795000
371.034035	2432.356731
371.421090	2407.150962
371.808081	2500.412308
372.195010	2523.097500
372.581875	2457.562500
372.968678	2409.671538
373.355418	2457.562500
373.742096	2444.959615
374.128710	2399.589231
374.515262	2467.644808
374.901751	2465.124231
375.288177	2482.768269
375.674540	2432.356731
376.060841	2495.371154
376.447079	2417.233269
376.833254	2477.727115
377.219367	2434.877308
377.605417	2450.000769
377.991404	2437.397885
378.377329	2417.233269
378.763191	2376.904038
379.148991	2467.644808
379.534727	2455.041923
379.920402	2538.220962
380.306013	2371.862885
380.691563	2457.562500
381.077049	2427.315577
381.462474	2548.303269
381.847835	2432.356731
382.233134	2525.618077
382.618371	2477.727115
383.003545	2397.068654
383.388657	2437.397885
383.773706	2455.041923
384.158693	2402.109808
384.543618	2477.727115
384.928480	2392.027500
385.313280	2452.521346
385.698017	2437.397885
386.082692	2470.165385
386.467305	2467.644808
386.851856	2465.124231
387.236344	2490.330000
387.620770	2427.315577
388.005133	2394.548077
388.389435	2477.727115
388.773674	2492.850577
389.157851	2475.206538
389.541965	2528.138654
389.926018	2502.932885
390.310008	2462.603654
390.693936	2434.877308
391.077802	2417.233269
391.461606	2502.932885
391.845348	2505.453462
392.229027	2364.301154
392.612645	2492.850577
392.996200	2467.644808
393.379694	2450.000769
393.763125	2467.644808
394.146494	2507.974038
394.529801	2424.795000
394.913047	2472.685962
395.296230	2444.959615
395.679351	2477.727115
396.062410	2487.809423
396.445408	2376.904038
396.828343	2399.589231
397.211217	2422.274423
397.594028	2437.397885
397.976778	2477.727115
398.359466	2467.644808
398.742092	2490.330000
399.124656	2485.288846
399.507158	2472.685962
399.889598	2447.480192
400.271977	2467.644808
400.654294	2535.700385
401.036549	2497.891731
401.418742	2475.206538
401.800874	2432.356731
402.182944	2543.262115
402.564952	2477.727115
402.946898	2502.932885
403.328783	2482.768269
403.710606	2505.453462
404.092367	2485.288846
404.474067	2502.932885
404.855705	2586.111923
405.237282	2439.918462
405.618797	2462.603654
406.000250	2588.632500
406.381642	2520.576923
406.762972	2533.179808
407.144240	2439.918462
407.525447	2414.712692
407.906593	2452.521346
408.287677	2530.659231
408.668700	2485.288846
409.049661	2500.412308
409.430560	2457.562500
409.811399	2555.865000
410.192176	2520.576923
410.572891	2523.097500
410.953545	2364.301154
411.334138	2437.397885
411.714669	2487.809423
412.095139	2535.700385
412.475547	2439.918462
412.855894	2427.315577
413.236180	2457.562500
413.616405	2492.850577
413.996568	2457.562500
414.376670	2485.288846
414.756711	2578.550192
415.136691	2507.974038
415.516609	2450.000769
415.896466	2502.932885
416.276262	2507.974038
416.655997	2558.385577
417.035670	2417.233269
417.415283	2384.465769
417.794834	2460.083077
418.174324	2497.891731
418.553753	2437.397885
418.933121	2392.027500
419.312428	2407.150962
419.691674	2500.412308
420.070859	2513.015192
420.449983	2497.891731
420.829045	2490.330000
421.208047	2507.974038
421.586988	2414.712692
421.965867	2495.371154
422.344686	2538.220962
422.723444	2545.782692
423.102141	2593.673654
423.480777	2528.138654
423.859352	2472.685962
424.237866	2482.768269
424.616319	2507.974038
424.994712	2439.918462
425.373044	2392.027500
425.751314	2384.465769
426.129524	2500.412308
426.507673	2386.986346
426.885762	2424.795000
427.263789	2444.959615
427.641756	2497.891731
428.019662	2550.823846
428.397508	2507.974038
428.775292	2487.809423
429.153016	2507.974038
429.530679	2452.521346
429.908282	2505.453462
430.285824	2462.603654
430.663305	2518.056346
431.040726	2477.727115
431.418086	2550.823846
431.795385	2427.315577
432.172624	2570.988462
432.549802	2407.150962
432.926920	2487.809423
433.303977	2495.371154
433.680974	2497.891731
434.057910	2555.865000
434.434786	2487.809423
434.811601	2502.932885
435.188355	2417.233269
435.565050	2513.015192
435.941683	2467.644808
436.318257	2432.356731
436.694770	2515.535769
437.071222	2518.056346
437.447614	2439.918462
437.823946	2513.015192
438.200218	2394.548077
438.576429	2482.768269
438.952580	2442.439038
439.328670	2444.959615
439.704700	2525.618077
440.080670	2437.397885
440.456580	2429.836154
440.832429	2470.165385
441.208218	2507.974038
441.583947	2452.521346
441.959616	2548.303269
442.335224	2475.206538
442.710773	2525.618077
443.086261	2472.685962
443.461689	2545.782692
443.837057	2412.192115
444.212365	2472.685962
444.587612	2472.685962
444.962800	2550.823846
445.337927	2437.397885
445.712995	2535.700385
446.088002	2520.576923
446.462949	2444.959615
446.837837	2384.465769
447.212664	2507.974038
447.587431	2487.809423
447.962139	2450.000769
448.336786	2553.344423
448.711374	2502.932885
449.085901	2492.850577
449.460369	2578.550192
449.834776	2465.124231
450.209124	2419.753846
450.583412	2455.041923
450.957640	2450.000769
451.331808	2502.932885
451.705917	2497.891731
452.079965	2510.494615
452.453954	2528.138654
452.827883	2510.494615
453.201752	2475.206538
453.575562	2553.344423
453.949311	2470.165385
454.323001	2427.315577
454.696632	2515.535769
455.070202	2538.220962
455.443713	2500.412308
455.817164	2495.371154
456.190556	2543.262115
456.563888	2432.356731
456.937160	2533.179808
457.310373	2465.124231
457.683526	2523.097500
458.056619	2490.330000
458.429653	2515.535769
458.802628	2545.782692
459.175542	2462.603654
459.548398	2525.618077
459.921194	2525.618077
460.293930	2447.480192
460.666607	2462.603654
461.039224	2490.330000
461.411782	2492.850577
461.784280	2533.179808
462.156719	2477.727115
462.529099	2515.535769
462.901419	2520.576923
463.273680	2560.906154
463.645882	2530.659231
464.018024	2518.056346
464.390106	2472.685962
464.762130	2505.453462
465.134094	2470.165385
465.505999	2470.165385
465.877845	2437.397885
466.249631	2465.124231
466.621358	2437.397885
466.993026	2439.918462
467.364634	2465.124231
467.736184	2568.467885
468.107674	2467.644808
468.479105	2472.685962
468.850477	2460.083077
469.221790	2543.262115
469.593043	2482.768269
469.964238	2528.138654
470.335373	2520.576923
470.706449	2560.906154
471.077467	2495.371154
471.448425	2470.165385
471.819324	2513.015192
472.190164	2581.070769
472.560945	2364.301154
472.931667	2583.591346
473.302330	2450.000769
473.672934	2495.371154
474.043479	2505.453462
474.413965	2513.015192
474.784393	2490.330000
475.154761	2439.918462
475.525070	2528.138654
475.895321	2467.644808
476.265513	2470.165385
476.635645	2490.330000
477.005719	2450.000769
477.375734	2381.945192
477.745691	2507.974038
478.115588	2510.494615
478.485427	2434.877308
478.855207	2495.371154
479.224928	2515.535769
479.594591	2548.303269
479.964194	2384.465769
480.333739	2513.015192
480.703226	2482.768269
481.072653	2528.138654
481.442022	2507.974038
481.811333	2457.562500
482.180584	2480.247692
482.549777	2505.453462
482.918912	2533.179808
483.287988	2533.179808
483.657005	2513.015192
484.025964	2550.823846
484.394864	2507.974038
484.763706	2480.247692
485.132489	2399.589231
485.501213	2394.548077
485.869879	2460.083077
486.238487	2477.727115
486.607036	2530.659231
486.975527	2515.535769
487.343959	2563.426731
487.712333	2505.453462
488.080648	2518.056346
488.448905	2470.165385
488.817104	2533.179808
489.185244	2535.700385
489.553326	2563.426731
489.921350	2462.603654
490.289315	2540.741538
490.657222	2475.206538
491.025070	2462.603654
491.392861	2565.947308
491.760593	2510.494615
492.128267	2495.371154
492.495883	2513.015192
492.863440	2444.959615
493.230939	2467.644808
493.598380	2475.206538
493.965763	2457.562500
494.333088	2510.494615
494.700354	2513.015192
495.067563	2502.932885
495.434713	2472.685962
495.801805	2513.015192
496.168839	2475.206538
496.535815	2515.535769
496.902733	2500.412308
497.269593	2485.288846
497.636395	2465.124231
498.003139	2548.303269
498.369825	2543.262115
498.736453	2480.247692
499.103023	2487.809423
499.469535	2563.426731
499.835989	2422.274423
500.202385	2520.576923
500.568723	2520.576923
500.935003	2513.015192
501.301226	2525.618077
501.667390	2530.659231
502.033497	2495.371154
502.399546	2500.412308
502.765537	2581.070769
503.131470	2533.179808
503.497345	2495.371154
503.863163	2558.385577
504.228923	2540.741538
504.594625	2540.741538
504.960269	2455.041923
505.325856	2477.727115
505.691385	2548.303269
506.056856	2450.000769
506.422270	2520.576923
506.787625	2442.439038
507.152924	2487.809423
507.518164	2477.727115
507.883347	2576.029615
508.248472	2399.589231
508.613540	2485.288846
508.978550	2467.644808
509.343503	2513.015192
509.708398	2467.644808
510.073236	2520.576923
510.438016	2502.932885
510.802738	2528.138654
511.167403	2581.070769
511.532010	2502.932885
511.896561	2470.165385
512.261053	2515.535769
512.625488	2492.850577
512.989866	2485.288846
513.354186	2540.741538
513.718449	2480.247692
514.082655	2533.179808
514.446803	2530.659231
514.810894	2432.356731
515.174927	2550.823846
515.538904	2490.330000
515.902822	2500.412308
516.266684	2429.836154
516.630488	2444.959615
516.994235	2565.947308
517.357925	2565.947308
517.721558	2545.782692
518.085133	2510.494615
518.448651	2518.056346
518.812112	2457.562500
519.175516	2407.150962
519.538863	2507.974038
519.902152	2490.330000
520.265385	2583.591346
520.628560	2528.138654
520.991678	2502.932885
521.354739	2422.274423
521.717743	2545.782692
522.080690	2480.247692
522.443580	2457.562500
522.806413	2424.795000
523.169189	2545.782692
523.531908	2417.233269
523.894569	2465.124231
524.257174	2397.068654
524.619722	2513.015192
524.982213	2402.109808
525.344647	2482.768269
525.707025	2487.809423
526.069345	2492.850577
526.431608	2555.865000
526.793815	2525.618077
527.155964	2470.165385
527.518057	2497.891731
527.880093	2520.576923
528.242072	2563.426731
528.603995	2447.480192
528.965860	2505.453462
529.327669	2447.480192
529.689421	2485.288846
530.051117	2475.206538
530.412755	2472.685962
530.774337	2538.220962
531.135862	2513.015192
531.497331	2548.303269
531.858743	2507.974038
532.220098	2515.535769
532.581396	2492.850577
532.942638	2419.753846
533.303824	2482.768269
533.664953	2492.850577
534.026025	2518.056346
534.387040	2500.412308
534.747999	2465.124231
535.108902	2586.111923
535.469748	2525.618077
535.830537	2523.097500
536.191270	2555.865000
536.551947	2457.562500
536.912567	2442.439038
537.273131	2502.932885
537.633638	2495.371154
537.994089	2518.056346
538.354483	2513.015192
538.714821	2465.124231
539.075103	2450.000769
539.435328	2523.097500
539.795497	2447.480192
540.155609	2439.918462
540.515665	2422.274423
540.875665	2560.906154
541.235609	2550.823846
541.595496	2628.961731
541.955328	2470.165385
542.315102	2565.947308
542.674821	2530.659231
543.034483	2485.288846
543.394090	2523.097500
543.753640	2470.165385
544.113134	2487.809423
544.472571	2434.877308
544.831953	2497.891731
545.191278	2651.646923
545.550548	2374.383462
545.909761	2543.262115
546.268918	2528.138654
546.628019	2518.056346
546.987064	2560.906154
547.346053	2447.480192
547.704986	2565.947308
548.063863	2376.904038
548.422684	2487.809423
548.781449	2510.494615
549.140158	2528.138654
549.498811	2513.015192
549.857408	2477.727115
550.215949	2543.262115
550.574434	2500.412308
550.932864	2482.768269
551.291237	2429.836154
551.649555	2427.315577
552.007817	2485.288846
552.366022	2520.576923
552.724173	2500.412308
553.082267	2560.906154
553.440305	2507.974038
553.798288	2523.097500
554.156215	2570.988462
554.514086	2455.041923
554.871902	2434.877308
555.229661	2518.056346
555.587365	2495.371154
555.945014	2500.412308
556.302606	2467.644808
556.660143	2482.768269
557.017625	2437.397885
557.375050	2472.685962
557.732421	2490.330000
558.089735	2523.097500
558.446994	2485.288846
558.804197	2513.015192
559.161345	2555.865000
559.518437	2520.576923
559.875474	2490.330000
560.232455	2497.891731
560.589381	2480.247692
560.946251	2553.344423
561.303065	2510.494615
561.659825	2535.700385
562.016528	2457.562500
562.373177	2515.535769
562.729770	2450.000769
563.086307	2480.247692
563.442789	2397.068654
563.799216	2432.356731
564.155587	2447.480192
564.511904	2460.083077
564.868164	2470.165385
565.224370	2523.097500
565.580520	2555.865000
565.936615	2482.768269
566.292654	2560.906154
566.648638	2515.535769
567.004567	2490.330000
567.360441	2502.932885
567.716260	2455.041923
568.072023	2535.700385
568.427732	2568.467885
568.783385	2485.288846
569.138982	2540.741538
569.494525	2543.262115
569.850013	2482.768269
570.205445	2452.521346
570.560823	2513.015192
570.916145	2530.659231
571.271412	2626.441154
571.626625	2485.288846
571.981782	2460.083077
572.336884	2429.836154
572.691931	2495.371154
573.046923	2513.015192
573.401860	2442.439038
573.756743	2495.371154
574.111570	2475.206538
574.466342	2528.138654
574.821059	2485.288846
575.175722	2535.700385
575.530330	2477.727115
575.884882	2482.768269
576.239380	2513.015192
576.593823	2507.974038
576.948211	2492.850577
577.302544	2513.015192
577.656823	2439.918462
578.011047	2455.041923
578.365216	2507.974038
578.719330	2525.618077
579.073389	2581.070769
579.427394	2439.918462
579.781344	2487.809423
580.135239	2502.932885
580.489080	2518.056346
580.842866	2495.371154
581.196597	2414.712692
581.550273	2477.727115
581.903895	2500.412308
582.257463	2502.932885
582.610975	2497.891731
582.964434	2538.220962
583.317837	2497.891731
583.671186	2450.000769
584.024481	2470.165385
584.377721	2507.974038
584.730906	2558.385577
585.084037	2477.727115
585.437113	2510.494615
585.790135	2530.659231
586.143103	2513.015192
586.496016	2442.439038
586.848874	2502.932885
587.201679	2550.823846
587.554428	2525.618077
587.907124	2495.371154
588.259765	2510.494615
588.612352	2505.453462
588.964884	2439.918462
589.317362	2497.891731
589.669786	2492.850577
590.022155	2540.741538
590.374470	2518.056346
590.726731	2540.741538
591.078937	2492.850577
591.431090	2560.906154
591.783188	2560.906154
592.135232	2518.056346
592.487222	2480.247692
592.839157	2520.576923
593.191038	2480.247692
593.542866	2520.576923
593.894639	2452.521346
594.246358	2444.959615
594.598022	2555.865000
594.949633	2525.618077
595.301190	2550.823846
595.652692	2460.083077
596.004141	2568.467885
596.355535	2437.397885
596.706876	2573.509038
597.058162	2429.836154
597.409395	2540.741538
597.760573	2427.315577
598.111698	2507.974038
598.462768	2505.453462
598.813785	2545.782692
599.164748	2601.235385
599.515657	2477.727115
599.866511	2422.274423
600.217312	2528.138654
600.568060	2487.809423
600.918753	2490.330000
601.269392	2467.644808
601.619978	2565.947308
601.970510	2523.097500
602.320988	2472.685962
602.671412	2480.247692
603.021783	2523.097500
603.372100	2452.521346
603.722363	2535.700385
604.072572	2520.576923
604.422728	2455.041923
604.772830	2520.576923
605.122878	2480.247692
605.472872	2492.850577
605.822813	2510.494615
606.172701	2543.262115
606.522534	2485.288846
606.872314	2460.083077
607.222041	2515.535769
607.571714	2460.083077
607.921333	2450.000769
608.270899	2427.315577
608.620411	2555.865000
608.969870	2457.562500
609.319276	2495.371154
609.668627	2596.194231
610.017926	2502.932885
610.367171	2502.932885
610.716362	2417.233269
611.065500	2467.644808
611.414585	2553.344423
611.763616	2465.124231
612.112594	2530.659231
612.461518	2482.768269
612.810389	2518.056346
613.159207	2439.918462
613.507971	2528.138654
613.856682	2475.206538
614.205340	2500.412308
614.553945	2457.562500
614.902496	2550.823846
615.250994	2502.932885
615.599439	2518.056346
615.947830	2505.453462
616.296169	2502.932885
616.644454	2530.659231
616.992686	2424.795000
617.340864	2538.220962
617.688990	2553.344423
618.037063	2530.659231
618.385082	2515.535769
618.733048	2472.685962
619.080961	2538.220962
619.428821	2465.124231
619.776628	2530.659231
620.124382	2518.056346
620.472083	2465.124231
620.819731	2518.056346
621.167326	2513.015192
621.514868	2455.041923
621.862357	2538.220962
622.209793	2477.727115
622.557176	2482.768269
622.904506	2434.877308
623.251783	2497.891731
623.599007	2533.179808
623.946179	2518.056346
624.293297	2550.823846
624.640363	2518.056346
624.987376	2482.768269
625.334336	2475.206538
625.681243	2553.344423
626.028097	2455.041923
626.374899	2518.056346
626.721647	2450.000769
627.068343	2497.891731
627.414987	2515.535769
627.761577	2518.056346
628.108115	2518.056346
628.454600	2500.412308
628.801032	2472.685962
629.147412	2528.138654
629.493739	2487.809423
629.840014	2472.685962
630.186236	2460.083077
630.532405	2545.782692
630.878521	2407.150962
631.224585	2477.727115
631.570597	2414.712692
631.916556	2510.494615
632.262462	2452.521346
632.608316	2593.673654
632.954117	2513.015192
633.299866	2513.015192
633.645562	2470.165385
633.991206	2535.700385
634.336797	2475.206538
634.682336	2596.194231
635.027823	2485.288846
635.373257	2581.070769
635.718639	2518.056346
636.063968	2482.768269
636.409245	2502.932885
636.754470	2477.727115
637.099642	2550.823846
637.444762	2538.220962
637.789829	2490.330000
638.134845	2515.535769
638.479808	2563.426731
638.824719	2540.741538
639.169577	2467.644808
639.514383	2490.330000
639.859137	2613.838269
640.203839	2470.165385
640.548489	2505.453462
640.893086	2538.220962
641.237632	2495.371154
641.582125	2460.083077
641.926566	2530.659231
642.270955	2492.850577
642.615292	2497.891731
642.959576	2472.685962
643.303809	2545.782692
643.647990	2409.671538
643.992118	2455.041923
644.336195	2487.809423
644.680219	2525.618077
645.024192	2502.932885
645.368112	2470.165385
645.711981	2442.439038
646.055797	2553.344423
646.399562	2467.644808
646.743274	2515.535769
647.086935	2485.288846
647.430544	2515.535769
647.774101	2470.165385
648.117606	2502.932885
648.461059	2492.850577
648.804460	2412.192115
649.147810	2523.097500
649.491108	2490.330000
649.834354	2520.576923
650.177548	2550.823846
650.520690	2515.535769
650.863781	2530.659231
651.206820	2470.165385
651.549807	2500.412308
651.892742	2424.795000
652.235626	2553.344423
652.578458	2540.741538
652.921238	2520.576923
653.263967	2429.836154
653.606644	2568.467885
653.949269	2450.000769
654.291843	2530.659231
654.634365	2570.988462
654.976836	2465.124231
655.319255	2573.509038
655.661622	2530.659231
656.003938	2570.988462
656.346203	2525.618077
656.688416	2518.056346
657.030577	2586.111923
657.372687	2505.453462
657.714746	2565.947308
658.056753	2442.439038
658.398708	2578.550192
658.740612	2427.315577
659.082465	2482.768269
659.424266	2492.850577
659.766016	2555.865000
660.107715	2518.056346
660.449362	2533.179808
660.790958	2475.206538
661.132503	2450.000769
661.473996	2477.727115
661.815438	2507.974038
662.156829	2530.659231
662.498168	2502.932885
662.839456	2414.712692
663.180693	2457.562500
663.521879	2533.179808
663.863013	2419.753846
664.204097	2550.823846
664.545129	2492.850577
664.886110	2548.303269
665.227040	2555.865000
665.567918	2520.576923
665.908746	2515.535769
666.249522	2434.877308
666.590248	2507.974038
666.930922	2412.192115
667.271545	2364.301154
667.612118	2583.591346
667.952639	2548.303269
668.293109	2518.056346
668.633528	2490.330000
668.973896	2492.850577
669.314213	2555.865000
669.654480	2397.068654
669.994695	2452.521346
670.334859	2475.206538
670.674973	2480.247692
671.015035	2386.986346
671.355047	2553.344423
671.695008	2530.659231
672.034918	2528.138654
672.374777	2480.247692
672.714585	2442.439038
673.054342	2485.288846
673.394049	2586.111923
673.733705	2568.467885
674.073310	2460.083077
674.412864	2490.330000
674.752368	2487.809423
675.091820	2553.344423
675.431223	2563.426731
675.770574	2535.700385
676.109875	2475.206538
676.449125	2533.179808
676.788324	2495.371154
677.127473	2500.412308
677.466571	2507.974038
677.805619	2518.056346
678.144616	2470.165385
678.483562	2452.521346
678.822458	2510.494615
679.161303	2477.727115
679.500098	2548.303269
679.838842	2455.041923
680.177535	2525.618077
680.516179	2404.630385
680.854771	2472.685962
681.193314	2432.356731
681.531805	2543.262115
681.870247	2472.685962
682.208638	2497.891731
682.546978	2485.288846
682.885268	2535.700385
683.223508	2495.371154
683.561697	2550.823846
683.899836	2538.220962
684.237925	2548.303269
684.575963	2553.344423
684.913951	2513.015192
685.251889	2545.782692
685.589776	2507.974038
685.927614	2492.850577
686.265401	2550.823846
686.603137	2470.165385
686.940824	2462.603654
687.278460	2502.932885
687.616046	2485.288846
687.953582	2485.288846
688.291068	2570.988462
688.628504	2560.906154
688.965889	2490.330000
689.303224	2497.891731
689.640510	2543.262115
689.977745	2560.906154
690.314930	2450.000769
690.652065	2525.618077
690.989150	2492.850577
691.326185	2505.453462
691.663170	2535.700385
692.000105	2455.041923
692.336990	2502.932885
692.673825	2475.206538
693.010610	2462.603654
693.347345	2528.138654
693.684030	2422.274423
694.020665	2439.918462
694.357251	2427.315577
694.693786	2505.453462
695.030272	2492.850577
695.366707	2510.494615
695.703093	2475.206538
696.039429	2492.850577
696.375716	2533.179808
696.711952	2460.083077
697.048139	2515.535769
697.384276	2437.397885
697.720363	2500.412308
698.056400	2439.918462
698.392388	2465.124231
698.728326	2502.932885
699.064214	2427.315577
699.400053	2480.247692
699.735842	2480.247692
700.071581	2507.974038
700.407270	2429.836154
700.742910	2543.262115
701.078501	2480.247692
701.414042	2495.371154
701.749533	2507.974038
702.084974	2460.083077
702.420366	2525.618077
702.755709	2530.659231
703.091002	2528.138654
703.426246	2487.809423
703.761440	2485.288846
704.096584	2412.192115
704.431679	2439.918462
704.766725	2462.603654
705.101721	2528.138654
705.436668	2563.426731
705.771565	2495.371154
706.106413	2545.782692
706.441212	2439.918462
706.775961	2553.344423
707.110661	2485.288846
707.445311	2467.644808
707.779913	2477.727115
708.114465	2525.618077
708.448967	2520.576923
708.783421	2462.603654
709.117825	2502.932885
709.452180	2457.562500
709.786485	2477.727115
710.120742	2500.412308
710.454949	2530.659231
710.789107	2465.124231
711.123216	2472.685962
711.457275	2462.603654
711.791286	2460.083077
712.125247	2450.000769
712.459159	2412.192115
712.793023	2545.782692
713.126837	2389.506923
713.460602	2444.959615
713.794318	2475.206538
714.127985	2429.836154
714.461602	2548.303269
714.795171	2490.330000
715.128691	2523.097500
715.462162	2497.891731
715.795584	2490.330000
716.128957	2502.932885
716.462281	2500.412308
716.795556	2480.247692
717.128782	2492.850577
717.461960	2505.453462
717.795088	2480.247692
718.128167	2515.535769
718.461198	2505.453462
718.794180	2525.618077
719.127113	2502.932885
719.459997	2475.206538
719.792833	2497.891731
720.125619	2523.097500
720.458357	2437.397885
720.791046	2460.083077
721.123686	2528.138654
721.456278	2588.632500
721.788821	2515.535769
722.121315	2502.932885
722.453761	2414.712692
722.786158	2447.480192
723.118506	2558.385577
723.450805	2467.644808
723.783056	2510.494615
724.115259	2437.397885
724.447412	2528.138654
724.779518	2533.179808
725.111574	2457.562500
725.443582	2560.906154
725.775542	2528.138654
726.107453	2442.439038
726.439315	2520.576923
726.771129	2518.056346
727.102895	2515.535769
727.434612	2628.961731
727.766281	2475.206538
728.097901	2460.083077
728.429473	2432.356731
728.760996	2417.233269
729.092471	2523.097500
729.423897	2553.344423
729.755276	2545.782692
730.086606	2495.371154
730.417887	2513.015192
730.749120	2485.288846
731.080305	2510.494615
731.411442	2457.562500
731.742530	2497.891731
732.073570	2505.453462
732.404562	2447.480192
732.735506	2460.083077
733.066401	2412.192115
733.397249	2513.015192
733.728048	2538.220962
734.058798	2467.644808
734.389501	2439.918462
734.720156	2439.918462
735.050762	2485.288846
735.381320	2492.850577
735.711831	2543.262115
736.042293	2525.618077
736.372707	2545.782692
736.703073	2467.644808
737.033391	2495.371154
737.363661	2470.165385
737.693883	2477.727115
738.024056	2467.644808
738.354182	2392.027500
738.684260	2573.509038
739.014290	2555.865000
739.344272	2492.850577
739.674207	2538.220962
740.004093	2480.247692
740.333931	2500.412308
740.663722	2462.603654
740.993464	2560.906154
741.323159	2482.768269
741.652806	2535.700385
741.982405	2429.836154
742.311956	2505.453462
742.641460	2525.618077
742.970915	2505.453462
743.300323	2507.974038
743.629683	2480.247692
743.958996	2502.932885
744.288260	2477.727115
744.617477	2422.274423
744.946647	2518.056346
745.275768	2576.029615
745.604842	2444.959615
745.933869	2563.426731
746.262847	2505.453462
746.591778	2507.974038
746.920662	2452.521346
747.249498	2442.439038
747.578286	2485.288846
747.907027	2492.850577
748.235720	2528.138654
748.564365	2495.371154
748.892963	2490.330000
749.221514	2487.809423
749.550017	2520.576923
749.878473	2558.385577
750.206881	2513.015192
750.535242	2515.535769
750.863555	2462.603654
751.191821	2510.494615
751.520039	2477.727115
751.848210	2596.194231
752.176334	2563.426731
752.504411	2525.618077
752.832440	2510.494615
753.160421	2492.850577
753.488356	2437.397885
753.816243	2485.288846
754.144082	2497.891731
754.471875	2520.576923
754.799620	2495.371154
755.127318	2417.233269
755.454969	2543.262115
755.782572	2487.809423
756.110129	2545.782692
756.437638	2497.891731
756.765100	2492.850577
757.092515	2570.988462
757.419882	2603.755962
757.747203	2502.932885
758.074477	2492.850577
758.401703	2505.453462
758.728882	2404.630385
759.056014	2470.165385
759.383099	2505.453462
759.710138	2485.288846
760.037129	2502.932885
760.364073	2558.385577
760.690970	2455.041923
761.017820	2513.015192
761.344623	2502.932885
761.671379	2500.412308
761.998088	2538.220962
762.324751	2487.809423
762.651366	2414.712692
762.977935	2525.618077
763.304456	2525.618077
763.630931	2553.344423
763.957359	2502.932885
764.283740	2573.509038
764.610074	2502.932885
764.936362	2497.891731
765.262602	2626.441154
765.588796	2470.165385
765.914943	2500.412308
766.241044	2485.288846
766.567097	2507.974038
766.893104	2528.138654
767.219064	2495.371154
767.544978	2545.782692
767.870845	2518.056346
768.196665	2538.220962
768.522438	2573.509038
768.848165	2462.603654
769.173846	2513.015192
769.499479	2502.932885
769.825066	2432.356731
770.150607	2586.111923
770.476101	2455.041923
770.801548	2500.412308
771.126949	2439.918462
771.452303	2470.165385
771.777611	2518.056346
772.102872	2523.097500
772.428087	2480.247692
772.753256	2525.618077
773.078378	2560.906154
773.403453	2457.562500
773.728482	2490.330000
774.053465	2450.000769
774.378401	2518.056346
774.703291	2495.371154
775.028135	2487.809423
775.352932	2545.782692
775.677683	2480.247692
776.002388	2613.838269
776.327046	2482.768269
776.651658	2497.891731
776.976224	2467.644808
777.300743	2500.412308
777.625216	2419.753846
777.949643	2495.371154
778.274024	2543.262115
778.598359	2492.850577
778.922647	2470.165385
779.246889	2465.124231
779.571086	2518.056346
779.895236	2465.124231
780.219339	2525.618077
780.543397	2480.247692
780.867409	2482.768269
781.191374	2518.056346
781.515294	2497.891731
781.839167	2492.850577
782.162995	2560.906154
782.486776	2606.276538
782.810511	2502.932885
783.134201	2563.426731
783.457844	2540.741538
783.781441	2389.506923
784.104993	2553.344423
784.428498	2475.206538
784.751958	2460.083077
785.075372	2565.947308
785.398739	2515.535769
785.722061	2414.712692
786.045337	2553.344423
786.368568	2490.330000
786.691752	2513.015192
787.014891	2502.932885
787.337983	2437.397885
787.661030	2470.165385
787.984031	2560.906154
788.306987	2525.618077
788.629897	2450.000769
788.952760	2477.727115
789.275579	2490.330000
789.598351	2495.371154
789.921078	2578.550192
790.243759	2545.782692
790.566395	2492.850577
790.888984	2555.865000
791.211529	2518.056346
791.534027	2462.603654
791.856480	2427.315577
792.178888	2581.070769
792.501249	2467.644808
792.823566	2472.685962
793.145836	2550.823846
793.468062	2523.097500
793.790241	2500.412308
794.112375	2477.727115
794.434464	2450.000769
794.756507	2565.947308
795.078505	2505.453462
795.400457	2535.700385
795.722364	2487.809423
796.044226	2550.823846
796.366042	2533.179808
796.687812	2482.768269
797.009538	2497.891731
797.331218	2563.426731
797.652852	2490.330000
797.974442	2485.288846
798.295986	2394.548077
798.617484	2497.891731
798.938938	2465.124231
799.260346	2500.412308
799.581709	2502.932885
799.903026	2563.426731
800.224299	2507.974038
800.545526	2523.097500
800.866708	2465.124231
801.187845	2490.330000
801.508936	2444.959615
801.829983	2502.932885
802.150984	2515.535769
802.471940	2502.932885
802.792851	2495.371154
803.113717	2593.673654
803.434538	2570.988462
803.755314	2472.685962
804.076045	2581.070769
804.396731	2518.056346
804.717372	2434.877308
805.037967	2515.535769
805.358518	2429.836154
805.679024	2470.165385
805.999485	2588.632500
806.319901	2513.015192
806.640272	2482.768269
806.960598	2480.247692
807.280879	2520.576923
807.601115	2487.809423
807.921306	2500.412308
808.241453	2450.000769
808.561554	2470.165385
808.881611	2409.671538
809.201623	2422.274423
809.521590	2530.659231
809.841513	2470.165385
810.161390	2490.330000
810.481223	2424.795000
810.801011	2480.247692
811.120755	2465.124231
811.440453	2470.165385
811.760107	2560.906154
812.079716	2513.015192
812.399281	2490.330000
812.718801	2452.521346
813.038276	2455.041923
813.357707	2495.371154
813.677093	2414.712692
813.996434	2530.659231
814.315731	2525.618077
814.634983	2603.755962
814.954191	2457.562500
815.273354	2548.303269
815.592473	2429.836154
815.911547	2518.056346
816.230577	2455.041923
816.549562	2528.138654
816.868502	2457.562500
817.187399	2495.371154
817.506250	2492.850577
817.825058	2528.138654
818.143821	2523.097500
818.462539	2513.015192
818.781213	2588.632500
819.099843	2429.836154
819.418429	2588.632500
819.736970	2545.782692
820.055466	2480.247692
820.373919	2482.768269
820.692327	2510.494615
821.010691	2543.262115
821.329011	2467.644808
821.647286	2480.247692
821.965517	2500.412308
822.283704	2555.865000
822.601847	2495.371154
822.919945	2507.974038
823.237999	2596.194231
823.556010	2530.659231
823.873976	2528.138654
824.191897	2528.138654
824.509775	2523.097500
824.827609	2558.385577
825.145398	2500.412308
825.463144	2538.220962
825.780845	2477.727115
826.098502	2545.782692
826.416116	2533.179808
826.733685	2505.453462
827.051210	2397.068654
827.368692	2553.344423
827.686129	2573.509038
828.003522	2455.041923
828.320872	2482.768269
828.638177	2477.727115
828.955439	2535.700385
829.272656	2465.124231
829.589830	2523.097500
829.906960	2480.247692
830.224046	2518.056346
830.541088	2482.768269
830.858086	2487.809423
831.175041	2515.535769
831.491952	2495.371154
831.808819	2417.233269
832.125642	2450.000769
832.442421	2452.521346
832.759157	2578.550192
833.075849	2442.439038
833.392497	2523.097500
833.709101	2414.712692
834.025662	2465.124231
834.342179	2538.220962
834.658653	2480.247692
834.975083	2535.700385
835.291469	2507.974038
835.607811	2553.344423
835.924110	2518.056346
836.240366	2510.494615
836.556578	2472.685962
836.872746	2452.521346
837.188871	2414.712692
837.504952	2608.797115
837.820990	2490.330000
838.136984	2606.276538
838.452935	2450.000769
838.768842	2598.714808
839.084706	2462.603654
839.400526	2510.494615
839.716303	2538.220962
840.032037	2465.124231
840.347727	2548.303269
840.663373	2545.782692
840.978977	2550.823846
841.294537	2513.015192
841.610054	2482.768269
841.925527	2518.056346
842.240957	2467.644808
842.556344	2535.700385
842.871687	2465.124231
843.186987	2550.823846
843.502244	2457.562500
843.817458	2462.603654
844.132629	2502.932885
844.447756	2432.356731
844.762840	2505.453462
845.077881	2507.974038
845.392879	2540.741538
845.707833	2460.083077
846.022745	2490.330000
846.337613	2528.138654
846.652438	2427.315577
846.967221	2470.165385
847.281960	2510.494615
847.596656	2444.959615
847.911309	2513.015192
848.225919	2472.685962
848.540485	2439.918462
848.855009	2530.659231
849.169490	2513.015192
849.483928	2470.165385
849.798323	2485.288846
850.112675	2409.671538
850.426984	2515.535769
850.741251	2611.317692
851.055474	2515.535769
851.369654	2492.850577
851.683792	2520.576923
851.997887	2543.262115
852.311938	2525.618077
852.625947	2452.521346
852.939914	2470.165385
853.253837	2470.165385
853.567718	2500.412308
853.881555	2548.303269
854.195350	2530.659231
854.509103	2555.865000
854.822812	2455.041923
855.136479	2465.124231
855.450103	2553.344423
855.763685	2465.124231
856.077224	2447.480192
856.390720	2457.562500
856.704173	2462.603654
857.017584	2525.618077
857.330953	2543.262115
857.644278	2422.274423
857.957561	2502.932885
858.270802	2490.330000
858.584000	2538.220962
858.897155	2439.918462
859.210268	2500.412308
859.523339	2555.865000
859.836367	2465.124231
860.149352	2442.439038
860.462295	2495.371154
860.775195	2510.494615
861.088054	2467.644808
861.400869	2523.097500
861.713642	2515.535769
862.026373	2462.603654
862.339062	2490.330000
862.651708	2477.727115
862.964312	2535.700385
863.276873	2472.685962
863.589392	2490.330000
863.901869	2515.535769
864.214303	2553.344423
864.526696	2497.891731
864.839045	2450.000769
865.151353	2444.959615
865.463619	2523.097500
865.775842	2465.124231
866.088023	2528.138654
866.400162	2475.206538
866.712258	2543.262115
867.024313	2505.453462
867.336325	2477.727115
867.648296	2502.932885
867.960224	2533.179808
868.272110	2460.083077
868.583954	2452.521346
868.895755	2452.521346
869.207515	2404.630385
869.519233	2505.453462
869.830909	2581.070769
870.142542	2475.206538
870.454134	2460.083077
870.765684	2467.644808
871.077191	2417.233269
871.388657	2550.823846
871.700081	2553.344423
872.011463	2450.000769
872.322803	2523.097500
872.634101	2412.192115
872.945357	2475.206538
873.256571	2419.753846
873.567744	2520.576923
873.878874	2535.700385
874.189963	2515.535769
874.501010	2467.644808
874.812015	2510.494615
875.122979	2510.494615
875.433900	2487.809423
875.744780	2477.727115
876.055618	2583.591346
876.366415	2520.576923
876.677169	2434.877308
876.987882	2518.056346
877.298554	2462.603654
877.609183	2460.083077
877.919771	2495.371154
878.230317	2437.397885
878.540822	2472.685962
878.851285	2520.576923
879.161707	2525.618077
879.472087	2487.809423
879.782425	2392.027500
880.092722	2475.206538
880.402977	2434.877308
880.713191	2518.056346
881.023363	2462.603654
881.333494	2460.083077
881.643583	2523.097500
881.953631	2432.356731
882.263637	2548.303269
882.573602	2450.000769
882.883526	2505.453462
883.193408	2470.165385
883.503248	2535.700385
883.813048	2492.850577
884.122806	2545.782692
884.432522	2502.932885
884.742197	2495.371154
885.051831	2533.179808
885.361424	2576.029615
885.670975	2502.932885
885.980485	2525.618077
886.289954	2482.768269
886.599382	2586.111923
886.908768	2497.891731
887.218113	2475.206538
887.527417	2482.768269
887.836680	2540.741538
888.145901	2442.439038
888.455082	2502.932885
888.764221	2457.562500
889.073319	2510.494615
889.382376	2596.194231
889.691392	2591.153077
890.000366	2480.247692
890.309300	2472.685962
890.618193	2470.165385
890.927044	2523.097500
891.235855	2500.412308
891.544625	2530.659231
891.853353	2510.494615
892.162041	2470.165385
892.470687	2490.330000
892.779293	2480.247692
893.087858	2510.494615
893.396381	2460.083077
893.704864	2586.111923
894.013306	2470.165385
894.321707	2470.165385
894.630068	2460.083077
894.938387	2540.741538
895.246665	2417.233269
895.554903	2460.083077
895.863100	2535.700385
896.171256	2429.836154
896.479371	2439.918462
896.787446	2487.809423
897.095480	2439.918462
897.403473	2497.891731
897.711425	2475.206538
898.019336	2606.276538
898.327207	2437.397885
898.635038	2515.535769
898.942827	2518.056346
899.250576	2447.480192
899.558284	2477.727115
899.865952	2487.809423
900.173579	2548.303269
900.481165	2492.850577
900.788711	2477.727115
901.096216	2477.727115
901.403681	2543.262115
901.711105	2568.467885
902.018489	2510.494615
902.325832	2437.397885
902.633135	2502.932885
902.940397	2470.165385
903.247619	2457.562500
903.554800	2485.288846
903.861941	2447.480192
904.169041	2470.165385
904.476101	2444.959615
904.783121	2492.850577
905.090100	2518.056346
905.397039	2528.138654
905.703938	2525.618077
906.010796	2437.397885
906.317614	2424.795000
906.624391	2507.974038
906.931129	2477.727115
907.237826	2452.521346
907.544483	2548.303269
907.851099	2497.891731
908.157675	2518.056346
908.464211	2538.220962
908.770707	2550.823846
909.077163	2502.932885
909.383578	2492.850577
909.689954	2497.891731
909.996289	2538.220962
910.302584	2439.918462
910.608839	2490.330000
910.915054	2460.083077
911.221229	2427.315577
911.527363	2472.685962
911.833458	2490.330000
912.139513	2535.700385
912.445527	2470.165385
912.751502	2407.150962
913.057436	2485.288846
913.363331	2455.041923
913.669186	2558.385577
913.975000	2540.741538
914.280775	2477.727115
914.586510	2538.220962
914.892205	2472.685962
915.197859	2447.480192
915.503475	2480.247692
915.809050	2543.262115
916.114585	2533.179808
916.420081	2500.412308
916.725536	2533.179808
917.030952	2525.618077
917.336328	2560.906154
917.641665	2581.070769
917.946961	2530.659231
918.252218	2515.535769
918.557435	2507.974038
918.862612	2515.535769
919.167750	2485.288846
919.472848	2510.494615
919.777906	2497.891731
920.082925	2523.097500
920.387904	2518.056346
920.692843	2553.344423
920.997743	2485.288846
921.302603	2538.220962
921.607423	2565.947308
921.912204	2518.056346
922.216946	2470.165385
922.521647	2538.220962
922.826310	2533.179808
923.130932	2507.974038
923.435516	2507.974038
923.740059	2399.589231
924.044564	2558.385577
924.349028	2414.712692
924.653454	2472.685962
924.957840	2492.850577
925.262186	2510.494615
925.566493	2492.850577
925.870761	2538.220962
926.174989	2510.494615
926.479178	2495.371154
926.783328	2530.659231
927.087438	2450.000769
927.391509	2482.768269
927.695541	2570.988462
927.999533	2538.220962
928.303486	2540.741538
928.607400	2485.288846
928.911275	2439.918462
929.215110	2545.782692
929.518906	2422.274423
929.822663	2490.330000
930.126381	2497.891731
930.430060	2495.371154
930.733699	2457.562500
931.037299	2525.618077
931.340861	2465.124231
931.644383	2492.850577
931.947866	2492.850577
932.251309	2497.891731
932.554714	2523.097500
932.858080	2528.138654
933.161407	2560.906154
933.464694	2490.330000
933.767943	2487.809423
934.071153	2470.165385
934.374323	2518.056346
934.677455	2429.836154
934.980548	2434.877308
935.283602	2523.097500
935.586617	2591.153077
935.889593	2472.685962
936.192530	2460.083077
936.495428	2497.891731
936.798287	2485.288846
937.101108	2480.247692
937.403890	2480.247692
937.706632	2545.782692
938.009336	2507.974038
938.312002	2422.274423
938.614628	2480.247692
938.917216	2525.618077
939.219765	2457.562500
939.522275	2543.262115
939.824747	2460.083077
940.127179	2485.288846
940.429573	2497.891731
940.731929	2497.891731
941.034246	2429.836154
941.336524	2540.741538
941.638763	2472.685962
941.940964	2533.179808
942.243126	2528.138654
942.545250	2500.412308
942.847335	2465.124231
943.149381	2490.330000
943.451389	2530.659231
943.753359	2477.727115
944.055290	2510.494615
944.357182	2376.904038
944.659036	2389.506923
944.960851	2475.206538
945.262628	2502.932885
945.564367	2505.453462
945.866067	2472.685962
946.167729	2545.782692
946.469352	2543.262115
946.770937	2465.124231
947.072484	2523.097500
947.373992	2480.247692
947.675462	2502.932885
947.976893	2450.000769
948.278286	2502.932885
948.579641	2455.041923
948.880958	2520.576923
949.182236	2465.124231
949.483476	2500.412308
949.784678	2540.741538
950.085841	2518.056346
950.386967	2515.535769
950.688054	2518.056346
950.989103	2480.247692
951.290114	2540.741538
951.591087	2492.850577
951.892021	2513.015192
952.192917	2452.521346
952.493776	2500.412308
952.794596	2450.000769
953.095378	2550.823846
953.396122	2510.494615
953.696828	2470.165385
953.997496	2515.535769
954.298126	2470.165385
954.598718	2434.877308
954.899272	2586.111923
955.199788	2480.247692
955.500266	2507.974038
955.800706	2500.412308
956.101108	2472.685962
956.401472	2548.303269
956.701798	2444.959615
957.002087	2613.838269
957.302337	2500.412308
957.602550	2470.165385
957.902724	2523.097500
958.202861	2412.192115
958.502960	2505.453462
958.803022	2525.618077
959.103045	2475.206538
959.403031	2535.700385
959.702979	2455.041923
960.002889	2417.233269
960.302762	2467.644808
960.602596	2472.685962
960.902393	2528.138654
961.202153	2543.262115
961.501875	2507.974038
961.801559	2457.562500
962.101205	2545.782692
962.400814	2492.850577
962.700385	2515.535769
962.999918	2477.727115
963.299414	2533.179808
963.598873	2467.644808
963.898293	2510.494615
964.197677	2482.768269
964.497022	2518.056346
964.796331	2485.288846
965.095601	2523.097500
965.394835	2429.836154
965.694030	2520.576923
965.993189	2457.562500
966.292309	2518.056346
966.591393	2444.959615
966.890439	2525.618077
967.189447	2409.671538
967.488419	2497.891731
967.787353	2482.768269
968.086249	2482.768269
968.385108	2447.480192
968.683930	2429.836154
968.982714	2472.685962
969.281462	2475.206538
969.580172	2465.124231
969.878844	2507.974038
970.177480	2434.877308
970.476078	2570.988462
970.774639	2487.809423
971.073162	2447.480192
971.371649	2402.109808
971.670098	2427.315577
971.968510	2540.741538
972.266885	2533.179808
972.565223	2462.603654
972.863524	2480.247692
973.161788	2472.685962
973.460014	2586.111923
973.758204	2581.070769
974.056356	2495.371154
974.354471	2419.753846
974.652550	2535.700385
974.950591	2558.385577
975.248595	2485.288846
975.546563	2538.220962
975.844493	2475.206538
976.142386	2553.344423
976.440243	2563.426731
976.738062	2457.562500
977.035845	2513.015192
977.333590	2487.809423
977.631299	2525.618077
977.928971	2424.795000
978.226606	2487.809423
978.524204	2490.330000
978.821765	2518.056346
979.119290	2371.862885
979.416777	2518.056346
979.714228	2588.632500
980.011642	2409.671538
980.309020	2487.809423
980.606360	2550.823846
980.903664	2513.015192
981.200931	2513.015192
981.498162	2505.453462
981.795356	2492.850577
982.092513	2404.630385
982.389633	2424.795000
982.686717	2550.823846
982.983764	2492.850577
983.280775	2434.877308
983.577749	2487.809423
983.874686	2452.521346
984.171587	2515.535769
984.468451	2520.576923
984.765279	2487.809423
985.062070	2523.097500
985.358824	2465.124231
985.655543	2553.344423
985.952224	2530.659231
986.248869	2487.809423
986.545478	2555.865000
986.842050	2447.480192
987.138586	2490.330000
987.435086	2515.535769
987.731549	2472.685962
988.027975	2492.850577
988.324366	2487.809423
988.620719	2591.153077
988.917037	2427.315577
989.213318	2434.877308
989.509563	2450.000769
989.805772	2538.220962
990.101944	2500.412308
990.398080	2497.891731
990.694180	2427.315577
990.990244	2460.083077
991.286271	2432.356731
991.582262	2450.000769
991.878217	2381.945192
992.174136	2492.850577
992.470019	2475.206538
992.765865	2465.124231
993.061676	2439.918462
993.357450	2560.906154
993.653188	2480.247692
993.948890	2578.550192
994.244556	2381.945192
994.540186	2535.700385
994.835780	2505.453462
995.131337	2515.535769
995.426859	2502.932885
995.722345	2565.947308
996.017795	2548.303269
996.313208	2497.891731
996.608586	2462.603654
996.903928	2480.247692
997.199234	2497.891731
997.494504	2518.056346
997.789738	2472.685962
998.084936	2359.260000
998.380099	2455.041923
998.675225	2568.467885
998.970316	2502.932885
999.265371	2480.247692
999.560390	2475.206538
999.855373	2533.179808
1000.150320	2482.768269
1000.445232	2530.659231
1000.740108	2545.782692
1001.034948	2432.356731
1001.329752	2535.700385
1001.624521	2460.083077
1001.919254	2460.083077
1002.213951	2427.315577
1002.508613	2404.630385
1002.803239	2492.850577
1003.097829	2429.836154
1003.392384	2530.659231
1003.686903	2538.220962
1003.981386	2442.439038
1004.275834	2515.535769
1004.570246	2581.070769
1004.864623	2485.288846
1005.158964	2472.685962
1005.453270	2505.453462
1005.747540	2422.274423
1006.041775	2434.877308
1006.335974	2568.467885
1006.630138	2495.371154
1006.924266	2472.685962
1007.218359	2510.494615
1007.512416	2437.397885
1007.806438	2523.097500
1008.100425	2543.262115
1008.394376	2444.959615
1008.688292	2465.124231
1008.982172	2543.262115
1009.276017	2475.206538
1009.569827	2510.494615
1009.863602	2462.603654
1010.157341	2583.591346
1010.451045	2535.700385
1010.744714	2513.015192
1011.038347	2439.918462
1011.331945	2520.576923
1011.625508	2530.659231
1011.919036	2472.685962
1012.212528	2490.330000
1012.505986	2500.412308
1012.799408	2505.453462
1013.092795	2480.247692
1013.386147	2399.589231
1013.679464	2560.906154
1013.972745	2495.371154
1014.265992	2457.562500
1014.559204	2525.618077
1014.852380	2505.453462
1015.145521	2480.247692
1015.438628	2497.891731
1015.731699	2487.809423
1016.024736	2482.768269
1016.317737	2507.974038
1016.610703	2560.906154
1016.903635	2462.603654
1017.196531	2548.303269
1017.489393	2455.041923
1017.782219	2603.755962
1018.075011	2535.700385
1018.367768	2576.029615
1018.660490	2497.891731
1018.953177	2497.891731
1019.245829	2497.891731
