Dividing Wavelength (nm)	Counts (n)	Blue Motor Position (mm): 0.000000	Red Motor Position (mm): 4.100000	
326.493990	2036.626154
326.888308	2036.626154
327.282561	2036.626154
327.676750	2046.708462
328.070874	2099.640577
328.464933	2031.585000
328.858929	2041.667308
329.252859	2051.749615
329.646726	2112.243462
330.040528	2051.749615
330.434265	2074.434808
330.827938	2134.928654
331.221547	2195.422500
331.615091	2200.463654
332.008571	2139.969808
332.401986	2160.134423
332.795338	2250.875192
333.188625	2210.545962
333.581847	2253.395769
333.975006	2243.313462
334.368100	2273.560385
334.761129	2329.013077
335.154095	2313.889615
335.546996	2316.410192
335.939833	2351.698269
336.332606	2366.821731
336.725315	2384.465769
337.117960	2361.780577
337.510540	2331.533654
337.903056	2439.918462
338.295508	2356.739423
338.687896	2356.739423
339.080220	2515.535769
339.472480	2475.206538
339.864676	2424.795000
340.256807	2422.274423
340.648875	2482.768269
341.040879	2402.109808
341.432818	2427.315577
341.824694	2558.385577
342.216506	2601.235385
342.608253	2429.836154
342.999937	2621.400000
343.391557	2472.685962
343.783113	2487.809423
344.174605	2475.206538
344.566033	2444.959615
344.957397	2475.206538
345.348697	2404.630385
345.739934	2507.974038
346.131106	2492.850577
346.522215	2492.850577
346.913260	2422.274423
347.304241	2452.521346
347.695159	2533.179808
348.086012	2404.630385
348.476802	2576.029615
348.867528	2429.836154
349.258191	2490.330000
349.648789	2500.412308
350.039324	2472.685962
350.429796	2462.603654
350.820203	2434.877308
351.210548	2490.330000
351.600828	2409.671538
351.991045	2505.453462
352.381198	2460.083077
352.771288	2412.192115
353.161314	2480.247692
353.551276	2444.959615
353.941175	2397.068654
354.331010	2434.877308
354.720782	2359.260000
355.110490	2419.753846
355.500135	2442.439038
355.889717	2437.397885
356.279235	2397.068654
356.668689	2339.095385
357.058080	2429.836154
357.447408	2444.959615
357.836672	2472.685962
358.225873	2432.356731
358.615010	2455.041923
359.004084	2465.124231
359.393095	2533.179808
359.782043	2465.124231
360.170927	2455.041923
360.559748	2447.480192
360.948505	2467.644808
361.337199	2455.041923
361.725830	2482.768269
362.114398	2442.439038
362.502903	2452.521346
362.891344	2402.109808
363.279722	2422.274423
363.668037	2429.836154
364.056289	2419.753846
364.444478	2510.494615
364.832603	2439.918462
365.220665	2444.959615
365.608665	2460.083077
365.996601	2525.618077
366.384474	2475.206538
366.772284	2394.548077
367.160031	2558.385577
367.547715	2419.753846
367.935336	2437.397885
368.322893	2417.233269
368.710388	2447.480192
369.097820	2472.685962
369.485189	2394.548077
369.872495	2507.974038
370.259738	2442.439038
370.646918	2502.932885
371.034035	2450.000769
371.421090	2407.150962
371.808081	2467.644808
372.195010	2394.548077
372.581875	2535.700385
372.968678	2434.877308
373.355418	2507.974038
373.742096	2472.685962
374.128710	2507.974038
374.515262	2502.932885
374.901751	2397.068654
375.288177	2502.932885
375.674540	2465.124231
376.060841	2502.932885
376.447079	2465.124231
376.833254	2497.891731
377.219367	2429.836154
377.605417	2482.768269
377.991404	2455.041923
378.377329	2457.562500
378.763191	2487.809423
379.148991	2530.659231
379.534727	2409.671538
379.920402	2513.015192
380.306013	2513.015192
380.691563	2462.603654
381.077049	2495.371154
381.462474	2414.712692
381.847835	2505.453462
382.233134	2460.083077
382.618371	2374.383462
383.003545	2502.932885
383.388657	2523.097500
383.773706	2442.439038
384.158693	2450.000769
384.543618	2452.521346
384.928480	2450.000769
385.313280	2525.618077
385.698017	2475.206538
386.082692	2500.412308
386.467305	2505.453462
386.851856	2530.659231
387.236344	2452.521346
387.620770	2492.850577
388.005133	2520.576923
388.389435	2452.521346
388.773674	2414.712692
389.157851	2495.371154
389.541965	2429.836154
389.926018	2510.494615
390.310008	2480.247692
390.693936	2523.097500
391.077802	2437.397885
391.461606	2450.000769
391.845348	2495.371154
392.229027	2429.836154
392.612645	2414.712692
392.996200	2427.315577
393.379694	2434.877308
393.763125	2472.685962
394.146494	2439.918462
394.529801	2397.068654
394.913047	2477.727115
395.296230	2482.768269
395.679351	2495.371154
396.062410	2490.330000
396.445408	2477.727115
396.828343	2487.809423
397.211217	2470.165385
397.594028	2502.932885
397.976778	2616.358846
398.359466	2482.768269
398.742092	2462.603654
399.124656	2384.465769
399.507158	2429.836154
399.889598	2497.891731
400.271977	2480.247692
400.654294	2520.576923
401.036549	2482.768269
401.418742	2485.288846
401.800874	2442.439038
402.182944	2439.918462
402.564952	2490.330000
402.946898	2465.124231
403.328783	2472.685962
403.710606	2444.959615
404.092367	2434.877308
404.474067	2500.412308
404.855705	2452.521346
405.237282	2495.371154
405.618797	2467.644808
406.000250	2412.192115
406.381642	2505.453462
406.762972	2444.959615
407.144240	2518.056346
407.525447	2457.562500
407.906593	2485.288846
408.287677	2543.262115
408.668700	2553.344423
409.049661	2386.986346
409.430560	2513.015192
409.811399	2472.685962
410.192176	2545.782692
410.572891	2465.124231
410.953545	2543.262115
411.334138	2470.165385
411.714669	2465.124231
412.095139	2482.768269
412.475547	2507.974038
412.855894	2515.535769
413.236180	2429.836154
413.616405	2447.480192
413.996568	2470.165385
414.376670	2497.891731
414.756711	2437.397885
415.136691	2535.700385
415.516609	2452.521346
415.896466	2455.041923
416.276262	2427.315577
416.655997	2502.932885
417.035670	2462.603654
417.415283	2495.371154
417.794834	2437.397885
418.174324	2528.138654
418.553753	2525.618077
418.933121	2470.165385
419.312428	2487.809423
419.691674	2422.274423
420.070859	2558.385577
420.449983	2507.974038
420.829045	2530.659231
421.208047	2467.644808
421.586988	2555.865000
421.965867	2467.644808
422.344686	2563.426731
422.723444	2470.165385
423.102141	2467.644808
423.480777	2533.179808
423.859352	2462.603654
424.237866	2475.206538
424.616319	2475.206538
424.994712	2417.233269
425.373044	2389.506923
425.751314	2495.371154
426.129524	2553.344423
426.507673	2492.850577
426.885762	2467.644808
427.263789	2560.906154
427.641756	2457.562500
428.019662	2429.836154
428.397508	2550.823846
428.775292	2507.974038
429.153016	2485.288846
429.530679	2437.397885
429.908282	2485.288846
430.285824	2460.083077
430.663305	2462.603654
431.040726	2492.850577
431.418086	2487.809423
431.795385	2518.056346
432.172624	2475.206538
432.549802	2475.206538
432.926920	2460.083077
433.303977	2402.109808
433.680974	2472.685962
434.057910	2497.891731
434.434786	2452.521346
434.811601	2444.959615
435.188355	2424.795000
435.565050	2515.535769
435.941683	2462.603654
436.318257	2581.070769
436.694770	2578.550192
437.071222	2487.809423
437.447614	2513.015192
437.823946	2500.412308
438.200218	2485.288846
438.576429	2533.179808
438.952580	2472.685962
439.328670	2429.836154
439.704700	2540.741538
440.080670	2543.262115
440.456580	2611.317692
440.832429	2465.124231
441.208218	2500.412308
441.583947	2490.330000
441.959616	2510.494615
442.335224	2480.247692
442.710773	2548.303269
443.086261	2409.671538
443.461689	2475.206538
443.837057	2520.576923
444.212365	2439.918462
444.587612	2462.603654
444.962800	2424.795000
445.337927	2482.768269
445.712995	2434.877308
446.088002	2500.412308
446.462949	2465.124231
446.837837	2467.644808
447.212664	2485.288846
447.587431	2482.768269
447.962139	2465.124231
448.336786	2507.974038
448.711374	2457.562500
449.085901	2482.768269
449.460369	2586.111923
449.834776	2507.974038
450.209124	2533.179808
450.583412	2477.727115
450.957640	2480.247692
451.331808	2457.562500
451.705917	2492.850577
452.079965	2520.576923
452.453954	2558.385577
452.827883	2409.671538
453.201752	2533.179808
453.575562	2465.124231
453.949311	2560.906154
454.323001	2472.685962
454.696632	2500.412308
455.070202	2475.206538
455.443713	2523.097500
455.817164	2419.753846
456.190556	2505.453462
456.563888	2555.865000
456.937160	2492.850577
457.310373	2460.083077
457.683526	2444.959615
458.056619	2487.809423
458.429653	2467.644808
458.802628	2424.795000
459.175542	2520.576923
459.548398	2442.439038
459.921194	2482.768269
460.293930	2538.220962
460.666607	2437.397885
461.039224	2515.535769
461.411782	2475.206538
461.784280	2404.630385
462.156719	2568.467885
462.529099	2447.480192
462.901419	2513.015192
463.273680	2563.426731
463.645882	2538.220962
464.018024	2507.974038
464.390106	2467.644808
464.762130	2480.247692
465.134094	2485.288846
465.505999	2502.932885
465.877845	2487.809423
466.249631	2573.509038
466.621358	2480.247692
466.993026	2417.233269
467.364634	2540.741538
467.736184	2472.685962
468.107674	2490.330000
468.479105	2419.753846
468.850477	2472.685962
469.221790	2560.906154
469.593043	2455.041923
469.964238	2485.288846
470.335373	2515.535769
470.706449	2485.288846
471.077467	2550.823846
471.448425	2482.768269
471.819324	2457.562500
472.190164	2523.097500
472.560945	2462.603654
472.931667	2500.412308
473.302330	2424.795000
473.672934	2492.850577
474.043479	2490.330000
474.413965	2450.000769
474.784393	2465.124231
475.154761	2507.974038
475.525070	2455.041923
475.895321	2545.782692
476.265513	2470.165385
476.635645	2437.397885
477.005719	2518.056346
477.375734	2397.068654
477.745691	2472.685962
478.115588	2570.988462
478.485427	2563.426731
478.855207	2477.727115
479.224928	2513.015192
479.594591	2520.576923
479.964194	2475.206538
480.333739	2565.947308
480.703226	2518.056346
481.072653	2419.753846
481.442022	2389.506923
481.811333	2427.315577
482.180584	2497.891731
482.549777	2533.179808
482.918912	2560.906154
483.287988	2439.918462
483.657005	2513.015192
484.025964	2588.632500
484.394864	2439.918462
484.763706	2465.124231
485.132489	2475.206538
485.501213	2500.412308
485.869879	2502.932885
486.238487	2581.070769
486.607036	2502.932885
486.975527	2462.603654
487.343959	2495.371154
487.712333	2455.041923
488.080648	2444.959615
488.448905	2500.412308
488.817104	2510.494615
489.185244	2482.768269
489.553326	2452.521346
489.921350	2467.644808
490.289315	2419.753846
490.657222	2525.618077
491.025070	2570.988462
491.392861	2530.659231
491.760593	2457.562500
492.128267	2419.753846
492.495883	2528.138654
492.863440	2450.000769
493.230939	2455.041923
493.598380	2487.809423
493.965763	2439.918462
494.333088	2523.097500
494.700354	2495.371154
495.067563	2507.974038
495.434713	2533.179808
495.801805	2520.576923
496.168839	2460.083077
496.535815	2492.850577
496.902733	2533.179808
497.269593	2520.576923
497.636395	2485.288846
498.003139	2530.659231
498.369825	2535.700385
498.736453	2450.000769
499.103023	2490.330000
499.469535	2447.480192
499.835989	2485.288846
500.202385	2417.233269
500.568723	2500.412308
500.935003	2540.741538
501.301226	2432.356731
501.667390	2548.303269
502.033497	2477.727115
502.399546	2570.988462
502.765537	2434.877308
503.131470	2550.823846
503.497345	2397.068654
503.863163	2452.521346
504.228923	2500.412308
504.594625	2437.397885
504.960269	2394.548077
505.325856	2467.644808
505.691385	2520.576923
506.056856	2434.877308
506.422270	2492.850577
506.787625	2492.850577
507.152924	2427.315577
507.518164	2515.535769
507.883347	2523.097500
508.248472	2460.083077
508.613540	2500.412308
508.978550	2563.426731
509.343503	2553.344423
509.708398	2520.576923
510.073236	2419.753846
510.438016	2545.782692
510.802738	2404.630385
511.167403	2540.741538
511.532010	2460.083077
511.896561	2591.153077
512.261053	2497.891731
512.625488	2457.562500
512.989866	2439.918462
513.354186	2500.412308
513.718449	2520.576923
514.082655	2467.644808
514.446803	2502.932885
514.810894	2555.865000
515.174927	2535.700385
515.538904	2520.576923
515.902822	2507.974038
516.266684	2520.576923
516.630488	2472.685962
516.994235	2497.891731
517.357925	2455.041923
517.721558	2477.727115
518.085133	2555.865000
518.448651	2490.330000
518.812112	2442.439038
519.175516	2558.385577
519.538863	2533.179808
519.902152	2462.603654
520.265385	2520.576923
520.628560	2470.165385
520.991678	2437.397885
521.354739	2520.576923
521.717743	2409.671538
522.080690	2520.576923
522.443580	2465.124231
522.806413	2553.344423
523.169189	2515.535769
523.531908	2444.959615
523.894569	2465.124231
524.257174	2452.521346
524.619722	2495.371154
524.982213	2497.891731
525.344647	2533.179808
525.707025	2472.685962
526.069345	2495.371154
526.431608	2523.097500
526.793815	2442.439038
527.155964	2485.288846
527.518057	2465.124231
527.880093	2497.891731
528.242072	2550.823846
528.603995	2434.877308
528.965860	2502.932885
529.327669	2487.809423
529.689421	2558.385577
530.051117	2520.576923
530.412755	2543.262115
530.774337	2475.206538
531.135862	2502.932885
531.497331	2528.138654
531.858743	2490.330000
532.220098	2470.165385
532.581396	2397.068654
532.942638	2505.453462
533.303824	2447.480192
533.664953	2570.988462
534.026025	2444.959615
534.387040	2487.809423
534.747999	2487.809423
535.108902	2538.220962
535.469748	2510.494615
535.830537	2573.509038
536.191270	2472.685962
536.551947	2467.644808
536.912567	2553.344423
537.273131	2560.906154
537.633638	2505.453462
537.994089	2576.029615
538.354483	2412.192115
538.714821	2555.865000
539.075103	2515.535769
539.435328	2462.603654
539.795497	2513.015192
540.155609	2505.453462
540.515665	2558.385577
540.875665	2472.685962
541.235609	2450.000769
541.595496	2480.247692
541.955328	2497.891731
542.315102	2447.480192
542.674821	2490.330000
543.034483	2434.877308
543.394090	2439.918462
543.753640	2523.097500
544.113134	2472.685962
544.472571	2480.247692
544.831953	2417.233269
545.191278	2465.124231
545.550548	2525.618077
545.909761	2500.412308
546.268918	2475.206538
546.628019	2568.467885
546.987064	2447.480192
547.346053	2457.562500
547.704986	2500.412308
548.063863	2427.315577
548.422684	2593.673654
548.781449	2588.632500
549.140158	2513.015192
549.498811	2540.741538
549.857408	2462.603654
550.215949	2490.330000
550.574434	2518.056346
550.932864	2535.700385
551.291237	2429.836154
551.649555	2535.700385
552.007817	2389.506923
552.366022	2437.397885
552.724173	2563.426731
553.082267	2550.823846
553.440305	2573.509038
553.798288	2500.412308
554.156215	2497.891731
554.514086	2475.206538
554.871902	2550.823846
555.229661	2505.453462
555.587365	2470.165385
555.945014	2538.220962
556.302606	2523.097500
556.660143	2560.906154
557.017625	2543.262115
557.375050	2465.124231
557.732421	2513.015192
558.089735	2555.865000
558.446994	2419.753846
558.804197	2510.494615
559.161345	2528.138654
559.518437	2434.877308
559.875474	2533.179808
560.232455	2470.165385
560.589381	2530.659231
560.946251	2507.974038
561.303065	2553.344423
561.659825	2505.453462
562.016528	2409.671538
562.373177	2439.918462
562.729770	2538.220962
563.086307	2535.700385
563.442789	2513.015192
563.799216	2470.165385
564.155587	2520.576923
564.511904	2437.397885
564.868164	2553.344423
565.224370	2439.918462
565.580520	2495.371154
565.936615	2470.165385
566.292654	2523.097500
566.648638	2485.288846
567.004567	2475.206538
567.360441	2533.179808
567.716260	2485.288846
568.072023	2460.083077
568.427732	2513.015192
568.783385	2553.344423
569.138982	2525.618077
569.494525	2492.850577
569.850013	2470.165385
570.205445	2525.618077
570.560823	2485.288846
570.916145	2513.015192
571.271412	2515.535769
571.626625	2520.576923
571.981782	2502.932885
572.336884	2502.932885
572.691931	2455.041923
573.046923	2558.385577
573.401860	2475.206538
573.756743	2596.194231
574.111570	2525.618077
574.466342	2558.385577
574.821059	2442.439038
575.175722	2588.632500
575.530330	2497.891731
575.884882	2513.015192
576.239380	2487.809423
576.593823	2591.153077
576.948211	2502.932885
577.302544	2507.974038
577.656823	2505.453462
578.011047	2497.891731
578.365216	2460.083077
578.719330	2545.782692
579.073389	2477.727115
579.427394	2452.521346
579.781344	2558.385577
580.135239	2540.741538
580.489080	2543.262115
580.842866	2462.603654
581.196597	2530.659231
581.550273	2558.385577
581.903895	2495.371154
582.257463	2485.288846
582.610975	2480.247692
582.964434	2455.041923
583.317837	2477.727115
583.671186	2507.974038
584.024481	2497.891731
584.377721	2520.576923
584.730906	2427.315577
585.084037	2518.056346
585.437113	2442.439038
585.790135	2472.685962
586.143103	2490.330000
586.496016	2477.727115
586.848874	2487.809423
587.201679	2495.371154
587.554428	2515.535769
587.907124	2460.083077
588.259765	2548.303269
588.612352	2412.192115
588.964884	2427.315577
589.317362	2472.685962
589.669786	2470.165385
590.022155	2513.015192
590.374470	2450.000769
590.726731	2477.727115
591.078937	2485.288846
591.431090	2450.000769
591.783188	2475.206538
592.135232	2510.494615
592.487222	2548.303269
592.839157	2427.315577
593.191038	2545.782692
593.542866	2482.768269
593.894639	2520.576923
594.246358	2523.097500
594.598022	2543.262115
594.949633	2472.685962
595.301190	2586.111923
595.652692	2460.083077
596.004141	2495.371154
596.355535	2500.412308
596.706876	2530.659231
597.058162	2492.850577
597.409395	2515.535769
597.760573	2432.356731
598.111698	2535.700385
598.462768	2460.083077
598.813785	2490.330000
599.164748	2548.303269
599.515657	2465.124231
599.866511	2492.850577
600.217312	2500.412308
600.568060	2455.041923
600.918753	2482.768269
601.269392	2432.356731
601.619978	2550.823846
601.970510	2480.247692
602.320988	2558.385577
602.671412	2475.206538
603.021783	2510.494615
603.372100	2444.959615
603.722363	2530.659231
604.072572	2462.603654
604.422728	2558.385577
604.772830	2439.918462
605.122878	2502.932885
605.472872	2586.111923
605.822813	2490.330000
606.172701	2533.179808
606.522534	2404.630385
606.872314	2535.700385
607.222041	2553.344423
607.571714	2535.700385
607.921333	2480.247692
608.270899	2497.891731
608.620411	2427.315577
608.969870	2565.947308
609.319276	2492.850577
609.668627	2505.453462
610.017926	2513.015192
610.367171	2533.179808
610.716362	2477.727115
611.065500	2465.124231
611.414585	2422.274423
611.763616	2465.124231
612.112594	2565.947308
612.461518	2487.809423
612.810389	2407.150962
613.159207	2475.206538
613.507971	2548.303269
613.856682	2507.974038
614.205340	2518.056346
614.553945	2472.685962
614.902496	2528.138654
615.250994	2578.550192
615.599439	2502.932885
615.947830	2482.768269
616.296169	2525.618077
616.644454	2432.356731
616.992686	2502.932885
617.340864	2535.700385
617.688990	2470.165385
618.037063	2487.809423
618.385082	2565.947308
618.733048	2570.988462
619.080961	2477.727115
619.428821	2545.782692
619.776628	2528.138654
620.124382	2573.509038
620.472083	2525.618077
620.819731	2487.809423
621.167326	2477.727115
621.514868	2507.974038
621.862357	2555.865000
622.209793	2482.768269
622.557176	2477.727115
622.904506	2457.562500
623.251783	2507.974038
623.599007	2523.097500
623.946179	2545.782692
624.293297	2548.303269
624.640363	2598.714808
624.987376	2497.891731
625.334336	2485.288846
625.681243	2523.097500
626.028097	2538.220962
626.374899	2427.315577
626.721647	2558.385577
627.068343	2558.385577
627.414987	2460.083077
627.761577	2533.179808
628.108115	2507.974038
628.454600	2487.809423
628.801032	2462.603654
629.147412	2515.535769
629.493739	2505.453462
629.840014	2472.685962
630.186236	2487.809423
630.532405	2434.877308
630.878521	2402.109808
631.224585	2452.521346
631.570597	2505.453462
631.916556	2518.056346
632.262462	2462.603654
632.608316	2495.371154
632.954117	2505.453462
633.299866	2482.768269
633.645562	2518.056346
633.991206	2475.206538
634.336797	2533.179808
634.682336	2457.562500
635.027823	2520.576923
635.373257	2492.850577
635.718639	2518.056346
636.063968	2470.165385
636.409245	2538.220962
636.754470	2475.206538
637.099642	2576.029615
637.444762	2487.809423
637.789829	2535.700385
638.134845	2608.797115
638.479808	2598.714808
638.824719	2502.932885
639.169577	2447.480192
639.514383	2422.274423
639.859137	2467.644808
640.203839	2457.562500
640.548489	2525.618077
640.893086	2467.644808
641.237632	2515.535769
641.582125	2507.974038
641.926566	2507.974038
642.270955	2427.315577
642.615292	2553.344423
642.959576	2487.809423
643.303809	2447.480192
643.647990	2538.220962
643.992118	2462.603654
644.336195	2586.111923
644.680219	2482.768269
645.024192	2507.974038
645.368112	2507.974038
645.711981	2515.535769
646.055797	2407.150962
646.399562	2500.412308
646.743274	2518.056346
647.086935	2523.097500
647.430544	2492.850577
647.774101	2558.385577
648.117606	2470.165385
648.461059	2538.220962
648.804460	2434.877308
649.147810	2525.618077
649.491108	2487.809423
649.834354	2424.795000
650.177548	2533.179808
650.520690	2427.315577
650.863781	2477.727115
651.206820	2553.344423
651.549807	2502.932885
651.892742	2545.782692
652.235626	2502.932885
652.578458	2513.015192
652.921238	2535.700385
653.263967	2500.412308
653.606644	2518.056346
653.949269	2480.247692
654.291843	2525.618077
654.634365	2442.439038
654.976836	2485.288846
655.319255	2518.056346
655.661622	2525.618077
656.003938	2482.768269
656.346203	2545.782692
656.688416	2553.344423
657.030577	2548.303269
657.372687	2467.644808
657.714746	2470.165385
658.056753	2507.974038
658.398708	2495.371154
658.740612	2447.480192
659.082465	2533.179808
659.424266	2434.877308
659.766016	2568.467885
660.107715	2548.303269
660.449362	2427.315577
660.790958	2495.371154
661.132503	2482.768269
661.473996	2573.509038
661.815438	2402.109808
662.156829	2482.768269
662.498168	2502.932885
662.839456	2444.959615
663.180693	2419.753846
663.521879	2500.412308
663.863013	2505.453462
664.204097	2530.659231
664.545129	2513.015192
664.886110	2545.782692
665.227040	2586.111923
665.567918	2548.303269
665.908746	2505.453462
666.249522	2601.235385
666.590248	2533.179808
666.930922	2447.480192
667.271545	2548.303269
667.612118	2482.768269
667.952639	2555.865000
668.293109	2475.206538
668.633528	2553.344423
668.973896	2392.027500
669.314213	2460.083077
669.654480	2447.480192
669.994695	2538.220962
670.334859	2540.741538
670.674973	2455.041923
671.015035	2535.700385
671.355047	2487.809423
671.695008	2467.644808
672.034918	2465.124231
672.374777	2588.632500
672.714585	2553.344423
673.054342	2502.932885
673.394049	2507.974038
673.733705	2452.521346
674.073310	2462.603654
674.412864	2525.618077
674.752368	2540.741538
675.091820	2558.385577
675.431223	2525.618077
675.770574	2465.124231
676.109875	2487.809423
676.449125	2450.000769
676.788324	2462.603654
677.127473	2422.274423
677.466571	2331.533654
677.805619	2507.974038
678.144616	2515.535769
678.483562	2495.371154
678.822458	2460.083077
679.161303	2485.288846
679.500098	2497.891731
679.838842	2386.986346
680.177535	2502.932885
680.516179	2480.247692
680.854771	2487.809423
681.193314	2518.056346
681.531805	2467.644808
681.870247	2535.700385
682.208638	2485.288846
682.546978	2492.850577
682.885268	2548.303269
683.223508	2523.097500
683.561697	2457.562500
683.899836	2472.685962
684.237925	2500.412308
684.575963	2543.262115
684.913951	2515.535769
685.251889	2543.262115
685.589776	2520.576923
685.927614	2550.823846
686.265401	2419.753846
686.603137	2568.467885
686.940824	2515.535769
687.278460	2470.165385
687.616046	2550.823846
687.953582	2480.247692
688.291068	2538.220962
688.628504	2523.097500
688.965889	2510.494615
689.303224	2475.206538
689.640510	2505.453462
689.977745	2482.768269
690.314930	2495.371154
690.652065	2510.494615
690.989150	2543.262115
691.326185	2452.521346
691.663170	2434.877308
692.000105	2402.109808
692.336990	2460.083077
692.673825	2495.371154
693.010610	2475.206538
693.347345	2573.509038
693.684030	2424.795000
694.020665	2490.330000
694.357251	2422.274423
694.693786	2538.220962
695.030272	2550.823846
695.366707	2563.426731
695.703093	2490.330000
696.039429	2495.371154
696.375716	2497.891731
696.711952	2515.535769
697.048139	2520.576923
697.384276	2525.618077
697.720363	2407.150962
698.056400	2502.932885
698.392388	2427.315577
698.728326	2530.659231
699.064214	2523.097500
699.400053	2437.397885
699.735842	2444.959615
700.071581	2518.056346
700.407270	2540.741538
700.742910	2505.453462
701.078501	2518.056346
701.414042	2492.850577
701.749533	2548.303269
702.084974	2475.206538
702.420366	2518.056346
702.755709	2507.974038
703.091002	2530.659231
703.426246	2573.509038
703.761440	2502.932885
704.096584	2492.850577
704.431679	2492.850577
704.766725	2545.782692
705.101721	2485.288846
705.436668	2495.371154
705.771565	2465.124231
706.106413	2490.330000
706.441212	2467.644808
706.775961	2497.891731
707.110661	2432.356731
707.445311	2613.838269
707.779913	2530.659231
708.114465	2447.480192
708.448967	2548.303269
708.783421	2455.041923
709.117825	2515.535769
709.452180	2505.453462
709.786485	2573.509038
710.120742	2528.138654
710.454949	2432.356731
710.789107	2492.850577
711.123216	2452.521346
711.457275	2565.947308
711.791286	2497.891731
712.125247	2530.659231
712.459159	2470.165385
712.793023	2520.576923
713.126837	2447.480192
713.460602	2502.932885
713.794318	2465.124231
714.127985	2475.206538
714.461602	2505.453462
714.795171	2442.439038
715.128691	2540.741538
715.462162	2533.179808
715.795584	2472.685962
716.128957	2482.768269
716.462281	2485.288846
716.795556	2515.535769
717.128782	2490.330000
717.461960	2434.877308
717.795088	2460.083077
718.128167	2427.315577
718.461198	2442.439038
718.794180	2500.412308
719.127113	2432.356731
719.459997	2455.041923
719.792833	2462.603654
720.125619	2490.330000
720.458357	2520.576923
720.791046	2495.371154
721.123686	2502.932885
721.456278	2505.453462
721.788821	2450.000769
722.121315	2510.494615
722.453761	2482.768269
722.786158	2520.576923
723.118506	2497.891731
723.450805	2555.865000
723.783056	2490.330000
724.115259	2560.906154
724.447412	2444.959615
724.779518	2477.727115
725.111574	2442.439038
725.443582	2520.576923
725.775542	2540.741538
726.107453	2538.220962
726.439315	2513.015192
726.771129	2439.918462
727.102895	2495.371154
727.434612	2515.535769
727.766281	2492.850577
728.097901	2520.576923
728.429473	2515.535769
728.760996	2543.262115
729.092471	2462.603654
729.423897	2525.618077
729.755276	2510.494615
730.086606	2417.233269
730.417887	2439.918462
730.749120	2480.247692
731.080305	2518.056346
731.411442	2470.165385
731.742530	2477.727115
732.073570	2570.988462
732.404562	2535.700385
732.735506	2462.603654
733.066401	2480.247692
733.397249	2513.015192
733.728048	2495.371154
734.058798	2497.891731
734.389501	2475.206538
734.720156	2460.083077
735.050762	2515.535769
735.381320	2442.439038
735.711831	2548.303269
736.042293	2437.397885
736.372707	2465.124231
736.703073	2528.138654
737.033391	2495.371154
737.363661	2502.932885
737.693883	2452.521346
738.024056	2518.056346
738.354182	2457.562500
738.684260	2578.550192
739.014290	2490.330000
739.344272	2540.741538
739.674207	2543.262115
740.004093	2472.685962
740.333931	2558.385577
740.663722	2591.153077
740.993464	2470.165385
741.323159	2540.741538
741.652806	2409.671538
741.982405	2513.015192
742.311956	2444.959615
742.641460	2460.083077
742.970915	2510.494615
743.300323	2515.535769
743.629683	2581.070769
743.958996	2427.315577
744.288260	2505.453462
744.617477	2429.836154
744.946647	2523.097500
745.275768	2515.535769
745.604842	2502.932885
745.933869	2482.768269
746.262847	2510.494615
746.591778	2419.753846
746.920662	2432.356731
747.249498	2596.194231
747.578286	2550.823846
747.907027	2485.288846
748.235720	2565.947308
748.564365	2530.659231
748.892963	2548.303269
749.221514	2525.618077
749.550017	2523.097500
749.878473	2528.138654
750.206881	2586.111923
750.535242	2437.397885
750.863555	2538.220962
751.191821	2550.823846
751.520039	2417.233269
751.848210	2507.974038
752.176334	2492.850577
752.504411	2548.303269
752.832440	2455.041923
753.160421	2538.220962
753.488356	2472.685962
753.816243	2475.206538
754.144082	2457.562500
754.471875	2482.768269
754.799620	2538.220962
755.127318	2460.083077
755.454969	2467.644808
755.782572	2467.644808
756.110129	2475.206538
756.437638	2538.220962
756.765100	2444.959615
757.092515	2538.220962
757.419882	2497.891731
757.747203	2523.097500
758.074477	2477.727115
758.401703	2422.274423
758.728882	2407.150962
759.056014	2447.480192
759.383099	2455.041923
759.710138	2558.385577
760.037129	2535.700385
760.364073	2543.262115
760.690970	2502.932885
761.017820	2487.809423
761.344623	2538.220962
761.671379	2487.809423
761.998088	2545.782692
762.324751	2450.000769
762.651366	2502.932885
762.977935	2487.809423
763.304456	2492.850577
763.630931	2487.809423
763.957359	2465.124231
764.283740	2444.959615
764.610074	2568.467885
764.936362	2570.988462
765.262602	2578.550192
765.588796	2482.768269
765.914943	2553.344423
766.241044	2487.809423
766.567097	2520.576923
766.893104	2507.974038
767.219064	2485.288846
767.544978	2480.247692
767.870845	2472.685962
768.196665	2495.371154
768.522438	2543.262115
768.848165	2412.192115
769.173846	2475.206538
769.499479	2520.576923
769.825066	2543.262115
770.150607	2495.371154
770.476101	2555.865000
770.801548	2492.850577
771.126949	2475.206538
771.452303	2470.165385
771.777611	2507.974038
772.102872	2593.673654
772.428087	2485.288846
772.753256	2492.850577
773.078378	2404.630385
773.403453	2457.562500
773.728482	2525.618077
774.053465	2432.356731
774.378401	2465.124231
774.703291	2467.644808
775.028135	2492.850577
775.352932	2548.303269
775.677683	2525.618077
776.002388	2548.303269
776.327046	2417.233269
776.651658	2535.700385
776.976224	2518.056346
777.300743	2518.056346
777.625216	2462.603654
777.949643	2528.138654
778.274024	2487.809423
778.598359	2543.262115
778.922647	2482.768269
779.246889	2540.741538
779.571086	2462.603654
779.895236	2533.179808
780.219339	2490.330000
780.543397	2525.618077
780.867409	2490.330000
781.191374	2429.836154
781.515294	2515.535769
781.839167	2434.877308
782.162995	2467.644808
782.486776	2475.206538
782.810511	2384.465769
783.134201	2523.097500
783.457844	2518.056346
783.781441	2538.220962
784.104993	2447.480192
784.428498	2578.550192
784.751958	2480.247692
785.075372	2497.891731
785.398739	2487.809423
785.722061	2447.480192
786.045337	2482.768269
786.368568	2560.906154
786.691752	2507.974038
787.014891	2507.974038
787.337983	2427.315577
787.661030	2450.000769
787.984031	2606.276538
788.306987	2447.480192
788.629897	2427.315577
788.952760	2543.262115
789.275579	2560.906154
789.598351	2497.891731
789.921078	2528.138654
790.243759	2634.002885
790.566395	2475.206538
790.888984	2495.371154
791.211529	2523.097500
791.534027	2528.138654
791.856480	2510.494615
792.178888	2457.562500
792.501249	2578.550192
792.823566	2510.494615
793.145836	2523.097500
793.468062	2490.330000
793.790241	2497.891731
794.112375	2502.932885
794.434464	2419.753846
794.756507	2500.412308
795.078505	2515.535769
795.400457	2528.138654
795.722364	2460.083077
796.044226	2460.083077
796.366042	2500.412308
796.687812	2417.233269
797.009538	2392.027500
797.331218	2465.124231
797.652852	2475.206538
797.974442	2525.618077
798.295986	2558.385577
798.617484	2434.877308
798.938938	2462.603654
799.260346	2523.097500
799.581709	2548.303269
799.903026	2497.891731
800.224299	2543.262115
800.545526	2500.412308
800.866708	2490.330000
801.187845	2528.138654
801.508936	2528.138654
801.829983	2419.753846
802.150984	2480.247692
802.471940	2429.836154
802.792851	2538.220962
803.113717	2482.768269
803.434538	2419.753846
803.755314	2530.659231
804.076045	2535.700385
804.396731	2513.015192
804.717372	2505.453462
805.037967	2460.083077
805.358518	2465.124231
805.679024	2558.385577
805.999485	2520.576923
806.319901	2513.015192
806.640272	2515.535769
806.960598	2432.356731
807.280879	2437.397885
807.601115	2560.906154
807.921306	2500.412308
808.241453	2442.439038
808.561554	2500.412308
808.881611	2548.303269
809.201623	2490.330000
809.521590	2480.247692
809.841513	2450.000769
810.161390	2475.206538
810.481223	2538.220962
810.801011	2450.000769
811.120755	2490.330000
811.440453	2465.124231
811.760107	2543.262115
812.079716	2543.262115
812.399281	2480.247692
812.718801	2475.206538
813.038276	2487.809423
813.357707	2369.342308
813.677093	2515.535769
813.996434	2444.959615
814.315731	2452.521346
814.634983	2553.344423
814.954191	2465.124231
815.273354	2523.097500
815.592473	2487.809423
815.911547	2500.412308
816.230577	2475.206538
816.549562	2407.150962
816.868502	2470.165385
817.187399	2513.015192
817.506250	2460.083077
817.825058	2528.138654
818.143821	2502.932885
818.462539	2545.782692
818.781213	2555.865000
819.099843	2465.124231
819.418429	2513.015192
819.736970	2530.659231
820.055466	2502.932885
820.373919	2507.974038
820.692327	2477.727115
821.010691	2404.630385
821.329011	2485.288846
821.647286	2460.083077
821.965517	2427.315577
822.283704	2538.220962
822.601847	2492.850577
822.919945	2533.179808
823.237999	2419.753846
823.556010	2467.644808
823.873976	2497.891731
824.191897	2550.823846
824.509775	2560.906154
824.827609	2520.576923
825.145398	2457.562500
825.463144	2452.521346
825.780845	2495.371154
826.098502	2460.083077
826.416116	2500.412308
826.733685	2452.521346
827.051210	2500.412308
827.368692	2533.179808
827.686129	2540.741538
828.003522	2500.412308
828.320872	2495.371154
828.638177	2429.836154
828.955439	2495.371154
829.272656	2455.041923
829.589830	2424.795000
829.906960	2533.179808
830.224046	2520.576923
830.541088	2523.097500
830.858086	2573.509038
831.175041	2538.220962
831.491952	2500.412308
831.808819	2510.494615
832.125642	2429.836154
832.442421	2495.371154
832.759157	2482.768269
833.075849	2490.330000
833.392497	2495.371154
833.709101	2520.576923
834.025662	2457.562500
834.342179	2535.700385
834.658653	2515.535769
834.975083	2528.138654
835.291469	2460.083077
835.607811	2437.397885
835.924110	2533.179808
836.240366	2477.727115
836.556578	2412.192115
836.872746	2530.659231
837.188871	2432.356731
837.504952	2520.576923
837.820990	2518.056346
838.136984	2510.494615
838.452935	2485.288846
838.768842	2455.041923
839.084706	2450.000769
839.400526	2482.768269
839.716303	2525.618077
840.032037	2487.809423
840.347727	2528.138654
840.663373	2475.206538
840.978977	2520.576923
841.294537	2497.891731
841.610054	2492.850577
841.925527	2538.220962
842.240957	2472.685962
842.556344	2555.865000
842.871687	2482.768269
843.186987	2480.247692
843.502244	2553.344423
843.817458	2424.795000
844.132629	2492.850577
844.447756	2444.959615
844.762840	2480.247692
845.077881	2475.206538
845.392879	2381.945192
845.707833	2525.618077
846.022745	2407.150962
846.337613	2530.659231
846.652438	2538.220962
846.967221	2480.247692
847.281960	2543.262115
847.596656	2528.138654
847.911309	2450.000769
848.225919	2487.809423
848.540485	2560.906154
848.855009	2470.165385
849.169490	2502.932885
849.483928	2560.906154
849.798323	2462.603654
850.112675	2545.782692
850.426984	2500.412308
850.741251	2530.659231
851.055474	2465.124231
851.369654	2490.330000
851.683792	2462.603654
851.997887	2480.247692
852.311938	2520.576923
852.625947	2472.685962
852.939914	2545.782692
853.253837	2495.371154
853.567718	2535.700385
853.881555	2480.247692
854.195350	2475.206538
854.509103	2457.562500
854.822812	2538.220962
855.136479	2472.685962
855.450103	2530.659231
855.763685	2437.397885
856.077224	2502.932885
856.390720	2487.809423
856.704173	2475.206538
857.017584	2510.494615
857.330953	2518.056346
857.644278	2576.029615
857.957561	2447.480192
858.270802	2417.233269
858.584000	2505.453462
858.897155	2492.850577
859.210268	2528.138654
859.523339	2528.138654
859.836367	2462.603654
860.149352	2502.932885
860.462295	2540.741538
860.775195	2543.262115
861.088054	2477.727115
861.400869	2545.782692
861.713642	2460.083077
862.026373	2560.906154
862.339062	2419.753846
862.651708	2558.385577
862.964312	2507.974038
863.276873	2460.083077
863.589392	2535.700385
863.901869	2465.124231
864.214303	2477.727115
864.526696	2437.397885
864.839045	2500.412308
865.151353	2487.809423
865.463619	2437.397885
865.775842	2402.109808
866.088023	2538.220962
866.400162	2596.194231
866.712258	2518.056346
867.024313	2472.685962
867.336325	2460.083077
867.648296	2447.480192
867.960224	2553.344423
868.272110	2452.521346
868.583954	2515.535769
868.895755	2500.412308
869.207515	2462.603654
869.519233	2560.906154
869.830909	2550.823846
870.142542	2437.397885
870.454134	2465.124231
870.765684	2434.877308
871.077191	2611.317692
871.388657	2505.453462
871.700081	2533.179808
872.011463	2467.644808
872.322803	2518.056346
872.634101	2485.288846
872.945357	2538.220962
873.256571	2485.288846
873.567744	2482.768269
873.878874	2452.521346
874.189963	2563.426731
874.501010	2467.644808
874.812015	2548.303269
875.122979	2515.535769
875.433900	2394.548077
875.744780	2485.288846
876.055618	2518.056346
876.366415	2452.521346
876.677169	2528.138654
876.987882	2513.015192
877.298554	2523.097500
877.609183	2422.274423
877.919771	2480.247692
878.230317	2467.644808
878.540822	2470.165385
878.851285	2560.906154
879.161707	2545.782692
879.472087	2520.576923
879.782425	2467.644808
880.092722	2505.453462
880.402977	2419.753846
880.713191	2492.850577
881.023363	2439.918462
881.333494	2482.768269
881.643583	2422.274423
881.953631	2490.330000
882.263637	2455.041923
882.573602	2515.535769
882.883526	2535.700385
883.193408	2490.330000
883.503248	2434.877308
883.813048	2472.685962
884.122806	2447.480192
884.432522	2472.685962
884.742197	2576.029615
885.051831	2523.097500
885.361424	2455.041923
885.670975	2467.644808
885.980485	2515.535769
886.289954	2497.891731
886.599382	2510.494615
886.908768	2437.397885
887.218113	2528.138654
887.527417	2502.932885
887.836680	2502.932885
888.145901	2545.782692
888.455082	2467.644808
888.764221	2487.809423
889.073319	2490.330000
889.382376	2520.576923
889.691392	2553.344423
890.000366	2533.179808
890.309300	2477.727115
890.618193	2510.494615
890.927044	2450.000769
891.235855	2470.165385
891.544625	2439.918462
891.853353	2502.932885
892.162041	2399.589231
892.470687	2475.206538
892.779293	2470.165385
893.087858	2444.959615
893.396381	2450.000769
893.704864	2465.124231
894.013306	2437.397885
894.321707	2515.535769
894.630068	2533.179808
894.938387	2495.371154
895.246665	2452.521346
895.554903	2603.755962
895.863100	2452.521346
896.171256	2470.165385
896.479371	2381.945192
896.787446	2475.206538
897.095480	2480.247692
897.403473	2525.618077
897.711425	2545.782692
898.019336	2439.918462
898.327207	2538.220962
898.635038	2505.453462
898.942827	2447.480192
899.250576	2492.850577
899.558284	2545.782692
899.865952	2492.850577
900.173579	2442.439038
900.481165	2452.521346
900.788711	2475.206538
901.096216	2543.262115
901.403681	2490.330000
901.711105	2525.618077
902.018489	2520.576923
902.325832	2457.562500
902.633135	2480.247692
902.940397	2555.865000
903.247619	2518.056346
903.554800	2510.494615
903.861941	2487.809423
904.169041	2480.247692
904.476101	2457.562500
904.783121	2538.220962
905.090100	2455.041923
905.397039	2467.644808
905.703938	2450.000769
906.010796	2502.932885
906.317614	2538.220962
906.624391	2523.097500
906.931129	2538.220962
907.237826	2470.165385
907.544483	2530.659231
907.851099	2538.220962
908.157675	2485.288846
908.464211	2487.809423
908.770707	2555.865000
909.077163	2439.918462
909.383578	2371.862885
909.689954	2462.603654
909.996289	2558.385577
910.302584	2568.467885
910.608839	2555.865000
910.915054	2510.494615
911.221229	2399.589231
911.527363	2507.974038
911.833458	2462.603654
912.139513	2578.550192
912.445527	2490.330000
912.751502	2429.836154
913.057436	2558.385577
913.363331	2495.371154
913.669186	2533.179808
913.975000	2419.753846
914.280775	2576.029615
914.586510	2518.056346
914.892205	2513.015192
915.197859	2450.000769
915.503475	2515.535769
915.809050	2492.850577
916.114585	2533.179808
916.420081	2560.906154
916.725536	2560.906154
917.030952	2452.521346
917.336328	2530.659231
917.641665	2470.165385
917.946961	2500.412308
918.252218	2455.041923
918.557435	2465.124231
918.862612	2460.083077
919.167750	2540.741538
919.472848	2525.618077
919.777906	2467.644808
920.082925	2553.344423
920.387904	2535.700385
920.692843	2460.083077
920.997743	2528.138654
921.302603	2603.755962
921.607423	2465.124231
921.912204	2523.097500
922.216946	2444.959615
922.521647	2417.233269
922.826310	2535.700385
923.130932	2583.591346
923.435516	2485.288846
923.740059	2497.891731
924.044564	2518.056346
924.349028	2528.138654
924.653454	2525.618077
924.957840	2502.932885
925.262186	2523.097500
925.566493	2447.480192
925.870761	2442.439038
926.174989	2528.138654
926.479178	2540.741538
926.783328	2485.288846
927.087438	2497.891731
927.391509	2450.000769
927.695541	2533.179808
927.999533	2540.741538
928.303486	2583.591346
928.607400	2452.521346
928.911275	2490.330000
929.215110	2444.959615
929.518906	2540.741538
929.822663	2530.659231
930.126381	2535.700385
930.430060	2455.041923
930.733699	2533.179808
931.037299	2515.535769
931.340861	2515.535769
931.644383	2613.838269
931.947866	2422.274423
932.251309	2535.700385
932.554714	2457.562500
932.858080	2502.932885
933.161407	2510.494615
933.464694	2550.823846
933.767943	2437.397885
934.071153	2538.220962
934.374323	2480.247692
934.677455	2490.330000
934.980548	2545.782692
935.283602	2447.480192
935.586617	2538.220962
935.889593	2530.659231
936.192530	2455.041923
936.495428	2538.220962
936.798287	2487.809423
937.101108	2462.603654
937.403890	2555.865000
937.706632	2507.974038
938.009336	2467.644808
938.312002	2386.986346
938.614628	2550.823846
938.917216	2447.480192
939.219765	2442.439038
939.522275	2447.480192
939.824747	2523.097500
940.127179	2429.836154
940.429573	2492.850577
940.731929	2419.753846
941.034246	2507.974038
941.336524	2520.576923
941.638763	2515.535769
941.940964	2500.412308
942.243126	2500.412308
942.545250	2523.097500
942.847335	2404.630385
943.149381	2568.467885
943.451389	2550.823846
943.753359	2389.506923
944.055290	2525.618077
944.357182	2538.220962
944.659036	2573.509038
944.960851	2424.795000
945.262628	2520.576923
945.564367	2548.303269
945.866067	2523.097500
946.167729	2429.836154
946.469352	2543.262115
946.770937	2525.618077
947.072484	2523.097500
947.373992	2565.947308
947.675462	2560.906154
947.976893	2505.453462
948.278286	2442.439038
948.579641	2520.576923
948.880958	2538.220962
949.182236	2460.083077
949.483476	2482.768269
949.784678	2490.330000
950.085841	2444.959615
950.386967	2502.932885
950.688054	2434.877308
950.989103	2439.918462
951.290114	2576.029615
951.591087	2568.467885
951.892021	2500.412308
952.192917	2472.685962
952.493776	2490.330000
952.794596	2447.480192
953.095378	2523.097500
953.396122	2439.918462
953.696828	2424.795000
953.997496	2460.083077
954.298126	2654.167500
954.598718	2500.412308
954.899272	2429.836154
955.199788	2487.809423
955.500266	2515.535769
955.800706	2495.371154
956.101108	2485.288846
956.401472	2490.330000
956.701798	2502.932885
957.002087	2578.550192
957.302337	2472.685962
957.602550	2482.768269
957.902724	2530.659231
958.202861	2434.877308
958.502960	2457.562500
958.803022	2450.000769
959.103045	2450.000769
959.403031	2480.247692
959.702979	2578.550192
960.002889	2497.891731
960.302762	2555.865000
960.602596	2505.453462
960.902393	2495.371154
961.202153	2492.850577
961.501875	2477.727115
961.801559	2462.603654
962.101205	2513.015192
962.400814	2472.685962
962.700385	2545.782692
962.999918	2502.932885
963.299414	2490.330000
963.598873	2455.041923
963.898293	2525.618077
964.197677	2507.974038
964.497022	2450.000769
964.796331	2439.918462
965.095601	2482.768269
965.394835	2427.315577
965.694030	2452.521346
965.993189	2450.000769
966.292309	2570.988462
966.591393	2540.741538
966.890439	2502.932885
967.189447	2434.877308
967.488419	2535.700385
967.787353	2560.906154
968.086249	2465.124231
968.385108	2530.659231
968.683930	2558.385577
968.982714	2442.439038
969.281462	2520.576923
969.580172	2457.562500
969.878844	2525.618077
970.177480	2497.891731
970.476078	2490.330000
970.774639	2480.247692
971.073162	2462.603654
971.371649	2422.274423
971.670098	2462.603654
971.968510	2470.165385
972.266885	2545.782692
972.565223	2545.782692
972.863524	2510.494615
973.161788	2515.535769
973.460014	2455.041923
973.758204	2553.344423
974.056356	2492.850577
974.354471	2555.865000
974.652550	2507.974038
974.950591	2523.097500
975.248595	2399.589231
975.546563	2540.741538
975.844493	2487.809423
976.142386	2447.480192
976.440243	2520.576923
976.738062	2389.506923
977.035845	2490.330000
977.333590	2472.685962
977.631299	2583.591346
977.928971	2485.288846
978.226606	2485.288846
978.524204	2576.029615
978.821765	2480.247692
979.119290	2540.741538
979.416777	2376.904038
979.714228	2417.233269
980.011642	2487.809423
980.309020	2475.206538
980.606360	2500.412308
980.903664	2447.480192
981.200931	2482.768269
981.498162	2457.562500
981.795356	2442.439038
982.092513	2500.412308
982.389633	2502.932885
982.686717	2460.083077
982.983764	2518.056346
983.280775	2550.823846
983.577749	2439.918462
983.874686	2535.700385
984.171587	2505.453462
984.468451	2513.015192
984.765279	2460.083077
985.062070	2560.906154
985.358824	2432.356731
985.655543	2523.097500
985.952224	2394.548077
986.248869	2480.247692
986.545478	2560.906154
986.842050	2596.194231
987.138586	2439.918462
987.435086	2548.303269
987.731549	2439.918462
988.027975	2470.165385
988.324366	2442.439038
988.620719	2525.618077
988.917037	2442.439038
989.213318	2515.535769
989.509563	2480.247692
989.805772	2505.453462
990.101944	2538.220962
990.398080	2495.371154
990.694180	2472.685962
990.990244	2535.700385
991.286271	2462.603654
991.582262	2472.685962
991.878217	2518.056346
992.174136	2475.206538
992.470019	2422.274423
992.765865	2475.206538
993.061676	2525.618077
993.357450	2457.562500
993.653188	2487.809423
993.948890	2560.906154
994.244556	2472.685962
994.540186	2518.056346
994.835780	2492.850577
995.131337	2533.179808
995.426859	2505.453462
995.722345	2530.659231
996.017795	2462.603654
996.313208	2520.576923
996.608586	2414.712692
996.903928	2422.274423
997.199234	2490.330000
997.494504	2455.041923
997.789738	2470.165385
998.084936	2467.644808
998.380099	2455.041923
998.675225	2540.741538
998.970316	2487.809423
999.265371	2455.041923
999.560390	2487.809423
999.855373	2462.603654
1000.150320	2525.618077
1000.445232	2472.685962
1000.740108	2543.262115
1001.034948	2558.385577
1001.329752	2475.206538
1001.624521	2528.138654
1001.919254	2465.124231
1002.213951	2505.453462
1002.508613	2528.138654
1002.803239	2543.262115
1003.097829	2502.932885
1003.392384	2518.056346
1003.686903	2457.562500
1003.981386	2518.056346
1004.275834	2495.371154
1004.570246	2570.988462
1004.864623	2518.056346
1005.158964	2558.385577
1005.453270	2497.891731
1005.747540	2477.727115
1006.041775	2429.836154
1006.335974	2442.439038
1006.630138	2487.809423
1006.924266	2513.015192
1007.218359	2467.644808
1007.512416	2525.618077
1007.806438	2470.165385
1008.100425	2523.097500
1008.394376	2455.041923
1008.688292	2397.068654
1008.982172	2467.644808
1009.276017	2450.000769
1009.569827	2500.412308
1009.863602	2487.809423
1010.157341	2462.603654
1010.451045	2502.932885
1010.744714	2455.041923
1011.038347	2470.165385
1011.331945	2507.974038
1011.625508	2475.206538
1011.919036	2470.165385
1012.212528	2568.467885
1012.505986	2520.576923
1012.799408	2543.262115
1013.092795	2427.315577
1013.386147	2485.288846
1013.679464	2482.768269
1013.972745	2545.782692
1014.265992	2444.959615
1014.559204	2533.179808
1014.852380	2487.809423
1015.145521	2520.576923
1015.438628	2523.097500
1015.731699	2523.097500
1016.024736	2550.823846
1016.317737	2507.974038
1016.610703	2495.371154
1016.903635	2465.124231
1017.196531	2495.371154
1017.489393	2475.206538
1017.782219	2523.097500
1018.075011	2447.480192
1018.367768	2397.068654
1018.660490	2548.303269
1018.953177	2548.303269
1019.245829	2548.303269
