Dividing Wavelength (nm)	Counts (n)	Blue Motor Position (mm): 0.000000	Red Motor Position (mm): 1.000000	
326.493990	2134.928654
326.888308	2134.928654
327.282561	2134.928654
327.676750	2008.899808
328.070874	2054.270192
328.464933	2094.599423
328.858929	2018.982115
329.252859	2129.887500
329.646726	2102.161154
330.040528	2084.517115
330.434265	2185.340192
330.827938	2162.655000
331.221547	2172.737308
331.615091	2129.887500
332.008571	2185.340192
332.401986	2245.834038
332.795338	2190.381346
333.188625	2210.545962
333.581847	2258.436923
333.975006	2200.463654
334.368100	2286.163269
334.761129	2323.971923
335.154095	2323.971923
335.546996	2303.807308
335.939833	2344.136538
336.332606	2341.615962
336.725315	2346.657115
337.117960	2397.068654
337.510540	2417.233269
337.903056	2432.356731
338.295508	2364.301154
338.687896	2422.274423
339.080220	2462.603654
339.472480	2407.150962
339.864676	2434.877308
340.256807	2533.179808
340.648875	2455.041923
341.040879	2515.535769
341.432818	2548.303269
341.824694	2502.932885
342.216506	2500.412308
342.608253	2518.056346
342.999937	2492.850577
343.391557	2533.179808
343.783113	2419.753846
344.174605	2434.877308
344.566033	2447.480192
344.957397	2470.165385
345.348697	2414.712692
345.739934	2414.712692
346.131106	2482.768269
346.522215	2442.439038
346.913260	2495.371154
347.304241	2482.768269
347.695159	2578.550192
348.086012	2465.124231
348.476802	2399.589231
348.867528	2447.480192
349.258191	2334.054231
349.648789	2437.397885
350.039324	2462.603654
350.429796	2429.836154
350.820203	2422.274423
351.210548	2467.644808
351.600828	2507.974038
351.991045	2394.548077
352.381198	2460.083077
352.771288	2460.083077
353.161314	2452.521346
353.551276	2457.562500
353.941175	2457.562500
354.331010	2485.288846
354.720782	2404.630385
355.110490	2389.506923
355.500135	2497.891731
355.889717	2417.233269
356.279235	2381.945192
356.668689	2397.068654
357.058080	2485.288846
357.447408	2366.821731
357.836672	2407.150962
358.225873	2339.095385
358.615010	2452.521346
359.004084	2442.439038
359.393095	2492.850577
359.782043	2472.685962
360.170927	2409.671538
360.559748	2470.165385
360.948505	2399.589231
361.337199	2379.424615
361.725830	2460.083077
362.114398	2349.177692
362.502903	2419.753846
362.891344	2439.918462
363.279722	2444.959615
363.668037	2460.083077
364.056289	2434.877308
364.444478	2444.959615
364.832603	2505.453462
365.220665	2467.644808
365.608665	2424.795000
365.996601	2482.768269
366.384474	2457.562500
366.772284	2452.521346
367.160031	2452.521346
367.547715	2482.768269
367.935336	2364.301154
368.322893	2437.397885
368.710388	2475.206538
369.097820	2555.865000
369.485189	2475.206538
369.872495	2447.480192
370.259738	2457.562500
370.646918	2397.068654
371.034035	2427.315577
371.421090	2407.150962
371.808081	2533.179808
372.195010	2507.974038
372.581875	2472.685962
372.968678	2417.233269
373.355418	2422.274423
373.742096	2424.795000
374.128710	2457.562500
374.515262	2490.330000
374.901751	2538.220962
375.288177	2460.083077
375.674540	2417.233269
376.060841	2513.015192
376.447079	2409.671538
376.833254	2482.768269
377.219367	2439.918462
377.605417	2457.562500
377.991404	2394.548077
378.377329	2485.288846
378.763191	2495.371154
379.148991	2495.371154
379.534727	2427.315577
379.920402	2417.233269
380.306013	2482.768269
380.691563	2507.974038
381.077049	2462.603654
381.462474	2523.097500
381.847835	2502.932885
382.233134	2439.918462
382.618371	2407.150962
383.003545	2465.124231
383.388657	2465.124231
383.773706	2439.918462
384.158693	2450.000769
384.543618	2422.274423
384.928480	2437.397885
385.313280	2432.356731
385.698017	2465.124231
386.082692	2389.506923
386.467305	2429.836154
386.851856	2533.179808
387.236344	2455.041923
387.620770	2487.809423
388.005133	2404.630385
388.389435	2434.877308
388.773674	2470.165385
389.157851	2447.480192
389.541965	2543.262115
389.926018	2507.974038
390.310008	2351.698269
390.693936	2565.947308
391.077802	2492.850577
391.461606	2450.000769
391.845348	2583.591346
392.229027	2450.000769
392.612645	2533.179808
392.996200	2409.671538
393.379694	2460.083077
393.763125	2505.453462
394.146494	2470.165385
394.529801	2480.247692
394.913047	2424.795000
395.296230	2490.330000
395.679351	2482.768269
396.062410	2470.165385
396.445408	2439.918462
396.828343	2477.727115
397.211217	2450.000769
397.594028	2424.795000
397.976778	2520.576923
398.359466	2450.000769
398.742092	2462.603654
399.124656	2490.330000
399.507158	2553.344423
399.889598	2455.041923
400.271977	2429.836154
400.654294	2535.700385
401.036549	2434.877308
401.418742	2475.206538
401.800874	2407.150962
402.182944	2520.576923
402.564952	2477.727115
402.946898	2457.562500
403.328783	2528.138654
403.710606	2457.562500
404.092367	2444.959615
404.474067	2432.356731
404.855705	2477.727115
405.237282	2533.179808
405.618797	2457.562500
406.000250	2462.603654
406.381642	2429.836154
406.762972	2507.974038
407.144240	2540.741538
407.525447	2518.056346
407.906593	2485.288846
408.287677	2530.659231
408.668700	2447.480192
409.049661	2419.753846
409.430560	2497.891731
409.811399	2402.109808
410.192176	2535.700385
410.572891	2432.356731
410.953545	2535.700385
411.334138	2457.562500
411.714669	2470.165385
412.095139	2518.056346
412.475547	2475.206538
412.855894	2462.603654
413.236180	2467.644808
413.616405	2460.083077
413.996568	2533.179808
414.376670	2482.768269
414.756711	2515.535769
415.136691	2467.644808
415.516609	2455.041923
415.896466	2470.165385
416.276262	2434.877308
416.655997	2386.986346
417.035670	2538.220962
417.415283	2513.015192
417.794834	2450.000769
418.174324	2472.685962
418.553753	2523.097500
418.933121	2482.768269
419.312428	2439.918462
419.691674	2515.535769
420.070859	2525.618077
420.449983	2485.288846
420.829045	2455.041923
421.208047	2616.358846
421.586988	2497.891731
421.965867	2482.768269
422.344686	2457.562500
422.723444	2432.356731
423.102141	2482.768269
423.480777	2523.097500
423.859352	2419.753846
424.237866	2482.768269
424.616319	2485.288846
424.994712	2394.548077
425.373044	2419.753846
425.751314	2520.576923
426.129524	2480.247692
426.507673	2502.932885
426.885762	2477.727115
427.263789	2495.371154
427.641756	2505.453462
428.019662	2409.671538
428.397508	2470.165385
428.775292	2402.109808
429.153016	2528.138654
429.530679	2518.056346
429.908282	2525.618077
430.285824	2500.412308
430.663305	2424.795000
431.040726	2432.356731
431.418086	2477.727115
431.795385	2513.015192
432.172624	2545.782692
432.549802	2487.809423
432.926920	2490.330000
433.303977	2482.768269
433.680974	2475.206538
434.057910	2452.521346
434.434786	2432.356731
434.811601	2495.371154
435.188355	2520.576923
435.565050	2462.603654
435.941683	2429.836154
436.318257	2470.165385
436.694770	2533.179808
437.071222	2550.823846
437.447614	2500.412308
437.823946	2429.836154
438.200218	2470.165385
438.576429	2450.000769
438.952580	2404.630385
439.328670	2530.659231
439.704700	2550.823846
440.080670	2550.823846
440.456580	2500.412308
440.832429	2477.727115
441.208218	2505.453462
441.583947	2520.576923
441.959616	2475.206538
442.335224	2485.288846
442.710773	2518.056346
443.086261	2467.644808
443.461689	2485.288846
443.837057	2467.644808
444.212365	2442.439038
444.587612	2518.056346
444.962800	2507.974038
445.337927	2497.891731
445.712995	2518.056346
446.088002	2505.453462
446.462949	2407.150962
446.837837	2477.727115
447.212664	2543.262115
447.587431	2507.974038
447.962139	2447.480192
448.336786	2432.356731
448.711374	2477.727115
449.085901	2500.412308
449.460369	2462.603654
449.834776	2538.220962
450.209124	2525.618077
450.583412	2558.385577
450.957640	2520.576923
451.331808	2485.288846
451.705917	2487.809423
452.079965	2467.644808
452.453954	2472.685962
452.827883	2495.371154
453.201752	2417.233269
453.575562	2502.932885
453.949311	2417.233269
454.323001	2444.959615
454.696632	2457.562500
455.070202	2528.138654
455.443713	2460.083077
455.817164	2578.550192
456.190556	2538.220962
456.563888	2518.056346
456.937160	2417.233269
457.310373	2490.330000
457.683526	2497.891731
458.056619	2427.315577
458.429653	2432.356731
458.802628	2513.015192
459.175542	2570.988462
459.548398	2497.891731
459.921194	2518.056346
460.293930	2369.342308
460.666607	2460.083077
461.039224	2535.700385
461.411782	2477.727115
461.784280	2548.303269
462.156719	2495.371154
462.529099	2465.124231
462.901419	2492.850577
463.273680	2457.562500
463.645882	2502.932885
464.018024	2447.480192
464.390106	2507.974038
464.762130	2520.576923
465.134094	2427.315577
465.505999	2530.659231
465.877845	2477.727115
466.249631	2477.727115
466.621358	2505.453462
466.993026	2533.179808
467.364634	2470.165385
467.736184	2543.262115
468.107674	2472.685962
468.479105	2507.974038
468.850477	2500.412308
469.221790	2555.865000
469.593043	2480.247692
469.964238	2460.083077
470.335373	2457.562500
470.706449	2586.111923
471.077467	2492.850577
471.448425	2535.700385
471.819324	2540.741538
472.190164	2462.603654
472.560945	2497.891731
472.931667	2495.371154
473.302330	2568.467885
473.672934	2399.589231
474.043479	2530.659231
474.413965	2467.644808
474.784393	2563.426731
475.154761	2502.932885
475.525070	2530.659231
475.895321	2470.165385
476.265513	2437.397885
476.635645	2470.165385
477.005719	2455.041923
477.375734	2480.247692
477.745691	2560.906154
478.115588	2528.138654
478.485427	2394.548077
478.855207	2432.356731
479.224928	2515.535769
479.594591	2495.371154
479.964194	2492.850577
480.333739	2467.644808
480.703226	2495.371154
481.072653	2603.755962
481.442022	2644.085192
481.811333	2570.988462
482.180584	2492.850577
482.549777	2497.891731
482.918912	2505.453462
483.287988	2525.618077
483.657005	2540.741538
484.025964	2495.371154
484.394864	2462.603654
484.763706	2497.891731
485.132489	2502.932885
485.501213	2470.165385
485.869879	2568.467885
486.238487	2475.206538
486.607036	2523.097500
486.975527	2515.535769
487.343959	2455.041923
487.712333	2477.727115
488.080648	2477.727115
488.448905	2444.959615
488.817104	2528.138654
489.185244	2427.315577
489.553326	2523.097500
489.921350	2442.439038
490.289315	2447.480192
490.657222	2492.850577
491.025070	2513.015192
491.392861	2540.741538
491.760593	2581.070769
492.128267	2548.303269
492.495883	2500.412308
492.863440	2550.823846
493.230939	2460.083077
493.598380	2525.618077
493.965763	2457.562500
494.333088	2439.918462
494.700354	2525.618077
495.067563	2505.453462
495.434713	2437.397885
495.801805	2502.932885
496.168839	2515.535769
496.535815	2497.891731
496.902733	2427.315577
497.269593	2528.138654
497.636395	2450.000769
498.003139	2543.262115
498.369825	2467.644808
498.736453	2538.220962
499.103023	2487.809423
499.469535	2429.836154
499.835989	2535.700385
500.202385	2543.262115
500.568723	2457.562500
500.935003	2487.809423
501.301226	2550.823846
501.667390	2573.509038
502.033497	2470.165385
502.399546	2437.397885
502.765537	2487.809423
503.131470	2505.453462
503.497345	2530.659231
503.863163	2480.247692
504.228923	2497.891731
504.594625	2417.233269
504.960269	2553.344423
505.325856	2495.371154
505.691385	2429.836154
506.056856	2543.262115
506.422270	2528.138654
506.787625	2490.330000
507.152924	2472.685962
507.518164	2520.576923
507.883347	2475.206538
508.248472	2573.509038
508.613540	2500.412308
508.978550	2455.041923
509.343503	2475.206538
509.708398	2452.521346
510.073236	2490.330000
510.438016	2409.671538
510.802738	2472.685962
511.167403	2513.015192
511.532010	2500.412308
511.896561	2429.836154
512.261053	2535.700385
512.625488	2510.494615
512.989866	2535.700385
513.354186	2555.865000
513.718449	2480.247692
514.082655	2497.891731
514.446803	2555.865000
514.810894	2497.891731
515.174927	2528.138654
515.538904	2419.753846
515.902822	2402.109808
516.266684	2507.974038
516.630488	2487.809423
516.994235	2487.809423
517.357925	2460.083077
517.721558	2525.618077
518.085133	2432.356731
518.448651	2422.274423
518.812112	2477.727115
519.175516	2505.453462
519.538863	2447.480192
519.902152	2485.288846
520.265385	2540.741538
520.628560	2507.974038
520.991678	2452.521346
521.354739	2497.891731
521.717743	2518.056346
522.080690	2485.288846
522.443580	2528.138654
522.806413	2560.906154
523.169189	2477.727115
523.531908	2482.768269
523.894569	2472.685962
524.257174	2457.562500
524.619722	2540.741538
524.982213	2432.356731
525.344647	2480.247692
525.707025	2565.947308
526.069345	2432.356731
526.431608	2495.371154
526.793815	2505.453462
527.155964	2520.576923
527.518057	2492.850577
527.880093	2465.124231
528.242072	2492.850577
528.603995	2518.056346
528.965860	2470.165385
529.327669	2490.330000
529.689421	2548.303269
530.051117	2550.823846
530.412755	2417.233269
530.774337	2540.741538
531.135862	2636.523462
531.497331	2452.521346
531.858743	2475.206538
532.220098	2457.562500
532.581396	2515.535769
532.942638	2477.727115
533.303824	2540.741538
533.664953	2442.439038
534.026025	2538.220962
534.387040	2543.262115
534.747999	2528.138654
535.108902	2565.947308
535.469748	2470.165385
535.830537	2477.727115
536.191270	2465.124231
536.551947	2442.439038
536.912567	2492.850577
537.273131	2495.371154
537.633638	2528.138654
537.994089	2518.056346
538.354483	2520.576923
538.714821	2480.247692
539.075103	2472.685962
539.435328	2462.603654
539.795497	2563.426731
540.155609	2434.877308
540.515665	2540.741538
540.875665	2495.371154
541.235609	2560.906154
541.595496	2510.494615
541.955328	2497.891731
542.315102	2434.877308
542.674821	2563.426731
543.034483	2455.041923
543.394090	2475.206538
543.753640	2528.138654
544.113134	2467.644808
544.472571	2455.041923
544.831953	2472.685962
545.191278	2447.480192
545.550548	2523.097500
545.909761	2462.603654
546.268918	2482.768269
546.628019	2530.659231
546.987064	2412.192115
547.346053	2535.700385
547.704986	2545.782692
548.063863	2570.988462
548.422684	2414.712692
548.781449	2560.906154
549.140158	2472.685962
549.498811	2507.974038
549.857408	2535.700385
550.215949	2553.344423
550.574434	2475.206538
550.932864	2525.618077
551.291237	2497.891731
551.649555	2533.179808
552.007817	2576.029615
552.366022	2497.891731
552.724173	2432.356731
553.082267	2507.974038
553.440305	2560.906154
553.798288	2558.385577
554.156215	2533.179808
554.514086	2545.782692
554.871902	2477.727115
555.229661	2570.988462
555.587365	2462.603654
555.945014	2455.041923
556.302606	2558.385577
556.660143	2523.097500
557.017625	2555.865000
557.375050	2444.959615
557.732421	2553.344423
558.089735	2497.891731
558.446994	2535.700385
558.804197	2528.138654
559.161345	2523.097500
559.518437	2450.000769
559.875474	2548.303269
560.232455	2497.891731
560.589381	2518.056346
560.946251	2444.959615
561.303065	2429.836154
561.659825	2482.768269
562.016528	2452.521346
562.373177	2472.685962
562.729770	2467.644808
563.086307	2485.288846
563.442789	2470.165385
563.799216	2515.535769
564.155587	2540.741538
564.511904	2538.220962
564.868164	2528.138654
565.224370	2535.700385
565.580520	2386.986346
565.936615	2576.029615
566.292654	2568.467885
566.648638	2502.932885
567.004567	2482.768269
567.360441	2533.179808
567.716260	2568.467885
568.072023	2452.521346
568.427732	2450.000769
568.783385	2505.453462
569.138982	2429.836154
569.494525	2533.179808
569.850013	2510.494615
570.205445	2465.124231
570.560823	2553.344423
570.916145	2480.247692
571.271412	2444.959615
571.626625	2434.877308
571.981782	2452.521346
572.336884	2510.494615
572.691931	2495.371154
573.046923	2502.932885
573.401860	2437.397885
573.756743	2535.700385
574.111570	2495.371154
574.466342	2513.015192
574.821059	2490.330000
575.175722	2533.179808
575.530330	2523.097500
575.884882	2447.480192
576.239380	2525.618077
576.593823	2455.041923
576.948211	2565.947308
577.302544	2525.618077
577.656823	2472.685962
578.011047	2513.015192
578.365216	2457.562500
578.719330	2477.727115
579.073389	2507.974038
579.427394	2520.576923
579.781344	2505.453462
580.135239	2543.262115
580.489080	2578.550192
580.842866	2447.480192
581.196597	2500.412308
581.550273	2568.467885
581.903895	2520.576923
582.257463	2482.768269
582.610975	2513.015192
582.964434	2480.247692
583.317837	2507.974038
583.671186	2470.165385
584.024481	2570.988462
584.377721	2530.659231
584.730906	2465.124231
585.084037	2497.891731
585.437113	2500.412308
585.790135	2470.165385
586.143103	2495.371154
586.496016	2462.603654
586.848874	2422.274423
587.201679	2510.494615
587.554428	2485.288846
587.907124	2492.850577
588.259765	2450.000769
588.612352	2465.124231
588.964884	2444.959615
589.317362	2518.056346
589.669786	2520.576923
590.022155	2495.371154
590.374470	2513.015192
590.726731	2427.315577
591.078937	2472.685962
591.431090	2475.206538
591.783188	2467.644808
592.135232	2480.247692
592.487222	2472.685962
592.839157	2470.165385
593.191038	2568.467885
593.542866	2593.673654
593.894639	2505.453462
594.246358	2555.865000
594.598022	2545.782692
594.949633	2492.850577
595.301190	2480.247692
595.652692	2417.233269
596.004141	2558.385577
596.355535	2437.397885
596.706876	2490.330000
597.058162	2570.988462
597.409395	2472.685962
597.760573	2558.385577
598.111698	2533.179808
598.462768	2490.330000
598.813785	2470.165385
599.164748	2530.659231
599.515657	2497.891731
599.866511	2545.782692
600.217312	2399.589231
600.568060	2470.165385
600.918753	2439.918462
601.269392	2477.727115
601.619978	2492.850577
601.970510	2444.959615
602.320988	2550.823846
602.671412	2470.165385
603.021783	2573.509038
603.372100	2455.041923
603.722363	2422.274423
604.072572	2510.494615
604.422728	2510.494615
604.772830	2490.330000
605.122878	2523.097500
605.472872	2389.506923
605.822813	2525.618077
606.172701	2485.288846
606.522534	2419.753846
606.872314	2495.371154
607.222041	2470.165385
607.571714	2513.015192
607.921333	2447.480192
608.270899	2520.576923
608.620411	2462.603654
608.969870	2500.412308
609.319276	2444.959615
609.668627	2462.603654
610.017926	2530.659231
610.367171	2505.453462
610.716362	2510.494615
611.065500	2523.097500
611.414585	2505.453462
611.763616	2545.782692
612.112594	2543.262115
612.461518	2525.618077
612.810389	2424.795000
613.159207	2528.138654
613.507971	2533.179808
613.856682	2520.576923
614.205340	2457.562500
614.553945	2427.315577
614.902496	2553.344423
615.250994	2475.206538
615.599439	2515.535769
615.947830	2477.727115
616.296169	2568.467885
616.644454	2540.741538
616.992686	2502.932885
617.340864	2558.385577
617.688990	2457.562500
618.037063	2558.385577
618.385082	2555.865000
618.733048	2495.371154
619.080961	2528.138654
619.428821	2563.426731
619.776628	2538.220962
620.124382	2457.562500
620.472083	2538.220962
620.819731	2462.603654
621.167326	2530.659231
621.514868	2442.439038
621.862357	2477.727115
622.209793	2492.850577
622.557176	2495.371154
622.904506	2485.288846
623.251783	2475.206538
623.599007	2422.274423
623.946179	2515.535769
624.293297	2432.356731
624.640363	2513.015192
624.987376	2568.467885
625.334336	2530.659231
625.681243	2533.179808
626.028097	2455.041923
626.374899	2455.041923
626.721647	2487.809423
627.068343	2490.330000
627.414987	2565.947308
627.761577	2528.138654
628.108115	2462.603654
628.454600	2513.015192
628.801032	2530.659231
629.147412	2513.015192
629.493739	2563.426731
629.840014	2505.453462
630.186236	2540.741538
630.532405	2525.618077
630.878521	2500.412308
631.224585	2520.576923
631.570597	2507.974038
631.916556	2480.247692
632.262462	2437.397885
632.608316	2555.865000
632.954117	2545.782692
633.299866	2487.809423
633.645562	2505.453462
633.991206	2513.015192
634.336797	2492.850577
634.682336	2452.521346
635.027823	2548.303269
635.373257	2487.809423
635.718639	2535.700385
636.063968	2419.753846
636.409245	2470.165385
636.754470	2467.644808
637.099642	2507.974038
637.444762	2371.862885
637.789829	2505.453462
638.134845	2520.576923
638.479808	2513.015192
638.824719	2477.727115
639.169577	2515.535769
639.514383	2528.138654
639.859137	2490.330000
640.203839	2485.288846
640.548489	2462.603654
640.893086	2518.056346
641.237632	2467.644808
641.582125	2500.412308
641.926566	2452.521346
642.270955	2540.741538
642.615292	2442.439038
642.959576	2502.932885
643.303809	2470.165385
643.647990	2470.165385
643.992118	2500.412308
644.336195	2515.535769
644.680219	2621.400000
645.024192	2455.041923
645.368112	2505.453462
645.711981	2500.412308
646.055797	2467.644808
646.399562	2444.959615
646.743274	2462.603654
647.086935	2513.015192
647.430544	2460.083077
647.774101	2487.809423
648.117606	2523.097500
648.461059	2581.070769
648.804460	2455.041923
649.147810	2424.795000
649.491108	2533.179808
649.834354	2540.741538
650.177548	2576.029615
650.520690	2437.397885
650.863781	2507.974038
651.206820	2505.453462
651.549807	2515.535769
651.892742	2412.192115
652.235626	2518.056346
652.578458	2513.015192
652.921238	2497.891731
653.263967	2457.562500
653.606644	2505.453462
653.949269	2477.727115
654.291843	2495.371154
654.634365	2513.015192
654.976836	2482.768269
655.319255	2482.768269
655.661622	2548.303269
656.003938	2477.727115
656.346203	2455.041923
656.688416	2450.000769
657.030577	2475.206538
657.372687	2462.603654
657.714746	2467.644808
658.056753	2613.838269
658.398708	2530.659231
658.740612	2477.727115
659.082465	2485.288846
659.424266	2523.097500
659.766016	2606.276538
660.107715	2500.412308
660.449362	2533.179808
660.790958	2507.974038
661.132503	2570.988462
661.473996	2497.891731
661.815438	2495.371154
662.156829	2460.083077
662.498168	2543.262115
662.839456	2429.836154
663.180693	2502.932885
663.521879	2523.097500
663.863013	2500.412308
664.204097	2510.494615
664.545129	2475.206538
664.886110	2510.494615
665.227040	2550.823846
665.567918	2510.494615
665.908746	2424.795000
666.249522	2558.385577
666.590248	2560.906154
666.930922	2465.124231
667.271545	2535.700385
667.612118	2533.179808
667.952639	2467.644808
668.293109	2545.782692
668.633528	2507.974038
668.973896	2563.426731
669.314213	2495.371154
669.654480	2477.727115
669.994695	2472.685962
670.334859	2472.685962
670.674973	2515.535769
671.015035	2558.385577
671.355047	2507.974038
671.695008	2545.782692
672.034918	2591.153077
672.374777	2548.303269
672.714585	2548.303269
673.054342	2432.356731
673.394049	2472.685962
673.733705	2490.330000
674.073310	2538.220962
674.412864	2538.220962
674.752368	2576.029615
675.091820	2414.712692
675.431223	2505.453462
675.770574	2588.632500
676.109875	2523.097500
676.449125	2613.838269
676.788324	2518.056346
677.127473	2497.891731
677.466571	2477.727115
677.805619	2429.836154
678.144616	2636.523462
678.483562	2452.521346
678.822458	2553.344423
679.161303	2487.809423
679.500098	2480.247692
679.838842	2528.138654
680.177535	2555.865000
680.516179	2565.947308
680.854771	2371.862885
681.193314	2560.906154
681.531805	2523.097500
681.870247	2492.850577
682.208638	2513.015192
682.546978	2475.206538
682.885268	2525.618077
683.223508	2485.288846
683.561697	2450.000769
683.899836	2520.576923
684.237925	2538.220962
684.575963	2412.192115
684.913951	2513.015192
685.251889	2460.083077
685.589776	2495.371154
685.927614	2523.097500
686.265401	2455.041923
686.603137	2485.288846
686.940824	2495.371154
687.278460	2513.015192
687.616046	2485.288846
687.953582	2533.179808
688.291068	2472.685962
688.628504	2513.015192
688.965889	2450.000769
689.303224	2487.809423
689.640510	2515.535769
689.977745	2439.918462
690.314930	2550.823846
690.652065	2450.000769
690.989150	2462.603654
691.326185	2432.356731
691.663170	2535.700385
692.000105	2515.535769
692.336990	2465.124231
692.673825	2419.753846
693.010610	2379.424615
693.347345	2437.397885
693.684030	2442.439038
694.020665	2467.644808
694.357251	2450.000769
694.693786	2530.659231
695.030272	2497.891731
695.366707	2450.000769
695.703093	2487.809423
696.039429	2520.576923
696.375716	2515.535769
696.711952	2462.603654
697.048139	2500.412308
697.384276	2447.480192
697.720363	2530.659231
698.056400	2543.262115
698.392388	2495.371154
698.728326	2545.782692
699.064214	2482.768269
699.400053	2581.070769
699.735842	2560.906154
700.071581	2513.015192
700.407270	2513.015192
700.742910	2505.453462
701.078501	2525.618077
701.414042	2419.753846
701.749533	2429.836154
702.084974	2535.700385
702.420366	2427.315577
702.755709	2497.891731
703.091002	2540.741538
703.426246	2450.000769
703.761440	2523.097500
704.096584	2553.344423
704.431679	2487.809423
704.766725	2545.782692
705.101721	2505.453462
705.436668	2525.618077
705.771565	2505.453462
706.106413	2533.179808
706.441212	2447.480192
706.775961	2533.179808
707.110661	2523.097500
707.445311	2548.303269
707.779913	2434.877308
708.114465	2502.932885
708.448967	2419.753846
708.783421	2465.124231
709.117825	2502.932885
709.452180	2518.056346
709.786485	2439.918462
710.120742	2480.247692
710.454949	2492.850577
710.789107	2540.741538
711.123216	2553.344423
711.457275	2495.371154
711.791286	2520.576923
712.125247	2510.494615
712.459159	2520.576923
712.793023	2465.124231
713.126837	2528.138654
713.460602	2591.153077
713.794318	2555.865000
714.127985	2490.330000
714.461602	2497.891731
714.795171	2518.056346
715.128691	2530.659231
715.462162	2497.891731
715.795584	2480.247692
716.128957	2477.727115
716.462281	2518.056346
716.795556	2490.330000
717.128782	2492.850577
717.461960	2495.371154
717.795088	2452.521346
718.128167	2538.220962
718.461198	2515.535769
718.794180	2409.671538
719.127113	2507.974038
719.459997	2596.194231
719.792833	2442.439038
720.125619	2513.015192
720.458357	2470.165385
720.791046	2487.809423
721.123686	2447.480192
721.456278	2550.823846
721.788821	2409.671538
722.121315	2555.865000
722.453761	2487.809423
722.786158	2538.220962
723.118506	2510.494615
723.450805	2470.165385
723.783056	2497.891731
724.115259	2558.385577
724.447412	2452.521346
724.779518	2414.712692
725.111574	2505.453462
725.443582	2472.685962
725.775542	2487.809423
726.107453	2404.630385
726.439315	2477.727115
726.771129	2447.480192
727.102895	2485.288846
727.434612	2482.768269
727.766281	2553.344423
728.097901	2543.262115
728.429473	2472.685962
728.760996	2558.385577
729.092471	2470.165385
729.423897	2515.535769
729.755276	2490.330000
730.086606	2510.494615
730.417887	2523.097500
730.749120	2369.342308
731.080305	2507.974038
731.411442	2450.000769
731.742530	2525.618077
732.073570	2545.782692
732.404562	2465.124231
732.735506	2598.714808
733.066401	2515.535769
733.397249	2528.138654
733.728048	2452.521346
734.058798	2507.974038
734.389501	2538.220962
734.720156	2543.262115
735.050762	2533.179808
735.381320	2510.494615
735.711831	2528.138654
736.042293	2523.097500
736.372707	2475.206538
736.703073	2500.412308
737.033391	2429.836154
737.363661	2548.303269
737.693883	2530.659231
738.024056	2507.974038
738.354182	2520.576923
738.684260	2384.465769
739.014290	2442.439038
739.344272	2475.206538
739.674207	2492.850577
740.004093	2565.947308
740.333931	2528.138654
740.663722	2596.194231
740.993464	2422.274423
741.323159	2515.535769
741.652806	2507.974038
741.982405	2407.150962
742.311956	2583.591346
742.641460	2419.753846
742.970915	2492.850577
743.300323	2487.809423
743.629683	2613.838269
743.958996	2570.988462
744.288260	2495.371154
744.617477	2455.041923
744.946647	2548.303269
745.275768	2409.671538
745.604842	2560.906154
745.933869	2462.603654
746.262847	2472.685962
746.591778	2442.439038
746.920662	2490.330000
747.249498	2540.741538
747.578286	2505.453462
747.907027	2540.741538
748.235720	2570.988462
748.564365	2525.618077
748.892963	2444.959615
749.221514	2462.603654
749.550017	2480.247692
749.878473	2550.823846
750.206881	2452.521346
750.535242	2492.850577
750.863555	2384.465769
751.191821	2485.288846
751.520039	2434.877308
751.848210	2500.412308
752.176334	2540.741538
752.504411	2422.274423
752.832440	2472.685962
753.160421	2452.521346
753.488356	2545.782692
753.816243	2515.535769
754.144082	2465.124231
754.471875	2485.288846
754.799620	2399.589231
755.127318	2457.562500
755.454969	2578.550192
755.782572	2497.891731
756.110129	2432.356731
756.437638	2505.453462
756.765100	2462.603654
757.092515	2452.521346
757.419882	2518.056346
757.747203	2515.535769
758.074477	2583.591346
758.401703	2470.165385
758.728882	2520.576923
759.056014	2513.015192
759.383099	2513.015192
759.710138	2439.918462
760.037129	2586.111923
760.364073	2565.947308
760.690970	2429.836154
761.017820	2530.659231
761.344623	2550.823846
761.671379	2507.974038
761.998088	2472.685962
762.324751	2545.782692
762.651366	2475.206538
762.977935	2540.741538
763.304456	2472.685962
763.630931	2525.618077
763.957359	2502.932885
764.283740	2507.974038
764.610074	2465.124231
764.936362	2560.906154
765.262602	2518.056346
765.588796	2570.988462
765.914943	2543.262115
766.241044	2497.891731
766.567097	2565.947308
766.893104	2447.480192
767.219064	2500.412308
767.544978	2460.083077
767.870845	2528.138654
768.196665	2513.015192
768.522438	2523.097500
768.848165	2429.836154
769.173846	2525.618077
769.499479	2502.932885
769.825066	2565.947308
770.150607	2465.124231
770.476101	2439.918462
770.801548	2538.220962
771.126949	2495.371154
771.452303	2513.015192
771.777611	2457.562500
772.102872	2505.453462
772.428087	2477.727115
772.753256	2502.932885
773.078378	2495.371154
773.403453	2477.727115
773.728482	2553.344423
774.053465	2502.932885
774.378401	2510.494615
774.703291	2513.015192
775.028135	2507.974038
775.352932	2555.865000
775.677683	2475.206538
776.002388	2520.576923
776.327046	2500.412308
776.651658	2538.220962
776.976224	2523.097500
777.300743	2497.891731
777.625216	2525.618077
777.949643	2384.465769
778.274024	2497.891731
778.598359	2475.206538
778.922647	2588.632500
779.246889	2528.138654
779.571086	2492.850577
779.895236	2553.344423
780.219339	2477.727115
780.543397	2437.397885
780.867409	2507.974038
781.191374	2500.412308
781.515294	2560.906154
781.839167	2487.809423
782.162995	2502.932885
782.486776	2361.780577
782.810511	2520.576923
783.134201	2470.165385
783.457844	2452.521346
783.781441	2576.029615
784.104993	2394.548077
784.428498	2520.576923
784.751958	2505.453462
785.075372	2510.494615
785.398739	2447.480192
785.722061	2487.809423
786.045337	2535.700385
786.368568	2457.562500
786.691752	2490.330000
787.014891	2533.179808
787.337983	2497.891731
787.661030	2472.685962
787.984031	2502.932885
788.306987	2429.836154
788.629897	2500.412308
788.952760	2457.562500
789.275579	2455.041923
789.598351	2515.535769
789.921078	2460.083077
790.243759	2495.371154
790.566395	2538.220962
790.888984	2422.274423
791.211529	2533.179808
791.534027	2455.041923
791.856480	2558.385577
792.178888	2523.097500
792.501249	2480.247692
792.823566	2485.288846
793.145836	2482.768269
793.468062	2376.904038
793.790241	2510.494615
794.112375	2490.330000
794.434464	2427.315577
794.756507	2515.535769
795.078505	2588.632500
795.400457	2470.165385
795.722364	2455.041923
796.044226	2452.521346
796.366042	2502.932885
796.687812	2442.439038
797.009538	2550.823846
797.331218	2528.138654
797.652852	2444.959615
797.974442	2525.618077
798.295986	2450.000769
798.617484	2515.535769
798.938938	2482.768269
799.260346	2437.397885
799.581709	2492.850577
799.903026	2565.947308
800.224299	2447.480192
800.545526	2570.988462
800.866708	2533.179808
801.187845	2434.877308
801.508936	2467.644808
801.829983	2492.850577
802.150984	2510.494615
802.471940	2480.247692
802.792851	2487.809423
803.113717	2502.932885
803.434538	2535.700385
803.755314	2530.659231
804.076045	2525.618077
804.396731	2442.439038
804.717372	2550.823846
805.037967	2583.591346
805.358518	2490.330000
805.679024	2507.974038
805.999485	2591.153077
806.319901	2480.247692
806.640272	2520.576923
806.960598	2460.083077
807.280879	2528.138654
807.601115	2444.959615
807.921306	2520.576923
808.241453	2495.371154
808.561554	2530.659231
808.881611	2588.632500
809.201623	2513.015192
809.521590	2480.247692
809.841513	2513.015192
810.161390	2485.288846
810.481223	2462.603654
810.801011	2500.412308
811.120755	2500.412308
811.440453	2490.330000
811.760107	2507.974038
812.079716	2490.330000
812.399281	2444.959615
812.718801	2480.247692
813.038276	2465.124231
813.357707	2437.397885
813.677093	2490.330000
813.996434	2507.974038
814.315731	2550.823846
814.634983	2523.097500
814.954191	2507.974038
815.273354	2525.618077
815.592473	2533.179808
815.911547	2520.576923
816.230577	2500.412308
816.549562	2518.056346
816.868502	2513.015192
817.187399	2520.576923
817.506250	2505.453462
817.825058	2444.959615
818.143821	2553.344423
818.462539	2424.795000
818.781213	2470.165385
819.099843	2548.303269
819.418429	2553.344423
819.736970	2419.753846
820.055466	2593.673654
820.373919	2485.288846
820.692327	2487.809423
821.010691	2505.453462
821.329011	2490.330000
821.647286	2465.124231
821.965517	2518.056346
822.283704	2462.603654
822.601847	2467.644808
822.919945	2500.412308
823.237999	2422.274423
823.556010	2543.262115
823.873976	2455.041923
824.191897	2487.809423
824.509775	2525.618077
824.827609	2450.000769
825.145398	2455.041923
825.463144	2447.480192
825.780845	2634.002885
826.098502	2492.850577
826.416116	2460.083077
826.733685	2417.233269
827.051210	2513.015192
827.368692	2510.494615
827.686129	2540.741538
828.003522	2530.659231
828.320872	2502.932885
828.638177	2495.371154
828.955439	2475.206538
829.272656	2565.947308
829.589830	2545.782692
829.906960	2500.412308
830.224046	2457.562500
830.541088	2482.768269
830.858086	2492.850577
831.175041	2442.439038
831.491952	2419.753846
831.808819	2472.685962
832.125642	2525.618077
832.442421	2525.618077
832.759157	2505.453462
833.075849	2560.906154
833.392497	2510.494615
833.709101	2593.673654
834.025662	2477.727115
834.342179	2407.150962
834.658653	2550.823846
834.975083	2596.194231
835.291469	2485.288846
835.607811	2472.685962
835.924110	2462.603654
836.240366	2500.412308
836.556578	2376.904038
836.872746	2523.097500
837.188871	2535.700385
837.504952	2480.247692
837.820990	2495.371154
838.136984	2442.439038
838.452935	2535.700385
838.768842	2417.233269
839.084706	2480.247692
839.400526	2482.768269
839.716303	2439.918462
840.032037	2482.768269
840.347727	2553.344423
840.663373	2409.671538
840.978977	2530.659231
841.294537	2450.000769
841.610054	2485.288846
841.925527	2495.371154
842.240957	2515.535769
842.556344	2475.206538
842.871687	2450.000769
843.186987	2432.356731
843.502244	2482.768269
843.817458	2477.727115
844.132629	2482.768269
844.447756	2601.235385
844.762840	2510.494615
845.077881	2510.494615
845.392879	2452.521346
845.707833	2495.371154
846.022745	2495.371154
846.337613	2460.083077
846.652438	2439.918462
846.967221	2485.288846
847.281960	2568.467885
847.596656	2558.385577
847.911309	2475.206538
848.225919	2414.712692
848.540485	2442.439038
848.855009	2513.015192
849.169490	2492.850577
849.483928	2397.068654
849.798323	2502.932885
850.112675	2520.576923
850.426984	2460.083077
850.741251	2460.083077
851.055474	2427.315577
851.369654	2465.124231
851.683792	2460.083077
851.997887	2565.947308
852.311938	2505.453462
852.625947	2472.685962
852.939914	2412.192115
853.253837	2455.041923
853.567718	2502.932885
853.881555	2507.974038
854.195350	2470.165385
854.509103	2450.000769
854.822812	2487.809423
855.136479	2495.371154
855.450103	2412.192115
855.763685	2500.412308
856.077224	2470.165385
856.390720	2482.768269
856.704173	2497.891731
857.017584	2475.206538
857.330953	2460.083077
857.644278	2515.535769
857.957561	2621.400000
858.270802	2482.768269
858.584000	2548.303269
858.897155	2455.041923
859.210268	2518.056346
859.523339	2515.535769
859.836367	2429.836154
860.149352	2397.068654
860.462295	2497.891731
860.775195	2513.015192
861.088054	2462.603654
861.400869	2565.947308
861.713642	2538.220962
862.026373	2442.439038
862.339062	2515.535769
862.651708	2439.918462
862.964312	2462.603654
863.276873	2568.467885
863.589392	2450.000769
863.901869	2452.521346
864.214303	2475.206538
864.526696	2475.206538
864.839045	2513.015192
865.151353	2465.124231
865.463619	2485.288846
865.775842	2533.179808
866.088023	2513.015192
866.400162	2485.288846
866.712258	2442.439038
867.024313	2487.809423
867.336325	2475.206538
867.648296	2444.959615
867.960224	2472.685962
868.272110	2485.288846
868.583954	2573.509038
868.895755	2467.644808
869.207515	2497.891731
869.519233	2460.083077
869.830909	2538.220962
870.142542	2434.877308
870.454134	2437.397885
870.765684	2538.220962
871.077191	2414.712692
871.388657	2523.097500
871.700081	2407.150962
872.011463	2507.974038
872.322803	2447.480192
872.634101	2518.056346
872.945357	2450.000769
873.256571	2538.220962
873.567744	2457.562500
873.878874	2502.932885
874.189963	2507.974038
874.501010	2500.412308
874.812015	2472.685962
875.122979	2477.727115
875.433900	2450.000769
875.744780	2452.521346
876.055618	2444.959615
876.366415	2555.865000
876.677169	2497.891731
876.987882	2485.288846
877.298554	2450.000769
877.609183	2568.467885
877.919771	2487.809423
878.230317	2502.932885
878.540822	2417.233269
878.851285	2535.700385
879.161707	2482.768269
879.472087	2568.467885
879.782425	2460.083077
880.092722	2538.220962
880.402977	2518.056346
880.713191	2545.782692
881.023363	2376.904038
881.333494	2480.247692
881.643583	2497.891731
881.953631	2528.138654
882.263637	2507.974038
882.573602	2538.220962
882.883526	2424.795000
883.193408	2432.356731
883.503248	2492.850577
883.813048	2467.644808
884.122806	2472.685962
884.432522	2457.562500
884.742197	2525.618077
885.051831	2535.700385
885.361424	2497.891731
885.670975	2475.206538
885.980485	2528.138654
886.289954	2528.138654
886.599382	2513.015192
886.908768	2492.850577
887.218113	2487.809423
887.527417	2472.685962
887.836680	2507.974038
888.145901	2409.671538
888.455082	2555.865000
888.764221	2538.220962
889.073319	2520.576923
889.382376	2417.233269
889.691392	2485.288846
890.000366	2502.932885
890.309300	2502.932885
890.618193	2455.041923
890.927044	2528.138654
891.235855	2533.179808
891.544625	2444.959615
891.853353	2500.412308
892.162041	2507.974038
892.470687	2507.974038
892.779293	2444.959615
893.087858	2467.644808
893.396381	2439.918462
893.704864	2432.356731
894.013306	2487.809423
894.321707	2467.644808
894.630068	2462.603654
894.938387	2520.576923
895.246665	2480.247692
895.554903	2397.068654
895.863100	2447.480192
896.171256	2485.288846
896.479371	2495.371154
896.787446	2525.618077
897.095480	2533.179808
897.403473	2497.891731
897.711425	2553.344423
898.019336	2447.480192
898.327207	2487.809423
898.635038	2460.083077
898.942827	2523.097500
899.250576	2475.206538
899.558284	2523.097500
899.865952	2497.891731
900.173579	2601.235385
900.481165	2520.576923
900.788711	2417.233269
901.096216	2550.823846
901.403681	2477.727115
901.711105	2510.494615
902.018489	2540.741538
902.325832	2472.685962
902.633135	2490.330000
902.940397	2553.344423
903.247619	2505.453462
903.554800	2515.535769
903.861941	2480.247692
904.169041	2495.371154
904.476101	2470.165385
904.783121	2452.521346
905.090100	2437.397885
905.397039	2515.535769
905.703938	2452.521346
906.010796	2495.371154
906.317614	2495.371154
906.624391	2462.603654
906.931129	2422.274423
907.237826	2515.535769
907.544483	2497.891731
907.851099	2467.644808
908.157675	2510.494615
908.464211	2470.165385
908.770707	2487.809423
909.077163	2513.015192
909.383578	2507.974038
909.689954	2525.618077
909.996289	2540.741538
910.302584	2462.603654
910.608839	2576.029615
910.915054	2538.220962
911.221229	2472.685962
911.527363	2505.453462
911.833458	2404.630385
912.139513	2543.262115
912.445527	2528.138654
912.751502	2475.206538
913.057436	2548.303269
913.363331	2538.220962
913.669186	2540.741538
913.975000	2477.727115
914.280775	2452.521346
914.586510	2563.426731
914.892205	2452.521346
915.197859	2601.235385
915.503475	2487.809423
915.809050	2465.124231
916.114585	2419.753846
916.420081	2535.700385
916.725536	2555.865000
917.030952	2472.685962
917.336328	2497.891731
917.641665	2470.165385
917.946961	2528.138654
918.252218	2598.714808
918.557435	2434.877308
918.862612	2467.644808
919.167750	2455.041923
919.472848	2457.562500
919.777906	2492.850577
920.082925	2467.644808
920.387904	2442.439038
920.692843	2538.220962
920.997743	2513.015192
921.302603	2515.535769
921.607423	2422.274423
921.912204	2505.453462
922.216946	2462.603654
922.521647	2601.235385
922.826310	2467.644808
923.130932	2565.947308
923.435516	2457.562500
923.740059	2545.782692
924.044564	2485.288846
924.349028	2563.426731
924.653454	2472.685962
924.957840	2427.315577
925.262186	2452.521346
925.566493	2518.056346
925.870761	2565.947308
926.174989	2475.206538
926.479178	2412.192115
926.783328	2495.371154
927.087438	2513.015192
927.391509	2583.591346
927.695541	2482.768269
927.999533	2530.659231
928.303486	2462.603654
928.607400	2520.576923
928.911275	2490.330000
929.215110	2515.535769
929.518906	2404.630385
929.822663	2470.165385
930.126381	2409.671538
930.430060	2354.218846
930.733699	2487.809423
931.037299	2472.685962
931.340861	2510.494615
931.644383	2515.535769
931.947866	2528.138654
932.251309	2422.274423
932.554714	2475.206538
932.858080	2490.330000
933.161407	2513.015192
933.464694	2407.150962
933.767943	2490.330000
934.071153	2457.562500
934.374323	2490.330000
934.677455	2455.041923
934.980548	2457.562500
935.283602	2545.782692
935.586617	2568.467885
935.889593	2510.494615
936.192530	2482.768269
936.495428	2507.974038
936.798287	2502.932885
937.101108	2538.220962
937.403890	2480.247692
937.706632	2475.206538
938.009336	2543.262115
938.312002	2586.111923
938.614628	2513.015192
938.917216	2495.371154
939.219765	2518.056346
939.522275	2550.823846
939.824747	2568.467885
940.127179	2535.700385
940.429573	2578.550192
940.731929	2502.932885
941.034246	2460.083077
941.336524	2442.439038
941.638763	2487.809423
941.940964	2502.932885
942.243126	2525.618077
942.545250	2419.753846
942.847335	2550.823846
943.149381	2548.303269
943.451389	2414.712692
943.753359	2553.344423
944.055290	2439.918462
944.357182	2530.659231
944.659036	2432.356731
944.960851	2472.685962
945.262628	2540.741538
945.564367	2409.671538
945.866067	2465.124231
946.167729	2465.124231
946.469352	2444.959615
946.770937	2455.041923
947.072484	2490.330000
947.373992	2402.109808
947.675462	2432.356731
947.976893	2523.097500
948.278286	2472.685962
948.579641	2535.700385
948.880958	2470.165385
949.182236	2460.083077
949.483476	2465.124231
949.784678	2485.288846
950.085841	2462.603654
950.386967	2515.535769
950.688054	2470.165385
950.989103	2523.097500
951.290114	2568.467885
951.591087	2455.041923
951.892021	2497.891731
952.192917	2505.453462
952.493776	2480.247692
952.794596	2573.509038
953.095378	2462.603654
953.396122	2538.220962
953.696828	2452.521346
953.997496	2500.412308
954.298126	2460.083077
954.598718	2374.383462
954.899272	2477.727115
955.199788	2520.576923
955.500266	2545.782692
955.800706	2596.194231
956.101108	2467.644808
956.401472	2432.356731
956.701798	2515.535769
957.002087	2538.220962
957.302337	2462.603654
957.602550	2528.138654
957.902724	2545.782692
958.202861	2513.015192
958.502960	2462.603654
958.803022	2525.618077
959.103045	2553.344423
959.403031	2442.439038
959.702979	2490.330000
960.002889	2460.083077
960.302762	2538.220962
960.602596	2465.124231
960.902393	2530.659231
961.202153	2439.918462
961.501875	2460.083077
961.801559	2528.138654
962.101205	2507.974038
962.400814	2505.453462
962.700385	2480.247692
962.999918	2530.659231
963.299414	2457.562500
963.598873	2487.809423
963.898293	2518.056346
964.197677	2495.371154
964.497022	2465.124231
964.796331	2467.644808
965.095601	2462.603654
965.394835	2558.385577
965.694030	2397.068654
965.993189	2467.644808
966.292309	2543.262115
966.591393	2465.124231
966.890439	2543.262115
967.189447	2402.109808
967.488419	2497.891731
967.787353	2490.330000
968.086249	2392.027500
968.385108	2581.070769
968.683930	2490.330000
968.982714	2553.344423
969.281462	2631.482308
969.580172	2419.753846
969.878844	2576.029615
970.177480	2480.247692
970.476078	2450.000769
970.774639	2495.371154
971.073162	2444.959615
971.371649	2548.303269
971.670098	2450.000769
971.968510	2515.535769
972.266885	2467.644808
972.565223	2452.521346
972.863524	2563.426731
973.161788	2444.959615
973.460014	2492.850577
973.758204	2487.809423
974.056356	2404.630385
974.354471	2434.877308
974.652550	2568.467885
974.950591	2369.342308
975.248595	2507.974038
975.546563	2457.562500
975.844493	2457.562500
976.142386	2528.138654
976.440243	2439.918462
976.738062	2497.891731
977.035845	2507.974038
977.333590	2407.150962
977.631299	2523.097500
977.928971	2500.412308
978.226606	2523.097500
978.524204	2507.974038
978.821765	2507.974038
979.119290	2414.712692
979.416777	2460.083077
979.714228	2535.700385
980.011642	2497.891731
980.309020	2422.274423
980.606360	2457.562500
980.903664	2470.165385
981.200931	2528.138654
981.498162	2513.015192
981.795356	2535.700385
982.092513	2447.480192
982.389633	2470.165385
982.686717	2497.891731
982.983764	2520.576923
983.280775	2538.220962
983.577749	2487.809423
983.874686	2460.083077
984.171587	2623.920577
984.468451	2460.083077
984.765279	2502.932885
985.062070	2452.521346
985.358824	2470.165385
985.655543	2450.000769
985.952224	2530.659231
986.248869	2465.124231
986.545478	2495.371154
986.842050	2414.712692
987.138586	2485.288846
987.435086	2520.576923
987.731549	2533.179808
988.027975	2381.945192
988.324366	2543.262115
988.620719	2497.891731
988.917037	2495.371154
989.213318	2505.453462
989.509563	2500.412308
989.805772	2510.494615
990.101944	2548.303269
990.398080	2477.727115
990.694180	2432.356731
990.990244	2520.576923
991.286271	2434.877308
991.582262	2497.891731
991.878217	2467.644808
992.174136	2596.194231
992.470019	2495.371154
992.765865	2482.768269
993.061676	2533.179808
993.357450	2442.439038
993.653188	2487.809423
993.948890	2472.685962
994.244556	2429.836154
994.540186	2470.165385
994.835780	2475.206538
995.131337	2603.755962
995.426859	2389.506923
995.722345	2581.070769
996.017795	2530.659231
996.313208	2543.262115
996.608586	2495.371154
996.903928	2480.247692
997.199234	2555.865000
997.494504	2500.412308
997.789738	2455.041923
998.084936	2422.274423
998.380099	2490.330000
998.675225	2477.727115
998.970316	2525.618077
999.265371	2492.850577
999.560390	2419.753846
999.855373	2510.494615
1000.150320	2412.192115
1000.445232	2538.220962
1000.740108	2535.700385
1001.034948	2520.576923
1001.329752	2520.576923
1001.624521	2465.124231
1001.919254	2477.727115
1002.213951	2432.356731
1002.508613	2455.041923
1002.803239	2465.124231
1003.097829	2513.015192
1003.392384	2457.562500
1003.686903	2510.494615
1003.981386	2482.768269
1004.275834	2523.097500
1004.570246	2591.153077
1004.864623	2467.644808
1005.158964	2596.194231
1005.453270	2510.494615
1005.747540	2565.947308
1006.041775	2429.836154
1006.335974	2482.768269
1006.630138	2538.220962
1006.924266	2439.918462
1007.218359	2533.179808
1007.512416	2475.206538
1007.806438	2480.247692
1008.100425	2538.220962
1008.394376	2611.317692
1008.688292	2465.124231
1008.982172	2487.809423
1009.276017	2565.947308
1009.569827	2447.480192
1009.863602	2525.618077
1010.157341	2492.850577
1010.451045	2376.904038
1010.744714	2513.015192
1011.038347	2447.480192
1011.331945	2462.603654
1011.625508	2409.671538
1011.919036	2507.974038
1012.212528	2444.959615
1012.505986	2462.603654
1012.799408	2455.041923
1013.092795	2565.947308
1013.386147	2507.974038
1013.679464	2467.644808
1013.972745	2565.947308
1014.265992	2477.727115
1014.559204	2513.015192
1014.852380	2553.344423
1015.145521	2513.015192
1015.438628	2477.727115
1015.731699	2472.685962
1016.024736	2444.959615
1016.317737	2545.782692
1016.610703	2429.836154
1016.903635	2477.727115
1017.196531	2490.330000
1017.489393	2523.097500
1017.782219	2472.685962
1018.075011	2505.453462
1018.367768	2507.974038
1018.660490	2500.412308
1018.953177	2500.412308
1019.245829	2500.412308
