Dividing Wavelength (nm)	Counts (n)	Blue Motor Position (mm): 0.000000	Red Motor Position (mm): 1.100000	
326.493990	2036.626154
326.888308	2036.626154
327.282561	2036.626154
327.676750	2137.449231
328.070874	2094.599423
328.464933	2061.831923
328.858929	2142.490385
329.252859	2066.873077
329.646726	2006.379231
330.040528	2054.270192
330.434265	2089.558269
330.827938	2185.340192
331.221547	2092.078846
331.615091	2182.819615
332.008571	2170.216731
332.401986	2233.231154
332.795338	2250.875192
333.188625	2230.710577
333.581847	2265.998654
333.975006	2283.642692
334.368100	2276.080962
334.761129	2369.342308
335.154095	2258.436923
335.546996	2306.327885
335.939833	2452.521346
336.332606	2417.233269
336.725315	2429.836154
337.117960	2339.095385
337.510540	2381.945192
337.903056	2409.671538
338.295508	2462.603654
338.687896	2364.301154
339.080220	2434.877308
339.472480	2500.412308
339.864676	2475.206538
340.256807	2439.918462
340.648875	2523.097500
341.040879	2528.138654
341.432818	2460.083077
341.824694	2477.727115
342.216506	2485.288846
342.608253	2500.412308
342.999937	2422.274423
343.391557	2490.330000
343.783113	2422.274423
344.174605	2507.974038
344.566033	2515.535769
344.957397	2480.247692
345.348697	2470.165385
345.739934	2505.453462
346.131106	2452.521346
346.522215	2518.056346
346.913260	2525.618077
347.304241	2429.836154
347.695159	2523.097500
348.086012	2444.959615
348.476802	2528.138654
348.867528	2442.439038
349.258191	2495.371154
349.648789	2444.959615
350.039324	2447.480192
350.429796	2412.192115
350.820203	2444.959615
351.210548	2437.397885
351.600828	2381.945192
351.991045	2442.439038
352.381198	2404.630385
352.771288	2492.850577
353.161314	2432.356731
353.551276	2475.206538
353.941175	2439.918462
354.331010	2477.727115
354.720782	2465.124231
355.110490	2369.342308
355.500135	2407.150962
355.889717	2364.301154
356.279235	2422.274423
356.668689	2427.315577
357.058080	2470.165385
357.447408	2518.056346
357.836672	2437.397885
358.225873	2434.877308
358.615010	2402.109808
359.004084	2429.836154
359.393095	2477.727115
359.782043	2477.727115
360.170927	2457.562500
360.559748	2439.918462
360.948505	2465.124231
361.337199	2427.315577
361.725830	2386.986346
362.114398	2487.809423
362.502903	2475.206538
362.891344	2472.685962
363.279722	2397.068654
363.668037	2397.068654
364.056289	2457.562500
364.444478	2518.056346
364.832603	2475.206538
365.220665	2487.809423
365.608665	2412.192115
365.996601	2472.685962
366.384474	2467.644808
366.772284	2381.945192
367.160031	2502.932885
367.547715	2359.260000
367.935336	2505.453462
368.322893	2412.192115
368.710388	2470.165385
369.097820	2429.836154
369.485189	2384.465769
369.872495	2487.809423
370.259738	2470.165385
370.646918	2485.288846
371.034035	2455.041923
371.421090	2462.603654
371.808081	2397.068654
372.195010	2455.041923
372.581875	2452.521346
372.968678	2457.562500
373.355418	2364.301154
373.742096	2366.821731
374.128710	2402.109808
374.515262	2490.330000
374.901751	2386.986346
375.288177	2497.891731
375.674540	2437.397885
376.060841	2460.083077
376.447079	2409.671538
376.833254	2457.562500
377.219367	2467.644808
377.605417	2452.521346
377.991404	2429.836154
378.377329	2490.330000
378.763191	2447.480192
379.148991	2528.138654
379.534727	2535.700385
379.920402	2455.041923
380.306013	2505.453462
380.691563	2487.809423
381.077049	2457.562500
381.462474	2518.056346
381.847835	2417.233269
382.233134	2432.356731
382.618371	2523.097500
383.003545	2462.603654
383.388657	2427.315577
383.773706	2472.685962
384.158693	2450.000769
384.543618	2429.836154
384.928480	2470.165385
385.313280	2507.974038
385.698017	2439.918462
386.082692	2495.371154
386.467305	2419.753846
386.851856	2470.165385
387.236344	2432.356731
387.620770	2500.412308
388.005133	2472.685962
388.389435	2505.453462
388.773674	2434.877308
389.157851	2485.288846
389.541965	2424.795000
389.926018	2465.124231
390.310008	2457.562500
390.693936	2442.439038
391.077802	2502.932885
391.461606	2502.932885
391.845348	2442.439038
392.229027	2386.986346
392.612645	2515.535769
392.996200	2450.000769
393.379694	2495.371154
393.763125	2490.330000
394.146494	2427.315577
394.529801	2502.932885
394.913047	2470.165385
395.296230	2447.480192
395.679351	2439.918462
396.062410	2467.644808
396.445408	2364.301154
396.828343	2429.836154
397.211217	2432.356731
397.594028	2520.576923
397.976778	2497.891731
398.359466	2467.644808
398.742092	2455.041923
399.124656	2530.659231
399.507158	2419.753846
399.889598	2462.603654
400.271977	2497.891731
400.654294	2482.768269
401.036549	2419.753846
401.418742	2364.301154
401.800874	2465.124231
402.182944	2543.262115
402.564952	2419.753846
402.946898	2470.165385
403.328783	2487.809423
403.710606	2568.467885
404.092367	2495.371154
404.474067	2500.412308
404.855705	2495.371154
405.237282	2487.809423
405.618797	2462.603654
406.000250	2402.109808
406.381642	2419.753846
406.762972	2533.179808
407.144240	2452.521346
407.525447	2470.165385
407.906593	2460.083077
408.287677	2480.247692
408.668700	2399.589231
409.049661	2505.453462
409.430560	2535.700385
409.811399	2495.371154
410.192176	2450.000769
410.572891	2525.618077
410.953545	2462.603654
411.334138	2442.439038
411.714669	2472.685962
412.095139	2510.494615
412.475547	2412.192115
412.855894	2540.741538
413.236180	2535.700385
413.616405	2515.535769
413.996568	2495.371154
414.376670	2470.165385
414.756711	2429.836154
415.136691	2447.480192
415.516609	2528.138654
415.896466	2568.467885
416.276262	2505.453462
416.655997	2455.041923
417.035670	2497.891731
417.415283	2402.109808
417.794834	2492.850577
418.174324	2422.274423
418.553753	2432.356731
418.933121	2457.562500
419.312428	2540.741538
419.691674	2404.630385
420.070859	2510.494615
420.449983	2495.371154
420.829045	2447.480192
421.208047	2535.700385
421.586988	2472.685962
421.965867	2460.083077
422.344686	2472.685962
422.723444	2472.685962
423.102141	2482.768269
423.480777	2485.288846
423.859352	2359.260000
424.237866	2480.247692
424.616319	2444.959615
424.994712	2535.700385
425.373044	2457.562500
425.751314	2530.659231
426.129524	2450.000769
426.507673	2392.027500
426.885762	2548.303269
427.263789	2462.603654
427.641756	2495.371154
428.019662	2439.918462
428.397508	2419.753846
428.775292	2533.179808
429.153016	2475.206538
429.530679	2472.685962
429.908282	2490.330000
430.285824	2570.988462
430.663305	2560.906154
431.040726	2467.644808
431.418086	2434.877308
431.795385	2500.412308
432.172624	2424.795000
432.549802	2475.206538
432.926920	2457.562500
433.303977	2452.521346
433.680974	2490.330000
434.057910	2513.015192
434.434786	2452.521346
434.811601	2462.603654
435.188355	2500.412308
435.565050	2465.124231
435.941683	2450.000769
436.318257	2500.412308
436.694770	2475.206538
437.071222	2510.494615
437.447614	2543.262115
437.823946	2485.288846
438.200218	2505.453462
438.576429	2472.685962
438.952580	2475.206538
439.328670	2409.671538
439.704700	2462.603654
440.080670	2417.233269
440.456580	2465.124231
440.832429	2397.068654
441.208218	2460.083077
441.583947	2460.083077
441.959616	2502.932885
442.335224	2432.356731
442.710773	2588.632500
443.086261	2444.959615
443.461689	2465.124231
443.837057	2520.576923
444.212365	2475.206538
444.587612	2528.138654
444.962800	2497.891731
445.337927	2477.727115
445.712995	2495.371154
446.088002	2588.632500
446.462949	2432.356731
446.837837	2507.974038
447.212664	2548.303269
447.587431	2482.768269
447.962139	2427.315577
448.336786	2535.700385
448.711374	2533.179808
449.085901	2523.097500
449.460369	2429.836154
449.834776	2462.603654
450.209124	2412.192115
450.583412	2515.535769
450.957640	2490.330000
451.331808	2540.741538
451.705917	2429.836154
452.079965	2500.412308
452.453954	2497.891731
452.827883	2475.206538
453.201752	2490.330000
453.575562	2465.124231
453.949311	2555.865000
454.323001	2518.056346
454.696632	2502.932885
455.070202	2485.288846
455.443713	2397.068654
455.817164	2477.727115
456.190556	2558.385577
456.563888	2505.453462
456.937160	2437.397885
457.310373	2381.945192
457.683526	2482.768269
458.056619	2457.562500
458.429653	2487.809423
458.802628	2492.850577
459.175542	2495.371154
459.548398	2495.371154
459.921194	2482.768269
460.293930	2507.974038
460.666607	2470.165385
461.039224	2523.097500
461.411782	2477.727115
461.784280	2505.453462
462.156719	2497.891731
462.529099	2560.906154
462.901419	2490.330000
463.273680	2548.303269
463.645882	2467.644808
464.018024	2402.109808
464.390106	2485.288846
464.762130	2485.288846
465.134094	2497.891731
465.505999	2472.685962
465.877845	2480.247692
466.249631	2447.480192
466.621358	2452.521346
466.993026	2507.974038
467.364634	2515.535769
467.736184	2444.959615
468.107674	2467.644808
468.479105	2404.630385
468.850477	2553.344423
469.221790	2477.727115
469.593043	2518.056346
469.964238	2502.932885
470.335373	2492.850577
470.706449	2429.836154
471.077467	2563.426731
471.448425	2467.644808
471.819324	2540.741538
472.190164	2495.371154
472.560945	2505.453462
472.931667	2475.206538
473.302330	2432.356731
473.672934	2530.659231
474.043479	2482.768269
474.413965	2507.974038
474.784393	2487.809423
475.154761	2500.412308
475.525070	2525.618077
475.895321	2500.412308
476.265513	2518.056346
476.635645	2447.480192
477.005719	2510.494615
477.375734	2437.397885
477.745691	2465.124231
478.115588	2457.562500
478.485427	2482.768269
478.855207	2470.165385
479.224928	2477.727115
479.594591	2523.097500
479.964194	2487.809423
480.333739	2500.412308
480.703226	2475.206538
481.072653	2402.109808
481.442022	2581.070769
481.811333	2502.932885
482.180584	2560.906154
482.549777	2462.603654
482.918912	2510.494615
483.287988	2525.618077
483.657005	2465.124231
484.025964	2490.330000
484.394864	2450.000769
484.763706	2545.782692
485.132489	2518.056346
485.501213	2558.385577
485.869879	2475.206538
486.238487	2480.247692
486.607036	2422.274423
486.975527	2553.344423
487.343959	2528.138654
487.712333	2548.303269
488.080648	2510.494615
488.448905	2389.506923
488.817104	2490.330000
489.185244	2492.850577
489.553326	2417.233269
489.921350	2490.330000
490.289315	2505.453462
490.657222	2535.700385
491.025070	2525.618077
491.392861	2462.603654
491.760593	2480.247692
492.128267	2528.138654
492.495883	2482.768269
492.863440	2507.974038
493.230939	2460.083077
493.598380	2560.906154
493.965763	2497.891731
494.333088	2460.083077
494.700354	2432.356731
495.067563	2510.494615
495.434713	2490.330000
495.801805	2543.262115
496.168839	2495.371154
496.535815	2470.165385
496.902733	2510.494615
497.269593	2455.041923
497.636395	2480.247692
498.003139	2477.727115
498.369825	2530.659231
498.736453	2424.795000
499.103023	2482.768269
499.469535	2490.330000
499.835989	2482.768269
500.202385	2434.877308
500.568723	2518.056346
500.935003	2439.918462
501.301226	2510.494615
501.667390	2465.124231
502.033497	2477.727115
502.399546	2477.727115
502.765537	2495.371154
503.131470	2560.906154
503.497345	2487.809423
503.863163	2538.220962
504.228923	2533.179808
504.594625	2457.562500
504.960269	2525.618077
505.325856	2477.727115
505.691385	2518.056346
506.056856	2510.494615
506.422270	2472.685962
506.787625	2563.426731
507.152924	2492.850577
507.518164	2507.974038
507.883347	2530.659231
508.248472	2450.000769
508.613540	2450.000769
508.978550	2475.206538
509.343503	2492.850577
509.708398	2495.371154
510.073236	2450.000769
510.438016	2530.659231
510.802738	2477.727115
511.167403	2460.083077
511.532010	2477.727115
511.896561	2505.453462
512.261053	2475.206538
512.625488	2538.220962
512.989866	2535.700385
513.354186	2452.521346
513.718449	2427.315577
514.082655	2472.685962
514.446803	2442.439038
514.810894	2492.850577
515.174927	2555.865000
515.538904	2533.179808
515.902822	2495.371154
516.266684	2576.029615
516.630488	2550.823846
516.994235	2543.262115
517.357925	2515.535769
517.721558	2482.768269
518.085133	2472.685962
518.448651	2515.535769
518.812112	2515.535769
519.175516	2548.303269
519.538863	2540.741538
519.902152	2424.795000
520.265385	2563.426731
520.628560	2497.891731
520.991678	2407.150962
521.354739	2520.576923
521.717743	2518.056346
522.080690	2510.494615
522.443580	2457.562500
522.806413	2482.768269
523.169189	2530.659231
523.531908	2437.397885
523.894569	2500.412308
524.257174	2578.550192
524.619722	2535.700385
524.982213	2439.918462
525.344647	2487.809423
525.707025	2505.453462
526.069345	2507.974038
526.431608	2497.891731
526.793815	2540.741538
527.155964	2472.685962
527.518057	2533.179808
527.880093	2477.727115
528.242072	2472.685962
528.603995	2570.988462
528.965860	2505.453462
529.327669	2555.865000
529.689421	2497.891731
530.051117	2560.906154
530.412755	2560.906154
530.774337	2351.698269
531.135862	2518.056346
531.497331	2457.562500
531.858743	2495.371154
532.220098	2540.741538
532.581396	2475.206538
532.942638	2528.138654
533.303824	2497.891731
533.664953	2487.809423
534.026025	2510.494615
534.387040	2417.233269
534.747999	2432.356731
535.108902	2472.685962
535.469748	2523.097500
535.830537	2480.247692
536.191270	2518.056346
536.551947	2444.959615
536.912567	2505.453462
537.273131	2520.576923
537.633638	2510.494615
537.994089	2553.344423
538.354483	2472.685962
538.714821	2513.015192
539.075103	2510.494615
539.435328	2490.330000
539.795497	2500.412308
540.155609	2500.412308
540.515665	2485.288846
540.875665	2475.206538
541.235609	2530.659231
541.595496	2475.206538
541.955328	2540.741538
542.315102	2447.480192
542.674821	2482.768269
543.034483	2424.795000
543.394090	2502.932885
543.753640	2434.877308
544.113134	2442.439038
544.472571	2429.836154
544.831953	2523.097500
545.191278	2520.576923
545.550548	2583.591346
545.909761	2550.823846
546.268918	2545.782692
546.628019	2505.453462
546.987064	2475.206538
547.346053	2455.041923
547.704986	2495.371154
548.063863	2507.974038
548.422684	2502.932885
548.781449	2492.850577
549.140158	2487.809423
549.498811	2487.809423
549.857408	2533.179808
550.215949	2419.753846
550.574434	2439.918462
550.932864	2543.262115
551.291237	2452.521346
551.649555	2439.918462
552.007817	2429.836154
552.366022	2505.453462
552.724173	2520.576923
553.082267	2475.206538
553.440305	2525.618077
553.798288	2505.453462
554.156215	2533.179808
554.514086	2480.247692
554.871902	2422.274423
555.229661	2528.138654
555.587365	2497.891731
555.945014	2515.535769
556.302606	2641.564615
556.660143	2500.412308
557.017625	2497.891731
557.375050	2432.356731
557.732421	2518.056346
558.089735	2460.083077
558.446994	2530.659231
558.804197	2386.986346
559.161345	2555.865000
559.518437	2467.644808
559.875474	2485.288846
560.232455	2460.083077
560.589381	2558.385577
560.946251	2513.015192
561.303065	2528.138654
561.659825	2482.768269
562.016528	2510.494615
562.373177	2432.356731
562.729770	2429.836154
563.086307	2492.850577
563.442789	2480.247692
563.799216	2480.247692
564.155587	2520.576923
564.511904	2530.659231
564.868164	2485.288846
565.224370	2495.371154
565.580520	2560.906154
565.936615	2470.165385
566.292654	2515.535769
566.648638	2457.562500
567.004567	2543.262115
567.360441	2490.330000
567.716260	2545.782692
568.072023	2593.673654
568.427732	2487.809423
568.783385	2530.659231
569.138982	2510.494615
569.494525	2533.179808
569.850013	2465.124231
570.205445	2482.768269
570.560823	2424.795000
570.916145	2525.618077
571.271412	2475.206538
571.626625	2518.056346
571.981782	2545.782692
572.336884	2437.397885
572.691931	2523.097500
573.046923	2533.179808
573.401860	2457.562500
573.756743	2472.685962
574.111570	2467.644808
574.466342	2500.412308
574.821059	2455.041923
575.175722	2513.015192
575.530330	2404.630385
575.884882	2507.974038
576.239380	2480.247692
576.593823	2533.179808
576.948211	2555.865000
577.302544	2513.015192
577.656823	2502.932885
578.011047	2495.371154
578.365216	2460.083077
578.719330	2507.974038
579.073389	2470.165385
579.427394	2545.782692
579.781344	2528.138654
580.135239	2495.371154
580.489080	2492.850577
580.842866	2450.000769
581.196597	2558.385577
581.550273	2437.397885
581.903895	2553.344423
582.257463	2470.165385
582.610975	2500.412308
582.964434	2513.015192
583.317837	2492.850577
583.671186	2455.041923
584.024481	2535.700385
584.377721	2540.741538
584.730906	2515.535769
585.084037	2495.371154
585.437113	2507.974038
585.790135	2518.056346
586.143103	2404.630385
586.496016	2412.192115
586.848874	2513.015192
587.201679	2513.015192
587.554428	2548.303269
587.907124	2462.603654
588.259765	2530.659231
588.612352	2530.659231
588.964884	2515.535769
589.317362	2513.015192
589.669786	2525.618077
590.022155	2550.823846
590.374470	2500.412308
590.726731	2578.550192
591.078937	2505.453462
591.431090	2523.097500
591.783188	2581.070769
592.135232	2495.371154
592.487222	2487.809423
592.839157	2578.550192
593.191038	2560.906154
593.542866	2485.288846
593.894639	2497.891731
594.246358	2523.097500
594.598022	2482.768269
594.949633	2611.317692
595.301190	2502.932885
595.652692	2477.727115
596.004141	2434.877308
596.355535	2540.741538
596.706876	2490.330000
597.058162	2505.453462
597.409395	2361.780577
597.760573	2523.097500
598.111698	2515.535769
598.462768	2434.877308
598.813785	2492.850577
599.164748	2576.029615
599.515657	2480.247692
599.866511	2558.385577
600.217312	2462.603654
600.568060	2500.412308
600.918753	2502.932885
601.269392	2576.029615
601.619978	2518.056346
601.970510	2455.041923
602.320988	2490.330000
602.671412	2530.659231
603.021783	2457.562500
603.372100	2543.262115
603.722363	2442.439038
604.072572	2525.618077
604.422728	2540.741538
604.772830	2588.632500
605.122878	2515.535769
605.472872	2515.535769
605.822813	2568.467885
606.172701	2570.988462
606.522534	2518.056346
606.872314	2528.138654
607.222041	2482.768269
607.571714	2442.439038
607.921333	2470.165385
608.270899	2568.467885
608.620411	2442.439038
608.969870	2510.494615
609.319276	2540.741538
609.668627	2500.412308
610.017926	2422.274423
610.367171	2510.494615
610.716362	2475.206538
611.065500	2525.618077
611.414585	2485.288846
611.763616	2596.194231
612.112594	2495.371154
612.461518	2523.097500
612.810389	2457.562500
613.159207	2452.521346
613.507971	2467.644808
613.856682	2573.509038
614.205340	2555.865000
614.553945	2548.303269
614.902496	2465.124231
615.250994	2573.509038
615.599439	2480.247692
615.947830	2523.097500
616.296169	2487.809423
616.644454	2507.974038
616.992686	2450.000769
617.340864	2495.371154
617.688990	2465.124231
618.037063	2507.974038
618.385082	2452.521346
618.733048	2500.412308
619.080961	2523.097500
619.428821	2487.809423
619.776628	2548.303269
620.124382	2480.247692
620.472083	2475.206538
620.819731	2490.330000
621.167326	2482.768269
621.514868	2513.015192
621.862357	2510.494615
622.209793	2487.809423
622.557176	2470.165385
622.904506	2450.000769
623.251783	2480.247692
623.599007	2409.671538
623.946179	2462.603654
624.293297	2581.070769
624.640363	2455.041923
624.987376	2545.782692
625.334336	2555.865000
625.681243	2520.576923
626.028097	2560.906154
626.374899	2553.344423
626.721647	2513.015192
627.068343	2502.932885
627.414987	2450.000769
627.761577	2515.535769
628.108115	2505.453462
628.454600	2490.330000
628.801032	2495.371154
629.147412	2500.412308
629.493739	2487.809423
629.840014	2644.085192
630.186236	2465.124231
630.532405	2558.385577
630.878521	2520.576923
631.224585	2497.891731
631.570597	2555.865000
631.916556	2437.397885
632.262462	2492.850577
632.608316	2480.247692
632.954117	2513.015192
633.299866	2472.685962
633.645562	2492.850577
633.991206	2500.412308
634.336797	2495.371154
634.682336	2576.029615
635.027823	2505.453462
635.373257	2500.412308
635.718639	2540.741538
636.063968	2437.397885
636.409245	2518.056346
636.754470	2482.768269
637.099642	2450.000769
637.444762	2550.823846
637.789829	2533.179808
638.134845	2487.809423
638.479808	2555.865000
638.824719	2545.782692
639.169577	2434.877308
639.514383	2490.330000
639.859137	2533.179808
640.203839	2492.850577
640.548489	2513.015192
640.893086	2518.056346
641.237632	2434.877308
641.582125	2475.206538
641.926566	2520.576923
642.270955	2520.576923
642.615292	2452.521346
642.959576	2533.179808
643.303809	2543.262115
643.647990	2404.630385
643.992118	2470.165385
644.336195	2505.453462
644.680219	2611.317692
645.024192	2480.247692
645.368112	2518.056346
645.711981	2480.247692
646.055797	2563.426731
646.399562	2510.494615
646.743274	2535.700385
647.086935	2523.097500
647.430544	2490.330000
647.774101	2510.494615
648.117606	2465.124231
648.461059	2482.768269
648.804460	2399.589231
649.147810	2470.165385
649.491108	2520.576923
649.834354	2472.685962
650.177548	2520.576923
650.520690	2555.865000
650.863781	2565.947308
651.206820	2450.000769
651.549807	2455.041923
651.892742	2409.671538
652.235626	2563.426731
652.578458	2538.220962
652.921238	2545.782692
653.263967	2598.714808
653.606644	2505.453462
653.949269	2581.070769
654.291843	2513.015192
654.634365	2518.056346
654.976836	2588.632500
655.319255	2553.344423
655.661622	2450.000769
656.003938	2485.288846
656.346203	2497.891731
656.688416	2533.179808
657.030577	2515.535769
657.372687	2465.124231
657.714746	2487.809423
658.056753	2502.932885
658.398708	2520.576923
658.740612	2588.632500
659.082465	2457.562500
659.424266	2432.356731
659.766016	2535.700385
660.107715	2535.700385
660.449362	2482.768269
660.790958	2513.015192
661.132503	2535.700385
661.473996	2553.344423
661.815438	2472.685962
662.156829	2444.959615
662.498168	2450.000769
662.839456	2477.727115
663.180693	2540.741538
663.521879	2505.453462
663.863013	2543.262115
664.204097	2495.371154
664.545129	2528.138654
664.886110	2475.206538
665.227040	2392.027500
665.567918	2520.576923
665.908746	2533.179808
666.249522	2417.233269
666.590248	2543.262115
666.930922	2515.535769
667.271545	2545.782692
667.612118	2485.288846
667.952639	2538.220962
668.293109	2570.988462
668.633528	2518.056346
668.973896	2497.891731
669.314213	2528.138654
669.654480	2507.974038
669.994695	2495.371154
670.334859	2513.015192
670.674973	2462.603654
671.015035	2563.426731
671.355047	2482.768269
671.695008	2472.685962
672.034918	2475.206538
672.374777	2510.494615
672.714585	2601.235385
673.054342	2409.671538
673.394049	2500.412308
673.733705	2603.755962
674.073310	2485.288846
674.412864	2470.165385
674.752368	2565.947308
675.091820	2520.576923
675.431223	2515.535769
675.770574	2482.768269
676.109875	2576.029615
676.449125	2487.809423
676.788324	2490.330000
677.127473	2528.138654
677.466571	2535.700385
677.805619	2523.097500
678.144616	2523.097500
678.483562	2540.741538
678.822458	2417.233269
679.161303	2518.056346
679.500098	2540.741538
679.838842	2455.041923
680.177535	2475.206538
680.516179	2533.179808
680.854771	2507.974038
681.193314	2495.371154
681.531805	2513.015192
681.870247	2467.644808
682.208638	2530.659231
682.546978	2523.097500
682.885268	2543.262115
683.223508	2439.918462
683.561697	2472.685962
683.899836	2576.029615
684.237925	2535.700385
684.575963	2485.288846
684.913951	2485.288846
685.251889	2505.453462
685.589776	2482.768269
685.927614	2513.015192
686.265401	2482.768269
686.603137	2553.344423
686.940824	2447.480192
687.278460	2535.700385
687.616046	2444.959615
687.953582	2515.535769
688.291068	2515.535769
688.628504	2528.138654
688.965889	2528.138654
689.303224	2487.809423
689.640510	2543.262115
689.977745	2497.891731
690.314930	2553.344423
690.652065	2497.891731
690.989150	2477.727115
691.326185	2439.918462
691.663170	2533.179808
692.000105	2429.836154
692.336990	2457.562500
692.673825	2538.220962
693.010610	2450.000769
693.347345	2490.330000
693.684030	2379.424615
694.020665	2507.974038
694.357251	2563.426731
694.693786	2450.000769
695.030272	2500.412308
695.366707	2525.618077
695.703093	2548.303269
696.039429	2505.453462
696.375716	2505.453462
696.711952	2535.700385
697.048139	2513.015192
697.384276	2497.891731
697.720363	2412.192115
698.056400	2432.356731
698.392388	2538.220962
698.728326	2455.041923
699.064214	2472.685962
699.400053	2480.247692
699.735842	2429.836154
700.071581	2543.262115
700.407270	2558.385577
700.742910	2450.000769
701.078501	2520.576923
701.414042	2500.412308
701.749533	2515.535769
702.084974	2437.397885
702.420366	2550.823846
702.755709	2439.918462
703.091002	2470.165385
703.426246	2523.097500
703.761440	2457.562500
704.096584	2465.124231
704.431679	2450.000769
704.766725	2505.453462
705.101721	2439.918462
705.436668	2447.480192
705.771565	2518.056346
706.106413	2470.165385
706.441212	2437.397885
706.775961	2520.576923
707.110661	2563.426731
707.445311	2457.562500
707.779913	2510.494615
708.114465	2538.220962
708.448967	2525.618077
708.783421	2520.576923
709.117825	2452.521346
709.452180	2460.083077
709.786485	2507.974038
710.120742	2543.262115
710.454949	2490.330000
710.789107	2505.453462
711.123216	2450.000769
711.457275	2513.015192
711.791286	2525.618077
712.125247	2444.959615
712.459159	2523.097500
712.793023	2570.988462
713.126837	2505.453462
713.460602	2497.891731
713.794318	2477.727115
714.127985	2500.412308
714.461602	2586.111923
714.795171	2417.233269
715.128691	2477.727115
715.462162	2462.603654
715.795584	2485.288846
716.128957	2608.797115
716.462281	2452.521346
716.795556	2482.768269
717.128782	2510.494615
717.461960	2507.974038
717.795088	2477.727115
718.128167	2515.535769
718.461198	2485.288846
718.794180	2525.618077
719.127113	2477.727115
719.459997	2452.521346
719.792833	2548.303269
720.125619	2553.344423
720.458357	2407.150962
720.791046	2543.262115
721.123686	2450.000769
721.456278	2432.356731
721.788821	2455.041923
722.121315	2477.727115
722.453761	2450.000769
722.786158	2530.659231
723.118506	2576.029615
723.450805	2497.891731
723.783056	2507.974038
724.115259	2510.494615
724.447412	2470.165385
724.779518	2543.262115
725.111574	2472.685962
725.443582	2472.685962
725.775542	2404.630385
726.107453	2505.453462
726.439315	2455.041923
726.771129	2570.988462
727.102895	2565.947308
727.434612	2533.179808
727.766281	2482.768269
728.097901	2381.945192
728.429473	2465.124231
728.760996	2492.850577
729.092471	2540.741538
729.423897	2530.659231
729.755276	2424.795000
730.086606	2502.932885
730.417887	2384.465769
730.749120	2540.741538
731.080305	2419.753846
731.411442	2422.274423
731.742530	2500.412308
732.073570	2482.768269
732.404562	2485.288846
732.735506	2545.782692
733.066401	2510.494615
733.397249	2540.741538
733.728048	2581.070769
734.058798	2593.673654
734.389501	2467.644808
734.720156	2560.906154
735.050762	2404.630385
735.381320	2490.330000
735.711831	2419.753846
736.042293	2538.220962
736.372707	2485.288846
736.703073	2492.850577
737.033391	2550.823846
737.363661	2455.041923
737.693883	2543.262115
738.024056	2442.439038
738.354182	2555.865000
738.684260	2510.494615
739.014290	2518.056346
739.344272	2535.700385
739.674207	2601.235385
740.004093	2472.685962
740.333931	2434.877308
740.663722	2533.179808
740.993464	2492.850577
741.323159	2515.535769
741.652806	2480.247692
741.982405	2507.974038
742.311956	2540.741538
742.641460	2540.741538
742.970915	2447.480192
743.300323	2465.124231
743.629683	2513.015192
743.958996	2515.535769
744.288260	2560.906154
744.617477	2497.891731
744.946647	2467.644808
745.275768	2525.618077
745.604842	2497.891731
745.933869	2485.288846
746.262847	2492.850577
746.591778	2518.056346
746.920662	2457.562500
747.249498	2462.603654
747.578286	2558.385577
747.907027	2465.124231
748.235720	2487.809423
748.564365	2538.220962
748.892963	2485.288846
749.221514	2513.015192
749.550017	2593.673654
749.878473	2487.809423
750.206881	2467.644808
750.535242	2513.015192
750.863555	2525.618077
751.191821	2505.453462
751.520039	2472.685962
751.848210	2513.015192
752.176334	2505.453462
752.504411	2502.932885
752.832440	2467.644808
753.160421	2434.877308
753.488356	2490.330000
753.816243	2538.220962
754.144082	2545.782692
754.471875	2538.220962
754.799620	2407.150962
755.127318	2485.288846
755.454969	2432.356731
755.782572	2588.632500
756.110129	2538.220962
756.437638	2492.850577
756.765100	2563.426731
757.092515	2525.618077
757.419882	2482.768269
757.747203	2558.385577
758.074477	2495.371154
758.401703	2495.371154
758.728882	2578.550192
759.056014	2661.729231
759.383099	2639.044038
759.710138	2457.562500
760.037129	2563.426731
760.364073	2518.056346
760.690970	2495.371154
761.017820	2487.809423
761.344623	2457.562500
761.671379	2510.494615
761.998088	2538.220962
762.324751	2487.809423
762.651366	2452.521346
762.977935	2447.480192
763.304456	2555.865000
763.630931	2497.891731
763.957359	2462.603654
764.283740	2495.371154
764.610074	2507.974038
764.936362	2513.015192
765.262602	2518.056346
765.588796	2550.823846
765.914943	2497.891731
766.241044	2472.685962
766.567097	2485.288846
766.893104	2477.727115
767.219064	2505.453462
767.544978	2427.315577
767.870845	2535.700385
768.196665	2482.768269
768.522438	2507.974038
768.848165	2452.521346
769.173846	2477.727115
769.499479	2548.303269
769.825066	2535.700385
770.150607	2457.562500
770.476101	2434.877308
770.801548	2482.768269
771.126949	2603.755962
771.452303	2497.891731
771.777611	2538.220962
772.102872	2528.138654
772.428087	2384.465769
772.753256	2480.247692
773.078378	2351.698269
773.403453	2502.932885
773.728482	2492.850577
774.053465	2507.974038
774.378401	2480.247692
774.703291	2485.288846
775.028135	2444.959615
775.352932	2550.823846
775.677683	2467.644808
776.002388	2540.741538
776.327046	2533.179808
776.651658	2538.220962
776.976224	2470.165385
777.300743	2487.809423
777.625216	2475.206538
777.949643	2470.165385
778.274024	2502.932885
778.598359	2515.535769
778.922647	2513.015192
779.246889	2523.097500
779.571086	2525.618077
779.895236	2490.330000
780.219339	2472.685962
780.543397	2490.330000
780.867409	2455.041923
781.191374	2523.097500
781.515294	2525.618077
781.839167	2490.330000
782.162995	2535.700385
782.486776	2477.727115
782.810511	2384.465769
783.134201	2543.262115
783.457844	2525.618077
783.781441	2507.974038
784.104993	2568.467885
784.428498	2472.685962
784.751958	2525.618077
785.075372	2588.632500
785.398739	2422.274423
785.722061	2528.138654
786.045337	2515.535769
786.368568	2588.632500
786.691752	2417.233269
787.014891	2525.618077
787.337983	2528.138654
787.661030	2502.932885
787.984031	2462.603654
788.306987	2477.727115
788.629897	2502.932885
788.952760	2553.344423
789.275579	2540.741538
789.598351	2495.371154
789.921078	2462.603654
790.243759	2510.494615
790.566395	2495.371154
790.888984	2495.371154
791.211529	2482.768269
791.534027	2470.165385
791.856480	2485.288846
792.178888	2538.220962
792.501249	2477.727115
792.823566	2545.782692
793.145836	2586.111923
793.468062	2492.850577
793.790241	2477.727115
794.112375	2507.974038
794.434464	2437.397885
794.756507	2543.262115
795.078505	2470.165385
795.400457	2487.809423
795.722364	2417.233269
796.044226	2518.056346
796.366042	2520.576923
796.687812	2550.823846
797.009538	2487.809423
797.331218	2558.385577
797.652852	2487.809423
797.974442	2530.659231
798.295986	2555.865000
798.617484	2543.262115
798.938938	2518.056346
799.260346	2513.015192
799.581709	2530.659231
799.903026	2437.397885
800.224299	2535.700385
800.545526	2452.521346
800.866708	2505.453462
801.187845	2465.124231
801.508936	2553.344423
801.829983	2472.685962
802.150984	2460.083077
802.471940	2518.056346
802.792851	2513.015192
803.113717	2460.083077
803.434538	2490.330000
803.755314	2540.741538
804.076045	2538.220962
804.396731	2540.741538
804.717372	2480.247692
805.037967	2429.836154
805.358518	2455.041923
805.679024	2513.015192
805.999485	2500.412308
806.319901	2429.836154
806.640272	2455.041923
806.960598	2528.138654
807.280879	2510.494615
807.601115	2455.041923
807.921306	2465.124231
808.241453	2487.809423
808.561554	2407.150962
808.881611	2480.247692
809.201623	2462.603654
809.521590	2533.179808
809.841513	2578.550192
810.161390	2397.068654
810.481223	2490.330000
810.801011	2455.041923
811.120755	2470.165385
811.440453	2487.809423
811.760107	2457.562500
812.079716	2510.494615
812.399281	2452.521346
812.718801	2535.700385
813.038276	2497.891731
813.357707	2452.521346
813.677093	2490.330000
813.996434	2429.836154
814.315731	2528.138654
814.634983	2548.303269
814.954191	2485.288846
815.273354	2520.576923
815.592473	2475.206538
815.911547	2412.192115
816.230577	2482.768269
816.549562	2502.932885
816.868502	2480.247692
817.187399	2502.932885
817.506250	2455.041923
817.825058	2404.630385
818.143821	2439.918462
818.462539	2399.589231
818.781213	2455.041923
819.099843	2487.809423
819.418429	2422.274423
819.736970	2485.288846
820.055466	2450.000769
820.373919	2538.220962
820.692327	2462.603654
821.010691	2470.165385
821.329011	2533.179808
821.647286	2591.153077
821.965517	2462.603654
822.283704	2490.330000
822.601847	2565.947308
822.919945	2510.494615
823.237999	2505.453462
823.556010	2470.165385
823.873976	2565.947308
824.191897	2427.315577
824.509775	2490.330000
824.827609	2462.603654
825.145398	2414.712692
825.463144	2502.932885
825.780845	2548.303269
826.098502	2409.671538
826.416116	2444.959615
826.733685	2447.480192
827.051210	2480.247692
827.368692	2543.262115
827.686129	2520.576923
828.003522	2437.397885
828.320872	2482.768269
828.638177	2424.795000
828.955439	2444.959615
829.272656	2515.535769
829.589830	2432.356731
829.906960	2505.453462
830.224046	2462.603654
830.541088	2472.685962
830.858086	2492.850577
831.175041	2505.453462
831.491952	2548.303269
831.808819	2520.576923
832.125642	2475.206538
832.442421	2374.383462
832.759157	2482.768269
833.075849	2452.521346
833.392497	2470.165385
833.709101	2558.385577
834.025662	2467.644808
834.342179	2520.576923
834.658653	2490.330000
834.975083	2510.494615
835.291469	2477.727115
835.607811	2593.673654
835.924110	2475.206538
836.240366	2611.317692
836.556578	2490.330000
836.872746	2437.397885
837.188871	2530.659231
837.504952	2437.397885
837.820990	2520.576923
838.136984	2530.659231
838.452935	2523.097500
838.768842	2455.041923
839.084706	2507.974038
839.400526	2444.959615
839.716303	2414.712692
840.032037	2540.741538
840.347727	2523.097500
840.663373	2513.015192
840.978977	2492.850577
841.294537	2477.727115
841.610054	2530.659231
841.925527	2439.918462
842.240957	2450.000769
842.556344	2525.618077
842.871687	2422.274423
843.186987	2490.330000
843.502244	2495.371154
843.817458	2495.371154
844.132629	2477.727115
844.447756	2520.576923
844.762840	2550.823846
845.077881	2427.315577
845.392879	2523.097500
845.707833	2513.015192
846.022745	2450.000769
846.337613	2460.083077
846.652438	2487.809423
846.967221	2520.576923
847.281960	2510.494615
847.596656	2460.083077
847.911309	2475.206538
848.225919	2523.097500
848.540485	2565.947308
848.855009	2515.535769
849.169490	2550.823846
849.483928	2462.603654
849.798323	2515.535769
850.112675	2548.303269
850.426984	2528.138654
850.741251	2470.165385
851.055474	2500.412308
851.369654	2492.850577
851.683792	2553.344423
851.997887	2467.644808
852.311938	2475.206538
852.625947	2465.124231
852.939914	2550.823846
853.253837	2525.618077
853.567718	2452.521346
853.881555	2417.233269
854.195350	2528.138654
854.509103	2480.247692
854.822812	2452.521346
855.136479	2444.959615
855.450103	2553.344423
855.763685	2568.467885
856.077224	2535.700385
856.390720	2520.576923
856.704173	2598.714808
857.017584	2379.424615
857.330953	2482.768269
857.644278	2452.521346
857.957561	2450.000769
858.270802	2523.097500
858.584000	2485.288846
858.897155	2550.823846
859.210268	2439.918462
859.523339	2470.165385
859.836367	2399.589231
860.149352	2528.138654
860.462295	2540.741538
860.775195	2560.906154
861.088054	2525.618077
861.400869	2545.782692
861.713642	2492.850577
862.026373	2455.041923
862.339062	2465.124231
862.651708	2533.179808
862.964312	2437.397885
863.276873	2495.371154
863.589392	2518.056346
863.901869	2452.521346
864.214303	2565.947308
864.526696	2502.932885
864.839045	2497.891731
865.151353	2477.727115
865.463619	2530.659231
865.775842	2518.056346
866.088023	2485.288846
866.400162	2492.850577
866.712258	2427.315577
867.024313	2520.576923
867.336325	2558.385577
867.648296	2477.727115
867.960224	2515.535769
868.272110	2563.426731
868.583954	2434.877308
868.895755	2528.138654
869.207515	2457.562500
869.519233	2477.727115
869.830909	2455.041923
870.142542	2568.467885
870.454134	2523.097500
870.765684	2432.356731
871.077191	2497.891731
871.388657	2593.673654
871.700081	2573.509038
872.011463	2515.535769
872.322803	2485.288846
872.634101	2467.644808
872.945357	2576.029615
873.256571	2515.535769
873.567744	2649.126346
873.878874	2462.603654
874.189963	2543.262115
874.501010	2528.138654
874.812015	2462.603654
875.122979	2603.755962
875.433900	2525.618077
875.744780	2555.865000
876.055618	2523.097500
876.366415	2505.453462
876.677169	2485.288846
876.987882	2457.562500
877.298554	2442.439038
877.609183	2409.671538
877.919771	2417.233269
878.230317	2477.727115
878.540822	2477.727115
878.851285	2414.712692
879.161707	2520.576923
879.472087	2462.603654
879.782425	2477.727115
880.092722	2467.644808
880.402977	2578.550192
880.713191	2490.330000
881.023363	2439.918462
881.333494	2477.727115
881.643583	2528.138654
881.953631	2558.385577
882.263637	2404.630385
882.573602	2530.659231
882.883526	2457.562500
883.193408	2477.727115
883.503248	2538.220962
883.813048	2412.192115
884.122806	2510.494615
884.432522	2482.768269
884.742197	2578.550192
885.051831	2513.015192
885.361424	2419.753846
885.670975	2525.618077
885.980485	2470.165385
886.289954	2462.603654
886.599382	2495.371154
886.908768	2560.906154
887.218113	2502.932885
887.527417	2470.165385
887.836680	2490.330000
888.145901	2467.644808
888.455082	2550.823846
888.764221	2450.000769
889.073319	2535.700385
889.382376	2490.330000
889.691392	2407.150962
890.000366	2455.041923
890.309300	2389.506923
890.618193	2533.179808
890.927044	2470.165385
891.235855	2513.015192
891.544625	2523.097500
891.853353	2465.124231
892.162041	2434.877308
892.470687	2485.288846
892.779293	2465.124231
893.087858	2525.618077
893.396381	2487.809423
893.704864	2518.056346
894.013306	2487.809423
894.321707	2482.768269
894.630068	2507.974038
894.938387	2422.274423
895.246665	2477.727115
895.554903	2558.385577
895.863100	2535.700385
896.171256	2497.891731
896.479371	2560.906154
896.787446	2457.562500
897.095480	2407.150962
897.403473	2462.603654
897.711425	2442.439038
898.019336	2434.877308
898.327207	2447.480192
898.635038	2523.097500
898.942827	2540.741538
899.250576	2480.247692
899.558284	2487.809423
899.865952	2427.315577
900.173579	2475.206538
900.481165	2465.124231
900.788711	2424.795000
901.096216	2573.509038
901.403681	2376.904038
901.711105	2492.850577
902.018489	2452.521346
902.325832	2487.809423
902.633135	2500.412308
902.940397	2397.068654
903.247619	2379.424615
903.554800	2455.041923
903.861941	2487.809423
904.169041	2455.041923
904.476101	2523.097500
904.783121	2465.124231
905.090100	2543.262115
905.397039	2497.891731
905.703938	2472.685962
906.010796	2470.165385
906.317614	2603.755962
906.624391	2520.576923
906.931129	2523.097500
907.237826	2475.206538
907.544483	2495.371154
907.851099	2510.494615
908.157675	2495.371154
908.464211	2450.000769
908.770707	2507.974038
909.077163	2578.550192
909.383578	2444.959615
909.689954	2482.768269
909.996289	2490.330000
910.302584	2462.603654
910.608839	2487.809423
910.915054	2553.344423
911.221229	2530.659231
911.527363	2374.383462
911.833458	2470.165385
912.139513	2452.521346
912.445527	2560.906154
912.751502	2485.288846
913.057436	2442.439038
913.363331	2485.288846
913.669186	2424.795000
913.975000	2369.342308
914.280775	2482.768269
914.586510	2485.288846
914.892205	2467.644808
915.197859	2482.768269
915.503475	2450.000769
915.809050	2505.453462
916.114585	2412.192115
916.420081	2482.768269
916.725536	2429.836154
917.030952	2520.576923
917.336328	2553.344423
917.641665	2455.041923
917.946961	2485.288846
918.252218	2485.288846
918.557435	2444.959615
918.862612	2465.124231
919.167750	2492.850577
919.472848	2533.179808
919.777906	2507.974038
920.082925	2472.685962
920.387904	2538.220962
920.692843	2465.124231
920.997743	2460.083077
921.302603	2497.891731
921.607423	2540.741538
921.912204	2518.056346
922.216946	2452.521346
922.521647	2444.959615
922.826310	2528.138654
923.130932	2555.865000
923.435516	2563.426731
923.740059	2414.712692
924.044564	2518.056346
924.349028	2452.521346
924.653454	2492.850577
924.957840	2450.000769
925.262186	2477.727115
925.566493	2457.562500
925.870761	2510.494615
926.174989	2349.177692
926.479178	2455.041923
926.783328	2477.727115
927.087438	2442.439038
927.391509	2515.535769
927.695541	2465.124231
927.999533	2407.150962
928.303486	2422.274423
928.607400	2480.247692
928.911275	2462.603654
929.215110	2573.509038
929.518906	2407.150962
929.822663	2550.823846
930.126381	2439.918462
930.430060	2475.206538
930.733699	2545.782692
931.037299	2518.056346
931.340861	2500.412308
931.644383	2500.412308
931.947866	2462.603654
932.251309	2361.780577
932.554714	2427.315577
932.858080	2490.330000
933.161407	2555.865000
933.464694	2450.000769
933.767943	2465.124231
934.071153	2467.644808
934.374323	2596.194231
934.677455	2452.521346
934.980548	2500.412308
935.283602	2513.015192
935.586617	2482.768269
935.889593	2477.727115
936.192530	2540.741538
936.495428	2475.206538
936.798287	2565.947308
937.101108	2515.535769
937.403890	2553.344423
937.706632	2470.165385
938.009336	2523.097500
938.312002	2472.685962
938.614628	2543.262115
938.917216	2545.782692
939.219765	2450.000769
939.522275	2505.453462
939.824747	2439.918462
940.127179	2530.659231
940.429573	2482.768269
940.731929	2374.383462
941.034246	2523.097500
941.336524	2490.330000
941.638763	2581.070769
941.940964	2560.906154
942.243126	2558.385577
942.545250	2429.836154
942.847335	2505.453462
943.149381	2419.753846
943.451389	2384.465769
943.753359	2533.179808
944.055290	2500.412308
944.357182	2523.097500
944.659036	2520.576923
944.960851	2467.644808
945.262628	2495.371154
945.564367	2379.424615
945.866067	2434.877308
946.167729	2439.918462
946.469352	2412.192115
946.770937	2467.644808
947.072484	2419.753846
947.373992	2472.685962
947.675462	2455.041923
947.976893	2525.618077
948.278286	2482.768269
948.579641	2515.535769
948.880958	2419.753846
949.182236	2568.467885
949.483476	2472.685962
949.784678	2520.576923
950.085841	2523.097500
950.386967	2460.083077
950.688054	2538.220962
950.989103	2480.247692
951.290114	2475.206538
951.591087	2510.494615
951.892021	2530.659231
952.192917	2457.562500
952.493776	2485.288846
952.794596	2573.509038
953.095378	2535.700385
953.396122	2505.453462
953.696828	2497.891731
953.997496	2467.644808
954.298126	2465.124231
954.598718	2462.603654
954.899272	2518.056346
955.199788	2528.138654
955.500266	2442.439038
955.800706	2533.179808
956.101108	2480.247692
956.401472	2588.632500
956.701798	2442.439038
957.002087	2535.700385
957.302337	2460.083077
957.602550	2535.700385
957.902724	2442.439038
958.202861	2570.988462
958.502960	2487.809423
958.803022	2475.206538
959.103045	2472.685962
959.403031	2515.535769
959.702979	2545.782692
960.002889	2437.397885
960.302762	2482.768269
960.602596	2465.124231
960.902393	2467.644808
961.202153	2502.932885
961.501875	2457.562500
961.801559	2455.041923
962.101205	2487.809423
962.400814	2432.356731
962.700385	2460.083077
962.999918	2422.274423
963.299414	2437.397885
963.598873	2533.179808
963.898293	2460.083077
964.197677	2601.235385
964.497022	2510.494615
964.796331	2477.727115
965.095601	2545.782692
965.394835	2480.247692
965.694030	2505.453462
965.993189	2455.041923
966.292309	2427.315577
966.591393	2502.932885
966.890439	2399.589231
967.189447	2608.797115
967.488419	2437.397885
967.787353	2467.644808
968.086249	2465.124231
968.385108	2485.288846
968.683930	2462.603654
968.982714	2533.179808
969.281462	2492.850577
969.580172	2392.027500
969.878844	2583.591346
970.177480	2394.548077
970.476078	2434.877308
970.774639	2510.494615
971.073162	2465.124231
971.371649	2490.330000
971.670098	2543.262115
971.968510	2437.397885
972.266885	2515.535769
972.565223	2457.562500
972.863524	2530.659231
973.161788	2510.494615
973.460014	2513.015192
973.758204	2477.727115
974.056356	2502.932885
974.354471	2530.659231
974.652550	2505.453462
974.950591	2475.206538
975.248595	2492.850577
975.546563	2470.165385
975.844493	2450.000769
976.142386	2457.562500
976.440243	2447.480192
976.738062	2439.918462
977.035845	2520.576923
977.333590	2535.700385
977.631299	2477.727115
977.928971	2442.439038
978.226606	2424.795000
978.524204	2444.959615
978.821765	2513.015192
979.119290	2452.521346
979.416777	2480.247692
979.714228	2452.521346
980.011642	2482.768269
980.309020	2470.165385
980.606360	2434.877308
980.903664	2424.795000
981.200931	2475.206538
981.498162	2560.906154
981.795356	2535.700385
982.092513	2563.426731
982.389633	2533.179808
982.686717	2533.179808
982.983764	2540.741538
983.280775	2477.727115
983.577749	2520.576923
983.874686	2545.782692
984.171587	2460.083077
984.468451	2505.453462
984.765279	2578.550192
985.062070	2414.712692
985.358824	2467.644808
985.655543	2480.247692
985.952224	2513.015192
986.248869	2497.891731
986.545478	2507.974038
986.842050	2487.809423
987.138586	2460.083077
987.435086	2439.918462
987.731549	2583.591346
988.027975	2472.685962
988.324366	2487.809423
988.620719	2419.753846
988.917037	2485.288846
989.213318	2460.083077
989.509563	2424.795000
989.805772	2523.097500
990.101944	2444.959615
990.398080	2472.685962
990.694180	2480.247692
990.990244	2502.932885
991.286271	2505.453462
991.582262	2492.850577
991.878217	2424.795000
992.174136	2500.412308
992.470019	2560.906154
992.765865	2568.467885
993.061676	2470.165385
993.357450	2452.521346
993.653188	2470.165385
993.948890	2439.918462
994.244556	2482.768269
994.540186	2505.453462
994.835780	2480.247692
995.131337	2495.371154
995.426859	2520.576923
995.722345	2429.836154
996.017795	2462.603654
996.313208	2450.000769
996.608586	2442.439038
996.903928	2540.741538
997.199234	2505.453462
997.494504	2530.659231
997.789738	2500.412308
998.084936	2465.124231
998.380099	2419.753846
998.675225	2452.521346
998.970316	2455.041923
999.265371	2505.453462
999.560390	2497.891731
999.855373	2485.288846
1000.150320	2560.906154
1000.445232	2548.303269
1000.740108	2497.891731
1001.034948	2543.262115
1001.329752	2497.891731
1001.624521	2450.000769
1001.919254	2482.768269
1002.213951	2457.562500
1002.508613	2480.247692
1002.803239	2497.891731
1003.097829	2545.782692
1003.392384	2455.041923
1003.686903	2513.015192
1003.981386	2485.288846
1004.275834	2507.974038
1004.570246	2538.220962
1004.864623	2518.056346
1005.158964	2434.877308
1005.453270	2487.809423
1005.747540	2422.274423
1006.041775	2513.015192
1006.335974	2558.385577
1006.630138	2472.685962
1006.924266	2467.644808
1007.218359	2475.206538
1007.512416	2535.700385
1007.806438	2447.480192
1008.100425	2510.494615
1008.394376	2518.056346
1008.688292	2417.233269
1008.982172	2507.974038
1009.276017	2402.109808
1009.569827	2505.453462
1009.863602	2452.521346
1010.157341	2472.685962
1010.451045	2507.974038
1010.744714	2455.041923
1011.038347	2502.932885
1011.331945	2455.041923
1011.625508	2444.959615
1011.919036	2457.562500
1012.212528	2513.015192
1012.505986	2591.153077
1012.799408	2477.727115
1013.092795	2497.891731
1013.386147	2452.521346
1013.679464	2444.959615
1013.972745	2369.342308
1014.265992	2518.056346
1014.559204	2442.439038
1014.852380	2505.453462
1015.145521	2487.809423
1015.438628	2470.165385
1015.731699	2583.591346
1016.024736	2545.782692
1016.317737	2573.509038
1016.610703	2447.480192
1016.903635	2535.700385
1017.196531	2369.342308
1017.489393	2487.809423
1017.782219	2414.712692
1018.075011	2477.727115
1018.367768	2492.850577
1018.660490	2439.918462
1018.953177	2439.918462
1019.245829	2439.918462
