Dividing Wavelength (nm)	Counts (n)	Blue Motor Position (mm): 0.000000	Red Motor Position (mm): 1.800000	
326.493990	2097.120000
326.888308	2097.120000
327.282561	2097.120000
327.676750	2046.708462
328.070874	2066.873077
328.464933	2041.667308
328.858929	2094.599423
329.252859	2041.667308
329.646726	2056.790769
330.040528	2137.449231
330.434265	2069.393654
330.827938	2134.928654
331.221547	2119.805192
331.615091	2112.243462
332.008571	2238.272308
332.401986	2223.148846
332.795338	2265.998654
333.188625	2323.971923
333.581847	2291.204423
333.975006	2303.807308
334.368100	2265.998654
334.761129	2336.574808
335.154095	2316.410192
335.546996	2339.095385
335.939833	2376.904038
336.332606	2427.315577
336.725315	2412.192115
337.117960	2492.850577
337.510540	2399.589231
337.903056	2432.356731
338.295508	2452.521346
338.687896	2399.589231
339.080220	2470.165385
339.472480	2510.494615
339.864676	2444.959615
340.256807	2439.918462
340.648875	2470.165385
341.040879	2490.330000
341.432818	2515.535769
341.824694	2543.262115
342.216506	2429.836154
342.608253	2525.618077
342.999937	2515.535769
343.391557	2533.179808
343.783113	2465.124231
344.174605	2520.576923
344.566033	2376.904038
344.957397	2427.315577
345.348697	2455.041923
345.739934	2593.673654
346.131106	2490.330000
346.522215	2497.891731
346.913260	2477.727115
347.304241	2487.809423
347.695159	2424.795000
348.086012	2465.124231
348.476802	2482.768269
348.867528	2366.821731
349.258191	2427.315577
349.648789	2523.097500
350.039324	2432.356731
350.429796	2394.548077
350.820203	2497.891731
351.210548	2447.480192
351.600828	2419.753846
351.991045	2485.288846
352.381198	2386.986346
352.771288	2502.932885
353.161314	2432.356731
353.551276	2455.041923
353.941175	2402.109808
354.331010	2482.768269
354.720782	2450.000769
355.110490	2384.465769
355.500135	2392.027500
355.889717	2450.000769
356.279235	2414.712692
356.668689	2444.959615
357.058080	2422.274423
357.447408	2384.465769
357.836672	2434.877308
358.225873	2487.809423
358.615010	2392.027500
359.004084	2374.383462
359.393095	2523.097500
359.782043	2472.685962
360.170927	2492.850577
360.559748	2505.453462
360.948505	2437.397885
361.337199	2455.041923
361.725830	2490.330000
362.114398	2374.383462
362.502903	2356.739423
362.891344	2457.562500
363.279722	2513.015192
363.668037	2429.836154
364.056289	2497.891731
364.444478	2507.974038
364.832603	2427.315577
365.220665	2510.494615
365.608665	2424.795000
365.996601	2507.974038
366.384474	2417.233269
366.772284	2442.439038
367.160031	2429.836154
367.547715	2427.315577
367.935336	2432.356731
368.322893	2467.644808
368.710388	2409.671538
369.097820	2429.836154
369.485189	2462.603654
369.872495	2510.494615
370.259738	2452.521346
370.646918	2555.865000
371.034035	2444.959615
371.421090	2520.576923
371.808081	2389.506923
372.195010	2419.753846
372.581875	2366.821731
372.968678	2432.356731
373.355418	2439.918462
373.742096	2550.823846
374.128710	2475.206538
374.515262	2477.727115
374.901751	2470.165385
375.288177	2550.823846
375.674540	2520.576923
376.060841	2487.809423
376.447079	2578.550192
376.833254	2500.412308
377.219367	2419.753846
377.605417	2465.124231
377.991404	2371.862885
378.377329	2437.397885
378.763191	2465.124231
379.148991	2439.918462
379.534727	2472.685962
379.920402	2606.276538
380.306013	2492.850577
380.691563	2462.603654
381.077049	2470.165385
381.462474	2414.712692
381.847835	2538.220962
382.233134	2470.165385
382.618371	2409.671538
383.003545	2480.247692
383.388657	2477.727115
383.773706	2412.192115
384.158693	2530.659231
384.543618	2510.494615
384.928480	2389.506923
385.313280	2578.550192
385.698017	2409.671538
386.082692	2424.795000
386.467305	2535.700385
386.851856	2500.412308
387.236344	2518.056346
387.620770	2434.877308
388.005133	2513.015192
388.389435	2397.068654
388.773674	2495.371154
389.157851	2497.891731
389.541965	2472.685962
389.926018	2389.506923
390.310008	2442.439038
390.693936	2407.150962
391.077802	2492.850577
391.461606	2409.671538
391.845348	2500.412308
392.229027	2465.124231
392.612645	2407.150962
392.996200	2510.494615
393.379694	2475.206538
393.763125	2470.165385
394.146494	2467.644808
394.529801	2442.439038
394.913047	2495.371154
395.296230	2397.068654
395.679351	2384.465769
396.062410	2467.644808
396.445408	2455.041923
396.828343	2376.904038
397.211217	2356.739423
397.594028	2452.521346
397.976778	2482.768269
398.359466	2402.109808
398.742092	2412.192115
399.124656	2462.603654
399.507158	2424.795000
399.889598	2465.124231
400.271977	2470.165385
400.654294	2450.000769
401.036549	2490.330000
401.418742	2386.986346
401.800874	2497.891731
402.182944	2530.659231
402.564952	2520.576923
402.946898	2429.836154
403.328783	2523.097500
403.710606	2437.397885
404.092367	2419.753846
404.474067	2525.618077
404.855705	2434.877308
405.237282	2515.535769
405.618797	2487.809423
406.000250	2530.659231
406.381642	2432.356731
406.762972	2472.685962
407.144240	2487.809423
407.525447	2497.891731
407.906593	2500.412308
408.287677	2470.165385
408.668700	2455.041923
409.049661	2513.015192
409.430560	2523.097500
409.811399	2470.165385
410.192176	2560.906154
410.572891	2497.891731
410.953545	2510.494615
411.334138	2550.823846
411.714669	2485.288846
412.095139	2379.424615
412.475547	2477.727115
412.855894	2460.083077
413.236180	2515.535769
413.616405	2462.603654
413.996568	2525.618077
414.376670	2432.356731
414.756711	2480.247692
415.136691	2523.097500
415.516609	2480.247692
415.896466	2462.603654
416.276262	2455.041923
416.655997	2409.671538
417.035670	2505.453462
417.415283	2535.700385
417.794834	2485.288846
418.174324	2462.603654
418.553753	2525.618077
418.933121	2492.850577
419.312428	2487.809423
419.691674	2487.809423
420.070859	2495.371154
420.449983	2447.480192
420.829045	2530.659231
421.208047	2523.097500
421.586988	2482.768269
421.965867	2492.850577
422.344686	2533.179808
422.723444	2389.506923
423.102141	2475.206538
423.480777	2540.741538
423.859352	2475.206538
424.237866	2434.877308
424.616319	2490.330000
424.994712	2518.056346
425.373044	2480.247692
425.751314	2427.315577
426.129524	2543.262115
426.507673	2429.836154
426.885762	2457.562500
427.263789	2480.247692
427.641756	2492.850577
428.019662	2525.618077
428.397508	2480.247692
428.775292	2477.727115
429.153016	2530.659231
429.530679	2460.083077
429.908282	2553.344423
430.285824	2444.959615
430.663305	2518.056346
431.040726	2475.206538
431.418086	2439.918462
431.795385	2485.288846
432.172624	2402.109808
432.549802	2497.891731
432.926920	2447.480192
433.303977	2565.947308
433.680974	2482.768269
434.057910	2429.836154
434.434786	2583.591346
434.811601	2417.233269
435.188355	2457.562500
435.565050	2404.630385
435.941683	2505.453462
436.318257	2485.288846
436.694770	2548.303269
437.071222	2432.356731
437.447614	2523.097500
437.823946	2427.315577
438.200218	2462.603654
438.576429	2513.015192
438.952580	2470.165385
439.328670	2500.412308
439.704700	2381.945192
440.080670	2495.371154
440.456580	2439.918462
440.832429	2550.823846
441.208218	2475.206538
441.583947	2500.412308
441.959616	2492.850577
442.335224	2500.412308
442.710773	2429.836154
443.086261	2482.768269
443.461689	2550.823846
443.837057	2510.494615
444.212365	2535.700385
444.587612	2525.618077
444.962800	2465.124231
445.337927	2490.330000
445.712995	2490.330000
446.088002	2487.809423
446.462949	2568.467885
446.837837	2477.727115
447.212664	2460.083077
447.587431	2505.453462
447.962139	2487.809423
448.336786	2543.262115
448.711374	2447.480192
449.085901	2434.877308
449.460369	2437.397885
449.834776	2558.385577
450.209124	2485.288846
450.583412	2492.850577
450.957640	2487.809423
451.331808	2447.480192
451.705917	2518.056346
452.079965	2477.727115
452.453954	2510.494615
452.827883	2492.850577
453.201752	2563.426731
453.575562	2452.521346
453.949311	2523.097500
454.323001	2465.124231
454.696632	2530.659231
455.070202	2439.918462
455.443713	2450.000769
455.817164	2455.041923
456.190556	2528.138654
456.563888	2596.194231
456.937160	2505.453462
457.310373	2515.535769
457.683526	2472.685962
458.056619	2548.303269
458.429653	2487.809423
458.802628	2442.439038
459.175542	2417.233269
459.548398	2505.453462
459.921194	2513.015192
460.293930	2487.809423
460.666607	2591.153077
461.039224	2462.603654
461.411782	2533.179808
461.784280	2455.041923
462.156719	2518.056346
462.529099	2480.247692
462.901419	2495.371154
463.273680	2414.712692
463.645882	2442.439038
464.018024	2462.603654
464.390106	2540.741538
464.762130	2462.603654
465.134094	2477.727115
465.505999	2515.535769
465.877845	2550.823846
466.249631	2475.206538
466.621358	2495.371154
466.993026	2477.727115
467.364634	2457.562500
467.736184	2525.618077
468.107674	2548.303269
468.479105	2467.644808
468.850477	2553.344423
469.221790	2507.974038
469.593043	2573.509038
469.964238	2452.521346
470.335373	2523.097500
470.706449	2455.041923
471.077467	2487.809423
471.448425	2505.453462
471.819324	2434.877308
472.190164	2540.741538
472.560945	2513.015192
472.931667	2477.727115
473.302330	2513.015192
473.672934	2482.768269
474.043479	2475.206538
474.413965	2444.959615
474.784393	2558.385577
475.154761	2500.412308
475.525070	2505.453462
475.895321	2427.315577
476.265513	2518.056346
476.635645	2487.809423
477.005719	2439.918462
477.375734	2497.891731
477.745691	2573.509038
478.115588	2528.138654
478.485427	2422.274423
478.855207	2510.494615
479.224928	2482.768269
479.594591	2460.083077
479.964194	2477.727115
480.333739	2560.906154
480.703226	2439.918462
481.072653	2555.865000
481.442022	2485.288846
481.811333	2518.056346
482.180584	2495.371154
482.549777	2389.506923
482.918912	2492.850577
483.287988	2492.850577
483.657005	2457.562500
484.025964	2518.056346
484.394864	2460.083077
484.763706	2515.535769
485.132489	2510.494615
485.501213	2518.056346
485.869879	2593.673654
486.238487	2530.659231
486.607036	2492.850577
486.975527	2394.548077
487.343959	2472.685962
487.712333	2495.371154
488.080648	2510.494615
488.448905	2465.124231
488.817104	2477.727115
489.185244	2434.877308
489.553326	2553.344423
489.921350	2460.083077
490.289315	2407.150962
490.657222	2442.439038
491.025070	2492.850577
491.392861	2560.906154
491.760593	2490.330000
492.128267	2472.685962
492.495883	2455.041923
492.863440	2495.371154
493.230939	2500.412308
493.598380	2419.753846
493.965763	2500.412308
494.333088	2477.727115
494.700354	2502.932885
495.067563	2510.494615
495.434713	2475.206538
495.801805	2460.083077
496.168839	2492.850577
496.535815	2510.494615
496.902733	2424.795000
497.269593	2412.192115
497.636395	2490.330000
498.003139	2470.165385
498.369825	2555.865000
498.736453	2497.891731
499.103023	2384.465769
499.469535	2510.494615
499.835989	2545.782692
500.202385	2366.821731
500.568723	2623.920577
500.935003	2452.521346
501.301226	2485.288846
501.667390	2482.768269
502.033497	2533.179808
502.399546	2439.918462
502.765537	2515.535769
503.131470	2427.315577
503.497345	2545.782692
503.863163	2444.959615
504.228923	2424.795000
504.594625	2412.192115
504.960269	2452.521346
505.325856	2507.974038
505.691385	2568.467885
506.056856	2472.685962
506.422270	2520.576923
506.787625	2439.918462
507.152924	2482.768269
507.518164	2502.932885
507.883347	2485.288846
508.248472	2525.618077
508.613540	2465.124231
508.978550	2601.235385
509.343503	2465.124231
509.708398	2467.644808
510.073236	2457.562500
510.438016	2563.426731
510.802738	2530.659231
511.167403	2523.097500
511.532010	2492.850577
511.896561	2467.644808
512.261053	2475.206538
512.625488	2510.494615
512.989866	2570.988462
513.354186	2424.795000
513.718449	2472.685962
514.082655	2507.974038
514.446803	2460.083077
514.810894	2520.576923
515.174927	2507.974038
515.538904	2495.371154
515.902822	2523.097500
516.266684	2500.412308
516.630488	2520.576923
516.994235	2422.274423
517.357925	2457.562500
517.721558	2455.041923
518.085133	2439.918462
518.448651	2460.083077
518.812112	2490.330000
519.175516	2513.015192
519.538863	2467.644808
519.902152	2560.906154
520.265385	2419.753846
520.628560	2515.535769
520.991678	2510.494615
521.354739	2568.467885
521.717743	2475.206538
522.080690	2500.412308
522.443580	2472.685962
522.806413	2555.865000
523.169189	2507.974038
523.531908	2462.603654
523.894569	2505.453462
524.257174	2500.412308
524.619722	2502.932885
524.982213	2477.727115
525.344647	2439.918462
525.707025	2472.685962
526.069345	2475.206538
526.431608	2500.412308
526.793815	2482.768269
527.155964	2495.371154
527.518057	2460.083077
527.880093	2497.891731
528.242072	2485.288846
528.603995	2525.618077
528.965860	2518.056346
529.327669	2480.247692
529.689421	2457.562500
530.051117	2437.397885
530.412755	2533.179808
530.774337	2497.891731
531.135862	2490.330000
531.497331	2427.315577
531.858743	2497.891731
532.220098	2470.165385
532.581396	2588.632500
532.942638	2576.029615
533.303824	2457.562500
533.664953	2487.809423
534.026025	2545.782692
534.387040	2548.303269
534.747999	2457.562500
535.108902	2518.056346
535.469748	2467.644808
535.830537	2533.179808
536.191270	2487.809423
536.551947	2523.097500
536.912567	2407.150962
537.273131	2533.179808
537.633638	2475.206538
537.994089	2457.562500
538.354483	2535.700385
538.714821	2548.303269
539.075103	2540.741538
539.435328	2543.262115
539.795497	2477.727115
540.155609	2528.138654
540.515665	2487.809423
540.875665	2576.029615
541.235609	2510.494615
541.595496	2457.562500
541.955328	2528.138654
542.315102	2477.727115
542.674821	2568.467885
543.034483	2616.358846
543.394090	2507.974038
543.753640	2492.850577
544.113134	2507.974038
544.472571	2482.768269
544.831953	2543.262115
545.191278	2513.015192
545.550548	2500.412308
545.909761	2437.397885
546.268918	2530.659231
546.628019	2505.453462
546.987064	2429.836154
547.346053	2570.988462
547.704986	2507.974038
548.063863	2480.247692
548.422684	2513.015192
548.781449	2394.548077
549.140158	2530.659231
549.498811	2538.220962
549.857408	2465.124231
550.215949	2540.741538
550.574434	2477.727115
550.932864	2505.453462
551.291237	2568.467885
551.649555	2462.603654
552.007817	2596.194231
552.366022	2472.685962
552.724173	2507.974038
553.082267	2523.097500
553.440305	2505.453462
553.798288	2472.685962
554.156215	2515.535769
554.514086	2543.262115
554.871902	2460.083077
555.229661	2518.056346
555.587365	2485.288846
555.945014	2447.480192
556.302606	2525.618077
556.660143	2434.877308
557.017625	2507.974038
557.375050	2573.509038
557.732421	2538.220962
558.089735	2437.397885
558.446994	2518.056346
558.804197	2528.138654
559.161345	2480.247692
559.518437	2513.015192
559.875474	2447.480192
560.232455	2452.521346
560.589381	2573.509038
560.946251	2540.741538
561.303065	2520.576923
561.659825	2502.932885
562.016528	2520.576923
562.373177	2439.918462
562.729770	2505.453462
563.086307	2565.947308
563.442789	2500.412308
563.799216	2490.330000
564.155587	2515.535769
564.511904	2497.891731
564.868164	2528.138654
565.224370	2500.412308
565.580520	2444.959615
565.936615	2528.138654
566.292654	2523.097500
566.648638	2437.397885
567.004567	2480.247692
567.360441	2452.521346
567.716260	2487.809423
568.072023	2565.947308
568.427732	2457.562500
568.783385	2581.070769
569.138982	2515.535769
569.494525	2528.138654
569.850013	2467.644808
570.205445	2507.974038
570.560823	2480.247692
570.916145	2472.685962
571.271412	2417.233269
571.626625	2563.426731
571.981782	2437.397885
572.336884	2460.083077
572.691931	2550.823846
573.046923	2482.768269
573.401860	2505.453462
573.756743	2487.809423
574.111570	2475.206538
574.466342	2465.124231
574.821059	2520.576923
575.175722	2558.385577
575.530330	2507.974038
575.884882	2502.932885
576.239380	2442.439038
576.593823	2530.659231
576.948211	2457.562500
577.302544	2487.809423
577.656823	2581.070769
578.011047	2444.959615
578.365216	2470.165385
578.719330	2573.509038
579.073389	2477.727115
579.427394	2545.782692
579.781344	2502.932885
580.135239	2520.576923
580.489080	2434.877308
580.842866	2533.179808
581.196597	2422.274423
581.550273	2530.659231
581.903895	2450.000769
582.257463	2427.315577
582.610975	2530.659231
582.964434	2555.865000
583.317837	2444.959615
583.671186	2475.206538
584.024481	2472.685962
584.377721	2520.576923
584.730906	2412.192115
585.084037	2472.685962
585.437113	2507.974038
585.790135	2545.782692
586.143103	2510.494615
586.496016	2475.206538
586.848874	2505.453462
587.201679	2371.862885
587.554428	2477.727115
587.907124	2560.906154
588.259765	2538.220962
588.612352	2528.138654
588.964884	2465.124231
589.317362	2543.262115
589.669786	2525.618077
590.022155	2482.768269
590.374470	2467.644808
590.726731	2492.850577
591.078937	2535.700385
591.431090	2513.015192
591.783188	2530.659231
592.135232	2492.850577
592.487222	2460.083077
592.839157	2518.056346
593.191038	2631.482308
593.542866	2470.165385
593.894639	2545.782692
594.246358	2545.782692
594.598022	2548.303269
594.949633	2525.618077
595.301190	2465.124231
595.652692	2472.685962
596.004141	2533.179808
596.355535	2427.315577
596.706876	2502.932885
597.058162	2543.262115
597.409395	2535.700385
597.760573	2500.412308
598.111698	2543.262115
598.462768	2510.494615
598.813785	2510.494615
599.164748	2553.344423
599.515657	2495.371154
599.866511	2450.000769
600.217312	2555.865000
600.568060	2530.659231
600.918753	2515.535769
601.269392	2507.974038
601.619978	2565.947308
601.970510	2502.932885
602.320988	2470.165385
602.671412	2447.480192
603.021783	2487.809423
603.372100	2482.768269
603.722363	2450.000769
604.072572	2545.782692
604.422728	2457.562500
604.772830	2538.220962
605.122878	2596.194231
605.472872	2465.124231
605.822813	2558.385577
606.172701	2472.685962
606.522534	2497.891731
606.872314	2538.220962
607.222041	2482.768269
607.571714	2538.220962
607.921333	2460.083077
608.270899	2442.439038
608.620411	2563.426731
608.969870	2434.877308
609.319276	2593.673654
609.668627	2429.836154
610.017926	2520.576923
610.367171	2576.029615
610.716362	2513.015192
611.065500	2475.206538
611.414585	2490.330000
611.763616	2545.782692
612.112594	2563.426731
612.461518	2570.988462
612.810389	2487.809423
613.159207	2505.453462
613.507971	2477.727115
613.856682	2550.823846
614.205340	2485.288846
614.553945	2538.220962
614.902496	2518.056346
615.250994	2548.303269
615.599439	2530.659231
615.947830	2538.220962
616.296169	2513.015192
616.644454	2492.850577
616.992686	2548.303269
617.340864	2465.124231
617.688990	2492.850577
618.037063	2581.070769
618.385082	2495.371154
618.733048	2482.768269
619.080961	2472.685962
619.428821	2490.330000
619.776628	2540.741538
620.124382	2397.068654
620.472083	2586.111923
620.819731	2510.494615
621.167326	2490.330000
621.514868	2429.836154
621.862357	2578.550192
622.209793	2548.303269
622.557176	2500.412308
622.904506	2555.865000
623.251783	2510.494615
623.599007	2568.467885
623.946179	2513.015192
624.293297	2455.041923
624.640363	2497.891731
624.987376	2510.494615
625.334336	2497.891731
625.681243	2470.165385
626.028097	2578.550192
626.374899	2497.891731
626.721647	2455.041923
627.068343	2502.932885
627.414987	2485.288846
627.761577	2533.179808
628.108115	2442.439038
628.454600	2477.727115
628.801032	2480.247692
629.147412	2513.015192
629.493739	2490.330000
629.840014	2470.165385
630.186236	2497.891731
630.532405	2495.371154
630.878521	2450.000769
631.224585	2520.576923
631.570597	2560.906154
631.916556	2482.768269
632.262462	2507.974038
632.608316	2525.618077
632.954117	2485.288846
633.299866	2490.330000
633.645562	2450.000769
633.991206	2568.467885
634.336797	2513.015192
634.682336	2513.015192
635.027823	2545.782692
635.373257	2540.741538
635.718639	2437.397885
636.063968	2495.371154
636.409245	2485.288846
636.754470	2548.303269
637.099642	2520.576923
637.444762	2457.562500
637.789829	2533.179808
638.134845	2472.685962
638.479808	2507.974038
638.824719	2550.823846
639.169577	2442.439038
639.514383	2525.618077
639.859137	2460.083077
640.203839	2533.179808
640.548489	2470.165385
640.893086	2520.576923
641.237632	2533.179808
641.582125	2455.041923
641.926566	2535.700385
642.270955	2465.124231
642.615292	2475.206538
642.959576	2475.206538
643.303809	2432.356731
643.647990	2437.397885
643.992118	2482.768269
644.336195	2528.138654
644.680219	2492.850577
645.024192	2505.453462
645.368112	2513.015192
645.711981	2434.877308
646.055797	2518.056346
646.399562	2555.865000
646.743274	2518.056346
647.086935	2505.453462
647.430544	2477.727115
647.774101	2487.809423
648.117606	2452.521346
648.461059	2507.974038
648.804460	2477.727115
649.147810	2563.426731
649.491108	2452.521346
649.834354	2520.576923
650.177548	2507.974038
650.520690	2568.467885
650.863781	2570.988462
651.206820	2485.288846
651.549807	2510.494615
651.892742	2523.097500
652.235626	2593.673654
652.578458	2480.247692
652.921238	2442.439038
653.263967	2490.330000
653.606644	2455.041923
653.949269	2631.482308
654.291843	2525.618077
654.634365	2495.371154
654.976836	2444.959615
655.319255	2548.303269
655.661622	2500.412308
656.003938	2518.056346
656.346203	2528.138654
656.688416	2487.809423
657.030577	2523.097500
657.372687	2520.576923
657.714746	2543.262115
658.056753	2482.768269
658.398708	2407.150962
658.740612	2495.371154
659.082465	2429.836154
659.424266	2475.206538
659.766016	2460.083077
660.107715	2558.385577
660.449362	2487.809423
660.790958	2515.535769
661.132503	2462.603654
661.473996	2505.453462
661.815438	2472.685962
662.156829	2497.891731
662.498168	2502.932885
662.839456	2515.535769
663.180693	2573.509038
663.521879	2434.877308
663.863013	2507.974038
664.204097	2510.494615
664.545129	2392.027500
664.886110	2419.753846
665.227040	2492.850577
665.567918	2457.562500
665.908746	2601.235385
666.249522	2510.494615
666.590248	2455.041923
666.930922	2444.959615
667.271545	2553.344423
667.612118	2560.906154
667.952639	2505.453462
668.293109	2533.179808
668.633528	2502.932885
668.973896	2364.301154
669.314213	2530.659231
669.654480	2462.603654
669.994695	2581.070769
670.334859	2530.659231
670.674973	2523.097500
671.015035	2429.836154
671.355047	2505.453462
671.695008	2424.795000
672.034918	2510.494615
672.374777	2490.330000
672.714585	2475.206538
673.054342	2553.344423
673.394049	2518.056346
673.733705	2505.453462
674.073310	2596.194231
674.412864	2502.932885
674.752368	2455.041923
675.091820	2452.521346
675.431223	2558.385577
675.770574	2518.056346
676.109875	2495.371154
676.449125	2528.138654
676.788324	2616.358846
677.127473	2528.138654
677.466571	2452.521346
677.805619	2437.397885
678.144616	2457.562500
678.483562	2568.467885
678.822458	2563.426731
679.161303	2480.247692
679.500098	2497.891731
679.838842	2513.015192
680.177535	2477.727115
680.516179	2404.630385
680.854771	2520.576923
681.193314	2467.644808
681.531805	2460.083077
681.870247	2513.015192
682.208638	2497.891731
682.546978	2560.906154
682.885268	2472.685962
683.223508	2444.959615
683.561697	2500.412308
683.899836	2437.397885
684.237925	2495.371154
684.575963	2475.206538
684.913951	2573.509038
685.251889	2495.371154
685.589776	2518.056346
685.927614	2432.356731
686.265401	2513.015192
686.603137	2419.753846
686.940824	2528.138654
687.278460	2507.974038
687.616046	2520.576923
687.953582	2505.453462
688.291068	2424.795000
688.628504	2507.974038
688.965889	2482.768269
689.303224	2434.877308
689.640510	2467.644808
689.977745	2477.727115
690.314930	2518.056346
690.652065	2505.453462
690.989150	2477.727115
691.326185	2513.015192
691.663170	2507.974038
692.000105	2472.685962
692.336990	2462.603654
692.673825	2427.315577
693.010610	2485.288846
693.347345	2507.974038
693.684030	2500.412308
694.020665	2480.247692
694.357251	2523.097500
694.693786	2482.768269
695.030272	2518.056346
695.366707	2515.535769
695.703093	2596.194231
696.039429	2470.165385
696.375716	2480.247692
696.711952	2507.974038
697.048139	2518.056346
697.384276	2452.521346
697.720363	2525.618077
698.056400	2455.041923
698.392388	2447.480192
698.728326	2502.932885
699.064214	2495.371154
699.400053	2462.603654
699.735842	2397.068654
700.071581	2497.891731
700.407270	2510.494615
700.742910	2543.262115
701.078501	2500.412308
701.414042	2442.439038
701.749533	2472.685962
702.084974	2495.371154
702.420366	2480.247692
702.755709	2540.741538
703.091002	2591.153077
703.426246	2550.823846
703.761440	2573.509038
704.096584	2565.947308
704.431679	2500.412308
704.766725	2465.124231
705.101721	2455.041923
705.436668	2455.041923
705.771565	2523.097500
706.106413	2550.823846
706.441212	2487.809423
706.775961	2543.262115
707.110661	2492.850577
707.445311	2444.959615
707.779913	2515.535769
708.114465	2523.097500
708.448967	2540.741538
708.783421	2455.041923
709.117825	2578.550192
709.452180	2472.685962
709.786485	2505.453462
710.120742	2515.535769
710.454949	2472.685962
710.789107	2487.809423
711.123216	2555.865000
711.457275	2553.344423
711.791286	2568.467885
712.125247	2480.247692
712.459159	2437.397885
712.793023	2492.850577
713.126837	2570.988462
713.460602	2462.603654
713.794318	2505.453462
714.127985	2568.467885
714.461602	2586.111923
714.795171	2465.124231
715.128691	2550.823846
715.462162	2507.974038
715.795584	2402.109808
716.128957	2518.056346
716.462281	2412.192115
716.795556	2485.288846
717.128782	2538.220962
717.461960	2475.206538
717.795088	2487.809423
718.128167	2424.795000
718.461198	2528.138654
718.794180	2558.385577
719.127113	2507.974038
719.459997	2472.685962
719.792833	2462.603654
720.125619	2593.673654
720.458357	2548.303269
720.791046	2502.932885
721.123686	2470.165385
721.456278	2460.083077
721.788821	2470.165385
722.121315	2467.644808
722.453761	2429.836154
722.786158	2505.453462
723.118506	2480.247692
723.450805	2450.000769
723.783056	2513.015192
724.115259	2560.906154
724.447412	2487.809423
724.779518	2470.165385
725.111574	2495.371154
725.443582	2475.206538
725.775542	2565.947308
726.107453	2477.727115
726.439315	2535.700385
726.771129	2462.603654
727.102895	2533.179808
727.434612	2452.521346
727.766281	2452.521346
728.097901	2558.385577
728.429473	2565.947308
728.760996	2450.000769
729.092471	2495.371154
729.423897	2570.988462
729.755276	2497.891731
730.086606	2573.509038
730.417887	2510.494615
730.749120	2497.891731
731.080305	2409.671538
731.411442	2477.727115
731.742530	2530.659231
732.073570	2525.618077
732.404562	2472.685962
732.735506	2444.959615
733.066401	2603.755962
733.397249	2555.865000
733.728048	2487.809423
734.058798	2480.247692
734.389501	2513.015192
734.720156	2399.589231
735.050762	2598.714808
735.381320	2402.109808
735.711831	2480.247692
736.042293	2384.465769
736.372707	2505.453462
736.703073	2492.850577
737.033391	2520.576923
737.363661	2470.165385
737.693883	2477.727115
738.024056	2528.138654
738.354182	2434.877308
738.684260	2570.988462
739.014290	2500.412308
739.344272	2543.262115
739.674207	2553.344423
740.004093	2523.097500
740.333931	2530.659231
740.663722	2500.412308
740.993464	2414.712692
741.323159	2505.453462
741.652806	2510.494615
741.982405	2460.083077
742.311956	2439.918462
742.641460	2507.974038
742.970915	2507.974038
743.300323	2525.618077
743.629683	2550.823846
743.958996	2455.041923
744.288260	2502.932885
744.617477	2462.603654
744.946647	2492.850577
745.275768	2520.576923
745.604842	2513.015192
745.933869	2520.576923
746.262847	2470.165385
746.591778	2520.576923
746.920662	2455.041923
747.249498	2586.111923
747.578286	2465.124231
747.907027	2545.782692
748.235720	2470.165385
748.564365	2523.097500
748.892963	2477.727115
749.221514	2462.603654
749.550017	2502.932885
749.878473	2520.576923
750.206881	2520.576923
750.535242	2583.591346
750.863555	2570.988462
751.191821	2475.206538
751.520039	2510.494615
751.848210	2545.782692
752.176334	2460.083077
752.504411	2495.371154
752.832440	2507.974038
753.160421	2485.288846
753.488356	2507.974038
753.816243	2424.795000
754.144082	2513.015192
754.471875	2523.097500
754.799620	2523.097500
755.127318	2528.138654
755.454969	2392.027500
755.782572	2510.494615
756.110129	2475.206538
756.437638	2505.453462
756.765100	2538.220962
757.092515	2470.165385
757.419882	2485.288846
757.747203	2528.138654
758.074477	2467.644808
758.401703	2482.768269
758.728882	2485.288846
759.056014	2573.509038
759.383099	2432.356731
759.710138	2482.768269
760.037129	2455.041923
760.364073	2502.932885
760.690970	2535.700385
761.017820	2616.358846
761.344623	2439.918462
761.671379	2482.768269
761.998088	2460.083077
762.324751	2462.603654
762.651366	2477.727115
762.977935	2495.371154
763.304456	2434.877308
763.630931	2439.918462
763.957359	2450.000769
764.283740	2502.932885
764.610074	2487.809423
764.936362	2528.138654
765.262602	2460.083077
765.588796	2500.412308
765.914943	2525.618077
766.241044	2533.179808
766.567097	2518.056346
766.893104	2500.412308
767.219064	2570.988462
767.544978	2437.397885
767.870845	2520.576923
768.196665	2518.056346
768.522438	2505.453462
768.848165	2450.000769
769.173846	2502.932885
769.499479	2565.947308
769.825066	2502.932885
770.150607	2533.179808
770.476101	2369.342308
770.801548	2389.506923
771.126949	2533.179808
771.452303	2540.741538
771.777611	2439.918462
772.102872	2550.823846
772.428087	2495.371154
772.753256	2500.412308
773.078378	2485.288846
773.403453	2424.795000
773.728482	2540.741538
774.053465	2553.344423
774.378401	2485.288846
774.703291	2507.974038
775.028135	2497.891731
775.352932	2530.659231
775.677683	2384.465769
776.002388	2467.644808
776.327046	2452.521346
776.651658	2467.644808
776.976224	2505.453462
777.300743	2497.891731
777.625216	2502.932885
777.949643	2495.371154
778.274024	2507.974038
778.598359	2467.644808
778.922647	2497.891731
779.246889	2495.371154
779.571086	2502.932885
779.895236	2518.056346
780.219339	2422.274423
780.543397	2417.233269
780.867409	2548.303269
781.191374	2399.589231
781.515294	2447.480192
781.839167	2379.424615
782.162995	2533.179808
782.486776	2442.439038
782.810511	2505.453462
783.134201	2639.044038
783.457844	2465.124231
783.781441	2535.700385
784.104993	2545.782692
784.428498	2472.685962
784.751958	2492.850577
785.075372	2457.562500
785.398739	2457.562500
785.722061	2492.850577
786.045337	2404.630385
786.368568	2475.206538
786.691752	2593.673654
787.014891	2376.904038
787.337983	2490.330000
787.661030	2492.850577
787.984031	2467.644808
788.306987	2475.206538
788.629897	2447.480192
788.952760	2439.918462
789.275579	2535.700385
789.598351	2472.685962
789.921078	2381.945192
790.243759	2361.780577
790.566395	2450.000769
790.888984	2457.562500
791.211529	2414.712692
791.534027	2530.659231
791.856480	2470.165385
792.178888	2475.206538
792.501249	2523.097500
792.823566	2518.056346
793.145836	2495.371154
793.468062	2505.453462
793.790241	2487.809423
794.112375	2535.700385
794.434464	2543.262115
794.756507	2518.056346
795.078505	2447.480192
795.400457	2432.356731
795.722364	2523.097500
796.044226	2570.988462
796.366042	2538.220962
796.687812	2442.439038
797.009538	2505.453462
797.331218	2500.412308
797.652852	2535.700385
797.974442	2492.850577
798.295986	2520.576923
798.617484	2457.562500
798.938938	2419.753846
799.260346	2558.385577
799.581709	2535.700385
799.903026	2500.412308
800.224299	2568.467885
800.545526	2480.247692
800.866708	2437.397885
801.187845	2356.739423
801.508936	2480.247692
801.829983	2397.068654
802.150984	2515.535769
802.471940	2518.056346
802.792851	2502.932885
803.113717	2460.083077
803.434538	2452.521346
803.755314	2427.315577
804.076045	2563.426731
804.396731	2540.741538
804.717372	2439.918462
805.037967	2409.671538
805.358518	2417.233269
805.679024	2485.288846
805.999485	2596.194231
806.319901	2470.165385
806.640272	2465.124231
806.960598	2497.891731
807.280879	2558.385577
807.601115	2462.603654
807.921306	2480.247692
808.241453	2528.138654
808.561554	2487.809423
808.881611	2497.891731
809.201623	2495.371154
809.521590	2520.576923
809.841513	2523.097500
810.161390	2482.768269
810.481223	2523.097500
810.801011	2502.932885
811.120755	2455.041923
811.440453	2565.947308
811.760107	2460.083077
812.079716	2465.124231
812.399281	2470.165385
812.718801	2513.015192
813.038276	2492.850577
813.357707	2611.317692
813.677093	2578.550192
813.996434	2495.371154
814.315731	2510.494615
814.634983	2470.165385
814.954191	2510.494615
815.273354	2518.056346
815.592473	2533.179808
815.911547	2510.494615
816.230577	2455.041923
816.549562	2550.823846
816.868502	2452.521346
817.187399	2490.330000
817.506250	2424.795000
817.825058	2548.303269
818.143821	2439.918462
818.462539	2470.165385
818.781213	2485.288846
819.099843	2477.727115
819.418429	2573.509038
819.736970	2414.712692
820.055466	2550.823846
820.373919	2477.727115
820.692327	2492.850577
821.010691	2460.083077
821.329011	2588.632500
821.647286	2480.247692
821.965517	2502.932885
822.283704	2550.823846
822.601847	2565.947308
822.919945	2467.644808
823.237999	2444.959615
823.556010	2475.206538
823.873976	2505.453462
824.191897	2462.603654
824.509775	2492.850577
824.827609	2502.932885
825.145398	2528.138654
825.463144	2593.673654
825.780845	2455.041923
826.098502	2510.494615
826.416116	2525.618077
826.733685	2467.644808
827.051210	2550.823846
827.368692	2533.179808
827.686129	2550.823846
828.003522	2427.315577
828.320872	2437.397885
828.638177	2414.712692
828.955439	2404.630385
829.272656	2500.412308
829.589830	2502.932885
829.906960	2432.356731
830.224046	2513.015192
830.541088	2507.974038
830.858086	2545.782692
831.175041	2439.918462
831.491952	2520.576923
831.808819	2520.576923
832.125642	2523.097500
832.442421	2528.138654
832.759157	2470.165385
833.075849	2470.165385
833.392497	2490.330000
833.709101	2485.288846
834.025662	2477.727115
834.342179	2490.330000
834.658653	2500.412308
834.975083	2480.247692
835.291469	2432.356731
835.607811	2462.603654
835.924110	2535.700385
836.240366	2560.906154
836.556578	2530.659231
836.872746	2530.659231
837.188871	2505.453462
837.504952	2502.932885
837.820990	2560.906154
838.136984	2515.535769
838.452935	2570.988462
838.768842	2402.109808
839.084706	2565.947308
839.400526	2490.330000
839.716303	2427.315577
840.032037	2515.535769
840.347727	2520.576923
840.663373	2492.850577
840.978977	2399.589231
841.294537	2477.727115
841.610054	2452.521346
841.925527	2550.823846
842.240957	2535.700385
842.556344	2505.453462
842.871687	2452.521346
843.186987	2576.029615
843.502244	2555.865000
843.817458	2482.768269
844.132629	2432.356731
844.447756	2495.371154
844.762840	2497.891731
845.077881	2548.303269
845.392879	2505.453462
845.707833	2444.959615
846.022745	2548.303269
846.337613	2407.150962
846.652438	2492.850577
846.967221	2507.974038
847.281960	2497.891731
847.596656	2442.439038
847.911309	2523.097500
848.225919	2470.165385
848.540485	2507.974038
848.855009	2507.974038
849.169490	2475.206538
849.483928	2470.165385
849.798323	2475.206538
850.112675	2447.480192
850.426984	2467.644808
850.741251	2457.562500
851.055474	2470.165385
851.369654	2528.138654
851.683792	2462.603654
851.997887	2523.097500
852.311938	2487.809423
852.625947	2485.288846
852.939914	2538.220962
853.253837	2525.618077
853.567718	2450.000769
853.881555	2487.809423
854.195350	2467.644808
854.509103	2477.727115
854.822812	2472.685962
855.136479	2550.823846
855.450103	2492.850577
855.763685	2543.262115
856.077224	2472.685962
856.390720	2429.836154
856.704173	2394.548077
857.017584	2535.700385
857.330953	2460.083077
857.644278	2515.535769
857.957561	2470.165385
858.270802	2518.056346
858.584000	2583.591346
858.897155	2545.782692
859.210268	2497.891731
859.523339	2570.988462
859.836367	2502.932885
860.149352	2404.630385
860.462295	2482.768269
860.775195	2538.220962
861.088054	2485.288846
861.400869	2520.576923
861.713642	2482.768269
862.026373	2500.412308
862.339062	2482.768269
862.651708	2507.974038
862.964312	2515.535769
863.276873	2444.959615
863.589392	2500.412308
863.901869	2550.823846
864.214303	2437.397885
864.526696	2528.138654
864.839045	2422.274423
865.151353	2500.412308
865.463619	2540.741538
865.775842	2472.685962
866.088023	2477.727115
866.400162	2545.782692
866.712258	2470.165385
867.024313	2485.288846
867.336325	2465.124231
867.648296	2543.262115
867.960224	2417.233269
868.272110	2525.618077
868.583954	2523.097500
868.895755	2523.097500
869.207515	2565.947308
869.519233	2472.685962
869.830909	2422.274423
870.142542	2500.412308
870.454134	2540.741538
870.765684	2482.768269
871.077191	2515.535769
871.388657	2581.070769
871.700081	2505.453462
872.011463	2530.659231
872.322803	2500.412308
872.634101	2497.891731
872.945357	2611.317692
873.256571	2482.768269
873.567744	2404.630385
873.878874	2455.041923
874.189963	2417.233269
874.501010	2455.041923
874.812015	2495.371154
875.122979	2568.467885
875.433900	2518.056346
875.744780	2553.344423
876.055618	2366.821731
876.366415	2578.550192
876.677169	2507.974038
876.987882	2533.179808
877.298554	2465.124231
877.609183	2427.315577
877.919771	2482.768269
878.230317	2518.056346
878.540822	2470.165385
878.851285	2553.344423
879.161707	2538.220962
879.472087	2515.535769
879.782425	2538.220962
880.092722	2586.111923
880.402977	2555.865000
880.713191	2472.685962
881.023363	2543.262115
881.333494	2477.727115
881.643583	2528.138654
881.953631	2487.809423
882.263637	2465.124231
882.573602	2490.330000
882.883526	2457.562500
883.193408	2487.809423
883.503248	2482.768269
883.813048	2502.932885
884.122806	2455.041923
884.432522	2437.397885
884.742197	2558.385577
885.051831	2475.206538
885.361424	2470.165385
885.670975	2487.809423
885.980485	2518.056346
886.289954	2392.027500
886.599382	2502.932885
886.908768	2465.124231
887.218113	2507.974038
887.527417	2533.179808
887.836680	2530.659231
888.145901	2545.782692
888.455082	2583.591346
888.764221	2482.768269
889.073319	2515.535769
889.382376	2480.247692
889.691392	2497.891731
890.000366	2525.618077
890.309300	2525.618077
890.618193	2523.097500
890.927044	2495.371154
891.235855	2523.097500
891.544625	2513.015192
891.853353	2538.220962
892.162041	2510.494615
892.470687	2507.974038
892.779293	2515.535769
893.087858	2535.700385
893.396381	2482.768269
893.704864	2485.288846
894.013306	2543.262115
894.321707	2447.480192
894.630068	2462.603654
894.938387	2525.618077
895.246665	2507.974038
895.554903	2384.465769
895.863100	2558.385577
896.171256	2505.453462
896.479371	2513.015192
896.787446	2487.809423
897.095480	2523.097500
897.403473	2462.603654
897.711425	2407.150962
898.019336	2500.412308
898.327207	2518.056346
898.635038	2515.535769
898.942827	2565.947308
899.250576	2513.015192
899.558284	2475.206538
899.865952	2452.521346
900.173579	2462.603654
900.481165	2497.891731
900.788711	2409.671538
901.096216	2523.097500
901.403681	2570.988462
901.711105	2490.330000
902.018489	2497.891731
902.325832	2470.165385
902.633135	2535.700385
902.940397	2444.959615
903.247619	2530.659231
903.554800	2578.550192
903.861941	2570.988462
904.169041	2497.891731
904.476101	2427.315577
904.783121	2485.288846
905.090100	2462.603654
905.397039	2485.288846
905.703938	2492.850577
906.010796	2553.344423
906.317614	2487.809423
906.624391	2460.083077
906.931129	2437.397885
907.237826	2424.795000
907.544483	2465.124231
907.851099	2427.315577
908.157675	2560.906154
908.464211	2437.397885
908.770707	2502.932885
909.077163	2568.467885
909.383578	2553.344423
909.689954	2455.041923
909.996289	2457.562500
910.302584	2424.795000
910.608839	2533.179808
910.915054	2450.000769
911.221229	2528.138654
911.527363	2492.850577
911.833458	2513.015192
912.139513	2505.453462
912.445527	2450.000769
912.751502	2487.809423
913.057436	2434.877308
913.363331	2465.124231
913.669186	2462.603654
913.975000	2515.535769
914.280775	2513.015192
914.586510	2507.974038
914.892205	2533.179808
915.197859	2404.630385
915.503475	2513.015192
915.809050	2470.165385
916.114585	2452.521346
916.420081	2591.153077
916.725536	2497.891731
917.030952	2470.165385
917.336328	2470.165385
917.641665	2530.659231
917.946961	2505.453462
918.252218	2497.891731
918.557435	2535.700385
918.862612	2485.288846
919.167750	2475.206538
919.472848	2523.097500
919.777906	2497.891731
920.082925	2412.192115
920.387904	2553.344423
920.692843	2467.644808
920.997743	2510.494615
921.302603	2472.685962
921.607423	2480.247692
921.912204	2389.506923
922.216946	2472.685962
922.521647	2475.206538
922.826310	2520.576923
923.130932	2414.712692
923.435516	2490.330000
923.740059	2475.206538
924.044564	2467.644808
924.349028	2450.000769
924.653454	2553.344423
924.957840	2419.753846
925.262186	2563.426731
925.566493	2437.397885
925.870761	2465.124231
926.174989	2460.083077
926.479178	2555.865000
926.783328	2460.083077
927.087438	2548.303269
927.391509	2356.739423
927.695541	2455.041923
927.999533	2497.891731
928.303486	2480.247692
928.607400	2548.303269
928.911275	2548.303269
929.215110	2523.097500
929.518906	2447.480192
929.822663	2460.083077
930.126381	2513.015192
930.430060	2422.274423
930.733699	2475.206538
931.037299	2467.644808
931.340861	2520.576923
931.644383	2490.330000
931.947866	2555.865000
932.251309	2422.274423
932.554714	2482.768269
932.858080	2576.029615
933.161407	2555.865000
933.464694	2553.344423
933.767943	2460.083077
934.071153	2465.124231
934.374323	2381.945192
934.677455	2386.986346
934.980548	2540.741538
935.283602	2495.371154
935.586617	2407.150962
935.889593	2505.453462
936.192530	2467.644808
936.495428	2530.659231
936.798287	2487.809423
937.101108	2482.768269
937.403890	2452.521346
937.706632	2513.015192
938.009336	2414.712692
938.312002	2533.179808
938.614628	2495.371154
938.917216	2515.535769
939.219765	2444.959615
939.522275	2528.138654
939.824747	2429.836154
940.127179	2487.809423
940.429573	2523.097500
940.731929	2497.891731
941.034246	2518.056346
941.336524	2480.247692
941.638763	2432.356731
941.940964	2530.659231
942.243126	2487.809423
942.545250	2482.768269
942.847335	2475.206538
943.149381	2530.659231
943.451389	2495.371154
943.753359	2422.274423
944.055290	2465.124231
944.357182	2432.356731
944.659036	2510.494615
944.960851	2487.809423
945.262628	2520.576923
945.564367	2538.220962
945.866067	2530.659231
946.167729	2485.288846
946.469352	2462.603654
946.770937	2505.453462
947.072484	2482.768269
947.373992	2480.247692
947.675462	2548.303269
947.976893	2495.371154
948.278286	2502.932885
948.579641	2520.576923
948.880958	2510.494615
949.182236	2538.220962
949.483476	2502.932885
949.784678	2560.906154
950.085841	2460.083077
950.386967	2450.000769
950.688054	2492.850577
950.989103	2510.494615
951.290114	2495.371154
951.591087	2434.877308
951.892021	2555.865000
952.192917	2570.988462
952.493776	2409.671538
952.794596	2472.685962
953.095378	2583.591346
953.396122	2422.274423
953.696828	2419.753846
953.997496	2525.618077
954.298126	2434.877308
954.598718	2520.576923
954.899272	2475.206538
955.199788	2510.494615
955.500266	2432.356731
955.800706	2553.344423
956.101108	2495.371154
956.401472	2528.138654
956.701798	2470.165385
957.002087	2555.865000
957.302337	2505.453462
957.602550	2447.480192
957.902724	2452.521346
958.202861	2359.260000
958.502960	2543.262115
958.803022	2492.850577
959.103045	2482.768269
959.403031	2450.000769
959.702979	2434.877308
960.002889	2535.700385
960.302762	2555.865000
960.602596	2460.083077
960.902393	2480.247692
961.202153	2497.891731
961.501875	2417.233269
961.801559	2452.521346
962.101205	2535.700385
962.400814	2480.247692
962.700385	2523.097500
962.999918	2563.426731
963.299414	2485.288846
963.598873	2467.644808
963.898293	2485.288846
964.197677	2490.330000
964.497022	2460.083077
964.796331	2513.015192
965.095601	2472.685962
965.394835	2497.891731
965.694030	2555.865000
965.993189	2545.782692
966.292309	2450.000769
966.591393	2530.659231
966.890439	2492.850577
967.189447	2543.262115
967.488419	2472.685962
967.787353	2485.288846
968.086249	2480.247692
968.385108	2515.535769
968.683930	2434.877308
968.982714	2581.070769
969.281462	2568.467885
969.580172	2409.671538
969.878844	2492.850577
970.177480	2402.109808
970.476078	2570.988462
970.774639	2452.521346
971.073162	2460.083077
971.371649	2439.918462
971.670098	2535.700385
971.968510	2560.906154
972.266885	2450.000769
972.565223	2500.412308
972.863524	2439.918462
973.161788	2553.344423
973.460014	2550.823846
973.758204	2525.618077
974.056356	2535.700385
974.354471	2470.165385
974.652550	2465.124231
974.950591	2530.659231
975.248595	2437.397885
975.546563	2497.891731
975.844493	2535.700385
976.142386	2543.262115
976.440243	2465.124231
976.738062	2492.850577
977.035845	2437.397885
977.333590	2487.809423
977.631299	2495.371154
977.928971	2497.891731
978.226606	2500.412308
978.524204	2427.315577
978.821765	2477.727115
979.119290	2563.426731
979.416777	2497.891731
979.714228	2394.548077
980.011642	2507.974038
980.309020	2462.603654
980.606360	2480.247692
980.903664	2417.233269
981.200931	2528.138654
981.498162	2523.097500
981.795356	2460.083077
982.092513	2485.288846
982.389633	2533.179808
982.686717	2492.850577
982.983764	2455.041923
983.280775	2490.330000
983.577749	2402.109808
983.874686	2525.618077
984.171587	2540.741538
984.468451	2558.385577
984.765279	2530.659231
985.062070	2444.959615
985.358824	2507.974038
985.655543	2525.618077
985.952224	2548.303269
986.248869	2545.782692
986.545478	2472.685962
986.842050	2563.426731
987.138586	2533.179808
987.435086	2457.562500
987.731549	2422.274423
988.027975	2465.124231
988.324366	2470.165385
988.620719	2444.959615
988.917037	2487.809423
989.213318	2384.465769
989.509563	2558.385577
989.805772	2444.959615
990.101944	2457.562500
990.398080	2447.480192
990.694180	2497.891731
990.990244	2482.768269
991.286271	2482.768269
991.582262	2492.850577
991.878217	2497.891731
992.174136	2442.439038
992.470019	2545.782692
992.765865	2455.041923
993.061676	2560.906154
993.357450	2472.685962
993.653188	2570.988462
993.948890	2533.179808
994.244556	2447.480192
994.540186	2460.083077
994.835780	2560.906154
995.131337	2460.083077
995.426859	2424.795000
995.722345	2523.097500
996.017795	2465.124231
996.313208	2424.795000
996.608586	2434.877308
996.903928	2417.233269
997.199234	2444.959615
997.494504	2553.344423
997.789738	2412.192115
998.084936	2533.179808
998.380099	2392.027500
998.675225	2538.220962
998.970316	2510.494615
999.265371	2555.865000
999.560390	2495.371154
999.855373	2520.576923
1000.150320	2492.850577
1000.445232	2525.618077
1000.740108	2442.439038
1001.034948	2407.150962
1001.329752	2444.959615
1001.624521	2359.260000
1001.919254	2492.850577
1002.213951	2505.453462
1002.508613	2462.603654
1002.803239	2487.809423
1003.097829	2540.741538
1003.392384	2535.700385
1003.686903	2477.727115
1003.981386	2490.330000
1004.275834	2563.426731
1004.570246	2460.083077
1004.864623	2528.138654
1005.158964	2472.685962
1005.453270	2485.288846
1005.747540	2500.412308
1006.041775	2455.041923
1006.335974	2437.397885
1006.630138	2480.247692
1006.924266	2386.986346
1007.218359	2505.453462
1007.512416	2502.932885
1007.806438	2518.056346
1008.100425	2515.535769
1008.394376	2523.097500
1008.688292	2588.632500
1008.982172	2475.206538
1009.276017	2563.426731
1009.569827	2402.109808
1009.863602	2429.836154
1010.157341	2457.562500
1010.451045	2477.727115
1010.744714	2490.330000
1011.038347	2500.412308
1011.331945	2439.918462
1011.625508	2558.385577
1011.919036	2523.097500
1012.212528	2510.494615
1012.505986	2520.576923
1012.799408	2495.371154
1013.092795	2467.644808
1013.386147	2475.206538
1013.679464	2515.535769
1013.972745	2465.124231
1014.265992	2477.727115
1014.559204	2467.644808
1014.852380	2447.480192
1015.145521	2487.809423
1015.438628	2507.974038
1015.731699	2447.480192
1016.024736	2482.768269
1016.317737	2462.603654
1016.610703	2502.932885
1016.903635	2563.426731
1017.196531	2538.220962
1017.489393	2490.330000
1017.782219	2460.083077
1018.075011	2480.247692
1018.367768	2555.865000
1018.660490	2447.480192
1018.953177	2447.480192
1019.245829	2447.480192
