Dividing Wavelength (nm)	Counts (n)	Blue Motor Position (mm): 0.000000	Red Motor Position (mm): 1.400000	
326.493990	2124.846346
326.888308	2124.846346
327.282561	2124.846346
327.676750	2094.599423
328.070874	2124.846346
328.464933	2094.599423
328.858929	2039.146731
329.252859	2089.558269
329.646726	2139.969808
330.040528	2094.599423
330.434265	2104.681731
330.827938	2097.120000
331.221547	2102.161154
331.615091	2152.572692
332.008571	2119.805192
332.401986	2185.340192
332.795338	2208.025385
333.188625	2220.628269
333.581847	2306.327885
333.975006	2243.313462
334.368100	2296.245577
334.761129	2384.465769
335.154095	2323.971923
335.546996	2376.904038
335.939833	2417.233269
336.332606	2397.068654
336.725315	2366.821731
337.117960	2386.986346
337.510540	2432.356731
337.903056	2462.603654
338.295508	2442.439038
338.687896	2442.439038
339.080220	2492.850577
339.472480	2434.877308
339.864676	2465.124231
340.256807	2465.124231
340.648875	2515.535769
341.040879	2424.795000
341.432818	2523.097500
341.824694	2528.138654
342.216506	2497.891731
342.608253	2452.521346
342.999937	2412.192115
343.391557	2455.041923
343.783113	2497.891731
344.174605	2487.809423
344.566033	2515.535769
344.957397	2475.206538
345.348697	2397.068654
345.739934	2477.727115
346.131106	2452.521346
346.522215	2502.932885
346.913260	2402.109808
347.304241	2518.056346
347.695159	2447.480192
348.086012	2500.412308
348.476802	2460.083077
348.867528	2500.412308
349.258191	2467.644808
349.648789	2457.562500
350.039324	2429.836154
350.429796	2455.041923
350.820203	2434.877308
351.210548	2497.891731
351.600828	2392.027500
351.991045	2505.453462
352.381198	2462.603654
352.771288	2543.262115
353.161314	2457.562500
353.551276	2475.206538
353.941175	2376.904038
354.331010	2444.959615
354.720782	2490.330000
355.110490	2452.521346
355.500135	2482.768269
355.889717	2422.274423
356.279235	2412.192115
356.668689	2424.795000
357.058080	2399.589231
357.447408	2399.589231
357.836672	2439.918462
358.225873	2439.918462
358.615010	2386.986346
359.004084	2455.041923
359.393095	2495.371154
359.782043	2450.000769
360.170927	2409.671538
360.559748	2477.727115
360.948505	2432.356731
361.337199	2447.480192
361.725830	2434.877308
362.114398	2450.000769
362.502903	2381.945192
362.891344	2495.371154
363.279722	2422.274423
363.668037	2523.097500
364.056289	2450.000769
364.444478	2515.535769
364.832603	2457.562500
365.220665	2450.000769
365.608665	2444.959615
365.996601	2465.124231
366.384474	2402.109808
366.772284	2457.562500
367.160031	2480.247692
367.547715	2442.439038
367.935336	2452.521346
368.322893	2450.000769
368.710388	2492.850577
369.097820	2475.206538
369.485189	2455.041923
369.872495	2500.412308
370.259738	2455.041923
370.646918	2485.288846
371.034035	2452.521346
371.421090	2467.644808
371.808081	2384.465769
372.195010	2427.315577
372.581875	2492.850577
372.968678	2429.836154
373.355418	2432.356731
373.742096	2457.562500
374.128710	2477.727115
374.515262	2404.630385
374.901751	2505.453462
375.288177	2465.124231
375.674540	2523.097500
376.060841	2477.727115
376.447079	2432.356731
376.833254	2427.315577
377.219367	2457.562500
377.605417	2510.494615
377.991404	2472.685962
378.377329	2485.288846
378.763191	2447.480192
379.148991	2447.480192
379.534727	2495.371154
379.920402	2495.371154
380.306013	2427.315577
380.691563	2523.097500
381.077049	2452.521346
381.462474	2543.262115
381.847835	2462.603654
382.233134	2452.521346
382.618371	2510.494615
383.003545	2439.918462
383.388657	2525.618077
383.773706	2475.206538
384.158693	2429.836154
384.543618	2475.206538
384.928480	2419.753846
385.313280	2502.932885
385.698017	2417.233269
386.082692	2475.206538
386.467305	2482.768269
386.851856	2455.041923
387.236344	2429.836154
387.620770	2422.274423
388.005133	2407.150962
388.389435	2525.618077
388.773674	2487.809423
389.157851	2419.753846
389.541965	2359.260000
389.926018	2523.097500
390.310008	2578.550192
390.693936	2437.397885
391.077802	2555.865000
391.461606	2465.124231
391.845348	2460.083077
392.229027	2412.192115
392.612645	2497.891731
392.996200	2528.138654
393.379694	2452.521346
393.763125	2535.700385
394.146494	2424.795000
394.529801	2523.097500
394.913047	2427.315577
395.296230	2414.712692
395.679351	2563.426731
396.062410	2548.303269
396.445408	2586.111923
396.828343	2462.603654
397.211217	2462.603654
397.594028	2520.576923
397.976778	2462.603654
398.359466	2452.521346
398.742092	2510.494615
399.124656	2520.576923
399.507158	2490.330000
399.889598	2434.877308
400.271977	2540.741538
400.654294	2490.330000
401.036549	2414.712692
401.418742	2450.000769
401.800874	2467.644808
402.182944	2455.041923
402.564952	2465.124231
402.946898	2467.644808
403.328783	2424.795000
403.710606	2376.904038
404.092367	2497.891731
404.474067	2618.879423
404.855705	2507.974038
405.237282	2437.397885
405.618797	2422.274423
406.000250	2482.768269
406.381642	2437.397885
406.762972	2447.480192
407.144240	2477.727115
407.525447	2465.124231
407.906593	2424.795000
408.287677	2482.768269
408.668700	2467.644808
409.049661	2518.056346
409.430560	2497.891731
409.811399	2588.632500
410.192176	2450.000769
410.572891	2507.974038
410.953545	2432.356731
411.334138	2578.550192
411.714669	2507.974038
412.095139	2424.795000
412.475547	2507.974038
412.855894	2475.206538
413.236180	2507.974038
413.616405	2407.150962
413.996568	2432.356731
414.376670	2533.179808
414.756711	2467.644808
415.136691	2533.179808
415.516609	2452.521346
415.896466	2525.618077
416.276262	2444.959615
416.655997	2482.768269
417.035670	2414.712692
417.415283	2495.371154
417.794834	2482.768269
418.174324	2558.385577
418.553753	2490.330000
418.933121	2487.809423
419.312428	2392.027500
419.691674	2520.576923
420.070859	2497.891731
420.449983	2520.576923
420.829045	2487.809423
421.208047	2495.371154
421.586988	2404.630385
421.965867	2457.562500
422.344686	2550.823846
422.723444	2523.097500
423.102141	2457.562500
423.480777	2477.727115
423.859352	2477.727115
424.237866	2545.782692
424.616319	2490.330000
424.994712	2457.562500
425.373044	2477.727115
425.751314	2507.974038
426.129524	2538.220962
426.507673	2515.535769
426.885762	2392.027500
427.263789	2442.439038
427.641756	2502.932885
428.019662	2437.397885
428.397508	2417.233269
428.775292	2434.877308
429.153016	2439.918462
429.530679	2465.124231
429.908282	2502.932885
430.285824	2477.727115
430.663305	2523.097500
431.040726	2520.576923
431.418086	2427.315577
431.795385	2500.412308
432.172624	2472.685962
432.549802	2485.288846
432.926920	2470.165385
433.303977	2447.480192
433.680974	2515.535769
434.057910	2470.165385
434.434786	2457.562500
434.811601	2424.795000
435.188355	2543.262115
435.565050	2492.850577
435.941683	2490.330000
436.318257	2482.768269
436.694770	2462.603654
437.071222	2540.741538
437.447614	2500.412308
437.823946	2485.288846
438.200218	2470.165385
438.576429	2570.988462
438.952580	2409.671538
439.328670	2434.877308
439.704700	2507.974038
440.080670	2596.194231
440.456580	2475.206538
440.832429	2455.041923
441.208218	2487.809423
441.583947	2482.768269
441.959616	2457.562500
442.335224	2447.480192
442.710773	2397.068654
443.086261	2507.974038
443.461689	2495.371154
443.837057	2502.932885
444.212365	2523.097500
444.587612	2497.891731
444.962800	2538.220962
445.337927	2467.644808
445.712995	2586.111923
446.088002	2419.753846
446.462949	2518.056346
446.837837	2457.562500
447.212664	2502.932885
447.587431	2492.850577
447.962139	2500.412308
448.336786	2462.603654
448.711374	2467.644808
449.085901	2465.124231
449.460369	2444.959615
449.834776	2429.836154
450.209124	2505.453462
450.583412	2528.138654
450.957640	2502.932885
451.331808	2477.727115
451.705917	2525.618077
452.079965	2482.768269
452.453954	2472.685962
452.827883	2424.795000
453.201752	2482.768269
453.575562	2492.850577
453.949311	2455.041923
454.323001	2460.083077
454.696632	2417.233269
455.070202	2424.795000
455.443713	2515.535769
455.817164	2492.850577
456.190556	2450.000769
456.563888	2528.138654
456.937160	2482.768269
457.310373	2513.015192
457.683526	2439.918462
458.056619	2439.918462
458.429653	2578.550192
458.802628	2434.877308
459.175542	2505.453462
459.548398	2555.865000
459.921194	2515.535769
460.293930	2427.315577
460.666607	2462.603654
461.039224	2457.562500
461.411782	2356.739423
461.784280	2437.397885
462.156719	2528.138654
462.529099	2495.371154
462.901419	2523.097500
463.273680	2417.233269
463.645882	2432.356731
464.018024	2492.850577
464.390106	2543.262115
464.762130	2505.453462
465.134094	2518.056346
465.505999	2485.288846
465.877845	2450.000769
466.249631	2465.124231
466.621358	2422.274423
466.993026	2472.685962
467.364634	2432.356731
467.736184	2455.041923
468.107674	2457.562500
468.479105	2525.618077
468.850477	2490.330000
469.221790	2455.041923
469.593043	2487.809423
469.964238	2513.015192
470.335373	2558.385577
470.706449	2505.453462
471.077467	2513.015192
471.448425	2467.644808
471.819324	2490.330000
472.190164	2518.056346
472.560945	2553.344423
472.931667	2470.165385
473.302330	2472.685962
473.672934	2530.659231
474.043479	2442.439038
474.413965	2525.618077
474.784393	2460.083077
475.154761	2465.124231
475.525070	2510.494615
475.895321	2450.000769
476.265513	2432.356731
476.635645	2520.576923
477.005719	2573.509038
477.375734	2434.877308
477.745691	2495.371154
478.115588	2475.206538
478.485427	2475.206538
478.855207	2515.535769
479.224928	2598.714808
479.594591	2558.385577
479.964194	2452.521346
480.333739	2502.932885
480.703226	2654.167500
481.072653	2417.233269
481.442022	2523.097500
481.811333	2455.041923
482.180584	2475.206538
482.549777	2450.000769
482.918912	2507.974038
483.287988	2460.083077
483.657005	2472.685962
484.025964	2487.809423
484.394864	2450.000769
484.763706	2437.397885
485.132489	2515.535769
485.501213	2520.576923
485.869879	2452.521346
486.238487	2490.330000
486.607036	2437.397885
486.975527	2497.891731
487.343959	2565.947308
487.712333	2485.288846
488.080648	2560.906154
488.448905	2502.932885
488.817104	2513.015192
489.185244	2533.179808
489.553326	2578.550192
489.921350	2480.247692
490.289315	2515.535769
490.657222	2434.877308
491.025070	2414.712692
491.392861	2533.179808
491.760593	2495.371154
492.128267	2538.220962
492.495883	2477.727115
492.863440	2482.768269
493.230939	2465.124231
493.598380	2528.138654
493.965763	2502.932885
494.333088	2563.426731
494.700354	2550.823846
495.067563	2482.768269
495.434713	2513.015192
495.801805	2465.124231
496.168839	2470.165385
496.535815	2450.000769
496.902733	2570.988462
497.269593	2565.947308
497.636395	2462.603654
498.003139	2465.124231
498.369825	2490.330000
498.736453	2485.288846
499.103023	2492.850577
499.469535	2591.153077
499.835989	2467.644808
500.202385	2525.618077
500.568723	2533.179808
500.935003	2439.918462
501.301226	2485.288846
501.667390	2497.891731
502.033497	2507.974038
502.399546	2480.247692
502.765537	2570.988462
503.131470	2427.315577
503.497345	2477.727115
503.863163	2583.591346
504.228923	2485.288846
504.594625	2414.712692
504.960269	2543.262115
505.325856	2442.439038
505.691385	2505.453462
506.056856	2502.932885
506.422270	2482.768269
506.787625	2470.165385
507.152924	2450.000769
507.518164	2467.644808
507.883347	2545.782692
508.248472	2409.671538
508.613540	2404.630385
508.978550	2510.494615
509.343503	2497.891731
509.708398	2502.932885
510.073236	2540.741538
510.438016	2533.179808
510.802738	2591.153077
511.167403	2467.644808
511.532010	2399.589231
511.896561	2565.947308
512.261053	2495.371154
512.625488	2495.371154
512.989866	2568.467885
513.354186	2500.412308
513.718449	2397.068654
514.082655	2528.138654
514.446803	2477.727115
514.810894	2563.426731
515.174927	2606.276538
515.538904	2422.274423
515.902822	2492.850577
516.266684	2588.632500
516.630488	2404.630385
516.994235	2422.274423
517.357925	2480.247692
517.721558	2520.576923
518.085133	2528.138654
518.448651	2482.768269
518.812112	2535.700385
519.175516	2389.506923
519.538863	2565.947308
519.902152	2462.603654
520.265385	2515.535769
520.628560	2482.768269
520.991678	2485.288846
521.354739	2472.685962
521.717743	2485.288846
522.080690	2518.056346
522.443580	2530.659231
522.806413	2502.932885
523.169189	2424.795000
523.531908	2472.685962
523.894569	2568.467885
524.257174	2485.288846
524.619722	2530.659231
524.982213	2477.727115
525.344647	2530.659231
525.707025	2472.685962
526.069345	2523.097500
526.431608	2505.453462
526.793815	2553.344423
527.155964	2500.412308
527.518057	2510.494615
527.880093	2520.576923
528.242072	2563.426731
528.603995	2470.165385
528.965860	2540.741538
529.327669	2490.330000
529.689421	2520.576923
530.051117	2495.371154
530.412755	2515.535769
530.774337	2530.659231
531.135862	2515.535769
531.497331	2515.535769
531.858743	2533.179808
532.220098	2397.068654
532.581396	2485.288846
532.942638	2487.809423
533.303824	2422.274423
533.664953	2535.700385
534.026025	2482.768269
534.387040	2492.850577
534.747999	2518.056346
535.108902	2495.371154
535.469748	2482.768269
535.830537	2545.782692
536.191270	2515.535769
536.551947	2447.480192
536.912567	2487.809423
537.273131	2475.206538
537.633638	2487.809423
537.994089	2502.932885
538.354483	2482.768269
538.714821	2437.397885
539.075103	2467.644808
539.435328	2467.644808
539.795497	2485.288846
540.155609	2465.124231
540.515665	2538.220962
540.875665	2462.603654
541.235609	2452.521346
541.595496	2427.315577
541.955328	2543.262115
542.315102	2407.150962
542.674821	2525.618077
543.034483	2439.918462
543.394090	2487.809423
543.753640	2545.782692
544.113134	2518.056346
544.472571	2553.344423
544.831953	2535.700385
545.191278	2528.138654
545.550548	2487.809423
545.909761	2492.850577
546.268918	2480.247692
546.628019	2578.550192
546.987064	2523.097500
547.346053	2422.274423
547.704986	2505.453462
548.063863	2475.206538
548.422684	2538.220962
548.781449	2480.247692
549.140158	2520.576923
549.498811	2528.138654
549.857408	2457.562500
550.215949	2472.685962
550.574434	2475.206538
550.932864	2455.041923
551.291237	2497.891731
551.649555	2528.138654
552.007817	2460.083077
552.366022	2442.439038
552.724173	2507.974038
553.082267	2477.727115
553.440305	2492.850577
553.798288	2460.083077
554.156215	2510.494615
554.514086	2427.315577
554.871902	2507.974038
555.229661	2465.124231
555.587365	2515.535769
555.945014	2460.083077
556.302606	2553.344423
556.660143	2644.085192
557.017625	2492.850577
557.375050	2497.891731
557.732421	2480.247692
558.089735	2555.865000
558.446994	2485.288846
558.804197	2545.782692
559.161345	2482.768269
559.518437	2525.618077
559.875474	2502.932885
560.232455	2523.097500
560.589381	2518.056346
560.946251	2450.000769
561.303065	2447.480192
561.659825	2540.741538
562.016528	2540.741538
562.373177	2462.603654
562.729770	2520.576923
563.086307	2452.521346
563.442789	2515.535769
563.799216	2470.165385
564.155587	2500.412308
564.511904	2490.330000
564.868164	2515.535769
565.224370	2533.179808
565.580520	2515.535769
565.936615	2500.412308
566.292654	2465.124231
566.648638	2482.768269
567.004567	2480.247692
567.360441	2507.974038
567.716260	2560.906154
568.072023	2467.644808
568.427732	2555.865000
568.783385	2525.618077
569.138982	2502.932885
569.494525	2470.165385
569.850013	2558.385577
570.205445	2523.097500
570.560823	2457.562500
570.916145	2495.371154
571.271412	2520.576923
571.626625	2447.480192
571.981782	2545.782692
572.336884	2513.015192
572.691931	2422.274423
573.046923	2515.535769
573.401860	2472.685962
573.756743	2513.015192
574.111570	2429.836154
574.466342	2530.659231
574.821059	2528.138654
575.175722	2535.700385
575.530330	2505.453462
575.884882	2540.741538
576.239380	2444.959615
576.593823	2523.097500
576.948211	2492.850577
577.302544	2482.768269
577.656823	2495.371154
578.011047	2487.809423
578.365216	2439.918462
578.719330	2434.877308
579.073389	2515.535769
579.427394	2477.727115
579.781344	2487.809423
580.135239	2505.453462
580.489080	2482.768269
580.842866	2437.397885
581.196597	2518.056346
581.550273	2548.303269
581.903895	2492.850577
582.257463	2555.865000
582.610975	2492.850577
582.964434	2603.755962
583.317837	2603.755962
583.671186	2460.083077
584.024481	2477.727115
584.377721	2530.659231
584.730906	2525.618077
585.084037	2530.659231
585.437113	2530.659231
585.790135	2513.015192
586.143103	2515.535769
586.496016	2467.644808
586.848874	2576.029615
587.201679	2480.247692
587.554428	2586.111923
587.907124	2518.056346
588.259765	2502.932885
588.612352	2518.056346
588.964884	2495.371154
589.317362	2452.521346
589.669786	2492.850577
590.022155	2576.029615
590.374470	2432.356731
590.726731	2558.385577
591.078937	2540.741538
591.431090	2646.605769
591.783188	2452.521346
592.135232	2515.535769
592.487222	2513.015192
592.839157	2439.918462
593.191038	2507.974038
593.542866	2439.918462
593.894639	2432.356731
594.246358	2500.412308
594.598022	2540.741538
594.949633	2563.426731
595.301190	2495.371154
595.652692	2535.700385
596.004141	2565.947308
596.355535	2485.288846
596.706876	2485.288846
597.058162	2548.303269
597.409395	2513.015192
597.760573	2457.562500
598.111698	2507.974038
598.462768	2492.850577
598.813785	2472.685962
599.164748	2510.494615
599.515657	2462.603654
599.866511	2482.768269
600.217312	2460.083077
600.568060	2475.206538
600.918753	2475.206538
601.269392	2555.865000
601.619978	2515.535769
601.970510	2500.412308
602.320988	2487.809423
602.671412	2528.138654
603.021783	2442.439038
603.372100	2392.027500
603.722363	2570.988462
604.072572	2507.974038
604.422728	2538.220962
604.772830	2505.453462
605.122878	2520.576923
605.472872	2545.782692
605.822813	2538.220962
606.172701	2417.233269
606.522534	2523.097500
606.872314	2480.247692
607.222041	2518.056346
607.571714	2518.056346
607.921333	2477.727115
608.270899	2520.576923
608.620411	2439.918462
608.969870	2533.179808
609.319276	2518.056346
609.668627	2472.685962
610.017926	2485.288846
610.367171	2475.206538
610.716362	2586.111923
611.065500	2492.850577
611.414585	2409.671538
611.763616	2502.932885
612.112594	2502.932885
612.461518	2593.673654
612.810389	2611.317692
613.159207	2434.877308
613.507971	2505.453462
613.856682	2490.330000
614.205340	2439.918462
614.553945	2500.412308
614.902496	2558.385577
615.250994	2482.768269
615.599439	2450.000769
615.947830	2500.412308
616.296169	2429.836154
616.644454	2482.768269
616.992686	2450.000769
617.340864	2505.453462
617.688990	2429.836154
618.037063	2475.206538
618.385082	2409.671538
618.733048	2530.659231
619.080961	2472.685962
619.428821	2470.165385
619.776628	2538.220962
620.124382	2485.288846
620.472083	2545.782692
620.819731	2419.753846
621.167326	2581.070769
621.514868	2568.467885
621.862357	2502.932885
622.209793	2472.685962
622.557176	2470.165385
622.904506	2414.712692
623.251783	2447.480192
623.599007	2470.165385
623.946179	2414.712692
624.293297	2465.124231
624.640363	2467.644808
624.987376	2603.755962
625.334336	2475.206538
625.681243	2402.109808
626.028097	2472.685962
626.374899	2568.467885
626.721647	2540.741538
627.068343	2507.974038
627.414987	2510.494615
627.761577	2530.659231
628.108115	2492.850577
628.454600	2520.576923
628.801032	2482.768269
629.147412	2465.124231
629.493739	2455.041923
629.840014	2475.206538
630.186236	2470.165385
630.532405	2490.330000
630.878521	2513.015192
631.224585	2558.385577
631.570597	2528.138654
631.916556	2555.865000
632.262462	2520.576923
632.608316	2510.494615
632.954117	2507.974038
633.299866	2462.603654
633.645562	2427.315577
633.991206	2545.782692
634.336797	2455.041923
634.682336	2462.603654
635.027823	2510.494615
635.373257	2528.138654
635.718639	2482.768269
636.063968	2467.644808
636.409245	2444.959615
636.754470	2540.741538
637.099642	2462.603654
637.444762	2480.247692
637.789829	2472.685962
638.134845	2482.768269
638.479808	2460.083077
638.824719	2419.753846
639.169577	2439.918462
639.514383	2500.412308
639.859137	2500.412308
640.203839	2500.412308
640.548489	2515.535769
640.893086	2515.535769
641.237632	2520.576923
641.582125	2394.548077
641.926566	2419.753846
642.270955	2492.850577
642.615292	2482.768269
642.959576	2555.865000
643.303809	2518.056346
643.647990	2460.083077
643.992118	2485.288846
644.336195	2465.124231
644.680219	2452.521346
645.024192	2432.356731
645.368112	2535.700385
645.711981	2507.974038
646.055797	2427.315577
646.399562	2576.029615
646.743274	2505.453462
647.086935	2467.644808
647.430544	2457.562500
647.774101	2497.891731
648.117606	2533.179808
648.461059	2452.521346
648.804460	2467.644808
649.147810	2427.315577
649.491108	2442.439038
649.834354	2434.877308
650.177548	2510.494615
650.520690	2472.685962
650.863781	2472.685962
651.206820	2525.618077
651.549807	2467.644808
651.892742	2475.206538
652.235626	2505.453462
652.578458	2550.823846
652.921238	2427.315577
653.263967	2432.356731
653.606644	2502.932885
653.949269	2528.138654
654.291843	2515.535769
654.634365	2457.562500
654.976836	2455.041923
655.319255	2444.959615
655.661622	2472.685962
656.003938	2573.509038
656.346203	2558.385577
656.688416	2492.850577
657.030577	2417.233269
657.372687	2495.371154
657.714746	2520.576923
658.056753	2437.397885
658.398708	2500.412308
658.740612	2442.439038
659.082465	2492.850577
659.424266	2510.494615
659.766016	2518.056346
660.107715	2510.494615
660.449362	2485.288846
660.790958	2439.918462
661.132503	2424.795000
661.473996	2477.727115
661.815438	2540.741538
662.156829	2553.344423
662.498168	2455.041923
662.839456	2528.138654
663.180693	2593.673654
663.521879	2550.823846
663.863013	2485.288846
664.204097	2568.467885
664.545129	2573.509038
664.886110	2505.453462
665.227040	2485.288846
665.567918	2477.727115
665.908746	2452.521346
666.249522	2384.465769
666.590248	2513.015192
666.930922	2467.644808
667.271545	2563.426731
667.612118	2475.206538
667.952639	2452.521346
668.293109	2470.165385
668.633528	2563.426731
668.973896	2475.206538
669.314213	2467.644808
669.654480	2581.070769
669.994695	2606.276538
670.334859	2560.906154
670.674973	2417.233269
671.015035	2482.768269
671.355047	2535.700385
671.695008	2502.932885
672.034918	2515.535769
672.374777	2447.480192
672.714585	2525.618077
673.054342	2523.097500
673.394049	2369.342308
673.733705	2518.056346
674.073310	2543.262115
674.412864	2502.932885
674.752368	2439.918462
675.091820	2429.836154
675.431223	2472.685962
675.770574	2455.041923
676.109875	2510.494615
676.449125	2591.153077
676.788324	2490.330000
677.127473	2555.865000
677.466571	2467.644808
677.805619	2520.576923
678.144616	2570.988462
678.483562	2439.918462
678.822458	2492.850577
679.161303	2462.603654
679.500098	2450.000769
679.838842	2495.371154
680.177535	2520.576923
680.516179	2510.494615
680.854771	2530.659231
681.193314	2576.029615
681.531805	2507.974038
681.870247	2505.453462
682.208638	2490.330000
682.546978	2455.041923
682.885268	2437.397885
683.223508	2543.262115
683.561697	2467.644808
683.899836	2545.782692
684.237925	2553.344423
684.575963	2482.768269
684.913951	2591.153077
685.251889	2437.397885
685.589776	2563.426731
685.927614	2460.083077
686.265401	2515.535769
686.603137	2515.535769
686.940824	2558.385577
687.278460	2560.906154
687.616046	2424.795000
687.953582	2477.727115
688.291068	2502.932885
688.628504	2563.426731
688.965889	2510.494615
689.303224	2543.262115
689.640510	2502.932885
689.977745	2475.206538
690.314930	2495.371154
690.652065	2465.124231
690.989150	2495.371154
691.326185	2545.782692
691.663170	2518.056346
692.000105	2523.097500
692.336990	2513.015192
692.673825	2472.685962
693.010610	2467.644808
693.347345	2518.056346
693.684030	2465.124231
694.020665	2520.576923
694.357251	2429.836154
694.693786	2452.521346
695.030272	2487.809423
695.366707	2487.809423
695.703093	2485.288846
696.039429	2460.083077
696.375716	2560.906154
696.711952	2417.233269
697.048139	2497.891731
697.384276	2513.015192
697.720363	2540.741538
698.056400	2480.247692
698.392388	2538.220962
698.728326	2407.150962
699.064214	2495.371154
699.400053	2470.165385
699.735842	2480.247692
700.071581	2523.097500
700.407270	2472.685962
700.742910	2482.768269
701.078501	2490.330000
701.414042	2460.083077
701.749533	2490.330000
702.084974	2510.494615
702.420366	2520.576923
702.755709	2460.083077
703.091002	2399.589231
703.426246	2500.412308
703.761440	2460.083077
704.096584	2545.782692
704.431679	2450.000769
704.766725	2465.124231
705.101721	2439.918462
705.436668	2480.247692
705.771565	2543.262115
706.106413	2490.330000
706.441212	2513.015192
706.775961	2520.576923
707.110661	2570.988462
707.445311	2480.247692
707.779913	2606.276538
708.114465	2485.288846
708.448967	2596.194231
708.783421	2475.206538
709.117825	2495.371154
709.452180	2487.809423
709.786485	2528.138654
710.120742	2497.891731
710.454949	2538.220962
710.789107	2487.809423
711.123216	2528.138654
711.457275	2472.685962
711.791286	2487.809423
712.125247	2462.603654
712.459159	2533.179808
712.793023	2518.056346
713.126837	2520.576923
713.460602	2497.891731
713.794318	2434.877308
714.127985	2555.865000
714.461602	2568.467885
714.795171	2555.865000
715.128691	2432.356731
715.462162	2482.768269
715.795584	2603.755962
716.128957	2497.891731
716.462281	2528.138654
716.795556	2465.124231
717.128782	2565.947308
717.461960	2525.618077
717.795088	2477.727115
718.128167	2497.891731
718.461198	2497.891731
718.794180	2513.015192
719.127113	2487.809423
719.459997	2543.262115
719.792833	2588.632500
720.125619	2608.797115
720.458357	2475.206538
720.791046	2553.344423
721.123686	2485.288846
721.456278	2482.768269
721.788821	2477.727115
722.121315	2487.809423
722.453761	2550.823846
722.786158	2492.850577
723.118506	2409.671538
723.450805	2533.179808
723.783056	2492.850577
724.115259	2409.671538
724.447412	2515.535769
724.779518	2545.782692
725.111574	2525.618077
725.443582	2495.371154
725.775542	2424.795000
726.107453	2492.850577
726.439315	2538.220962
726.771129	2452.521346
727.102895	2492.850577
727.434612	2518.056346
727.766281	2490.330000
728.097901	2543.262115
728.429473	2555.865000
728.760996	2490.330000
729.092471	2523.097500
729.423897	2525.618077
729.755276	2555.865000
730.086606	2543.262115
730.417887	2510.494615
730.749120	2475.206538
731.080305	2548.303269
731.411442	2427.315577
731.742530	2500.412308
732.073570	2540.741538
732.404562	2533.179808
732.735506	2528.138654
733.066401	2528.138654
733.397249	2470.165385
733.728048	2535.700385
734.058798	2389.506923
734.389501	2507.974038
734.720156	2487.809423
735.050762	2505.453462
735.381320	2507.974038
735.711831	2515.535769
736.042293	2437.397885
736.372707	2417.233269
736.703073	2538.220962
737.033391	2472.685962
737.363661	2528.138654
737.693883	2492.850577
738.024056	2427.315577
738.354182	2533.179808
738.684260	2369.342308
739.014290	2422.274423
739.344272	2490.330000
739.674207	2432.356731
740.004093	2480.247692
740.333931	2429.836154
740.663722	2535.700385
740.993464	2535.700385
741.323159	2470.165385
741.652806	2540.741538
741.982405	2384.465769
742.311956	2523.097500
742.641460	2477.727115
742.970915	2444.959615
743.300323	2525.618077
743.629683	2457.562500
743.958996	2414.712692
744.288260	2492.850577
744.617477	2487.809423
744.946647	2482.768269
745.275768	2502.932885
745.604842	2563.426731
745.933869	2505.453462
746.262847	2462.603654
746.591778	2505.453462
746.920662	2525.618077
747.249498	2485.288846
747.578286	2457.562500
747.907027	2470.165385
748.235720	2402.109808
748.564365	2507.974038
748.892963	2442.439038
749.221514	2558.385577
749.550017	2515.535769
749.878473	2520.576923
750.206881	2578.550192
750.535242	2470.165385
750.863555	2467.644808
751.191821	2558.385577
751.520039	2510.494615
751.848210	2538.220962
752.176334	2460.083077
752.504411	2598.714808
752.832440	2502.932885
753.160421	2480.247692
753.488356	2528.138654
753.816243	2470.165385
754.144082	2447.480192
754.471875	2460.083077
754.799620	2465.124231
755.127318	2472.685962
755.454969	2510.494615
755.782572	2397.068654
756.110129	2525.618077
756.437638	2482.768269
756.765100	2505.453462
757.092515	2475.206538
757.419882	2538.220962
757.747203	2533.179808
758.074477	2470.165385
758.401703	2477.727115
758.728882	2598.714808
759.056014	2538.220962
759.383099	2601.235385
759.710138	2460.083077
760.037129	2432.356731
760.364073	2447.480192
760.690970	2417.233269
761.017820	2555.865000
761.344623	2540.741538
761.671379	2510.494615
761.998088	2452.521346
762.324751	2523.097500
762.651366	2467.644808
762.977935	2545.782692
763.304456	2450.000769
763.630931	2434.877308
763.957359	2515.535769
764.283740	2548.303269
764.610074	2533.179808
764.936362	2460.083077
765.262602	2533.179808
765.588796	2447.480192
765.914943	2492.850577
766.241044	2460.083077
766.567097	2490.330000
766.893104	2460.083077
767.219064	2402.109808
767.544978	2500.412308
767.870845	2439.918462
768.196665	2490.330000
768.522438	2389.506923
768.848165	2500.412308
769.173846	2490.330000
769.499479	2455.041923
769.825066	2419.753846
770.150607	2480.247692
770.476101	2535.700385
770.801548	2495.371154
771.126949	2487.809423
771.452303	2439.918462
771.777611	2480.247692
772.102872	2442.439038
772.428087	2513.015192
772.753256	2513.015192
773.078378	2545.782692
773.403453	2495.371154
773.728482	2409.671538
774.053465	2555.865000
774.378401	2465.124231
774.703291	2407.150962
775.028135	2518.056346
775.352932	2465.124231
775.677683	2487.809423
776.002388	2447.480192
776.327046	2507.974038
776.651658	2482.768269
776.976224	2518.056346
777.300743	2518.056346
777.625216	2497.891731
777.949643	2442.439038
778.274024	2510.494615
778.598359	2482.768269
778.922647	2482.768269
779.246889	2482.768269
779.571086	2434.877308
779.895236	2525.618077
780.219339	2439.918462
780.543397	2530.659231
780.867409	2424.795000
781.191374	2477.727115
781.515294	2457.562500
781.839167	2460.083077
782.162995	2525.618077
782.486776	2427.315577
782.810511	2487.809423
783.134201	2417.233269
783.457844	2465.124231
783.781441	2482.768269
784.104993	2457.562500
784.428498	2568.467885
784.751958	2472.685962
785.075372	2543.262115
785.398739	2399.589231
785.722061	2583.591346
786.045337	2397.068654
786.368568	2394.548077
786.691752	2540.741538
787.014891	2480.247692
787.337983	2485.288846
787.661030	2432.356731
787.984031	2437.397885
788.306987	2510.494615
788.629897	2530.659231
788.952760	2543.262115
789.275579	2424.795000
789.598351	2528.138654
789.921078	2570.988462
790.243759	2465.124231
790.566395	2455.041923
790.888984	2442.439038
791.211529	2467.644808
791.534027	2525.618077
791.856480	2467.644808
792.178888	2533.179808
792.501249	2560.906154
792.823566	2538.220962
793.145836	2502.932885
793.468062	2533.179808
793.790241	2485.288846
794.112375	2570.988462
794.434464	2608.797115
794.756507	2525.618077
795.078505	2470.165385
795.400457	2482.768269
795.722364	2505.453462
796.044226	2533.179808
796.366042	2472.685962
796.687812	2450.000769
797.009538	2626.441154
797.331218	2457.562500
797.652852	2535.700385
797.974442	2505.453462
798.295986	2525.618077
798.617484	2507.974038
798.938938	2462.603654
799.260346	2452.521346
799.581709	2492.850577
799.903026	2447.480192
800.224299	2507.974038
800.545526	2465.124231
800.866708	2515.535769
801.187845	2444.959615
801.508936	2482.768269
801.829983	2467.644808
802.150984	2457.562500
802.471940	2402.109808
802.792851	2528.138654
803.113717	2465.124231
803.434538	2568.467885
803.755314	2492.850577
804.076045	2520.576923
804.396731	2502.932885
804.717372	2462.603654
805.037967	2497.891731
805.358518	2555.865000
805.679024	2495.371154
805.999485	2500.412308
806.319901	2530.659231
806.640272	2482.768269
806.960598	2523.097500
807.280879	2573.509038
807.601115	2480.247692
807.921306	2515.535769
808.241453	2525.618077
808.561554	2500.412308
808.881611	2515.535769
809.201623	2424.795000
809.521590	2417.233269
809.841513	2507.974038
810.161390	2485.288846
810.481223	2482.768269
810.801011	2513.015192
811.120755	2543.262115
811.440453	2543.262115
811.760107	2467.644808
812.079716	2450.000769
812.399281	2450.000769
812.718801	2429.836154
813.038276	2520.576923
813.357707	2523.097500
813.677093	2460.083077
813.996434	2565.947308
814.315731	2485.288846
814.634983	2475.206538
814.954191	2510.494615
815.273354	2470.165385
815.592473	2528.138654
815.911547	2477.727115
816.230577	2507.974038
816.549562	2540.741538
816.868502	2485.288846
817.187399	2417.233269
817.506250	2553.344423
817.825058	2432.356731
818.143821	2530.659231
818.462539	2588.632500
818.781213	2472.685962
819.099843	2505.453462
819.418429	2535.700385
819.736970	2450.000769
820.055466	2568.467885
820.373919	2535.700385
820.692327	2598.714808
821.010691	2553.344423
821.329011	2480.247692
821.647286	2513.015192
821.965517	2472.685962
822.283704	2583.591346
822.601847	2455.041923
822.919945	2359.260000
823.237999	2530.659231
823.556010	2439.918462
823.873976	2525.618077
824.191897	2518.056346
824.509775	2545.782692
824.827609	2510.494615
825.145398	2510.494615
825.463144	2543.262115
825.780845	2477.727115
826.098502	2381.945192
826.416116	2515.535769
826.733685	2465.124231
827.051210	2475.206538
827.368692	2457.562500
827.686129	2530.659231
828.003522	2533.179808
828.320872	2533.179808
828.638177	2462.603654
828.955439	2477.727115
829.272656	2495.371154
829.589830	2450.000769
829.906960	2485.288846
830.224046	2475.206538
830.541088	2482.768269
830.858086	2513.015192
831.175041	2429.836154
831.491952	2442.439038
831.808819	2432.356731
832.125642	2510.494615
832.442421	2480.247692
832.759157	2500.412308
833.075849	2515.535769
833.392497	2470.165385
833.709101	2505.453462
834.025662	2409.671538
834.342179	2535.700385
834.658653	2543.262115
834.975083	2490.330000
835.291469	2472.685962
835.607811	2475.206538
835.924110	2482.768269
836.240366	2480.247692
836.556578	2475.206538
836.872746	2505.453462
837.188871	2457.562500
837.504952	2455.041923
837.820990	2470.165385
838.136984	2452.521346
838.452935	2497.891731
838.768842	2457.562500
839.084706	2548.303269
839.400526	2414.712692
839.716303	2535.700385
840.032037	2462.603654
840.347727	2578.550192
840.663373	2452.521346
840.978977	2392.027500
841.294537	2492.850577
841.610054	2419.753846
841.925527	2447.480192
842.240957	2500.412308
842.556344	2550.823846
842.871687	2495.371154
843.186987	2414.712692
843.502244	2477.727115
843.817458	2490.330000
844.132629	2480.247692
844.447756	2548.303269
844.762840	2422.274423
845.077881	2563.426731
845.392879	2495.371154
845.707833	2540.741538
846.022745	2583.591346
846.337613	2404.630385
846.652438	2515.535769
846.967221	2492.850577
847.281960	2444.959615
847.596656	2510.494615
847.911309	2457.562500
848.225919	2502.932885
848.540485	2555.865000
848.855009	2492.850577
849.169490	2495.371154
849.483928	2467.644808
849.798323	2444.959615
850.112675	2543.262115
850.426984	2460.083077
850.741251	2452.521346
851.055474	2492.850577
851.369654	2528.138654
851.683792	2485.288846
851.997887	2444.959615
852.311938	2505.453462
852.625947	2465.124231
852.939914	2497.891731
853.253837	2467.644808
853.567718	2533.179808
853.881555	2518.056346
854.195350	2628.961731
854.509103	2452.521346
854.822812	2452.521346
855.136479	2520.576923
855.450103	2412.192115
855.763685	2492.850577
856.077224	2450.000769
856.390720	2394.548077
856.704173	2480.247692
857.017584	2460.083077
857.330953	2409.671538
857.644278	2530.659231
857.957561	2568.467885
858.270802	2520.576923
858.584000	2470.165385
858.897155	2490.330000
859.210268	2555.865000
859.523339	2477.727115
859.836367	2616.358846
860.149352	2465.124231
860.462295	2490.330000
860.775195	2497.891731
861.088054	2467.644808
861.400869	2497.891731
861.713642	2402.109808
862.026373	2480.247692
862.339062	2457.562500
862.651708	2497.891731
862.964312	2497.891731
863.276873	2530.659231
863.589392	2565.947308
863.901869	2487.809423
864.214303	2482.768269
864.526696	2568.467885
864.839045	2490.330000
865.151353	2467.644808
865.463619	2528.138654
865.775842	2530.659231
866.088023	2442.439038
866.400162	2470.165385
866.712258	2492.850577
867.024313	2518.056346
867.336325	2560.906154
867.648296	2525.618077
867.960224	2485.288846
868.272110	2490.330000
868.583954	2432.356731
868.895755	2520.576923
869.207515	2618.879423
869.519233	2502.932885
869.830909	2500.412308
870.142542	2490.330000
870.454134	2475.206538
870.765684	2507.974038
871.077191	2545.782692
871.388657	2545.782692
871.700081	2419.753846
872.011463	2412.192115
872.322803	2538.220962
872.634101	2497.891731
872.945357	2422.274423
873.256571	2500.412308
873.567744	2565.947308
873.878874	2462.603654
874.189963	2548.303269
874.501010	2480.247692
874.812015	2505.453462
875.122979	2427.315577
875.433900	2429.836154
875.744780	2482.768269
876.055618	2419.753846
876.366415	2558.385577
876.677169	2447.480192
876.987882	2520.576923
877.298554	2560.906154
877.609183	2460.083077
877.919771	2563.426731
878.230317	2558.385577
878.540822	2520.576923
878.851285	2560.906154
879.161707	2485.288846
879.472087	2470.165385
879.782425	2497.891731
880.092722	2500.412308
880.402977	2535.700385
880.713191	2507.974038
881.023363	2500.412308
881.333494	2523.097500
881.643583	2480.247692
881.953631	2477.727115
882.263637	2507.974038
882.573602	2470.165385
882.883526	2530.659231
883.193408	2439.918462
883.503248	2482.768269
883.813048	2477.727115
884.122806	2530.659231
884.432522	2460.083077
884.742197	2465.124231
885.051831	2500.412308
885.361424	2487.809423
885.670975	2495.371154
885.980485	2565.947308
886.289954	2528.138654
886.599382	2379.424615
886.908768	2482.768269
887.218113	2462.603654
887.527417	2578.550192
887.836680	2558.385577
888.145901	2439.918462
888.455082	2450.000769
888.764221	2419.753846
889.073319	2543.262115
889.382376	2457.562500
889.691392	2520.576923
890.000366	2520.576923
890.309300	2535.700385
890.618193	2460.083077
890.927044	2487.809423
891.235855	2394.548077
891.544625	2485.288846
891.853353	2558.385577
892.162041	2530.659231
892.470687	2618.879423
892.779293	2563.426731
893.087858	2467.644808
893.396381	2502.932885
893.704864	2530.659231
894.013306	2402.109808
894.321707	2490.330000
894.630068	2452.521346
894.938387	2465.124231
895.246665	2530.659231
895.554903	2490.330000
895.863100	2505.453462
896.171256	2429.836154
896.479371	2447.480192
896.787446	2565.947308
897.095480	2485.288846
897.403473	2397.068654
897.711425	2510.494615
898.019336	2568.467885
898.327207	2492.850577
898.635038	2507.974038
898.942827	2502.932885
899.250576	2434.877308
899.558284	2422.274423
899.865952	2560.906154
900.173579	2392.027500
900.481165	2434.877308
900.788711	2543.262115
901.096216	2424.795000
901.403681	2515.535769
901.711105	2480.247692
902.018489	2447.480192
902.325832	2515.535769
902.633135	2447.480192
902.940397	2518.056346
903.247619	2470.165385
903.554800	2457.562500
903.861941	2442.439038
904.169041	2437.397885
904.476101	2492.850577
904.783121	2485.288846
905.090100	2502.932885
905.397039	2470.165385
905.703938	2482.768269
906.010796	2520.576923
906.317614	2502.932885
906.624391	2455.041923
906.931129	2540.741538
907.237826	2490.330000
907.544483	2505.453462
907.851099	2480.247692
908.157675	2548.303269
908.464211	2545.782692
908.770707	2495.371154
909.077163	2497.891731
909.383578	2500.412308
909.689954	2447.480192
909.996289	2533.179808
910.302584	2518.056346
910.608839	2472.685962
910.915054	2500.412308
911.221229	2593.673654
911.527363	2419.753846
911.833458	2573.509038
912.139513	2565.947308
912.445527	2581.070769
912.751502	2505.453462
913.057436	2495.371154
913.363331	2419.753846
913.669186	2457.562500
913.975000	2535.700385
914.280775	2457.562500
914.586510	2477.727115
914.892205	2510.494615
915.197859	2528.138654
915.503475	2482.768269
915.809050	2568.467885
916.114585	2492.850577
916.420081	2505.453462
916.725536	2492.850577
917.030952	2530.659231
917.336328	2502.932885
917.641665	2535.700385
917.946961	2523.097500
918.252218	2485.288846
918.557435	2535.700385
918.862612	2460.083077
919.167750	2497.891731
919.472848	2540.741538
919.777906	2548.303269
920.082925	2457.562500
920.387904	2434.877308
920.692843	2467.644808
920.997743	2530.659231
921.302603	2417.233269
921.607423	2533.179808
921.912204	2618.879423
922.216946	2432.356731
922.521647	2500.412308
922.826310	2482.768269
923.130932	2510.494615
923.435516	2492.850577
923.740059	2495.371154
924.044564	2570.988462
924.349028	2500.412308
924.653454	2515.535769
924.957840	2510.494615
925.262186	2447.480192
925.566493	2505.453462
925.870761	2495.371154
926.174989	2462.603654
926.479178	2530.659231
926.783328	2528.138654
927.087438	2492.850577
927.391509	2507.974038
927.695541	2490.330000
927.999533	2465.124231
928.303486	2583.591346
928.607400	2429.836154
928.911275	2442.439038
929.215110	2475.206538
929.518906	2533.179808
929.822663	2465.124231
930.126381	2495.371154
930.430060	2500.412308
930.733699	2457.562500
931.037299	2455.041923
931.340861	2477.727115
931.644383	2437.397885
931.947866	2500.412308
932.251309	2568.467885
932.554714	2492.850577
932.858080	2492.850577
933.161407	2523.097500
933.464694	2404.630385
933.767943	2477.727115
934.071153	2500.412308
934.374323	2470.165385
934.677455	2470.165385
934.980548	2553.344423
935.283602	2457.562500
935.586617	2570.988462
935.889593	2439.918462
936.192530	2505.453462
936.495428	2480.247692
936.798287	2487.809423
937.101108	2374.383462
937.403890	2525.618077
937.706632	2457.562500
938.009336	2470.165385
938.312002	2528.138654
938.614628	2472.685962
938.917216	2447.480192
939.219765	2563.426731
939.522275	2424.795000
939.824747	2492.850577
940.127179	2581.070769
940.429573	2472.685962
940.731929	2495.371154
941.034246	2472.685962
941.336524	2480.247692
941.638763	2414.712692
941.940964	2520.576923
942.243126	2467.644808
942.545250	2455.041923
942.847335	2525.618077
943.149381	2518.056346
943.451389	2480.247692
943.753359	2558.385577
944.055290	2442.439038
944.357182	2447.480192
944.659036	2553.344423
944.960851	2495.371154
945.262628	2492.850577
945.564367	2439.918462
945.866067	2543.262115
946.167729	2530.659231
946.469352	2442.439038
946.770937	2485.288846
947.072484	2389.506923
947.373992	2510.494615
947.675462	2505.453462
947.976893	2414.712692
948.278286	2518.056346
948.579641	2424.795000
948.880958	2510.494615
949.182236	2538.220962
949.483476	2472.685962
949.784678	2447.480192
950.085841	2523.097500
950.386967	2545.782692
950.688054	2442.439038
950.989103	2480.247692
951.290114	2412.192115
951.591087	2399.589231
951.892021	2502.932885
952.192917	2555.865000
952.493776	2419.753846
952.794596	2545.782692
953.095378	2444.959615
953.396122	2550.823846
953.696828	2487.809423
953.997496	2465.124231
954.298126	2487.809423
954.598718	2462.603654
954.899272	2480.247692
955.199788	2457.562500
955.500266	2502.932885
955.800706	2447.480192
956.101108	2550.823846
956.401472	2490.330000
956.701798	2513.015192
957.002087	2520.576923
957.302337	2573.509038
957.602550	2444.959615
957.902724	2520.576923
958.202861	2555.865000
958.502960	2495.371154
958.803022	2490.330000
959.103045	2528.138654
959.403031	2520.576923
959.702979	2538.220962
960.002889	2477.727115
960.302762	2444.959615
960.602596	2427.315577
960.902393	2470.165385
961.202153	2412.192115
961.501875	2432.356731
961.801559	2447.480192
962.101205	2497.891731
962.400814	2450.000769
962.700385	2540.741538
962.999918	2475.206538
963.299414	2513.015192
963.598873	2507.974038
963.898293	2495.371154
964.197677	2480.247692
964.497022	2518.056346
964.796331	2500.412308
965.095601	2588.632500
965.394835	2487.809423
965.694030	2485.288846
965.993189	2563.426731
966.292309	2550.823846
966.591393	2518.056346
966.890439	2523.097500
967.189447	2507.974038
967.488419	2460.083077
967.787353	2480.247692
968.086249	2523.097500
968.385108	2500.412308
968.683930	2452.521346
968.982714	2555.865000
969.281462	2470.165385
969.580172	2485.288846
969.878844	2384.465769
970.177480	2490.330000
970.476078	2457.562500
970.774639	2535.700385
971.073162	2497.891731
971.371649	2533.179808
971.670098	2470.165385
971.968510	2538.220962
972.266885	2513.015192
972.565223	2432.356731
972.863524	2530.659231
973.161788	2475.206538
973.460014	2447.480192
973.758204	2540.741538
974.056356	2460.083077
974.354471	2475.206538
974.652550	2462.603654
974.950591	2598.714808
975.248595	2545.782692
975.546563	2439.918462
975.844493	2477.727115
976.142386	2500.412308
976.440243	2558.385577
976.738062	2528.138654
977.035845	2535.700385
977.333590	2487.809423
977.631299	2510.494615
977.928971	2492.850577
978.226606	2482.768269
978.524204	2548.303269
978.821765	2467.644808
979.119290	2555.865000
979.416777	2490.330000
979.714228	2480.247692
980.011642	2462.603654
980.309020	2437.397885
980.606360	2482.768269
980.903664	2535.700385
981.200931	2444.959615
981.498162	2510.494615
981.795356	2538.220962
982.092513	2515.535769
982.389633	2457.562500
982.686717	2462.603654
982.983764	2439.918462
983.280775	2447.480192
983.577749	2492.850577
983.874686	2447.480192
984.171587	2490.330000
984.468451	2480.247692
984.765279	2502.932885
985.062070	2540.741538
985.358824	2412.192115
985.655543	2470.165385
985.952224	2450.000769
986.248869	2520.576923
986.545478	2450.000769
986.842050	2470.165385
987.138586	2505.453462
987.435086	2399.589231
987.731549	2555.865000
988.027975	2606.276538
988.324366	2515.535769
988.620719	2528.138654
988.917037	2490.330000
989.213318	2472.685962
989.509563	2432.356731
989.805772	2528.138654
990.101944	2427.315577
990.398080	2530.659231
990.694180	2450.000769
990.990244	2535.700385
991.286271	2442.439038
991.582262	2518.056346
991.878217	2525.618077
992.174136	2465.124231
992.470019	2497.891731
992.765865	2515.535769
993.061676	2407.150962
993.357450	2507.974038
993.653188	2492.850577
993.948890	2437.397885
994.244556	2523.097500
994.540186	2477.727115
994.835780	2432.356731
995.131337	2404.630385
995.426859	2452.521346
995.722345	2460.083077
996.017795	2472.685962
996.313208	2480.247692
996.608586	2492.850577
996.903928	2565.947308
997.199234	2500.412308
997.494504	2434.877308
997.789738	2455.041923
998.084936	2450.000769
998.380099	2558.385577
998.675225	2581.070769
998.970316	2437.397885
999.265371	2568.467885
999.560390	2545.782692
999.855373	2487.809423
1000.150320	2550.823846
1000.445232	2548.303269
1000.740108	2492.850577
1001.034948	2523.097500
1001.329752	2442.439038
1001.624521	2520.576923
1001.919254	2402.109808
1002.213951	2485.288846
1002.508613	2480.247692
1002.803239	2525.618077
1003.097829	2434.877308
1003.392384	2510.494615
1003.686903	2548.303269
1003.981386	2419.753846
1004.275834	2598.714808
1004.570246	2427.315577
1004.864623	2485.288846
1005.158964	2523.097500
1005.453270	2591.153077
1005.747540	2528.138654
1006.041775	2492.850577
1006.335974	2497.891731
1006.630138	2490.330000
1006.924266	2475.206538
1007.218359	2452.521346
1007.512416	2505.453462
1007.806438	2472.685962
1008.100425	2485.288846
1008.394376	2518.056346
1008.688292	2480.247692
1008.982172	2598.714808
1009.276017	2540.741538
1009.569827	2497.891731
1009.863602	2477.727115
1010.157341	2576.029615
1010.451045	2502.932885
1010.744714	2460.083077
1011.038347	2417.233269
1011.331945	2482.768269
1011.625508	2462.603654
1011.919036	2500.412308
1012.212528	2485.288846
1012.505986	2477.727115
1012.799408	2450.000769
1013.092795	2510.494615
1013.386147	2510.494615
1013.679464	2533.179808
1013.972745	2502.932885
1014.265992	2520.576923
1014.559204	2490.330000
1014.852380	2545.782692
1015.145521	2535.700385
1015.438628	2485.288846
1015.731699	2530.659231
1016.024736	2409.671538
1016.317737	2457.562500
1016.610703	2442.439038
1016.903635	2442.439038
1017.196531	2530.659231
1017.489393	2495.371154
1017.782219	2487.809423
1018.075011	2485.288846
1018.367768	2480.247692
1018.660490	2510.494615
1018.953177	2510.494615
1019.245829	2510.494615
