Dividing Wavelength (nm)	Counts (n)	Blue Motor Position (mm): 0.000000	Red Motor Position (mm): 4.900000	
326.493990	2122.325769
326.888308	2122.325769
327.282561	2122.325769
327.676750	2059.311346
328.070874	2097.120000
328.464933	2079.475962
328.858929	2066.873077
329.252859	2074.434808
329.646726	2117.284615
330.040528	2112.243462
330.434265	2122.325769
330.827938	2162.655000
331.221547	2145.010962
331.615091	2223.148846
332.008571	2129.887500
332.401986	2311.369038
332.795338	2245.834038
333.188625	2195.422500
333.581847	2255.916346
333.975006	2283.642692
334.368100	2339.095385
334.761129	2321.451346
335.154095	2316.410192
335.546996	2351.698269
335.939833	2281.122115
336.332606	2308.848462
336.725315	2354.218846
337.117960	2412.192115
337.510540	2404.630385
337.903056	2399.589231
338.295508	2465.124231
338.687896	2381.945192
339.080220	2485.288846
339.472480	2492.850577
339.864676	2465.124231
340.256807	2437.397885
340.648875	2480.247692
341.040879	2513.015192
341.432818	2505.453462
341.824694	2442.439038
342.216506	2462.603654
342.608253	2495.371154
342.999937	2520.576923
343.391557	2442.439038
343.783113	2465.124231
344.174605	2545.782692
344.566033	2487.809423
344.957397	2550.823846
345.348697	2591.153077
345.739934	2447.480192
346.131106	2472.685962
346.522215	2432.356731
346.913260	2490.330000
347.304241	2520.576923
347.695159	2482.768269
348.086012	2560.906154
348.476802	2591.153077
348.867528	2475.206538
349.258191	2434.877308
349.648789	2470.165385
350.039324	2475.206538
350.429796	2495.371154
350.820203	2397.068654
351.210548	2397.068654
351.600828	2485.288846
351.991045	2467.644808
352.381198	2386.986346
352.771288	2462.603654
353.161314	2482.768269
353.551276	2462.603654
353.941175	2361.780577
354.331010	2407.150962
354.720782	2465.124231
355.110490	2404.630385
355.500135	2460.083077
355.889717	2455.041923
356.279235	2447.480192
356.668689	2447.480192
357.058080	2437.397885
357.447408	2520.576923
357.836672	2381.945192
358.225873	2407.150962
358.615010	2427.315577
359.004084	2407.150962
359.393095	2460.083077
359.782043	2384.465769
360.170927	2417.233269
360.559748	2346.657115
360.948505	2497.891731
361.337199	2439.918462
361.725830	2513.015192
362.114398	2442.439038
362.502903	2518.056346
362.891344	2392.027500
363.279722	2490.330000
363.668037	2369.342308
364.056289	2480.247692
364.444478	2477.727115
364.832603	2465.124231
365.220665	2419.753846
365.608665	2354.218846
365.996601	2510.494615
366.384474	2432.356731
366.772284	2487.809423
367.160031	2389.506923
367.547715	2452.521346
367.935336	2450.000769
368.322893	2515.535769
368.710388	2386.986346
369.097820	2419.753846
369.485189	2374.383462
369.872495	2419.753846
370.259738	2523.097500
370.646918	2442.439038
371.034035	2510.494615
371.421090	2397.068654
371.808081	2444.959615
372.195010	2570.988462
372.581875	2434.877308
372.968678	2439.918462
373.355418	2462.603654
373.742096	2477.727115
374.128710	2384.465769
374.515262	2482.768269
374.901751	2455.041923
375.288177	2465.124231
375.674540	2447.480192
376.060841	2518.056346
376.447079	2500.412308
376.833254	2452.521346
377.219367	2462.603654
377.605417	2487.809423
377.991404	2457.562500
378.377329	2429.836154
378.763191	2525.618077
379.148991	2470.165385
379.534727	2538.220962
379.920402	2472.685962
380.306013	2419.753846
380.691563	2467.644808
381.077049	2505.453462
381.462474	2432.356731
381.847835	2455.041923
382.233134	2465.124231
382.618371	2523.097500
383.003545	2437.397885
383.388657	2455.041923
383.773706	2548.303269
384.158693	2573.509038
384.543618	2525.618077
384.928480	2462.603654
385.313280	2422.274423
385.698017	2422.274423
386.082692	2399.589231
386.467305	2502.932885
386.851856	2455.041923
387.236344	2535.700385
387.620770	2429.836154
388.005133	2490.330000
388.389435	2419.753846
388.773674	2477.727115
389.157851	2457.562500
389.541965	2439.918462
389.926018	2525.618077
390.310008	2455.041923
390.693936	2528.138654
391.077802	2376.904038
391.461606	2475.206538
391.845348	2417.233269
392.229027	2553.344423
392.612645	2462.603654
392.996200	2386.986346
393.379694	2513.015192
393.763125	2447.480192
394.146494	2490.330000
394.529801	2455.041923
394.913047	2407.150962
395.296230	2520.576923
395.679351	2442.439038
396.062410	2485.288846
396.445408	2392.027500
396.828343	2563.426731
397.211217	2520.576923
397.594028	2460.083077
397.976778	2487.809423
398.359466	2424.795000
398.742092	2465.124231
399.124656	2369.342308
399.507158	2565.947308
399.889598	2457.562500
400.271977	2437.397885
400.654294	2482.768269
401.036549	2530.659231
401.418742	2538.220962
401.800874	2386.986346
402.182944	2543.262115
402.564952	2490.330000
402.946898	2450.000769
403.328783	2437.397885
403.710606	2427.315577
404.092367	2460.083077
404.474067	2434.877308
404.855705	2515.535769
405.237282	2477.727115
405.618797	2462.603654
406.000250	2455.041923
406.381642	2422.274423
406.762972	2492.850577
407.144240	2482.768269
407.525447	2480.247692
407.906593	2477.727115
408.287677	2505.453462
408.668700	2530.659231
409.049661	2540.741538
409.430560	2480.247692
409.811399	2518.056346
410.192176	2422.274423
410.572891	2525.618077
410.953545	2419.753846
411.334138	2510.494615
411.714669	2442.439038
412.095139	2460.083077
412.475547	2497.891731
412.855894	2414.712692
413.236180	2404.630385
413.616405	2450.000769
413.996568	2530.659231
414.376670	2427.315577
414.756711	2462.603654
415.136691	2518.056346
415.516609	2439.918462
415.896466	2475.206538
416.276262	2533.179808
416.655997	2369.342308
417.035670	2437.397885
417.415283	2460.083077
417.794834	2492.850577
418.174324	2510.494615
418.553753	2545.782692
418.933121	2462.603654
419.312428	2510.494615
419.691674	2444.959615
420.070859	2500.412308
420.449983	2467.644808
420.829045	2520.576923
421.208047	2500.412308
421.586988	2533.179808
421.965867	2490.330000
422.344686	2472.685962
422.723444	2394.548077
423.102141	2495.371154
423.480777	2550.823846
423.859352	2490.330000
424.237866	2399.589231
424.616319	2492.850577
424.994712	2417.233269
425.373044	2485.288846
425.751314	2545.782692
426.129524	2485.288846
426.507673	2490.330000
426.885762	2452.521346
427.263789	2437.397885
427.641756	2477.727115
428.019662	2507.974038
428.397508	2495.371154
428.775292	2490.330000
429.153016	2573.509038
429.530679	2487.809423
429.908282	2533.179808
430.285824	2457.562500
430.663305	2465.124231
431.040726	2439.918462
431.418086	2462.603654
431.795385	2475.206538
432.172624	2502.932885
432.549802	2472.685962
432.926920	2495.371154
433.303977	2520.576923
433.680974	2523.097500
434.057910	2419.753846
434.434786	2404.630385
434.811601	2412.192115
435.188355	2439.918462
435.565050	2545.782692
435.941683	2570.988462
436.318257	2452.521346
436.694770	2434.877308
437.071222	2470.165385
437.447614	2432.356731
437.823946	2525.618077
438.200218	2404.630385
438.576429	2492.850577
438.952580	2515.535769
439.328670	2455.041923
439.704700	2543.262115
440.080670	2427.315577
440.456580	2495.371154
440.832429	2487.809423
441.208218	2507.974038
441.583947	2515.535769
441.959616	2487.809423
442.335224	2492.850577
442.710773	2482.768269
443.086261	2467.644808
443.461689	2497.891731
443.837057	2518.056346
444.212365	2555.865000
444.587612	2434.877308
444.962800	2518.056346
445.337927	2538.220962
445.712995	2447.480192
446.088002	2447.480192
446.462949	2452.521346
446.837837	2477.727115
447.212664	2437.397885
447.587431	2538.220962
447.962139	2417.233269
448.336786	2495.371154
448.711374	2417.233269
449.085901	2462.603654
449.460369	2507.974038
449.834776	2518.056346
450.209124	2467.644808
450.583412	2472.685962
450.957640	2530.659231
451.331808	2437.397885
451.705917	2442.439038
452.079965	2502.932885
452.453954	2475.206538
452.827883	2586.111923
453.201752	2528.138654
453.575562	2434.877308
453.949311	2535.700385
454.323001	2487.809423
454.696632	2553.344423
455.070202	2558.385577
455.443713	2558.385577
455.817164	2422.274423
456.190556	2518.056346
456.563888	2414.712692
456.937160	2437.397885
457.310373	2462.603654
457.683526	2424.795000
458.056619	2447.480192
458.429653	2462.603654
458.802628	2513.015192
459.175542	2480.247692
459.548398	2538.220962
459.921194	2518.056346
460.293930	2475.206538
460.666607	2465.124231
461.039224	2470.165385
461.411782	2513.015192
461.784280	2467.644808
462.156719	2558.385577
462.529099	2457.562500
462.901419	2429.836154
463.273680	2545.782692
463.645882	2427.315577
464.018024	2457.562500
464.390106	2528.138654
464.762130	2414.712692
465.134094	2523.097500
465.505999	2462.603654
465.877845	2507.974038
466.249631	2447.480192
466.621358	2497.891731
466.993026	2480.247692
467.364634	2520.576923
467.736184	2482.768269
468.107674	2523.097500
468.479105	2492.850577
468.850477	2525.618077
469.221790	2490.330000
469.593043	2520.576923
469.964238	2495.371154
470.335373	2520.576923
470.706449	2422.274423
471.077467	2399.589231
471.448425	2475.206538
471.819324	2507.974038
472.190164	2560.906154
472.560945	2525.618077
472.931667	2444.959615
473.302330	2502.932885
473.672934	2452.521346
474.043479	2455.041923
474.413965	2462.603654
474.784393	2482.768269
475.154761	2490.330000
475.525070	2560.906154
475.895321	2513.015192
476.265513	2424.795000
476.635645	2465.124231
477.005719	2450.000769
477.375734	2515.535769
477.745691	2455.041923
478.115588	2386.986346
478.485427	2457.562500
478.855207	2404.630385
479.224928	2462.603654
479.594591	2492.850577
479.964194	2513.015192
480.333739	2437.397885
480.703226	2457.562500
481.072653	2495.371154
481.442022	2495.371154
481.811333	2480.247692
482.180584	2487.809423
482.549777	2538.220962
482.918912	2477.727115
483.287988	2482.768269
483.657005	2475.206538
484.025964	2528.138654
484.394864	2513.015192
484.763706	2533.179808
485.132489	2525.618077
485.501213	2548.303269
485.869879	2467.644808
486.238487	2560.906154
486.607036	2475.206538
486.975527	2497.891731
487.343959	2482.768269
487.712333	2502.932885
488.080648	2439.918462
488.448905	2573.509038
488.817104	2462.603654
489.185244	2550.823846
489.553326	2545.782692
489.921350	2450.000769
490.289315	2505.453462
490.657222	2444.959615
491.025070	2480.247692
491.392861	2492.850577
491.760593	2555.865000
492.128267	2578.550192
492.495883	2507.974038
492.863440	2470.165385
493.230939	2495.371154
493.598380	2533.179808
493.965763	2462.603654
494.333088	2513.015192
494.700354	2455.041923
495.067563	2407.150962
495.434713	2475.206538
495.801805	2480.247692
496.168839	2470.165385
496.535815	2518.056346
496.902733	2457.562500
497.269593	2477.727115
497.636395	2480.247692
498.003139	2555.865000
498.369825	2492.850577
498.736453	2457.562500
499.103023	2467.644808
499.469535	2460.083077
499.835989	2457.562500
500.202385	2560.906154
500.568723	2472.685962
500.935003	2523.097500
501.301226	2485.288846
501.667390	2613.838269
502.033497	2565.947308
502.399546	2439.918462
502.765537	2581.070769
503.131470	2513.015192
503.497345	2500.412308
503.863163	2533.179808
504.228923	2460.083077
504.594625	2455.041923
504.960269	2460.083077
505.325856	2460.083077
505.691385	2450.000769
506.056856	2565.947308
506.422270	2472.685962
506.787625	2490.330000
507.152924	2404.630385
507.518164	2555.865000
507.883347	2457.562500
508.248472	2450.000769
508.613540	2475.206538
508.978550	2502.932885
509.343503	2442.439038
509.708398	2507.974038
510.073236	2510.494615
510.438016	2543.262115
510.802738	2394.548077
511.167403	2429.836154
511.532010	2518.056346
511.896561	2505.453462
512.261053	2495.371154
512.625488	2533.179808
512.989866	2515.535769
513.354186	2467.644808
513.718449	2442.439038
514.082655	2502.932885
514.446803	2394.548077
514.810894	2497.891731
515.174927	2558.385577
515.538904	2570.988462
515.902822	2470.165385
516.266684	2442.439038
516.630488	2528.138654
516.994235	2553.344423
517.357925	2485.288846
517.721558	2455.041923
518.085133	2515.535769
518.448651	2487.809423
518.812112	2505.453462
519.175516	2497.891731
519.538863	2563.426731
519.902152	2487.809423
520.265385	2513.015192
520.628560	2513.015192
520.991678	2487.809423
521.354739	2475.206538
521.717743	2487.809423
522.080690	2419.753846
522.443580	2414.712692
522.806413	2513.015192
523.169189	2472.685962
523.531908	2422.274423
523.894569	2490.330000
524.257174	2553.344423
524.619722	2470.165385
524.982213	2465.124231
525.344647	2510.494615
525.707025	2495.371154
526.069345	2480.247692
526.431608	2475.206538
526.793815	2437.397885
527.155964	2525.618077
527.518057	2543.262115
527.880093	2555.865000
528.242072	2543.262115
528.603995	2477.727115
528.965860	2538.220962
529.327669	2520.576923
529.689421	2492.850577
530.051117	2409.671538
530.412755	2497.891731
530.774337	2492.850577
531.135862	2505.453462
531.497331	2530.659231
531.858743	2535.700385
532.220098	2548.303269
532.581396	2434.877308
532.942638	2533.179808
533.303824	2576.029615
533.664953	2513.015192
534.026025	2593.673654
534.387040	2543.262115
534.747999	2495.371154
535.108902	2543.262115
535.469748	2570.988462
535.830537	2505.453462
536.191270	2540.741538
536.551947	2482.768269
536.912567	2555.865000
537.273131	2475.206538
537.633638	2502.932885
537.994089	2439.918462
538.354483	2510.494615
538.714821	2467.644808
539.075103	2573.509038
539.435328	2560.906154
539.795497	2581.070769
540.155609	2545.782692
540.515665	2563.426731
540.875665	2560.906154
541.235609	2495.371154
541.595496	2540.741538
541.955328	2477.727115
542.315102	2570.988462
542.674821	2530.659231
543.034483	2467.644808
543.394090	2444.959615
543.753640	2407.150962
544.113134	2485.288846
544.472571	2495.371154
544.831953	2528.138654
545.191278	2442.439038
545.550548	2447.480192
545.909761	2543.262115
546.268918	2593.673654
546.628019	2482.768269
546.987064	2495.371154
547.346053	2588.632500
547.704986	2560.906154
548.063863	2480.247692
548.422684	2485.288846
548.781449	2548.303269
549.140158	2477.727115
549.498811	2586.111923
549.857408	2450.000769
550.215949	2432.356731
550.574434	2397.068654
550.932864	2487.809423
551.291237	2482.768269
551.649555	2450.000769
552.007817	2485.288846
552.366022	2477.727115
552.724173	2457.562500
553.082267	2389.506923
553.440305	2465.124231
553.798288	2432.356731
554.156215	2548.303269
554.514086	2472.685962
554.871902	2570.988462
555.229661	2482.768269
555.587365	2515.535769
555.945014	2482.768269
556.302606	2515.535769
556.660143	2510.494615
557.017625	2560.906154
557.375050	2487.809423
557.732421	2581.070769
558.089735	2492.850577
558.446994	2455.041923
558.804197	2510.494615
559.161345	2447.480192
559.518437	2591.153077
559.875474	2495.371154
560.232455	2573.509038
560.589381	2480.247692
560.946251	2492.850577
561.303065	2465.124231
561.659825	2543.262115
562.016528	2419.753846
562.373177	2369.342308
562.729770	2576.029615
563.086307	2502.932885
563.442789	2540.741538
563.799216	2475.206538
564.155587	2429.836154
564.511904	2573.509038
564.868164	2515.535769
565.224370	2525.618077
565.580520	2538.220962
565.936615	2444.959615
566.292654	2505.453462
566.648638	2427.315577
567.004567	2593.673654
567.360441	2452.521346
567.716260	2502.932885
568.072023	2482.768269
568.427732	2548.303269
568.783385	2591.153077
569.138982	2460.083077
569.494525	2576.029615
569.850013	2495.371154
570.205445	2523.097500
570.560823	2490.330000
570.916145	2525.618077
571.271412	2538.220962
571.626625	2467.644808
571.981782	2535.700385
572.336884	2465.124231
572.691931	2518.056346
573.046923	2462.603654
573.401860	2492.850577
573.756743	2487.809423
574.111570	2507.974038
574.466342	2507.974038
574.821059	2530.659231
575.175722	2500.412308
575.530330	2482.768269
575.884882	2457.562500
576.239380	2462.603654
576.593823	2495.371154
576.948211	2495.371154
577.302544	2495.371154
577.656823	2442.439038
578.011047	2535.700385
578.365216	2533.179808
578.719330	2538.220962
579.073389	2513.015192
579.427394	2500.412308
579.781344	2507.974038
580.135239	2525.618077
580.489080	2437.397885
580.842866	2500.412308
581.196597	2429.836154
581.550273	2497.891731
581.903895	2462.603654
582.257463	2502.932885
582.610975	2470.165385
582.964434	2500.412308
583.317837	2502.932885
583.671186	2500.412308
584.024481	2586.111923
584.377721	2470.165385
584.730906	2565.947308
585.084037	2560.906154
585.437113	2429.836154
585.790135	2427.315577
586.143103	2500.412308
586.496016	2513.015192
586.848874	2460.083077
587.201679	2434.877308
587.554428	2538.220962
587.907124	2570.988462
588.259765	2530.659231
588.612352	2470.165385
588.964884	2513.015192
589.317362	2477.727115
589.669786	2455.041923
590.022155	2465.124231
590.374470	2510.494615
590.726731	2515.535769
591.078937	2518.056346
591.431090	2407.150962
591.783188	2472.685962
592.135232	2505.453462
592.487222	2533.179808
592.839157	2502.932885
593.191038	2548.303269
593.542866	2475.206538
593.894639	2467.644808
594.246358	2414.712692
594.598022	2450.000769
594.949633	2482.768269
595.301190	2432.356731
595.652692	2507.974038
596.004141	2482.768269
596.355535	2490.330000
596.706876	2525.618077
597.058162	2490.330000
597.409395	2543.262115
597.760573	2581.070769
598.111698	2581.070769
598.462768	2477.727115
598.813785	2495.371154
599.164748	2520.576923
599.515657	2530.659231
599.866511	2515.535769
600.217312	2533.179808
600.568060	2487.809423
600.918753	2465.124231
601.269392	2480.247692
601.619978	2462.603654
601.970510	2475.206538
602.320988	2563.426731
602.671412	2432.356731
603.021783	2439.918462
603.372100	2480.247692
603.722363	2427.315577
604.072572	2545.782692
604.422728	2495.371154
604.772830	2455.041923
605.122878	2495.371154
605.472872	2452.521346
605.822813	2528.138654
606.172701	2472.685962
606.522534	2432.356731
606.872314	2507.974038
607.222041	2460.083077
607.571714	2487.809423
607.921333	2545.782692
608.270899	2520.576923
608.620411	2437.397885
608.969870	2555.865000
609.319276	2402.109808
609.668627	2487.809423
610.017926	2424.795000
610.367171	2538.220962
610.716362	2513.015192
611.065500	2515.535769
611.414585	2462.603654
611.763616	2482.768269
612.112594	2603.755962
612.461518	2455.041923
612.810389	2477.727115
613.159207	2470.165385
613.507971	2525.618077
613.856682	2520.576923
614.205340	2437.397885
614.553945	2588.632500
614.902496	2424.795000
615.250994	2553.344423
615.599439	2414.712692
615.947830	2467.644808
616.296169	2618.879423
616.644454	2497.891731
616.992686	2455.041923
617.340864	2487.809423
617.688990	2518.056346
618.037063	2472.685962
618.385082	2523.097500
618.733048	2578.550192
619.080961	2523.097500
619.428821	2528.138654
619.776628	2530.659231
620.124382	2480.247692
620.472083	2553.344423
620.819731	2465.124231
621.167326	2598.714808
621.514868	2460.083077
621.862357	2510.494615
622.209793	2555.865000
622.557176	2533.179808
622.904506	2442.439038
623.251783	2485.288846
623.599007	2444.959615
623.946179	2452.521346
624.293297	2495.371154
624.640363	2525.618077
624.987376	2487.809423
625.334336	2538.220962
625.681243	2520.576923
626.028097	2442.439038
626.374899	2497.891731
626.721647	2497.891731
627.068343	2482.768269
627.414987	2621.400000
627.761577	2475.206538
628.108115	2442.439038
628.454600	2402.109808
628.801032	2510.494615
629.147412	2444.959615
629.493739	2533.179808
629.840014	2424.795000
630.186236	2485.288846
630.532405	2515.535769
630.878521	2538.220962
631.224585	2429.836154
631.570597	2548.303269
631.916556	2467.644808
632.262462	2538.220962
632.608316	2432.356731
632.954117	2576.029615
633.299866	2553.344423
633.645562	2482.768269
633.991206	2497.891731
634.336797	2460.083077
634.682336	2447.480192
635.027823	2540.741538
635.373257	2465.124231
635.718639	2518.056346
636.063968	2475.206538
636.409245	2513.015192
636.754470	2530.659231
637.099642	2437.397885
637.444762	2502.932885
637.789829	2457.562500
638.134845	2510.494615
638.479808	2505.453462
638.824719	2482.768269
639.169577	2535.700385
639.514383	2467.644808
639.859137	2470.165385
640.203839	2502.932885
640.548489	2475.206538
640.893086	2513.015192
641.237632	2447.480192
641.582125	2434.877308
641.926566	2515.535769
642.270955	2472.685962
642.615292	2450.000769
642.959576	2422.274423
643.303809	2437.397885
643.647990	2462.603654
643.992118	2450.000769
644.336195	2470.165385
644.680219	2444.959615
645.024192	2477.727115
645.368112	2470.165385
645.711981	2530.659231
646.055797	2480.247692
646.399562	2492.850577
646.743274	2502.932885
647.086935	2444.959615
647.430544	2505.453462
647.774101	2470.165385
648.117606	2515.535769
648.461059	2394.548077
648.804460	2563.426731
649.147810	2548.303269
649.491108	2409.671538
649.834354	2482.768269
650.177548	2502.932885
650.520690	2570.988462
650.863781	2482.768269
651.206820	2485.288846
651.549807	2444.959615
651.892742	2550.823846
652.235626	2369.342308
652.578458	2470.165385
652.921238	2487.809423
653.263967	2482.768269
653.606644	2480.247692
653.949269	2535.700385
654.291843	2525.618077
654.634365	2462.603654
654.976836	2490.330000
655.319255	2525.618077
655.661622	2518.056346
656.003938	2578.550192
656.346203	2576.029615
656.688416	2444.959615
657.030577	2492.850577
657.372687	2507.974038
657.714746	2502.932885
658.056753	2487.809423
658.398708	2447.480192
658.740612	2399.589231
659.082465	2553.344423
659.424266	2495.371154
659.766016	2472.685962
660.107715	2502.932885
660.449362	2540.741538
660.790958	2475.206538
661.132503	2558.385577
661.473996	2374.383462
661.815438	2450.000769
662.156829	2455.041923
662.498168	2513.015192
662.839456	2538.220962
663.180693	2472.685962
663.521879	2550.823846
663.863013	2518.056346
664.204097	2535.700385
664.545129	2573.509038
664.886110	2465.124231
665.227040	2510.494615
665.567918	2502.932885
665.908746	2538.220962
666.249522	2525.618077
666.590248	2472.685962
666.930922	2555.865000
667.271545	2485.288846
667.612118	2538.220962
667.952639	2543.262115
668.293109	2450.000769
668.633528	2533.179808
668.973896	2462.603654
669.314213	2513.015192
669.654480	2485.288846
669.994695	2560.906154
670.334859	2409.671538
670.674973	2399.589231
671.015035	2455.041923
671.355047	2457.562500
671.695008	2490.330000
672.034918	2535.700385
672.374777	2545.782692
672.714585	2492.850577
673.054342	2457.562500
673.394049	2465.124231
673.733705	2583.591346
674.073310	2417.233269
674.412864	2545.782692
674.752368	2497.891731
675.091820	2523.097500
675.431223	2460.083077
675.770574	2472.685962
676.109875	2553.344423
676.449125	2518.056346
676.788324	2555.865000
677.127473	2550.823846
677.466571	2465.124231
677.805619	2424.795000
678.144616	2442.439038
678.483562	2462.603654
678.822458	2500.412308
679.161303	2518.056346
679.500098	2457.562500
679.838842	2495.371154
680.177535	2455.041923
680.516179	2525.618077
680.854771	2437.397885
681.193314	2528.138654
681.531805	2417.233269
681.870247	2437.397885
682.208638	2523.097500
682.546978	2452.521346
682.885268	2462.603654
683.223508	2492.850577
683.561697	2528.138654
683.899836	2500.412308
684.237925	2520.576923
684.575963	2414.712692
684.913951	2475.206538
685.251889	2477.727115
685.589776	2576.029615
685.927614	2480.247692
686.265401	2533.179808
686.603137	2492.850577
686.940824	2523.097500
687.278460	2452.521346
687.616046	2535.700385
687.953582	2495.371154
688.291068	2475.206538
688.628504	2495.371154
688.965889	2455.041923
689.303224	2467.644808
689.640510	2513.015192
689.977745	2432.356731
690.314930	2533.179808
690.652065	2447.480192
690.989150	2523.097500
691.326185	2455.041923
691.663170	2444.959615
692.000105	2485.288846
692.336990	2482.768269
692.673825	2500.412308
693.010610	2588.632500
693.347345	2422.274423
693.684030	2482.768269
694.020665	2439.918462
694.357251	2475.206538
694.693786	2457.562500
695.030272	2530.659231
695.366707	2500.412308
695.703093	2520.576923
696.039429	2528.138654
696.375716	2447.480192
696.711952	2344.136538
697.048139	2490.330000
697.384276	2450.000769
697.720363	2492.850577
698.056400	2513.015192
698.392388	2568.467885
698.728326	2490.330000
699.064214	2455.041923
699.400053	2490.330000
699.735842	2439.918462
700.071581	2462.603654
700.407270	2465.124231
700.742910	2568.467885
701.078501	2515.535769
701.414042	2470.165385
701.749533	2560.906154
702.084974	2452.521346
702.420366	2558.385577
702.755709	2472.685962
703.091002	2530.659231
703.426246	2550.823846
703.761440	2480.247692
704.096584	2603.755962
704.431679	2460.083077
704.766725	2500.412308
705.101721	2520.576923
705.436668	2495.371154
705.771565	2470.165385
706.106413	2465.124231
706.441212	2480.247692
706.775961	2470.165385
707.110661	2538.220962
707.445311	2470.165385
707.779913	2472.685962
708.114465	2490.330000
708.448967	2450.000769
708.783421	2482.768269
709.117825	2550.823846
709.452180	2470.165385
709.786485	2480.247692
710.120742	2535.700385
710.454949	2495.371154
710.789107	2429.836154
711.123216	2515.535769
711.457275	2434.877308
711.791286	2538.220962
712.125247	2528.138654
712.459159	2465.124231
712.793023	2462.603654
713.126837	2427.315577
713.460602	2513.015192
713.794318	2482.768269
714.127985	2507.974038
714.461602	2565.947308
714.795171	2497.891731
715.128691	2545.782692
715.462162	2520.576923
715.795584	2538.220962
716.128957	2487.809423
716.462281	2588.632500
716.795556	2427.315577
717.128782	2555.865000
717.461960	2502.932885
717.795088	2492.850577
718.128167	2507.974038
718.461198	2427.315577
718.794180	2497.891731
719.127113	2480.247692
719.459997	2555.865000
719.792833	2588.632500
720.125619	2472.685962
720.458357	2467.644808
720.791046	2460.083077
721.123686	2528.138654
721.456278	2528.138654
721.788821	2460.083077
722.121315	2513.015192
722.453761	2525.618077
722.786158	2523.097500
723.118506	2528.138654
723.450805	2576.029615
723.783056	2450.000769
724.115259	2507.974038
724.447412	2515.535769
724.779518	2523.097500
725.111574	2482.768269
725.443582	2515.535769
725.775542	2462.603654
726.107453	2492.850577
726.439315	2510.494615
726.771129	2505.453462
727.102895	2528.138654
727.434612	2495.371154
727.766281	2475.206538
728.097901	2439.918462
728.429473	2452.521346
728.760996	2417.233269
729.092471	2487.809423
729.423897	2462.603654
729.755276	2495.371154
730.086606	2565.947308
730.417887	2533.179808
730.749120	2437.397885
731.080305	2434.877308
731.411442	2497.891731
731.742530	2467.644808
732.073570	2576.029615
732.404562	2553.344423
732.735506	2538.220962
733.066401	2477.727115
733.397249	2538.220962
733.728048	2533.179808
734.058798	2510.494615
734.389501	2533.179808
734.720156	2513.015192
735.050762	2568.467885
735.381320	2490.330000
735.711831	2490.330000
736.042293	2485.288846
736.372707	2530.659231
736.703073	2487.809423
737.033391	2485.288846
737.363661	2596.194231
737.693883	2487.809423
738.024056	2586.111923
738.354182	2477.727115
738.684260	2533.179808
739.014290	2487.809423
739.344272	2507.974038
739.674207	2613.838269
740.004093	2558.385577
740.333931	2485.288846
740.663722	2472.685962
740.993464	2513.015192
741.323159	2470.165385
741.652806	2392.027500
741.982405	2447.480192
742.311956	2520.576923
742.641460	2434.877308
742.970915	2465.124231
743.300323	2545.782692
743.629683	2497.891731
743.958996	2500.412308
744.288260	2497.891731
744.617477	2482.768269
744.946647	2477.727115
745.275768	2518.056346
745.604842	2465.124231
745.933869	2462.603654
746.262847	2565.947308
746.591778	2528.138654
746.920662	2518.056346
747.249498	2487.809423
747.578286	2505.453462
747.907027	2518.056346
748.235720	2502.932885
748.564365	2513.015192
748.892963	2487.809423
749.221514	2573.509038
749.550017	2497.891731
749.878473	2510.494615
750.206881	2455.041923
750.535242	2523.097500
750.863555	2576.029615
751.191821	2523.097500
751.520039	2475.206538
751.848210	2432.356731
752.176334	2520.576923
752.504411	2578.550192
752.832440	2490.330000
753.160421	2513.015192
753.488356	2444.959615
753.816243	2525.618077
754.144082	2492.850577
754.471875	2545.782692
754.799620	2515.535769
755.127318	2437.397885
755.454969	2492.850577
755.782572	2470.165385
756.110129	2487.809423
756.437638	2477.727115
756.765100	2502.932885
757.092515	2510.494615
757.419882	2510.494615
757.747203	2523.097500
758.074477	2432.356731
758.401703	2520.576923
758.728882	2570.988462
759.056014	2439.918462
759.383099	2515.535769
759.710138	2475.206538
760.037129	2535.700385
760.364073	2455.041923
760.690970	2505.453462
761.017820	2502.932885
761.344623	2487.809423
761.671379	2477.727115
761.998088	2538.220962
762.324751	2442.439038
762.651366	2560.906154
762.977935	2422.274423
763.304456	2528.138654
763.630931	2482.768269
763.957359	2606.276538
764.283740	2480.247692
764.610074	2490.330000
764.936362	2578.550192
765.262602	2485.288846
765.588796	2467.644808
765.914943	2525.618077
766.241044	2485.288846
766.567097	2502.932885
766.893104	2492.850577
767.219064	2502.932885
767.544978	2507.974038
767.870845	2487.809423
768.196665	2550.823846
768.522438	2424.795000
768.848165	2485.288846
769.173846	2472.685962
769.499479	2533.179808
769.825066	2429.836154
770.150607	2492.850577
770.476101	2452.521346
770.801548	2545.782692
771.126949	2450.000769
771.452303	2540.741538
771.777611	2485.288846
772.102872	2515.535769
772.428087	2563.426731
772.753256	2540.741538
773.078378	2555.865000
773.403453	2477.727115
773.728482	2533.179808
774.053465	2450.000769
774.378401	2490.330000
774.703291	2472.685962
775.028135	2432.356731
775.352932	2485.288846
775.677683	2455.041923
776.002388	2485.288846
776.327046	2465.124231
776.651658	2490.330000
776.976224	2573.509038
777.300743	2548.303269
777.625216	2507.974038
777.949643	2432.356731
778.274024	2515.535769
778.598359	2505.453462
778.922647	2437.397885
779.246889	2472.685962
779.571086	2485.288846
779.895236	2482.768269
780.219339	2487.809423
780.543397	2402.109808
780.867409	2535.700385
781.191374	2492.850577
781.515294	2490.330000
781.839167	2548.303269
782.162995	2424.795000
782.486776	2502.932885
782.810511	2480.247692
783.134201	2439.918462
783.457844	2447.480192
783.781441	2472.685962
784.104993	2510.494615
784.428498	2565.947308
784.751958	2510.494615
785.075372	2578.550192
785.398739	2576.029615
785.722061	2505.453462
786.045337	2482.768269
786.368568	2510.494615
786.691752	2477.727115
787.014891	2513.015192
787.337983	2513.015192
787.661030	2550.823846
787.984031	2490.330000
788.306987	2533.179808
788.629897	2465.124231
788.952760	2525.618077
789.275579	2540.741538
789.598351	2485.288846
789.921078	2409.671538
790.243759	2533.179808
790.566395	2442.439038
790.888984	2495.371154
791.211529	2457.562500
791.534027	2374.383462
791.856480	2455.041923
792.178888	2389.506923
792.501249	2487.809423
792.823566	2472.685962
793.145836	2482.768269
793.468062	2442.439038
793.790241	2596.194231
794.112375	2487.809423
794.434464	2475.206538
794.756507	2450.000769
795.078505	2444.959615
795.400457	2437.397885
795.722364	2543.262115
796.044226	2472.685962
796.366042	2505.453462
796.687812	2538.220962
797.009538	2492.850577
797.331218	2515.535769
797.652852	2460.083077
797.974442	2392.027500
798.295986	2513.015192
798.617484	2450.000769
798.938938	2447.480192
799.260346	2480.247692
799.581709	2525.618077
799.903026	2500.412308
800.224299	2495.371154
800.545526	2502.932885
800.866708	2429.836154
801.187845	2492.850577
801.508936	2490.330000
801.829983	2533.179808
802.150984	2485.288846
802.471940	2505.453462
802.792851	2414.712692
803.113717	2510.494615
803.434538	2424.795000
803.755314	2502.932885
804.076045	2558.385577
804.396731	2608.797115
804.717372	2480.247692
805.037967	2457.562500
805.358518	2480.247692
805.679024	2487.809423
805.999485	2492.850577
806.319901	2394.548077
806.640272	2553.344423
806.960598	2450.000769
807.280879	2472.685962
807.601115	2500.412308
807.921306	2457.562500
808.241453	2470.165385
808.561554	2465.124231
808.881611	2495.371154
809.201623	2460.083077
809.521590	2452.521346
809.841513	2450.000769
810.161390	2513.015192
810.481223	2487.809423
810.801011	2560.906154
811.120755	2439.918462
811.440453	2485.288846
811.760107	2495.371154
812.079716	2538.220962
812.399281	2530.659231
812.718801	2540.741538
813.038276	2432.356731
813.357707	2502.932885
813.677093	2492.850577
813.996434	2515.535769
814.315731	2419.753846
814.634983	2495.371154
814.954191	2470.165385
815.273354	2465.124231
815.592473	2543.262115
815.911547	2434.877308
816.230577	2467.644808
816.549562	2480.247692
816.868502	2523.097500
817.187399	2535.700385
817.506250	2492.850577
817.825058	2578.550192
818.143821	2495.371154
818.462539	2394.548077
818.781213	2513.015192
819.099843	2470.165385
819.418429	2482.768269
819.736970	2553.344423
820.055466	2533.179808
820.373919	2535.700385
820.692327	2576.029615
821.010691	2460.083077
821.329011	2505.453462
821.647286	2470.165385
821.965517	2432.356731
822.283704	2523.097500
822.601847	2520.576923
822.919945	2442.439038
823.237999	2525.618077
823.556010	2545.782692
823.873976	2439.918462
824.191897	2495.371154
824.509775	2485.288846
824.827609	2502.932885
825.145398	2487.809423
825.463144	2429.836154
825.780845	2462.603654
826.098502	2482.768269
826.416116	2520.576923
826.733685	2457.562500
827.051210	2495.371154
827.368692	2439.918462
827.686129	2520.576923
828.003522	2444.959615
828.320872	2487.809423
828.638177	2543.262115
828.955439	2404.630385
829.272656	2540.741538
829.589830	2477.727115
829.906960	2538.220962
830.224046	2490.330000
830.541088	2533.179808
830.858086	2455.041923
831.175041	2487.809423
831.491952	2417.233269
831.808819	2485.288846
832.125642	2475.206538
832.442421	2563.426731
832.759157	2447.480192
833.075849	2462.603654
833.392497	2417.233269
833.709101	2513.015192
834.025662	2480.247692
834.342179	2467.644808
834.658653	2550.823846
834.975083	2447.480192
835.291469	2530.659231
835.607811	2414.712692
835.924110	2528.138654
836.240366	2550.823846
836.556578	2543.262115
836.872746	2505.453462
837.188871	2618.879423
837.504952	2452.521346
837.820990	2444.959615
838.136984	2550.823846
838.452935	2492.850577
838.768842	2518.056346
839.084706	2555.865000
839.400526	2543.262115
839.716303	2545.782692
840.032037	2379.424615
840.347727	2513.015192
840.663373	2553.344423
840.978977	2455.041923
841.294537	2507.974038
841.610054	2535.700385
841.925527	2480.247692
842.240957	2490.330000
842.556344	2482.768269
842.871687	2568.467885
843.186987	2487.809423
843.502244	2460.083077
843.817458	2495.371154
844.132629	2490.330000
844.447756	2457.562500
844.762840	2528.138654
845.077881	2409.671538
845.392879	2477.727115
845.707833	2485.288846
846.022745	2371.862885
846.337613	2487.809423
846.652438	2465.124231
846.967221	2573.509038
847.281960	2497.891731
847.596656	2460.083077
847.911309	2492.850577
848.225919	2482.768269
848.540485	2550.823846
848.855009	2502.932885
849.169490	2540.741538
849.483928	2450.000769
849.798323	2540.741538
850.112675	2480.247692
850.426984	2455.041923
850.741251	2465.124231
851.055474	2500.412308
851.369654	2439.918462
851.683792	2495.371154
851.997887	2467.644808
852.311938	2477.727115
852.625947	2465.124231
852.939914	2384.465769
853.253837	2497.891731
853.567718	2437.397885
853.881555	2538.220962
854.195350	2548.303269
854.509103	2492.850577
854.822812	2457.562500
855.136479	2472.685962
855.450103	2518.056346
855.763685	2518.056346
856.077224	2505.453462
856.390720	2467.644808
856.704173	2555.865000
857.017584	2467.644808
857.330953	2583.591346
857.644278	2553.344423
857.957561	2477.727115
858.270802	2462.603654
858.584000	2497.891731
858.897155	2510.494615
859.210268	2530.659231
859.523339	2528.138654
859.836367	2535.700385
860.149352	2477.727115
860.462295	2475.206538
860.775195	2515.535769
861.088054	2507.974038
861.400869	2452.521346
861.713642	2497.891731
862.026373	2513.015192
862.339062	2553.344423
862.651708	2477.727115
862.964312	2490.330000
863.276873	2507.974038
863.589392	2555.865000
863.901869	2485.288846
864.214303	2492.850577
864.526696	2520.576923
864.839045	2538.220962
865.151353	2528.138654
865.463619	2482.768269
865.775842	2540.741538
866.088023	2515.535769
866.400162	2548.303269
866.712258	2462.603654
867.024313	2540.741538
867.336325	2404.630385
867.648296	2518.056346
867.960224	2507.974038
868.272110	2540.741538
868.583954	2465.124231
868.895755	2442.439038
869.207515	2437.397885
869.519233	2497.891731
869.830909	2424.795000
870.142542	2452.521346
870.454134	2424.795000
870.765684	2462.603654
871.077191	2523.097500
871.388657	2523.097500
871.700081	2424.795000
872.011463	2583.591346
872.322803	2495.371154
872.634101	2500.412308
872.945357	2455.041923
873.256571	2462.603654
873.567744	2505.453462
873.878874	2402.109808
874.189963	2434.877308
874.501010	2502.932885
874.812015	2490.330000
875.122979	2573.509038
875.433900	2414.712692
875.744780	2502.932885
876.055618	2560.906154
876.366415	2475.206538
876.677169	2550.823846
876.987882	2462.603654
877.298554	2455.041923
877.609183	2480.247692
877.919771	2548.303269
878.230317	2520.576923
878.540822	2540.741538
878.851285	2507.974038
879.161707	2450.000769
879.472087	2452.521346
879.782425	2500.412308
880.092722	2460.083077
880.402977	2563.426731
880.713191	2460.083077
881.023363	2439.918462
881.333494	2530.659231
881.643583	2505.453462
881.953631	2550.823846
882.263637	2460.083077
882.573602	2525.618077
882.883526	2444.959615
883.193408	2548.303269
883.503248	2545.782692
883.813048	2485.288846
884.122806	2447.480192
884.432522	2518.056346
884.742197	2543.262115
885.051831	2482.768269
885.361424	2427.315577
885.670975	2417.233269
885.980485	2477.727115
886.289954	2475.206538
886.599382	2510.494615
886.908768	2487.809423
887.218113	2528.138654
887.527417	2477.727115
887.836680	2507.974038
888.145901	2495.371154
888.455082	2523.097500
888.764221	2497.891731
889.073319	2558.385577
889.382376	2427.315577
889.691392	2452.521346
890.000366	2460.083077
890.309300	2518.056346
890.618193	2507.974038
890.927044	2528.138654
891.235855	2485.288846
891.544625	2480.247692
891.853353	2502.932885
892.162041	2507.974038
892.470687	2533.179808
892.779293	2472.685962
893.087858	2465.124231
893.396381	2480.247692
893.704864	2518.056346
894.013306	2434.877308
894.321707	2581.070769
894.630068	2467.644808
894.938387	2545.782692
895.246665	2402.109808
895.554903	2497.891731
895.863100	2424.795000
896.171256	2462.603654
896.479371	2583.591346
896.787446	2399.589231
897.095480	2477.727115
897.403473	2452.521346
897.711425	2560.906154
898.019336	2444.959615
898.327207	2470.165385
898.635038	2513.015192
898.942827	2444.959615
899.250576	2475.206538
899.558284	2437.397885
899.865952	2465.124231
900.173579	2565.947308
900.481165	2492.850577
900.788711	2447.480192
901.096216	2548.303269
901.403681	2477.727115
901.711105	2518.056346
902.018489	2495.371154
902.325832	2417.233269
902.633135	2497.891731
902.940397	2437.397885
903.247619	2482.768269
903.554800	2492.850577
903.861941	2472.685962
904.169041	2477.727115
904.476101	2528.138654
904.783121	2535.700385
905.090100	2455.041923
905.397039	2505.453462
905.703938	2457.562500
906.010796	2462.603654
906.317614	2513.015192
906.624391	2497.891731
906.931129	2497.891731
907.237826	2492.850577
907.544483	2475.206538
907.851099	2495.371154
908.157675	2502.932885
908.464211	2467.644808
908.770707	2515.535769
909.077163	2487.809423
909.383578	2528.138654
909.689954	2475.206538
909.996289	2412.192115
910.302584	2482.768269
910.608839	2462.603654
910.915054	2452.521346
911.221229	2502.932885
911.527363	2490.330000
911.833458	2525.618077
912.139513	2495.371154
912.445527	2455.041923
912.751502	2520.576923
913.057436	2510.494615
913.363331	2507.974038
913.669186	2442.439038
913.975000	2518.056346
914.280775	2535.700385
914.586510	2505.453462
914.892205	2467.644808
915.197859	2475.206538
915.503475	2538.220962
915.809050	2482.768269
916.114585	2467.644808
916.420081	2548.303269
916.725536	2452.521346
917.030952	2502.932885
917.336328	2560.906154
917.641665	2437.397885
917.946961	2578.550192
918.252218	2475.206538
918.557435	2570.988462
918.862612	2490.330000
919.167750	2492.850577
919.472848	2533.179808
919.777906	2472.685962
920.082925	2565.947308
920.387904	2434.877308
920.692843	2570.988462
920.997743	2495.371154
921.302603	2490.330000
921.607423	2477.727115
921.912204	2507.974038
922.216946	2576.029615
922.521647	2502.932885
922.826310	2505.453462
923.130932	2538.220962
923.435516	2386.986346
923.740059	2553.344423
924.044564	2450.000769
924.349028	2452.521346
924.653454	2442.439038
924.957840	2482.768269
925.262186	2439.918462
925.566493	2500.412308
925.870761	2450.000769
926.174989	2495.371154
926.479178	2424.795000
926.783328	2581.070769
927.087438	2450.000769
927.391509	2586.111923
927.695541	2507.974038
927.999533	2553.344423
928.303486	2550.823846
928.607400	2414.712692
928.911275	2523.097500
929.215110	2412.192115
929.518906	2475.206538
929.822663	2505.453462
930.126381	2523.097500
930.430060	2581.070769
930.733699	2399.589231
931.037299	2533.179808
931.340861	2598.714808
931.644383	2525.618077
931.947866	2485.288846
932.251309	2555.865000
932.554714	2455.041923
932.858080	2513.015192
933.161407	2563.426731
933.464694	2477.727115
933.767943	2492.850577
934.071153	2457.562500
934.374323	2520.576923
934.677455	2444.959615
934.980548	2482.768269
935.283602	2485.288846
935.586617	2437.397885
935.889593	2465.124231
936.192530	2437.397885
936.495428	2530.659231
936.798287	2397.068654
937.101108	2583.591346
937.403890	2513.015192
937.706632	2467.644808
938.009336	2510.494615
938.312002	2513.015192
938.614628	2510.494615
938.917216	2475.206538
939.219765	2487.809423
939.522275	2550.823846
939.824747	2560.906154
940.127179	2434.877308
940.429573	2507.974038
940.731929	2502.932885
941.034246	2520.576923
941.336524	2480.247692
941.638763	2452.521346
941.940964	2472.685962
942.243126	2525.618077
942.545250	2480.247692
942.847335	2455.041923
943.149381	2480.247692
943.451389	2404.630385
943.753359	2492.850577
944.055290	2495.371154
944.357182	2487.809423
944.659036	2475.206538
944.960851	2467.644808
945.262628	2500.412308
945.564367	2492.850577
945.866067	2472.685962
946.167729	2447.480192
946.469352	2422.274423
946.770937	2424.795000
947.072484	2480.247692
947.373992	2495.371154
947.675462	2422.274423
947.976893	2480.247692
948.278286	2487.809423
948.579641	2545.782692
948.880958	2593.673654
949.182236	2485.288846
949.483476	2500.412308
949.784678	2533.179808
950.085841	2492.850577
950.386967	2520.576923
950.688054	2502.932885
950.989103	2505.453462
951.290114	2450.000769
951.591087	2576.029615
951.892021	2550.823846
952.192917	2389.506923
952.493776	2482.768269
952.794596	2500.412308
953.095378	2477.727115
953.396122	2450.000769
953.696828	2470.165385
953.997496	2460.083077
954.298126	2540.741538
954.598718	2538.220962
954.899272	2424.795000
955.199788	2460.083077
955.500266	2414.712692
955.800706	2485.288846
956.101108	2543.262115
956.401472	2477.727115
956.701798	2429.836154
957.002087	2528.138654
957.302337	2407.150962
957.602550	2520.576923
957.902724	2457.562500
958.202861	2550.823846
958.502960	2472.685962
958.803022	2487.809423
959.103045	2480.247692
959.403031	2558.385577
959.702979	2460.083077
960.002889	2525.618077
960.302762	2457.562500
960.602596	2429.836154
960.902393	2417.233269
961.202153	2500.412308
961.501875	2482.768269
961.801559	2386.986346
962.101205	2475.206538
962.400814	2548.303269
962.700385	2586.111923
962.999918	2465.124231
963.299414	2513.015192
963.598873	2432.356731
963.898293	2538.220962
964.197677	2548.303269
964.497022	2457.562500
964.796331	2470.165385
965.095601	2394.548077
965.394835	2437.397885
965.694030	2497.891731
965.993189	2543.262115
966.292309	2510.494615
966.591393	2513.015192
966.890439	2457.562500
967.189447	2507.974038
967.488419	2515.535769
967.787353	2560.906154
968.086249	2495.371154
968.385108	2407.150962
968.683930	2482.768269
968.982714	2482.768269
969.281462	2465.124231
969.580172	2457.562500
969.878844	2492.850577
970.177480	2429.836154
970.476078	2455.041923
970.774639	2573.509038
971.073162	2492.850577
971.371649	2480.247692
971.670098	2475.206538
971.968510	2507.974038
972.266885	2480.247692
972.565223	2470.165385
972.863524	2450.000769
973.161788	2492.850577
973.460014	2543.262115
973.758204	2500.412308
974.056356	2490.330000
974.354471	2460.083077
974.652550	2465.124231
974.950591	2545.782692
975.248595	2444.959615
975.546563	2540.741538
975.844493	2495.371154
976.142386	2533.179808
976.440243	2497.891731
976.738062	2492.850577
977.035845	2455.041923
977.333590	2447.480192
977.631299	2475.206538
977.928971	2482.768269
978.226606	2490.330000
978.524204	2371.862885
978.821765	2477.727115
979.119290	2533.179808
979.416777	2510.494615
979.714228	2515.535769
980.011642	2444.959615
980.309020	2507.974038
980.606360	2455.041923
980.903664	2495.371154
981.200931	2513.015192
981.498162	2593.673654
981.795356	2502.932885
982.092513	2492.850577
982.389633	2477.727115
982.686717	2419.753846
982.983764	2460.083077
983.280775	2470.165385
983.577749	2540.741538
983.874686	2407.150962
984.171587	2550.823846
984.468451	2510.494615
984.765279	2570.988462
985.062070	2500.412308
985.358824	2513.015192
985.655543	2434.877308
985.952224	2455.041923
986.248869	2394.548077
986.545478	2480.247692
986.842050	2480.247692
987.138586	2518.056346
987.435086	2397.068654
987.731549	2492.850577
988.027975	2611.317692
988.324366	2460.083077
988.620719	2548.303269
988.917037	2452.521346
989.213318	2495.371154
989.509563	2565.947308
989.805772	2429.836154
990.101944	2427.315577
990.398080	2530.659231
990.694180	2548.303269
990.990244	2497.891731
991.286271	2460.083077
991.582262	2528.138654
991.878217	2535.700385
992.174136	2412.192115
992.470019	2442.439038
992.765865	2540.741538
993.061676	2452.521346
993.357450	2482.768269
993.653188	2424.795000
993.948890	2530.659231
994.244556	2455.041923
994.540186	2581.070769
994.835780	2470.165385
995.131337	2472.685962
995.426859	2475.206538
995.722345	2442.439038
996.017795	2424.795000
996.313208	2505.453462
996.608586	2535.700385
996.903928	2472.685962
997.199234	2530.659231
997.494504	2407.150962
997.789738	2437.397885
998.084936	2497.891731
998.380099	2465.124231
998.675225	2495.371154
998.970316	2452.521346
999.265371	2432.356731
999.560390	2497.891731
999.855373	2447.480192
1000.150320	2502.932885
1000.445232	2434.877308
1000.740108	2540.741538
1001.034948	2513.015192
1001.329752	2457.562500
1001.624521	2480.247692
1001.919254	2482.768269
1002.213951	2404.630385
1002.508613	2530.659231
1002.803239	2487.809423
1003.097829	2520.576923
1003.392384	2500.412308
1003.686903	2472.685962
1003.981386	2586.111923
1004.275834	2482.768269
1004.570246	2470.165385
1004.864623	2535.700385
1005.158964	2434.877308
1005.453270	2533.179808
1005.747540	2450.000769
1006.041775	2465.124231
1006.335974	2452.521346
1006.630138	2487.809423
1006.924266	2475.206538
1007.218359	2460.083077
1007.512416	2538.220962
1007.806438	2444.959615
1008.100425	2578.550192
1008.394376	2487.809423
1008.688292	2495.371154
1008.982172	2578.550192
1009.276017	2442.439038
1009.569827	2482.768269
1009.863602	2538.220962
1010.157341	2482.768269
1010.451045	2492.850577
1010.744714	2495.371154
1011.038347	2475.206538
1011.331945	2437.397885
1011.625508	2470.165385
1011.919036	2515.535769
1012.212528	2513.015192
1012.505986	2528.138654
1012.799408	2538.220962
1013.092795	2439.918462
1013.386147	2487.809423
1013.679464	2515.535769
1013.972745	2437.397885
1014.265992	2457.562500
1014.559204	2429.836154
1014.852380	2487.809423
1015.145521	2497.891731
1015.438628	2407.150962
1015.731699	2533.179808
1016.024736	2510.494615
1016.317737	2548.303269
1016.610703	2548.303269
1016.903635	2467.644808
1017.196531	2525.618077
1017.489393	2480.247692
1017.782219	2502.932885
1018.075011	2412.192115
1018.367768	2548.303269
1018.660490	2452.521346
1018.953177	2452.521346
1019.245829	2452.521346
