Dividing Wavelength (nm)	Counts (n)	Blue Motor Position (mm): 0.000000	Red Motor Position (mm): 1.500000	
326.493990	2139.969808
326.888308	2139.969808
327.282561	2139.969808
327.676750	2117.284615
328.070874	2061.831923
328.464933	2081.996538
328.858929	2064.352500
329.252859	2056.790769
329.646726	2087.037692
330.040528	2170.216731
330.434265	2114.764038
330.827938	2255.916346
331.221547	2208.025385
331.615091	2208.025385
332.008571	2157.613846
332.401986	2205.504808
332.795338	2225.669423
333.188625	2238.272308
333.581847	2278.601538
333.975006	2318.930769
334.368100	2291.204423
334.761129	2281.122115
335.154095	2318.930769
335.546996	2379.424615
335.939833	2323.971923
336.332606	2424.795000
336.725315	2404.630385
337.117960	2359.260000
337.510540	2339.095385
337.903056	2371.862885
338.295508	2412.192115
338.687896	2513.015192
339.080220	2369.342308
339.472480	2369.342308
339.864676	2414.712692
340.256807	2570.988462
340.648875	2419.753846
341.040879	2470.165385
341.432818	2490.330000
341.824694	2497.891731
342.216506	2510.494615
342.608253	2560.906154
342.999937	2455.041923
343.391557	2434.877308
343.783113	2518.056346
344.174605	2505.453462
344.566033	2490.330000
344.957397	2482.768269
345.348697	2513.015192
345.739934	2442.439038
346.131106	2452.521346
346.522215	2480.247692
346.913260	2424.795000
347.304241	2414.712692
347.695159	2465.124231
348.086012	2495.371154
348.476802	2450.000769
348.867528	2417.233269
349.258191	2437.397885
349.648789	2381.945192
350.039324	2417.233269
350.429796	2409.671538
350.820203	2447.480192
351.210548	2407.150962
351.600828	2404.630385
351.991045	2492.850577
352.381198	2460.083077
352.771288	2376.904038
353.161314	2422.274423
353.551276	2442.439038
353.941175	2359.260000
354.331010	2444.959615
354.720782	2467.644808
355.110490	2495.371154
355.500135	2480.247692
355.889717	2409.671538
356.279235	2513.015192
356.668689	2427.315577
357.058080	2482.768269
357.447408	2434.877308
357.836672	2424.795000
358.225873	2424.795000
358.615010	2407.150962
359.004084	2359.260000
359.393095	2502.932885
359.782043	2346.657115
360.170927	2492.850577
360.559748	2422.274423
360.948505	2429.836154
361.337199	2444.959615
361.725830	2407.150962
362.114398	2525.618077
362.502903	2419.753846
362.891344	2450.000769
363.279722	2523.097500
363.668037	2472.685962
364.056289	2472.685962
364.444478	2490.330000
364.832603	2500.412308
365.220665	2409.671538
365.608665	2465.124231
365.996601	2409.671538
366.384474	2485.288846
366.772284	2419.753846
367.160031	2505.453462
367.547715	2452.521346
367.935336	2480.247692
368.322893	2427.315577
368.710388	2535.700385
369.097820	2477.727115
369.485189	2450.000769
369.872495	2359.260000
370.259738	2462.603654
370.646918	2402.109808
371.034035	2442.439038
371.421090	2439.918462
371.808081	2450.000769
372.195010	2444.959615
372.581875	2505.453462
372.968678	2384.465769
373.355418	2505.453462
373.742096	2434.877308
374.128710	2442.439038
374.515262	2427.315577
374.901751	2432.356731
375.288177	2523.097500
375.674540	2412.192115
376.060841	2520.576923
376.447079	2447.480192
376.833254	2485.288846
377.219367	2460.083077
377.605417	2409.671538
377.991404	2419.753846
378.377329	2432.356731
378.763191	2392.027500
379.148991	2475.206538
379.534727	2384.465769
379.920402	2495.371154
380.306013	2465.124231
380.691563	2490.330000
381.077049	2472.685962
381.462474	2442.439038
381.847835	2487.809423
382.233134	2447.480192
382.618371	2490.330000
383.003545	2334.054231
383.388657	2460.083077
383.773706	2427.315577
384.158693	2392.027500
384.543618	2465.124231
384.928480	2422.274423
385.313280	2490.330000
385.698017	2457.562500
386.082692	2490.330000
386.467305	2432.356731
386.851856	2465.124231
387.236344	2465.124231
387.620770	2402.109808
388.005133	2480.247692
388.389435	2470.165385
388.773674	2376.904038
389.157851	2432.356731
389.541965	2429.836154
389.926018	2450.000769
390.310008	2570.988462
390.693936	2442.439038
391.077802	2414.712692
391.461606	2465.124231
391.845348	2480.247692
392.229027	2510.494615
392.612645	2450.000769
392.996200	2513.015192
393.379694	2432.356731
393.763125	2465.124231
394.146494	2515.535769
394.529801	2485.288846
394.913047	2485.288846
395.296230	2505.453462
395.679351	2472.685962
396.062410	2346.657115
396.445408	2442.439038
396.828343	2422.274423
397.211217	2452.521346
397.594028	2424.795000
397.976778	2467.644808
398.359466	2470.165385
398.742092	2485.288846
399.124656	2475.206538
399.507158	2492.850577
399.889598	2492.850577
400.271977	2505.453462
400.654294	2492.850577
401.036549	2452.521346
401.418742	2596.194231
401.800874	2455.041923
402.182944	2502.932885
402.564952	2419.753846
402.946898	2570.988462
403.328783	2477.727115
403.710606	2356.739423
404.092367	2450.000769
404.474067	2424.795000
404.855705	2510.494615
405.237282	2528.138654
405.618797	2422.274423
406.000250	2409.671538
406.381642	2472.685962
406.762972	2475.206538
407.144240	2407.150962
407.525447	2525.618077
407.906593	2565.947308
408.287677	2470.165385
408.668700	2447.480192
409.049661	2366.821731
409.430560	2467.644808
409.811399	2407.150962
410.192176	2520.576923
410.572891	2467.644808
410.953545	2482.768269
411.334138	2472.685962
411.714669	2422.274423
412.095139	2490.330000
412.475547	2528.138654
412.855894	2485.288846
413.236180	2540.741538
413.616405	2439.918462
413.996568	2500.412308
414.376670	2457.562500
414.756711	2381.945192
415.136691	2500.412308
415.516609	2389.506923
415.896466	2520.576923
416.276262	2397.068654
416.655997	2480.247692
417.035670	2475.206538
417.415283	2485.288846
417.794834	2470.165385
418.174324	2477.727115
418.553753	2460.083077
418.933121	2437.397885
419.312428	2502.932885
419.691674	2485.288846
420.070859	2553.344423
420.449983	2455.041923
420.829045	2523.097500
421.208047	2429.836154
421.586988	2507.974038
421.965867	2460.083077
422.344686	2553.344423
422.723444	2520.576923
423.102141	2555.865000
423.480777	2457.562500
423.859352	2439.918462
424.237866	2434.877308
424.616319	2560.906154
424.994712	2578.550192
425.373044	2452.521346
425.751314	2545.782692
426.129524	2487.809423
426.507673	2465.124231
426.885762	2523.097500
427.263789	2480.247692
427.641756	2331.533654
428.019662	2502.932885
428.397508	2472.685962
428.775292	2470.165385
429.153016	2409.671538
429.530679	2535.700385
429.908282	2505.453462
430.285824	2444.959615
430.663305	2434.877308
431.040726	2510.494615
431.418086	2381.945192
431.795385	2492.850577
432.172624	2447.480192
432.549802	2407.150962
432.926920	2429.836154
433.303977	2490.330000
433.680974	2550.823846
434.057910	2462.603654
434.434786	2447.480192
434.811601	2510.494615
435.188355	2460.083077
435.565050	2530.659231
435.941683	2530.659231
436.318257	2447.480192
436.694770	2444.959615
437.071222	2535.700385
437.447614	2475.206538
437.823946	2419.753846
438.200218	2583.591346
438.576429	2482.768269
438.952580	2487.809423
439.328670	2492.850577
439.704700	2490.330000
440.080670	2470.165385
440.456580	2470.165385
440.832429	2412.192115
441.208218	2455.041923
441.583947	2480.247692
441.959616	2601.235385
442.335224	2505.453462
442.710773	2560.906154
443.086261	2457.562500
443.461689	2485.288846
443.837057	2480.247692
444.212365	2437.397885
444.587612	2480.247692
444.962800	2442.439038
445.337927	2472.685962
445.712995	2535.700385
446.088002	2472.685962
446.462949	2510.494615
446.837837	2470.165385
447.212664	2460.083077
447.587431	2487.809423
447.962139	2475.206538
448.336786	2470.165385
448.711374	2505.453462
449.085901	2495.371154
449.460369	2523.097500
449.834776	2427.315577
450.209124	2455.041923
450.583412	2497.891731
450.957640	2497.891731
451.331808	2510.494615
451.705917	2608.797115
452.079965	2457.562500
452.453954	2518.056346
452.827883	2472.685962
453.201752	2545.782692
453.575562	2563.426731
453.949311	2482.768269
454.323001	2558.385577
454.696632	2515.535769
455.070202	2402.109808
455.443713	2495.371154
455.817164	2480.247692
456.190556	2442.439038
456.563888	2497.891731
456.937160	2414.712692
457.310373	2528.138654
457.683526	2455.041923
458.056619	2424.795000
458.429653	2477.727115
458.802628	2543.262115
459.175542	2457.562500
459.548398	2533.179808
459.921194	2467.644808
460.293930	2427.315577
460.666607	2520.576923
461.039224	2381.945192
461.411782	2364.301154
461.784280	2422.274423
462.156719	2568.467885
462.529099	2424.795000
462.901419	2429.836154
463.273680	2467.644808
463.645882	2576.029615
464.018024	2482.768269
464.390106	2376.904038
464.762130	2465.124231
465.134094	2442.439038
465.505999	2573.509038
465.877845	2475.206538
466.249631	2528.138654
466.621358	2407.150962
466.993026	2490.330000
467.364634	2545.782692
467.736184	2462.603654
468.107674	2422.274423
468.479105	2467.644808
468.850477	2465.124231
469.221790	2392.027500
469.593043	2505.453462
469.964238	2495.371154
470.335373	2412.192115
470.706449	2457.562500
471.077467	2414.712692
471.448425	2417.233269
471.819324	2487.809423
472.190164	2515.535769
472.560945	2427.315577
472.931667	2417.233269
473.302330	2497.891731
473.672934	2543.262115
474.043479	2518.056346
474.413965	2523.097500
474.784393	2371.862885
475.154761	2563.426731
475.525070	2586.111923
475.895321	2513.015192
476.265513	2525.618077
476.635645	2394.548077
477.005719	2490.330000
477.375734	2417.233269
477.745691	2455.041923
478.115588	2487.809423
478.485427	2518.056346
478.855207	2465.124231
479.224928	2467.644808
479.594591	2523.097500
479.964194	2457.562500
480.333739	2417.233269
480.703226	2457.562500
481.072653	2447.480192
481.442022	2515.535769
481.811333	2482.768269
482.180584	2528.138654
482.549777	2603.755962
482.918912	2518.056346
483.287988	2523.097500
483.657005	2439.918462
484.025964	2528.138654
484.394864	2480.247692
484.763706	2507.974038
485.132489	2414.712692
485.501213	2535.700385
485.869879	2518.056346
486.238487	2510.494615
486.607036	2518.056346
486.975527	2477.727115
487.343959	2497.891731
487.712333	2523.097500
488.080648	2535.700385
488.448905	2528.138654
488.817104	2513.015192
489.185244	2497.891731
489.553326	2515.535769
489.921350	2502.932885
490.289315	2407.150962
490.657222	2470.165385
491.025070	2462.603654
491.392861	2422.274423
491.760593	2515.535769
492.128267	2397.068654
492.495883	2545.782692
492.863440	2530.659231
493.230939	2475.206538
493.598380	2472.685962
493.965763	2457.562500
494.333088	2553.344423
494.700354	2414.712692
495.067563	2487.809423
495.434713	2470.165385
495.801805	2472.685962
496.168839	2404.630385
496.535815	2548.303269
496.902733	2528.138654
497.269593	2505.453462
497.636395	2485.288846
498.003139	2538.220962
498.369825	2507.974038
498.736453	2563.426731
499.103023	2477.727115
499.469535	2533.179808
499.835989	2482.768269
500.202385	2432.356731
500.568723	2490.330000
500.935003	2402.109808
501.301226	2455.041923
501.667390	2470.165385
502.033497	2510.494615
502.399546	2389.506923
502.765537	2460.083077
503.131470	2497.891731
503.497345	2475.206538
503.863163	2490.330000
504.228923	2455.041923
504.594625	2540.741538
504.960269	2523.097500
505.325856	2497.891731
505.691385	2515.535769
506.056856	2467.644808
506.422270	2465.124231
506.787625	2510.494615
507.152924	2487.809423
507.518164	2502.932885
507.883347	2497.891731
508.248472	2543.262115
508.613540	2414.712692
508.978550	2376.904038
509.343503	2460.083077
509.708398	2437.397885
510.073236	2475.206538
510.438016	2583.591346
510.802738	2397.068654
511.167403	2460.083077
511.532010	2482.768269
511.896561	2477.727115
512.261053	2545.782692
512.625488	2523.097500
512.989866	2505.453462
513.354186	2434.877308
513.718449	2472.685962
514.082655	2482.768269
514.446803	2475.206538
514.810894	2523.097500
515.174927	2477.727115
515.538904	2570.988462
515.902822	2429.836154
516.266684	2492.850577
516.630488	2570.988462
516.994235	2487.809423
517.357925	2515.535769
517.721558	2475.206538
518.085133	2444.959615
518.448651	2424.795000
518.812112	2548.303269
519.175516	2502.932885
519.538863	2477.727115
519.902152	2467.644808
520.265385	2482.768269
520.628560	2417.233269
520.991678	2545.782692
521.354739	2447.480192
521.717743	2437.397885
522.080690	2389.506923
522.443580	2518.056346
522.806413	2538.220962
523.169189	2472.685962
523.531908	2472.685962
523.894569	2455.041923
524.257174	2523.097500
524.619722	2497.891731
524.982213	2480.247692
525.344647	2581.070769
525.707025	2513.015192
526.069345	2495.371154
526.431608	2497.891731
526.793815	2485.288846
527.155964	2409.671538
527.518057	2565.947308
527.880093	2568.467885
528.242072	2427.315577
528.603995	2467.644808
528.965860	2515.535769
529.327669	2523.097500
529.689421	2487.809423
530.051117	2492.850577
530.412755	2528.138654
530.774337	2538.220962
531.135862	2434.877308
531.497331	2563.426731
531.858743	2455.041923
532.220098	2528.138654
532.581396	2442.439038
532.942638	2452.521346
533.303824	2535.700385
533.664953	2442.439038
534.026025	2583.591346
534.387040	2460.083077
534.747999	2500.412308
535.108902	2523.097500
535.469748	2455.041923
535.830537	2515.535769
536.191270	2439.918462
536.551947	2414.712692
536.912567	2444.959615
537.273131	2553.344423
537.633638	2467.644808
537.994089	2530.659231
538.354483	2452.521346
538.714821	2487.809423
539.075103	2490.330000
539.435328	2644.085192
539.795497	2434.877308
540.155609	2485.288846
540.515665	2538.220962
540.875665	2530.659231
541.235609	2444.959615
541.595496	2548.303269
541.955328	2477.727115
542.315102	2523.097500
542.674821	2576.029615
543.034483	2548.303269
543.394090	2492.850577
543.753640	2462.603654
544.113134	2495.371154
544.472571	2598.714808
544.831953	2497.891731
545.191278	2515.535769
545.550548	2515.535769
545.909761	2533.179808
546.268918	2507.974038
546.628019	2598.714808
546.987064	2477.727115
547.346053	2528.138654
547.704986	2465.124231
548.063863	2502.932885
548.422684	2502.932885
548.781449	2543.262115
549.140158	2588.632500
549.498811	2457.562500
549.857408	2550.823846
550.215949	2490.330000
550.574434	2424.795000
550.932864	2437.397885
551.291237	2497.891731
551.649555	2530.659231
552.007817	2485.288846
552.366022	2523.097500
552.724173	2482.768269
553.082267	2447.480192
553.440305	2485.288846
553.798288	2472.685962
554.156215	2576.029615
554.514086	2545.782692
554.871902	2533.179808
555.229661	2578.550192
555.587365	2555.865000
555.945014	2492.850577
556.302606	2563.426731
556.660143	2470.165385
557.017625	2502.932885
557.375050	2452.521346
557.732421	2455.041923
558.089735	2540.741538
558.446994	2565.947308
558.804197	2429.836154
559.161345	2500.412308
559.518437	2513.015192
559.875474	2555.865000
560.232455	2543.262115
560.589381	2505.453462
560.946251	2465.124231
561.303065	2550.823846
561.659825	2507.974038
562.016528	2515.535769
562.373177	2427.315577
562.729770	2477.727115
563.086307	2465.124231
563.442789	2457.562500
563.799216	2507.974038
564.155587	2513.015192
564.511904	2482.768269
564.868164	2407.150962
565.224370	2598.714808
565.580520	2502.932885
565.936615	2434.877308
566.292654	2439.918462
566.648638	2502.932885
567.004567	2497.891731
567.360441	2530.659231
567.716260	2472.685962
568.072023	2495.371154
568.427732	2530.659231
568.783385	2397.068654
569.138982	2414.712692
569.494525	2414.712692
569.850013	2528.138654
570.205445	2570.988462
570.560823	2578.550192
570.916145	2507.974038
571.271412	2518.056346
571.626625	2477.727115
571.981782	2470.165385
572.336884	2381.945192
572.691931	2487.809423
573.046923	2492.850577
573.401860	2528.138654
573.756743	2485.288846
574.111570	2540.741538
574.466342	2467.644808
574.821059	2434.877308
575.175722	2427.315577
575.530330	2427.315577
575.884882	2505.453462
576.239380	2518.056346
576.593823	2513.015192
576.948211	2467.644808
577.302544	2482.768269
577.656823	2578.550192
578.011047	2462.603654
578.365216	2495.371154
578.719330	2528.138654
579.073389	2500.412308
579.427394	2447.480192
579.781344	2399.589231
580.135239	2462.603654
580.489080	2518.056346
580.842866	2515.535769
581.196597	2492.850577
581.550273	2555.865000
581.903895	2505.453462
582.257463	2477.727115
582.610975	2407.150962
582.964434	2500.412308
583.317837	2518.056346
583.671186	2376.904038
584.024481	2507.974038
584.377721	2523.097500
584.730906	2495.371154
585.084037	2593.673654
585.437113	2502.932885
585.790135	2472.685962
586.143103	2429.836154
586.496016	2518.056346
586.848874	2475.206538
587.201679	2495.371154
587.554428	2429.836154
587.907124	2535.700385
588.259765	2528.138654
588.612352	2513.015192
588.964884	2497.891731
589.317362	2515.535769
589.669786	2487.809423
590.022155	2502.932885
590.374470	2565.947308
590.726731	2472.685962
591.078937	2528.138654
591.431090	2437.397885
591.783188	2530.659231
592.135232	2502.932885
592.487222	2475.206538
592.839157	2392.027500
593.191038	2518.056346
593.542866	2570.988462
593.894639	2465.124231
594.246358	2593.673654
594.598022	2540.741538
594.949633	2432.356731
595.301190	2460.083077
595.652692	2427.315577
596.004141	2465.124231
596.355535	2576.029615
596.706876	2465.124231
597.058162	2455.041923
597.409395	2442.439038
597.760573	2462.603654
598.111698	2457.562500
598.462768	2442.439038
598.813785	2533.179808
599.164748	2525.618077
599.515657	2515.535769
599.866511	2492.850577
600.217312	2434.877308
600.568060	2515.535769
600.918753	2462.603654
601.269392	2482.768269
601.619978	2480.247692
601.970510	2553.344423
602.320988	2528.138654
602.671412	2480.247692
603.021783	2485.288846
603.372100	2470.165385
603.722363	2540.741538
604.072572	2442.439038
604.422728	2505.453462
604.772830	2497.891731
605.122878	2450.000769
605.472872	2581.070769
605.822813	2434.877308
606.172701	2528.138654
606.522534	2507.974038
606.872314	2576.029615
607.222041	2419.753846
607.571714	2578.550192
607.921333	2457.562500
608.270899	2528.138654
608.620411	2507.974038
608.969870	2540.741538
609.319276	2513.015192
609.668627	2507.974038
610.017926	2553.344423
610.367171	2487.809423
610.716362	2480.247692
611.065500	2439.918462
611.414585	2487.809423
611.763616	2450.000769
612.112594	2513.015192
612.461518	2480.247692
612.810389	2545.782692
613.159207	2533.179808
613.507971	2545.782692
613.856682	2570.988462
614.205340	2540.741538
614.553945	2528.138654
614.902496	2530.659231
615.250994	2417.233269
615.599439	2515.535769
615.947830	2520.576923
616.296169	2477.727115
616.644454	2500.412308
616.992686	2482.768269
617.340864	2558.385577
617.688990	2576.029615
618.037063	2492.850577
618.385082	2570.988462
618.733048	2485.288846
619.080961	2417.233269
619.428821	2477.727115
619.776628	2465.124231
620.124382	2520.576923
620.472083	2482.768269
620.819731	2447.480192
621.167326	2523.097500
621.514868	2573.509038
621.862357	2596.194231
622.209793	2495.371154
622.557176	2497.891731
622.904506	2530.659231
623.251783	2576.029615
623.599007	2477.727115
623.946179	2487.809423
624.293297	2482.768269
624.640363	2475.206538
624.987376	2437.397885
625.334336	2482.768269
625.681243	2558.385577
626.028097	2530.659231
626.374899	2497.891731
626.721647	2492.850577
627.068343	2480.247692
627.414987	2447.480192
627.761577	2460.083077
628.108115	2482.768269
628.454600	2535.700385
628.801032	2555.865000
629.147412	2467.644808
629.493739	2485.288846
629.840014	2470.165385
630.186236	2492.850577
630.532405	2492.850577
630.878521	2568.467885
631.224585	2548.303269
631.570597	2409.671538
631.916556	2540.741538
632.262462	2475.206538
632.608316	2487.809423
632.954117	2487.809423
633.299866	2505.453462
633.645562	2560.906154
633.991206	2583.591346
634.336797	2563.426731
634.682336	2457.562500
635.027823	2568.467885
635.373257	2404.630385
635.718639	2555.865000
636.063968	2455.041923
636.409245	2492.850577
636.754470	2472.685962
637.099642	2507.974038
637.444762	2543.262115
637.789829	2533.179808
638.134845	2520.576923
638.479808	2550.823846
638.824719	2482.768269
639.169577	2535.700385
639.514383	2550.823846
639.859137	2525.618077
640.203839	2570.988462
640.548489	2460.083077
640.893086	2518.056346
641.237632	2439.918462
641.582125	2462.603654
641.926566	2470.165385
642.270955	2429.836154
642.615292	2603.755962
642.959576	2510.494615
643.303809	2455.041923
643.647990	2505.453462
643.992118	2530.659231
644.336195	2460.083077
644.680219	2515.535769
645.024192	2447.480192
645.368112	2507.974038
645.711981	2460.083077
646.055797	2424.795000
646.399562	2598.714808
646.743274	2422.274423
647.086935	2578.550192
647.430544	2591.153077
647.774101	2533.179808
648.117606	2487.809423
648.461059	2535.700385
648.804460	2497.891731
649.147810	2485.288846
649.491108	2490.330000
649.834354	2528.138654
650.177548	2558.385577
650.520690	2548.303269
650.863781	2583.591346
651.206820	2510.494615
651.549807	2497.891731
651.892742	2452.521346
652.235626	2518.056346
652.578458	2439.918462
652.921238	2530.659231
653.263967	2513.015192
653.606644	2505.453462
653.949269	2477.727115
654.291843	2475.206538
654.634365	2505.453462
654.976836	2470.165385
655.319255	2477.727115
655.661622	2538.220962
656.003938	2472.685962
656.346203	2472.685962
656.688416	2495.371154
657.030577	2543.262115
657.372687	2457.562500
657.714746	2434.877308
658.056753	2520.576923
658.398708	2543.262115
658.740612	2429.836154
659.082465	2437.397885
659.424266	2366.821731
659.766016	2450.000769
660.107715	2560.906154
660.449362	2525.618077
660.790958	2543.262115
661.132503	2492.850577
661.473996	2560.906154
661.815438	2510.494615
662.156829	2507.974038
662.498168	2439.918462
662.839456	2465.124231
663.180693	2515.535769
663.521879	2434.877308
663.863013	2513.015192
664.204097	2505.453462
664.545129	2578.550192
664.886110	2563.426731
665.227040	2528.138654
665.567918	2525.618077
665.908746	2553.344423
666.249522	2523.097500
666.590248	2570.988462
666.930922	2502.932885
667.271545	2447.480192
667.612118	2439.918462
667.952639	2495.371154
668.293109	2465.124231
668.633528	2535.700385
668.973896	2492.850577
669.314213	2465.124231
669.654480	2523.097500
669.994695	2497.891731
670.334859	2513.015192
670.674973	2515.535769
671.015035	2553.344423
671.355047	2399.589231
671.695008	2467.644808
672.034918	2505.453462
672.374777	2467.644808
672.714585	2465.124231
673.054342	2495.371154
673.394049	2507.974038
673.733705	2482.768269
674.073310	2492.850577
674.412864	2507.974038
674.752368	2462.603654
675.091820	2558.385577
675.431223	2470.165385
675.770574	2455.041923
676.109875	2442.439038
676.449125	2530.659231
676.788324	2497.891731
677.127473	2439.918462
677.466571	2492.850577
677.805619	2550.823846
678.144616	2520.576923
678.483562	2533.179808
678.822458	2505.453462
679.161303	2505.453462
679.500098	2490.330000
679.838842	2510.494615
680.177535	2525.618077
680.516179	2487.809423
680.854771	2477.727115
681.193314	2500.412308
681.531805	2570.988462
681.870247	2598.714808
682.208638	2487.809423
682.546978	2472.685962
682.885268	2550.823846
683.223508	2490.330000
683.561697	2492.850577
683.899836	2487.809423
684.237925	2455.041923
684.575963	2535.700385
684.913951	2485.288846
685.251889	2490.330000
685.589776	2427.315577
685.927614	2497.891731
686.265401	2482.768269
686.603137	2533.179808
686.940824	2495.371154
687.278460	2533.179808
687.616046	2497.891731
687.953582	2500.412308
688.291068	2550.823846
688.628504	2513.015192
688.965889	2560.906154
689.303224	2507.974038
689.640510	2500.412308
689.977745	2495.371154
690.314930	2510.494615
690.652065	2510.494615
690.989150	2497.891731
691.326185	2560.906154
691.663170	2472.685962
692.000105	2530.659231
692.336990	2455.041923
692.673825	2533.179808
693.010610	2475.206538
693.347345	2505.453462
693.684030	2485.288846
694.020665	2432.356731
694.357251	2545.782692
694.693786	2497.891731
695.030272	2472.685962
695.366707	2472.685962
695.703093	2475.206538
696.039429	2543.262115
696.375716	2578.550192
696.711952	2540.741538
697.048139	2576.029615
697.384276	2543.262115
697.720363	2480.247692
698.056400	2558.385577
698.392388	2455.041923
698.728326	2407.150962
699.064214	2434.877308
699.400053	2409.671538
699.735842	2482.768269
700.071581	2538.220962
700.407270	2462.603654
700.742910	2507.974038
701.078501	2560.906154
701.414042	2379.424615
701.749533	2507.974038
702.084974	2465.124231
702.420366	2538.220962
702.755709	2560.906154
703.091002	2555.865000
703.426246	2538.220962
703.761440	2472.685962
704.096584	2573.509038
704.431679	2530.659231
704.766725	2553.344423
705.101721	2407.150962
705.436668	2515.535769
705.771565	2500.412308
706.106413	2530.659231
706.441212	2515.535769
706.775961	2482.768269
707.110661	2452.521346
707.445311	2455.041923
707.779913	2535.700385
708.114465	2523.097500
708.448967	2439.918462
708.783421	2545.782692
709.117825	2518.056346
709.452180	2502.932885
709.786485	2460.083077
710.120742	2480.247692
710.454949	2518.056346
710.789107	2507.974038
711.123216	2455.041923
711.457275	2450.000769
711.791286	2510.494615
712.125247	2487.809423
712.459159	2452.521346
712.793023	2533.179808
713.126837	2455.041923
713.460602	2490.330000
713.794318	2417.233269
714.127985	2545.782692
714.461602	2505.453462
714.795171	2487.809423
715.128691	2500.412308
715.462162	2528.138654
715.795584	2523.097500
716.128957	2487.809423
716.462281	2452.521346
716.795556	2434.877308
717.128782	2472.685962
717.461960	2530.659231
717.795088	2472.685962
718.128167	2460.083077
718.461198	2513.015192
718.794180	2550.823846
719.127113	2470.165385
719.459997	2495.371154
719.792833	2485.288846
720.125619	2485.288846
720.458357	2465.124231
720.791046	2505.453462
721.123686	2513.015192
721.456278	2497.891731
721.788821	2482.768269
722.121315	2558.385577
722.453761	2462.603654
722.786158	2586.111923
723.118506	2472.685962
723.450805	2460.083077
723.783056	2502.932885
724.115259	2439.918462
724.447412	2462.603654
724.779518	2475.206538
725.111574	2470.165385
725.443582	2485.288846
725.775542	2495.371154
726.107453	2555.865000
726.439315	2538.220962
726.771129	2500.412308
727.102895	2543.262115
727.434612	2502.932885
727.766281	2487.809423
728.097901	2417.233269
728.429473	2510.494615
728.760996	2555.865000
729.092471	2520.576923
729.423897	2492.850577
729.755276	2442.439038
730.086606	2490.330000
730.417887	2482.768269
730.749120	2535.700385
731.080305	2510.494615
731.411442	2444.959615
731.742530	2555.865000
732.073570	2460.083077
732.404562	2417.233269
732.735506	2460.083077
733.066401	2487.809423
733.397249	2452.521346
733.728048	2465.124231
734.058798	2452.521346
734.389501	2500.412308
734.720156	2523.097500
735.050762	2560.906154
735.381320	2523.097500
735.711831	2434.877308
736.042293	2505.453462
736.372707	2439.918462
736.703073	2535.700385
737.033391	2460.083077
737.363661	2507.974038
737.693883	2407.150962
738.024056	2490.330000
738.354182	2467.644808
738.684260	2520.576923
739.014290	2467.644808
739.344272	2538.220962
739.674207	2424.795000
740.004093	2412.192115
740.333931	2510.494615
740.663722	2513.015192
740.993464	2472.685962
741.323159	2402.109808
741.652806	2505.453462
741.982405	2460.083077
742.311956	2535.700385
742.641460	2535.700385
742.970915	2581.070769
743.300323	2502.932885
743.629683	2565.947308
743.958996	2487.809423
744.288260	2472.685962
744.617477	2530.659231
744.946647	2485.288846
745.275768	2558.385577
745.604842	2538.220962
745.933869	2460.083077
746.262847	2429.836154
746.591778	2467.644808
746.920662	2553.344423
747.249498	2472.685962
747.578286	2379.424615
747.907027	2490.330000
748.235720	2518.056346
748.564365	2586.111923
748.892963	2429.836154
749.221514	2525.618077
749.550017	2510.494615
749.878473	2538.220962
750.206881	2427.315577
750.535242	2550.823846
750.863555	2487.809423
751.191821	2490.330000
751.520039	2487.809423
751.848210	2513.015192
752.176334	2555.865000
752.504411	2502.932885
752.832440	2480.247692
753.160421	2502.932885
753.488356	2470.165385
753.816243	2528.138654
754.144082	2475.206538
754.471875	2515.535769
754.799620	2540.741538
755.127318	2495.371154
755.454969	2472.685962
755.782572	2472.685962
756.110129	2507.974038
756.437638	2495.371154
756.765100	2502.932885
757.092515	2480.247692
757.419882	2475.206538
757.747203	2538.220962
758.074477	2497.891731
758.401703	2500.412308
758.728882	2581.070769
759.056014	2523.097500
759.383099	2502.932885
759.710138	2563.426731
760.037129	2515.535769
760.364073	2510.494615
760.690970	2444.959615
761.017820	2510.494615
761.344623	2530.659231
761.671379	2432.356731
761.998088	2480.247692
762.324751	2507.974038
762.651366	2460.083077
762.977935	2576.029615
763.304456	2535.700385
763.630931	2470.165385
763.957359	2507.974038
764.283740	2470.165385
764.610074	2457.562500
764.936362	2472.685962
765.262602	2560.906154
765.588796	2492.850577
765.914943	2530.659231
766.241044	2553.344423
766.567097	2485.288846
766.893104	2485.288846
767.219064	2470.165385
767.544978	2414.712692
767.870845	2500.412308
768.196665	2412.192115
768.522438	2518.056346
768.848165	2439.918462
769.173846	2487.809423
769.499479	2480.247692
769.825066	2485.288846
770.150607	2513.015192
770.476101	2434.877308
770.801548	2477.727115
771.126949	2576.029615
771.452303	2513.015192
771.777611	2480.247692
772.102872	2402.109808
772.428087	2538.220962
772.753256	2492.850577
773.078378	2576.029615
773.403453	2475.206538
773.728482	2460.083077
774.053465	2442.439038
774.378401	2465.124231
774.703291	2457.562500
775.028135	2543.262115
775.352932	2495.371154
775.677683	2565.947308
776.002388	2487.809423
776.327046	2573.509038
776.651658	2429.836154
776.976224	2502.932885
777.300743	2482.768269
777.625216	2502.932885
777.949643	2555.865000
778.274024	2510.494615
778.598359	2570.988462
778.922647	2530.659231
779.246889	2450.000769
779.571086	2422.274423
779.895236	2525.618077
780.219339	2490.330000
780.543397	2485.288846
780.867409	2465.124231
781.191374	2450.000769
781.515294	2528.138654
781.839167	2450.000769
782.162995	2487.809423
782.486776	2558.385577
782.810511	2505.453462
783.134201	2452.521346
783.457844	2520.576923
783.781441	2502.932885
784.104993	2502.932885
784.428498	2608.797115
784.751958	2485.288846
785.075372	2510.494615
785.398739	2565.947308
785.722061	2505.453462
786.045337	2533.179808
786.368568	2528.138654
786.691752	2495.371154
787.014891	2472.685962
787.337983	2538.220962
787.661030	2460.083077
787.984031	2467.644808
788.306987	2497.891731
788.629897	2485.288846
788.952760	2513.015192
789.275579	2490.330000
789.598351	2417.233269
789.921078	2513.015192
790.243759	2553.344423
790.566395	2480.247692
790.888984	2550.823846
791.211529	2507.974038
791.534027	2480.247692
791.856480	2570.988462
792.178888	2495.371154
792.501249	2515.535769
792.823566	2518.056346
793.145836	2525.618077
793.468062	2495.371154
793.790241	2528.138654
794.112375	2457.562500
794.434464	2507.974038
794.756507	2442.439038
795.078505	2513.015192
795.400457	2598.714808
795.722364	2432.356731
796.044226	2482.768269
796.366042	2409.671538
796.687812	2515.535769
797.009538	2407.150962
797.331218	2465.124231
797.652852	2429.836154
797.974442	2525.618077
798.295986	2563.426731
798.617484	2497.891731
798.938938	2588.632500
799.260346	2475.206538
799.581709	2392.027500
799.903026	2429.836154
800.224299	2507.974038
800.545526	2558.385577
800.866708	2568.467885
801.187845	2444.959615
801.508936	2495.371154
801.829983	2472.685962
802.150984	2452.521346
802.471940	2548.303269
802.792851	2528.138654
803.113717	2497.891731
803.434538	2480.247692
803.755314	2460.083077
804.076045	2603.755962
804.396731	2462.603654
804.717372	2543.262115
805.037967	2555.865000
805.358518	2520.576923
805.679024	2510.494615
805.999485	2505.453462
806.319901	2560.906154
806.640272	2422.274423
806.960598	2480.247692
807.280879	2525.618077
807.601115	2533.179808
807.921306	2450.000769
808.241453	2475.206538
808.561554	2495.371154
808.881611	2452.521346
809.201623	2581.070769
809.521590	2465.124231
809.841513	2442.439038
810.161390	2533.179808
810.481223	2560.906154
810.801011	2530.659231
811.120755	2482.768269
811.440453	2444.959615
811.760107	2596.194231
812.079716	2480.247692
812.399281	2525.618077
812.718801	2525.618077
813.038276	2538.220962
813.357707	2538.220962
813.677093	2444.959615
813.996434	2482.768269
814.315731	2502.932885
814.634983	2477.727115
814.954191	2447.480192
815.273354	2497.891731
815.592473	2480.247692
815.911547	2455.041923
816.230577	2553.344423
816.549562	2507.974038
816.868502	2397.068654
817.187399	2444.959615
817.506250	2452.521346
817.825058	2455.041923
818.143821	2427.315577
818.462539	2513.015192
818.781213	2482.768269
819.099843	2515.535769
819.418429	2487.809423
819.736970	2528.138654
820.055466	2480.247692
820.373919	2565.947308
820.692327	2538.220962
821.010691	2492.850577
821.329011	2543.262115
821.647286	2455.041923
821.965517	2573.509038
822.283704	2482.768269
822.601847	2621.400000
822.919945	2535.700385
823.237999	2513.015192
823.556010	2419.753846
823.873976	2444.959615
824.191897	2520.576923
824.509775	2482.768269
824.827609	2545.782692
825.145398	2495.371154
825.463144	2497.891731
825.780845	2450.000769
826.098502	2515.535769
826.416116	2482.768269
826.733685	2533.179808
827.051210	2533.179808
827.368692	2515.535769
827.686129	2507.974038
828.003522	2465.124231
828.320872	2560.906154
828.638177	2465.124231
828.955439	2507.974038
829.272656	2427.315577
829.589830	2513.015192
829.906960	2460.083077
830.224046	2568.467885
830.541088	2447.480192
830.858086	2528.138654
831.175041	2505.453462
831.491952	2455.041923
831.808819	2477.727115
832.125642	2533.179808
832.442421	2472.685962
832.759157	2513.015192
833.075849	2477.727115
833.392497	2472.685962
833.709101	2465.124231
834.025662	2439.918462
834.342179	2470.165385
834.658653	2533.179808
834.975083	2470.165385
835.291469	2472.685962
835.607811	2384.465769
835.924110	2515.535769
836.240366	2500.412308
836.556578	2520.576923
836.872746	2510.494615
837.188871	2608.797115
837.504952	2563.426731
837.820990	2490.330000
838.136984	2465.124231
838.452935	2434.877308
838.768842	2487.809423
839.084706	2500.412308
839.400526	2470.165385
839.716303	2452.521346
840.032037	2442.439038
840.347727	2507.974038
840.663373	2480.247692
840.978977	2439.918462
841.294537	2555.865000
841.610054	2500.412308
841.925527	2457.562500
842.240957	2545.782692
842.556344	2530.659231
842.871687	2442.439038
843.186987	2394.548077
843.502244	2472.685962
843.817458	2472.685962
844.132629	2591.153077
844.447756	2495.371154
844.762840	2497.891731
845.077881	2455.041923
845.392879	2439.918462
845.707833	2540.741538
846.022745	2523.097500
846.337613	2573.509038
846.652438	2452.521346
846.967221	2455.041923
847.281960	2470.165385
847.596656	2465.124231
847.911309	2515.535769
848.225919	2505.453462
848.540485	2487.809423
848.855009	2480.247692
849.169490	2477.727115
849.483928	2528.138654
849.798323	2533.179808
850.112675	2457.562500
850.426984	2424.795000
850.741251	2437.397885
851.055474	2462.603654
851.369654	2500.412308
851.683792	2472.685962
851.997887	2482.768269
852.311938	2482.768269
852.625947	2510.494615
852.939914	2490.330000
853.253837	2505.453462
853.567718	2505.453462
853.881555	2460.083077
854.195350	2495.371154
854.509103	2520.576923
854.822812	2507.974038
855.136479	2442.439038
855.450103	2424.795000
855.763685	2462.603654
856.077224	2555.865000
856.390720	2507.974038
856.704173	2465.124231
857.017584	2427.315577
857.330953	2475.206538
857.644278	2462.603654
857.957561	2513.015192
858.270802	2422.274423
858.584000	2502.932885
858.897155	2427.315577
859.210268	2495.371154
859.523339	2515.535769
859.836367	2424.795000
860.149352	2570.988462
860.462295	2472.685962
860.775195	2518.056346
861.088054	2487.809423
861.400869	2492.850577
861.713642	2510.494615
862.026373	2520.576923
862.339062	2462.603654
862.651708	2543.262115
862.964312	2460.083077
863.276873	2515.535769
863.589392	2520.576923
863.901869	2444.959615
864.214303	2505.453462
864.526696	2480.247692
864.839045	2513.015192
865.151353	2480.247692
865.463619	2548.303269
865.775842	2502.932885
866.088023	2480.247692
866.400162	2490.330000
866.712258	2485.288846
867.024313	2472.685962
867.336325	2470.165385
867.648296	2414.712692
867.960224	2460.083077
868.272110	2487.809423
868.583954	2560.906154
868.895755	2500.412308
869.207515	2548.303269
869.519233	2576.029615
869.830909	2487.809423
870.142542	2490.330000
870.454134	2505.453462
870.765684	2452.521346
871.077191	2548.303269
871.388657	2528.138654
871.700081	2490.330000
872.011463	2472.685962
872.322803	2570.988462
872.634101	2437.397885
872.945357	2528.138654
873.256571	2550.823846
873.567744	2500.412308
873.878874	2475.206538
874.189963	2507.974038
874.501010	2518.056346
874.812015	2515.535769
875.122979	2419.753846
875.433900	2422.274423
875.744780	2467.644808
876.055618	2477.727115
876.366415	2513.015192
876.677169	2470.165385
876.987882	2530.659231
877.298554	2528.138654
877.609183	2492.850577
877.919771	2510.494615
878.230317	2475.206538
878.540822	2455.041923
878.851285	2533.179808
879.161707	2480.247692
879.472087	2409.671538
879.782425	2482.768269
880.092722	2457.562500
880.402977	2530.659231
880.713191	2444.959615
881.023363	2530.659231
881.333494	2450.000769
881.643583	2477.727115
881.953631	2460.083077
882.263637	2543.262115
882.573602	2434.877308
882.883526	2470.165385
883.193408	2518.056346
883.503248	2520.576923
883.813048	2581.070769
884.122806	2482.768269
884.432522	2545.782692
884.742197	2507.974038
885.051831	2505.453462
885.361424	2530.659231
885.670975	2444.959615
885.980485	2452.521346
886.289954	2533.179808
886.599382	2528.138654
886.908768	2570.988462
887.218113	2507.974038
887.527417	2439.918462
887.836680	2520.576923
888.145901	2568.467885
888.455082	2515.535769
888.764221	2417.233269
889.073319	2465.124231
889.382376	2576.029615
889.691392	2457.562500
890.000366	2472.685962
890.309300	2502.932885
890.618193	2487.809423
890.927044	2513.015192
891.235855	2452.521346
891.544625	2389.506923
891.853353	2470.165385
892.162041	2593.673654
892.470687	2485.288846
892.779293	2429.836154
893.087858	2424.795000
893.396381	2465.124231
893.704864	2495.371154
894.013306	2523.097500
894.321707	2530.659231
894.630068	2487.809423
894.938387	2538.220962
895.246665	2462.603654
895.554903	2500.412308
895.863100	2505.453462
896.171256	2528.138654
896.479371	2427.315577
896.787446	2490.330000
897.095480	2540.741538
897.403473	2507.974038
897.711425	2568.467885
898.019336	2477.727115
898.327207	2439.918462
898.635038	2505.453462
898.942827	2467.644808
899.250576	2533.179808
899.558284	2497.891731
899.865952	2510.494615
900.173579	2507.974038
900.481165	2482.768269
900.788711	2530.659231
901.096216	2452.521346
901.403681	2475.206538
901.711105	2482.768269
902.018489	2495.371154
902.325832	2389.506923
902.633135	2485.288846
902.940397	2502.932885
903.247619	2611.317692
903.554800	2492.850577
903.861941	2500.412308
904.169041	2507.974038
904.476101	2500.412308
904.783121	2601.235385
905.090100	2460.083077
905.397039	2495.371154
905.703938	2497.891731
906.010796	2545.782692
906.317614	2535.700385
906.624391	2520.576923
906.931129	2422.274423
907.237826	2513.015192
907.544483	2487.809423
907.851099	2492.850577
908.157675	2460.083077
908.464211	2535.700385
908.770707	2470.165385
909.077163	2402.109808
909.383578	2450.000769
909.689954	2429.836154
909.996289	2417.233269
910.302584	2450.000769
910.608839	2414.712692
910.915054	2419.753846
911.221229	2364.301154
911.527363	2568.467885
911.833458	2349.177692
912.139513	2462.603654
912.445527	2470.165385
912.751502	2422.274423
913.057436	2477.727115
913.363331	2510.494615
913.669186	2530.659231
913.975000	2510.494615
914.280775	2480.247692
914.586510	2528.138654
914.892205	2586.111923
915.197859	2545.782692
915.503475	2455.041923
915.809050	2475.206538
916.114585	2452.521346
916.420081	2588.632500
916.725536	2523.097500
917.030952	2507.974038
917.336328	2472.685962
917.641665	2470.165385
917.946961	2472.685962
918.252218	2475.206538
918.557435	2507.974038
918.862612	2520.576923
919.167750	2490.330000
919.472848	2444.959615
919.777906	2513.015192
920.082925	2528.138654
920.387904	2545.782692
920.692843	2470.165385
920.997743	2487.809423
921.302603	2540.741538
921.607423	2412.192115
921.912204	2502.932885
922.216946	2495.371154
922.521647	2437.397885
922.826310	2510.494615
923.130932	2404.630385
923.435516	2560.906154
923.740059	2563.426731
924.044564	2502.932885
924.349028	2616.358846
924.653454	2502.932885
924.957840	2490.330000
925.262186	2550.823846
925.566493	2565.947308
925.870761	2492.850577
926.174989	2515.535769
926.479178	2475.206538
926.783328	2540.741538
927.087438	2437.397885
927.391509	2414.712692
927.695541	2497.891731
927.999533	2432.356731
928.303486	2424.795000
928.607400	2432.356731
928.911275	2472.685962
929.215110	2523.097500
929.518906	2555.865000
929.822663	2477.727115
930.126381	2480.247692
930.430060	2475.206538
930.733699	2520.576923
931.037299	2563.426731
931.340861	2507.974038
931.644383	2414.712692
931.947866	2593.673654
932.251309	2470.165385
932.554714	2475.206538
932.858080	2452.521346
933.161407	2437.397885
933.464694	2444.959615
933.767943	2515.535769
934.071153	2427.315577
934.374323	2550.823846
934.677455	2482.768269
934.980548	2528.138654
935.283602	2563.426731
935.586617	2507.974038
935.889593	2601.235385
936.192530	2470.165385
936.495428	2502.932885
936.798287	2434.877308
937.101108	2487.809423
937.403890	2450.000769
937.706632	2465.124231
938.009336	2505.453462
938.312002	2472.685962
938.614628	2447.480192
938.917216	2530.659231
939.219765	2437.397885
939.522275	2568.467885
939.824747	2510.494615
940.127179	2497.891731
940.429573	2500.412308
940.731929	2518.056346
941.034246	2533.179808
941.336524	2540.741538
941.638763	2467.644808
941.940964	2424.795000
942.243126	2482.768269
942.545250	2560.906154
942.847335	2424.795000
943.149381	2543.262115
943.451389	2452.521346
943.753359	2470.165385
944.055290	2455.041923
944.357182	2437.397885
944.659036	2424.795000
944.960851	2525.618077
945.262628	2424.795000
945.564367	2533.179808
945.866067	2392.027500
946.167729	2467.644808
946.469352	2417.233269
946.770937	2427.315577
947.072484	2530.659231
947.373992	2581.070769
947.675462	2482.768269
947.976893	2518.056346
948.278286	2548.303269
948.579641	2470.165385
948.880958	2475.206538
949.182236	2540.741538
949.483476	2477.727115
949.784678	2558.385577
950.085841	2424.795000
950.386967	2513.015192
950.688054	2520.576923
950.989103	2482.768269
951.290114	2502.932885
951.591087	2487.809423
951.892021	2434.877308
952.192917	2470.165385
952.493776	2530.659231
952.794596	2455.041923
953.095378	2513.015192
953.396122	2422.274423
953.696828	2510.494615
953.997496	2550.823846
954.298126	2482.768269
954.598718	2500.412308
954.899272	2490.330000
955.199788	2404.630385
955.500266	2515.535769
955.800706	2530.659231
956.101108	2480.247692
956.401472	2515.535769
956.701798	2502.932885
957.002087	2361.780577
957.302337	2439.918462
957.602550	2470.165385
957.902724	2528.138654
958.202861	2480.247692
958.502960	2429.836154
958.803022	2495.371154
959.103045	2429.836154
959.403031	2558.385577
959.702979	2414.712692
960.002889	2485.288846
960.302762	2553.344423
960.602596	2485.288846
960.902393	2467.644808
961.202153	2578.550192
961.501875	2467.644808
961.801559	2540.741538
962.101205	2502.932885
962.400814	2437.397885
962.700385	2573.509038
962.999918	2447.480192
963.299414	2384.465769
963.598873	2465.124231
963.898293	2513.015192
964.197677	2434.877308
964.497022	2523.097500
964.796331	2518.056346
965.095601	2477.727115
965.394835	2485.288846
965.694030	2477.727115
965.993189	2450.000769
966.292309	2427.315577
966.591393	2523.097500
966.890439	2492.850577
967.189447	2507.974038
967.488419	2475.206538
967.787353	2432.356731
968.086249	2434.877308
968.385108	2520.576923
968.683930	2442.439038
968.982714	2507.974038
969.281462	2434.877308
969.580172	2482.768269
969.878844	2535.700385
970.177480	2450.000769
970.476078	2462.603654
970.774639	2487.809423
971.073162	2591.153077
971.371649	2462.603654
971.670098	2495.371154
971.968510	2480.247692
972.266885	2467.644808
972.565223	2540.741538
972.863524	2606.276538
973.161788	2452.521346
973.460014	2525.618077
973.758204	2507.974038
974.056356	2480.247692
974.354471	2487.809423
974.652550	2495.371154
974.950591	2472.685962
975.248595	2457.562500
975.546563	2475.206538
975.844493	2523.097500
976.142386	2477.727115
976.440243	2485.288846
976.738062	2492.850577
977.035845	2477.727115
977.333590	2465.124231
977.631299	2528.138654
977.928971	2447.480192
978.226606	2465.124231
978.524204	2407.150962
978.821765	2442.439038
979.119290	2432.356731
979.416777	2502.932885
979.714228	2563.426731
980.011642	2553.344423
980.309020	2444.959615
980.606360	2495.371154
980.903664	2495.371154
981.200931	2465.124231
981.498162	2465.124231
981.795356	2447.480192
982.092513	2427.315577
982.389633	2538.220962
982.686717	2608.797115
982.983764	2487.809423
983.280775	2477.727115
983.577749	2437.397885
983.874686	2507.974038
984.171587	2442.439038
984.468451	2548.303269
984.765279	2487.809423
985.062070	2558.385577
985.358824	2563.426731
985.655543	2500.412308
985.952224	2442.439038
986.248869	2477.727115
986.545478	2487.809423
986.842050	2520.576923
987.138586	2429.836154
987.435086	2429.836154
987.731549	2467.644808
988.027975	2487.809423
988.324366	2495.371154
988.620719	2576.029615
988.917037	2545.782692
989.213318	2518.056346
989.509563	2467.644808
989.805772	2467.644808
990.101944	2487.809423
990.398080	2497.891731
990.694180	2573.509038
990.990244	2497.891731
991.286271	2507.974038
991.582262	2543.262115
991.878217	2462.603654
992.174136	2530.659231
992.470019	2432.356731
992.765865	2553.344423
993.061676	2429.836154
993.357450	2505.453462
993.653188	2399.589231
993.948890	2530.659231
994.244556	2399.589231
994.540186	2439.918462
994.835780	2533.179808
995.131337	2495.371154
995.426859	2535.700385
995.722345	2475.206538
996.017795	2455.041923
996.313208	2525.618077
996.608586	2518.056346
996.903928	2477.727115
997.199234	2523.097500
997.494504	2477.727115
997.789738	2548.303269
998.084936	2467.644808
998.380099	2392.027500
998.675225	2460.083077
998.970316	2528.138654
999.265371	2477.727115
999.560390	2477.727115
999.855373	2530.659231
1000.150320	2495.371154
1000.445232	2497.891731
1000.740108	2543.262115
1001.034948	2447.480192
1001.329752	2515.535769
1001.624521	2502.932885
1001.919254	2422.274423
1002.213951	2480.247692
1002.508613	2507.974038
1002.803239	2507.974038
1003.097829	2525.618077
1003.392384	2525.618077
1003.686903	2429.836154
1003.981386	2487.809423
1004.275834	2467.644808
1004.570246	2452.521346
1004.864623	2533.179808
1005.158964	2450.000769
1005.453270	2538.220962
1005.747540	2533.179808
1006.041775	2429.836154
1006.335974	2490.330000
1006.630138	2414.712692
1006.924266	2467.644808
1007.218359	2444.959615
1007.512416	2495.371154
1007.806438	2555.865000
1008.100425	2427.315577
1008.394376	2472.685962
1008.688292	2543.262115
1008.982172	2381.945192
1009.276017	2452.521346
1009.569827	2452.521346
1009.863602	2444.959615
1010.157341	2460.083077
1010.451045	2555.865000
1010.744714	2455.041923
1011.038347	2404.630385
1011.331945	2452.521346
1011.625508	2399.589231
1011.919036	2523.097500
1012.212528	2467.644808
1012.505986	2487.809423
1012.799408	2510.494615
1013.092795	2419.753846
1013.386147	2510.494615
1013.679464	2452.521346
1013.972745	2497.891731
1014.265992	2495.371154
1014.559204	2495.371154
1014.852380	2570.988462
1015.145521	2460.083077
1015.438628	2462.603654
1015.731699	2467.644808
1016.024736	2487.809423
1016.317737	2500.412308
1016.610703	2505.453462
1016.903635	2530.659231
1017.196531	2427.315577
1017.489393	2563.426731
1017.782219	2460.083077
1018.075011	2523.097500
1018.367768	2510.494615
1018.660490	2482.768269
1018.953177	2482.768269
1019.245829	2482.768269
