Dividing Wavelength (nm)	Counts (n)	Blue Motor Position (mm): 0.000000	Red Motor Position (mm): 2.500000	
326.493990	2124.846346
326.888308	2124.846346
327.282561	2124.846346
327.676750	2059.311346
328.070874	2018.982115
328.464933	2069.393654
328.858929	2109.722885
329.252859	2021.502692
329.646726	2107.202308
330.040528	2066.873077
330.434265	2092.078846
330.827938	2162.655000
331.221547	2114.764038
331.615091	2147.531538
332.008571	2202.984231
332.401986	2205.504808
332.795338	2175.257885
333.188625	2291.204423
333.581847	2293.725000
333.975006	2301.286731
334.368100	2306.327885
334.761129	2321.451346
335.154095	2394.548077
335.546996	2427.315577
335.939833	2349.177692
336.332606	2402.109808
336.725315	2379.424615
337.117960	2467.644808
337.510540	2437.397885
337.903056	2439.918462
338.295508	2434.877308
338.687896	2424.795000
339.080220	2376.904038
339.472480	2472.685962
339.864676	2429.836154
340.256807	2543.262115
340.648875	2487.809423
341.040879	2518.056346
341.432818	2520.576923
341.824694	2470.165385
342.216506	2444.959615
342.608253	2533.179808
342.999937	2492.850577
343.391557	2530.659231
343.783113	2460.083077
344.174605	2437.397885
344.566033	2465.124231
344.957397	2480.247692
345.348697	2460.083077
345.739934	2540.741538
346.131106	2482.768269
346.522215	2538.220962
346.913260	2394.548077
347.304241	2404.630385
347.695159	2490.330000
348.086012	2490.330000
348.476802	2462.603654
348.867528	2502.932885
349.258191	2513.015192
349.648789	2439.918462
350.039324	2505.453462
350.429796	2500.412308
350.820203	2394.548077
351.210548	2495.371154
351.600828	2374.383462
351.991045	2392.027500
352.381198	2323.971923
352.771288	2523.097500
353.161314	2472.685962
353.551276	2447.480192
353.941175	2429.836154
354.331010	2492.850577
354.720782	2434.877308
355.110490	2439.918462
355.500135	2472.685962
355.889717	2389.506923
356.279235	2470.165385
356.668689	2442.439038
357.058080	2439.918462
357.447408	2354.218846
357.836672	2465.124231
358.225873	2455.041923
358.615010	2490.330000
359.004084	2475.206538
359.393095	2442.439038
359.782043	2507.974038
360.170927	2452.521346
360.559748	2369.342308
360.948505	2397.068654
361.337199	2500.412308
361.725830	2437.397885
362.114398	2434.877308
362.502903	2455.041923
362.891344	2477.727115
363.279722	2505.453462
363.668037	2356.739423
364.056289	2477.727115
364.444478	2392.027500
364.832603	2437.397885
365.220665	2447.480192
365.608665	2447.480192
365.996601	2472.685962
366.384474	2409.671538
366.772284	2523.097500
367.160031	2492.850577
367.547715	2538.220962
367.935336	2470.165385
368.322893	2520.576923
368.710388	2490.330000
369.097820	2424.795000
369.485189	2528.138654
369.872495	2404.630385
370.259738	2490.330000
370.646918	2455.041923
371.034035	2402.109808
371.421090	2427.315577
371.808081	2487.809423
372.195010	2485.288846
372.581875	2437.397885
372.968678	2500.412308
373.355418	2437.397885
373.742096	2477.727115
374.128710	2392.027500
374.515262	2502.932885
374.901751	2470.165385
375.288177	2482.768269
375.674540	2386.986346
376.060841	2450.000769
376.447079	2455.041923
376.833254	2434.877308
377.219367	2470.165385
377.605417	2462.603654
377.991404	2379.424615
378.377329	2472.685962
378.763191	2502.932885
379.148991	2465.124231
379.534727	2359.260000
379.920402	2450.000769
380.306013	2485.288846
380.691563	2480.247692
381.077049	2528.138654
381.462474	2399.589231
381.847835	2414.712692
382.233134	2467.644808
382.618371	2495.371154
383.003545	2452.521346
383.388657	2429.836154
383.773706	2477.727115
384.158693	2462.603654
384.543618	2397.068654
384.928480	2470.165385
385.313280	2485.288846
385.698017	2447.480192
386.082692	2470.165385
386.467305	2523.097500
386.851856	2515.535769
387.236344	2487.809423
387.620770	2472.685962
388.005133	2465.124231
388.389435	2424.795000
388.773674	2397.068654
389.157851	2467.644808
389.541965	2490.330000
389.926018	2392.027500
390.310008	2432.356731
390.693936	2447.480192
391.077802	2392.027500
391.461606	2470.165385
391.845348	2500.412308
392.229027	2455.041923
392.612645	2427.315577
392.996200	2500.412308
393.379694	2470.165385
393.763125	2429.836154
394.146494	2457.562500
394.529801	2467.644808
394.913047	2379.424615
395.296230	2505.453462
395.679351	2450.000769
396.062410	2497.891731
396.445408	2528.138654
396.828343	2485.288846
397.211217	2563.426731
397.594028	2455.041923
397.976778	2523.097500
398.359466	2412.192115
398.742092	2452.521346
399.124656	2480.247692
399.507158	2386.986346
399.889598	2475.206538
400.271977	2550.823846
400.654294	2490.330000
401.036549	2490.330000
401.418742	2397.068654
401.800874	2452.521346
402.182944	2480.247692
402.564952	2480.247692
402.946898	2520.576923
403.328783	2447.480192
403.710606	2495.371154
404.092367	2439.918462
404.474067	2470.165385
404.855705	2404.630385
405.237282	2432.356731
405.618797	2452.521346
406.000250	2515.535769
406.381642	2460.083077
406.762972	2447.480192
407.144240	2480.247692
407.525447	2465.124231
407.906593	2422.274423
408.287677	2470.165385
408.668700	2578.550192
409.049661	2530.659231
409.430560	2513.015192
409.811399	2409.671538
410.192176	2545.782692
410.572891	2487.809423
410.953545	2349.177692
411.334138	2485.288846
411.714669	2490.330000
412.095139	2502.932885
412.475547	2497.891731
412.855894	2470.165385
413.236180	2477.727115
413.616405	2495.371154
413.996568	2444.959615
414.376670	2528.138654
414.756711	2465.124231
415.136691	2492.850577
415.516609	2402.109808
415.896466	2573.509038
416.276262	2452.521346
416.655997	2538.220962
417.035670	2434.877308
417.415283	2535.700385
417.794834	2485.288846
418.174324	2470.165385
418.553753	2513.015192
418.933121	2523.097500
419.312428	2497.891731
419.691674	2437.397885
420.070859	2369.342308
420.449983	2485.288846
420.829045	2455.041923
421.208047	2487.809423
421.586988	2472.685962
421.965867	2515.535769
422.344686	2462.603654
422.723444	2397.068654
423.102141	2447.480192
423.480777	2480.247692
423.859352	2422.274423
424.237866	2470.165385
424.616319	2507.974038
424.994712	2492.850577
425.373044	2450.000769
425.751314	2419.753846
426.129524	2475.206538
426.507673	2432.356731
426.885762	2520.576923
427.263789	2470.165385
427.641756	2450.000769
428.019662	2442.439038
428.397508	2384.465769
428.775292	2465.124231
429.153016	2535.700385
429.530679	2510.494615
429.908282	2460.083077
430.285824	2507.974038
430.663305	2442.439038
431.040726	2442.439038
431.418086	2515.535769
431.795385	2515.535769
432.172624	2422.274423
432.549802	2439.918462
432.926920	2470.165385
433.303977	2487.809423
433.680974	2467.644808
434.057910	2540.741538
434.434786	2510.494615
434.811601	2555.865000
435.188355	2457.562500
435.565050	2442.439038
435.941683	2515.535769
436.318257	2515.535769
436.694770	2563.426731
437.071222	2543.262115
437.447614	2470.165385
437.823946	2452.521346
438.200218	2482.768269
438.576429	2515.535769
438.952580	2424.795000
439.328670	2505.453462
439.704700	2444.959615
440.080670	2530.659231
440.456580	2467.644808
440.832429	2502.932885
441.208218	2513.015192
441.583947	2533.179808
441.959616	2520.576923
442.335224	2467.644808
442.710773	2450.000769
443.086261	2434.877308
443.461689	2460.083077
443.837057	2475.206538
444.212365	2497.891731
444.587612	2505.453462
444.962800	2417.233269
445.337927	2460.083077
445.712995	2472.685962
446.088002	2538.220962
446.462949	2558.385577
446.837837	2482.768269
447.212664	2500.412308
447.587431	2460.083077
447.962139	2437.397885
448.336786	2482.768269
448.711374	2475.206538
449.085901	2450.000769
449.460369	2455.041923
449.834776	2523.097500
450.209124	2505.453462
450.583412	2442.439038
450.957640	2455.041923
451.331808	2452.521346
451.705917	2480.247692
452.079965	2422.274423
452.453954	2555.865000
452.827883	2472.685962
453.201752	2485.288846
453.575562	2470.165385
453.949311	2460.083077
454.323001	2538.220962
454.696632	2450.000769
455.070202	2417.233269
455.443713	2540.741538
455.817164	2520.576923
456.190556	2442.439038
456.563888	2455.041923
456.937160	2502.932885
457.310373	2450.000769
457.683526	2369.342308
458.056619	2419.753846
458.429653	2492.850577
458.802628	2470.165385
459.175542	2540.741538
459.548398	2550.823846
459.921194	2535.700385
460.293930	2470.165385
460.666607	2450.000769
461.039224	2434.877308
461.411782	2409.671538
461.784280	2523.097500
462.156719	2485.288846
462.529099	2505.453462
462.901419	2477.727115
463.273680	2510.494615
463.645882	2460.083077
464.018024	2497.891731
464.390106	2513.015192
464.762130	2543.262115
465.134094	2565.947308
465.505999	2475.206538
465.877845	2482.768269
466.249631	2434.877308
466.621358	2586.111923
466.993026	2558.385577
467.364634	2467.644808
467.736184	2535.700385
468.107674	2412.192115
468.479105	2477.727115
468.850477	2477.727115
469.221790	2467.644808
469.593043	2477.727115
469.964238	2565.947308
470.335373	2427.315577
470.706449	2513.015192
471.077467	2462.603654
471.448425	2452.521346
471.819324	2472.685962
472.190164	2568.467885
472.560945	2465.124231
472.931667	2535.700385
473.302330	2505.453462
473.672934	2439.918462
474.043479	2437.397885
474.413965	2447.480192
474.784393	2477.727115
475.154761	2462.603654
475.525070	2485.288846
475.895321	2528.138654
476.265513	2462.603654
476.635645	2437.397885
477.005719	2414.712692
477.375734	2432.356731
477.745691	2518.056346
478.115588	2465.124231
478.485427	2528.138654
478.855207	2533.179808
479.224928	2500.412308
479.594591	2502.932885
479.964194	2528.138654
480.333739	2412.192115
480.703226	2540.741538
481.072653	2439.918462
481.442022	2525.618077
481.811333	2412.192115
482.180584	2545.782692
482.549777	2485.288846
482.918912	2480.247692
483.287988	2513.015192
483.657005	2475.206538
484.025964	2457.562500
484.394864	2528.138654
484.763706	2434.877308
485.132489	2444.959615
485.501213	2518.056346
485.869879	2497.891731
486.238487	2447.480192
486.607036	2502.932885
486.975527	2553.344423
487.343959	2523.097500
487.712333	2462.603654
488.080648	2553.344423
488.448905	2495.371154
488.817104	2515.535769
489.185244	2510.494615
489.553326	2560.906154
489.921350	2455.041923
490.289315	2492.850577
490.657222	2568.467885
491.025070	2475.206538
491.392861	2520.576923
491.760593	2457.562500
492.128267	2490.330000
492.495883	2351.698269
492.863440	2397.068654
493.230939	2485.288846
493.598380	2467.644808
493.965763	2455.041923
494.333088	2535.700385
494.700354	2543.262115
495.067563	2422.274423
495.434713	2502.932885
495.801805	2528.138654
496.168839	2538.220962
496.535815	2429.836154
496.902733	2429.836154
497.269593	2515.535769
497.636395	2492.850577
498.003139	2447.480192
498.369825	2495.371154
498.736453	2460.083077
499.103023	2507.974038
499.469535	2565.947308
499.835989	2528.138654
500.202385	2492.850577
500.568723	2444.959615
500.935003	2507.974038
501.301226	2563.426731
501.667390	2452.521346
502.033497	2596.194231
502.399546	2487.809423
502.765537	2523.097500
503.131470	2520.576923
503.497345	2510.494615
503.863163	2593.673654
504.228923	2472.685962
504.594625	2525.618077
504.960269	2419.753846
505.325856	2475.206538
505.691385	2465.124231
506.056856	2570.988462
506.422270	2497.891731
506.787625	2444.959615
507.152924	2578.550192
507.518164	2497.891731
507.883347	2480.247692
508.248472	2533.179808
508.613540	2538.220962
508.978550	2447.480192
509.343503	2487.809423
509.708398	2419.753846
510.073236	2455.041923
510.438016	2502.932885
510.802738	2457.562500
511.167403	2553.344423
511.532010	2581.070769
511.896561	2427.315577
512.261053	2555.865000
512.625488	2482.768269
512.989866	2485.288846
513.354186	2450.000769
513.718449	2507.974038
514.082655	2518.056346
514.446803	2485.288846
514.810894	2568.467885
515.174927	2550.823846
515.538904	2497.891731
515.902822	2513.015192
516.266684	2452.521346
516.630488	2457.562500
516.994235	2450.000769
517.357925	2563.426731
517.721558	2500.412308
518.085133	2475.206538
518.448651	2523.097500
518.812112	2520.576923
519.175516	2460.083077
519.538863	2414.712692
519.902152	2578.550192
520.265385	2480.247692
520.628560	2475.206538
520.991678	2505.453462
521.354739	2563.426731
521.717743	2482.768269
522.080690	2576.029615
522.443580	2482.768269
522.806413	2477.727115
523.169189	2470.165385
523.531908	2455.041923
523.894569	2543.262115
524.257174	2636.523462
524.619722	2457.562500
524.982213	2465.124231
525.344647	2538.220962
525.707025	2520.576923
526.069345	2492.850577
526.431608	2588.632500
526.793815	2538.220962
527.155964	2533.179808
527.518057	2460.083077
527.880093	2540.741538
528.242072	2437.397885
528.603995	2477.727115
528.965860	2475.206538
529.327669	2475.206538
529.689421	2480.247692
530.051117	2578.550192
530.412755	2568.467885
530.774337	2502.932885
531.135862	2533.179808
531.497331	2500.412308
531.858743	2462.603654
532.220098	2472.685962
532.581396	2545.782692
532.942638	2460.083077
533.303824	2555.865000
533.664953	2429.836154
534.026025	2460.083077
534.387040	2548.303269
534.747999	2470.165385
535.108902	2518.056346
535.469748	2550.823846
535.830537	2490.330000
536.191270	2462.603654
536.551947	2510.494615
536.912567	2543.262115
537.273131	2505.453462
537.633638	2500.412308
537.994089	2424.795000
538.354483	2535.700385
538.714821	2465.124231
539.075103	2573.509038
539.435328	2490.330000
539.795497	2497.891731
540.155609	2497.891731
540.515665	2442.439038
540.875665	2384.465769
541.235609	2530.659231
541.595496	2452.521346
541.955328	2528.138654
542.315102	2455.041923
542.674821	2568.467885
543.034483	2450.000769
543.394090	2581.070769
543.753640	2538.220962
544.113134	2462.603654
544.472571	2518.056346
544.831953	2555.865000
545.191278	2450.000769
545.550548	2407.150962
545.909761	2490.330000
546.268918	2497.891731
546.628019	2492.850577
546.987064	2450.000769
547.346053	2513.015192
547.704986	2455.041923
548.063863	2523.097500
548.422684	2596.194231
548.781449	2455.041923
549.140158	2460.083077
549.498811	2467.644808
549.857408	2414.712692
550.215949	2412.192115
550.574434	2442.439038
550.932864	2540.741538
551.291237	2452.521346
551.649555	2578.550192
552.007817	2475.206538
552.366022	2560.906154
552.724173	2505.453462
553.082267	2495.371154
553.440305	2518.056346
553.798288	2533.179808
554.156215	2419.753846
554.514086	2543.262115
554.871902	2507.974038
555.229661	2543.262115
555.587365	2480.247692
555.945014	2555.865000
556.302606	2470.165385
556.660143	2518.056346
557.017625	2535.700385
557.375050	2515.535769
557.732421	2467.644808
558.089735	2455.041923
558.446994	2543.262115
558.804197	2402.109808
559.161345	2477.727115
559.518437	2502.932885
559.875474	2533.179808
560.232455	2465.124231
560.589381	2485.288846
560.946251	2467.644808
561.303065	2520.576923
561.659825	2530.659231
562.016528	2492.850577
562.373177	2442.439038
562.729770	2482.768269
563.086307	2465.124231
563.442789	2465.124231
563.799216	2455.041923
564.155587	2495.371154
564.511904	2560.906154
564.868164	2528.138654
565.224370	2472.685962
565.580520	2467.644808
565.936615	2457.562500
566.292654	2500.412308
566.648638	2482.768269
567.004567	2545.782692
567.360441	2497.891731
567.716260	2487.809423
568.072023	2495.371154
568.427732	2530.659231
568.783385	2492.850577
569.138982	2462.603654
569.494525	2513.015192
569.850013	2482.768269
570.205445	2424.795000
570.560823	2475.206538
570.916145	2480.247692
571.271412	2460.083077
571.626625	2560.906154
571.981782	2518.056346
572.336884	2492.850577
572.691931	2545.782692
573.046923	2530.659231
573.401860	2429.836154
573.756743	2477.727115
574.111570	2485.288846
574.466342	2502.932885
574.821059	2535.700385
575.175722	2500.412308
575.530330	2492.850577
575.884882	2487.809423
576.239380	2500.412308
576.593823	2523.097500
576.948211	2480.247692
577.302544	2495.371154
577.656823	2518.056346
578.011047	2520.576923
578.365216	2530.659231
578.719330	2515.535769
579.073389	2462.603654
579.427394	2462.603654
579.781344	2570.988462
580.135239	2576.029615
580.489080	2452.521346
580.842866	2591.153077
581.196597	2465.124231
581.550273	2455.041923
581.903895	2482.768269
582.257463	2525.618077
582.610975	2565.947308
582.964434	2452.521346
583.317837	2437.397885
583.671186	2525.618077
584.024481	2528.138654
584.377721	2558.385577
584.730906	2510.494615
585.084037	2502.932885
585.437113	2533.179808
585.790135	2538.220962
586.143103	2412.192115
586.496016	2384.465769
586.848874	2475.206538
587.201679	2525.618077
587.554428	2553.344423
587.907124	2480.247692
588.259765	2507.974038
588.612352	2548.303269
588.964884	2477.727115
589.317362	2510.494615
589.669786	2434.877308
590.022155	2497.891731
590.374470	2427.315577
590.726731	2477.727115
591.078937	2475.206538
591.431090	2528.138654
591.783188	2492.850577
592.135232	2447.480192
592.487222	2513.015192
592.839157	2513.015192
593.191038	2492.850577
593.542866	2550.823846
593.894639	2417.233269
594.246358	2591.153077
594.598022	2334.054231
594.949633	2470.165385
595.301190	2409.671538
595.652692	2543.262115
596.004141	2495.371154
596.355535	2502.932885
596.706876	2480.247692
597.058162	2470.165385
597.409395	2586.111923
597.760573	2528.138654
598.111698	2581.070769
598.462768	2384.465769
598.813785	2535.700385
599.164748	2528.138654
599.515657	2472.685962
599.866511	2555.865000
600.217312	2543.262115
600.568060	2518.056346
600.918753	2543.262115
601.269392	2465.124231
601.619978	2523.097500
601.970510	2465.124231
602.320988	2523.097500
602.671412	2419.753846
603.021783	2497.891731
603.372100	2318.930769
603.722363	2472.685962
604.072572	2495.371154
604.422728	2505.453462
604.772830	2533.179808
605.122878	2510.494615
605.472872	2560.906154
605.822813	2578.550192
606.172701	2518.056346
606.522534	2414.712692
606.872314	2470.165385
607.222041	2591.153077
607.571714	2528.138654
607.921333	2523.097500
608.270899	2482.768269
608.620411	2439.918462
608.969870	2550.823846
609.319276	2543.262115
609.668627	2409.671538
610.017926	2470.165385
610.367171	2495.371154
610.716362	2505.453462
611.065500	2505.453462
611.414585	2525.618077
611.763616	2475.206538
612.112594	2452.521346
612.461518	2497.891731
612.810389	2472.685962
613.159207	2523.097500
613.507971	2482.768269
613.856682	2540.741538
614.205340	2482.768269
614.553945	2550.823846
614.902496	2450.000769
615.250994	2525.618077
615.599439	2565.947308
615.947830	2434.877308
616.296169	2540.741538
616.644454	2495.371154
616.992686	2507.974038
617.340864	2477.727115
617.688990	2467.644808
618.037063	2470.165385
618.385082	2472.685962
618.733048	2492.850577
619.080961	2558.385577
619.428821	2507.974038
619.776628	2399.589231
620.124382	2485.288846
620.472083	2470.165385
620.819731	2548.303269
621.167326	2462.603654
621.514868	2525.618077
621.862357	2467.644808
622.209793	2555.865000
622.557176	2518.056346
622.904506	2480.247692
623.251783	2452.521346
623.599007	2553.344423
623.946179	2613.838269
624.293297	2457.562500
624.640363	2495.371154
624.987376	2540.741538
625.334336	2596.194231
625.681243	2480.247692
626.028097	2583.591346
626.374899	2462.603654
626.721647	2540.741538
627.068343	2523.097500
627.414987	2475.206538
627.761577	2555.865000
628.108115	2450.000769
628.454600	2480.247692
628.801032	2520.576923
629.147412	2472.685962
629.493739	2477.727115
629.840014	2450.000769
630.186236	2485.288846
630.532405	2500.412308
630.878521	2500.412308
631.224585	2472.685962
631.570597	2505.453462
631.916556	2482.768269
632.262462	2560.906154
632.608316	2576.029615
632.954117	2455.041923
633.299866	2502.932885
633.645562	2576.029615
633.991206	2550.823846
634.336797	2467.644808
634.682336	2497.891731
635.027823	2480.247692
635.373257	2613.838269
635.718639	2424.795000
636.063968	2482.768269
636.409245	2482.768269
636.754470	2545.782692
637.099642	2591.153077
637.444762	2477.727115
637.789829	2540.741538
638.134845	2520.576923
638.479808	2518.056346
638.824719	2450.000769
639.169577	2462.603654
639.514383	2434.877308
639.859137	2515.535769
640.203839	2528.138654
640.548489	2500.412308
640.893086	2475.206538
641.237632	2477.727115
641.582125	2472.685962
641.926566	2553.344423
642.270955	2475.206538
642.615292	2497.891731
642.959576	2513.015192
643.303809	2515.535769
643.647990	2475.206538
643.992118	2507.974038
644.336195	2487.809423
644.680219	2525.618077
645.024192	2482.768269
645.368112	2492.850577
645.711981	2477.727115
646.055797	2497.891731
646.399562	2507.974038
646.743274	2495.371154
647.086935	2455.041923
647.430544	2472.685962
647.774101	2381.945192
648.117606	2513.015192
648.461059	2497.891731
648.804460	2477.727115
649.147810	2535.700385
649.491108	2480.247692
649.834354	2444.959615
650.177548	2452.521346
650.520690	2477.727115
650.863781	2447.480192
651.206820	2555.865000
651.549807	2553.344423
651.892742	2545.782692
652.235626	2507.974038
652.578458	2513.015192
652.921238	2462.603654
653.263967	2515.535769
653.606644	2573.509038
653.949269	2442.439038
654.291843	2535.700385
654.634365	2525.618077
654.976836	2502.932885
655.319255	2581.070769
655.661622	2460.083077
656.003938	2523.097500
656.346203	2402.109808
656.688416	2480.247692
657.030577	2500.412308
657.372687	2495.371154
657.714746	2480.247692
658.056753	2510.494615
658.398708	2525.618077
658.740612	2429.836154
659.082465	2502.932885
659.424266	2495.371154
659.766016	2545.782692
660.107715	2578.550192
660.449362	2520.576923
660.790958	2495.371154
661.132503	2528.138654
661.473996	2417.233269
661.815438	2578.550192
662.156829	2530.659231
662.498168	2497.891731
662.839456	2472.685962
663.180693	2462.603654
663.521879	2497.891731
663.863013	2394.548077
664.204097	2528.138654
664.545129	2515.535769
664.886110	2540.741538
665.227040	2467.644808
665.567918	2518.056346
665.908746	2588.632500
666.249522	2437.397885
666.590248	2545.782692
666.930922	2487.809423
667.271545	2583.591346
667.612118	2462.603654
667.952639	2523.097500
668.293109	2477.727115
668.633528	2538.220962
668.973896	2540.741538
669.314213	2434.877308
669.654480	2480.247692
669.994695	2447.480192
670.334859	2543.262115
670.674973	2475.206538
671.015035	2518.056346
671.355047	2480.247692
671.695008	2472.685962
672.034918	2535.700385
672.374777	2472.685962
672.714585	2558.385577
673.054342	2444.959615
673.394049	2540.741538
673.733705	2528.138654
674.073310	2495.371154
674.412864	2507.974038
674.752368	2502.932885
675.091820	2480.247692
675.431223	2543.262115
675.770574	2442.439038
676.109875	2482.768269
676.449125	2515.535769
676.788324	2465.124231
677.127473	2480.247692
677.466571	2530.659231
677.805619	2490.330000
678.144616	2502.932885
678.483562	2548.303269
678.822458	2485.288846
679.161303	2510.494615
679.500098	2475.206538
679.838842	2535.700385
680.177535	2482.768269
680.516179	2608.797115
680.854771	2515.535769
681.193314	2407.150962
681.531805	2457.562500
681.870247	2419.753846
682.208638	2492.850577
682.546978	2422.274423
682.885268	2563.426731
683.223508	2457.562500
683.561697	2495.371154
683.899836	2480.247692
684.237925	2530.659231
684.575963	2465.124231
684.913951	2533.179808
685.251889	2502.932885
685.589776	2465.124231
685.927614	2520.576923
686.265401	2502.932885
686.603137	2606.276538
686.940824	2475.206538
687.278460	2467.644808
687.616046	2485.288846
687.953582	2515.535769
688.291068	2427.315577
688.628504	2563.426731
688.965889	2518.056346
689.303224	2442.439038
689.640510	2533.179808
689.977745	2472.685962
690.314930	2475.206538
690.652065	2543.262115
690.989150	2460.083077
691.326185	2505.453462
691.663170	2510.494615
692.000105	2487.809423
692.336990	2485.288846
692.673825	2515.535769
693.010610	2558.385577
693.347345	2495.371154
693.684030	2417.233269
694.020665	2538.220962
694.357251	2533.179808
694.693786	2442.439038
695.030272	2477.727115
695.366707	2457.562500
695.703093	2447.480192
696.039429	2550.823846
696.375716	2434.877308
696.711952	2482.768269
697.048139	2578.550192
697.384276	2513.015192
697.720363	2490.330000
698.056400	2548.303269
698.392388	2555.865000
698.728326	2407.150962
699.064214	2485.288846
699.400053	2460.083077
699.735842	2457.562500
700.071581	2472.685962
700.407270	2507.974038
700.742910	2427.315577
701.078501	2505.453462
701.414042	2497.891731
701.749533	2560.906154
702.084974	2523.097500
702.420366	2457.562500
702.755709	2452.521346
703.091002	2533.179808
703.426246	2490.330000
703.761440	2606.276538
704.096584	2523.097500
704.431679	2490.330000
704.766725	2601.235385
705.101721	2545.782692
705.436668	2568.467885
705.771565	2550.823846
706.106413	2510.494615
706.441212	2475.206538
706.775961	2593.673654
707.110661	2507.974038
707.445311	2540.741538
707.779913	2570.988462
708.114465	2518.056346
708.448967	2399.589231
708.783421	2457.562500
709.117825	2470.165385
709.452180	2550.823846
709.786485	2528.138654
710.120742	2485.288846
710.454949	2427.315577
710.789107	2530.659231
711.123216	2540.741538
711.457275	2558.385577
711.791286	2548.303269
712.125247	2523.097500
712.459159	2490.330000
712.793023	2500.412308
713.126837	2497.891731
713.460602	2442.439038
713.794318	2535.700385
714.127985	2434.877308
714.461602	2429.836154
714.795171	2472.685962
715.128691	2555.865000
715.462162	2457.562500
715.795584	2548.303269
716.128957	2500.412308
716.462281	2429.836154
716.795556	2588.632500
717.128782	2447.480192
717.461960	2513.015192
717.795088	2480.247692
718.128167	2460.083077
718.461198	2432.356731
718.794180	2507.974038
719.127113	2530.659231
719.459997	2465.124231
719.792833	2470.165385
720.125619	2480.247692
720.458357	2523.097500
720.791046	2455.041923
721.123686	2563.426731
721.456278	2565.947308
721.788821	2444.959615
722.121315	2540.741538
722.453761	2528.138654
722.786158	2540.741538
723.118506	2492.850577
723.450805	2482.768269
723.783056	2621.400000
724.115259	2518.056346
724.447412	2439.918462
724.779518	2495.371154
725.111574	2530.659231
725.443582	2389.506923
725.775542	2497.891731
726.107453	2540.741538
726.439315	2538.220962
726.771129	2520.576923
727.102895	2591.153077
727.434612	2538.220962
727.766281	2510.494615
728.097901	2563.426731
728.429473	2555.865000
728.760996	2429.836154
729.092471	2467.644808
729.423897	2565.947308
729.755276	2475.206538
730.086606	2482.768269
730.417887	2414.712692
730.749120	2492.850577
731.080305	2507.974038
731.411442	2442.439038
731.742530	2455.041923
732.073570	2442.439038
732.404562	2480.247692
732.735506	2578.550192
733.066401	2535.700385
733.397249	2518.056346
733.728048	2470.165385
734.058798	2500.412308
734.389501	2477.727115
734.720156	2477.727115
735.050762	2427.315577
735.381320	2535.700385
735.711831	2485.288846
736.042293	2528.138654
736.372707	2442.439038
736.703073	2417.233269
737.033391	2553.344423
737.363661	2523.097500
737.693883	2497.891731
738.024056	2530.659231
738.354182	2492.850577
738.684260	2540.741538
739.014290	2450.000769
739.344272	2392.027500
739.674207	2525.618077
740.004093	2475.206538
740.333931	2530.659231
740.663722	2520.576923
740.993464	2530.659231
741.323159	2492.850577
741.652806	2548.303269
741.982405	2530.659231
742.311956	2530.659231
742.641460	2525.618077
742.970915	2505.453462
743.300323	2467.644808
743.629683	2480.247692
743.958996	2465.124231
744.288260	2492.850577
744.617477	2507.974038
744.946647	2538.220962
745.275768	2596.194231
745.604842	2548.303269
745.933869	2500.412308
746.262847	2528.138654
746.591778	2528.138654
746.920662	2492.850577
747.249498	2533.179808
747.578286	2555.865000
747.907027	2513.015192
748.235720	2502.932885
748.564365	2455.041923
748.892963	2530.659231
749.221514	2437.397885
749.550017	2515.535769
749.878473	2424.795000
750.206881	2402.109808
750.535242	2530.659231
750.863555	2523.097500
751.191821	2618.879423
751.520039	2533.179808
751.848210	2470.165385
752.176334	2465.124231
752.504411	2460.083077
752.832440	2467.644808
753.160421	2530.659231
753.488356	2455.041923
753.816243	2528.138654
754.144082	2495.371154
754.471875	2412.192115
754.799620	2485.288846
755.127318	2477.727115
755.454969	2518.056346
755.782572	2528.138654
756.110129	2495.371154
756.437638	2492.850577
756.765100	2538.220962
757.092515	2563.426731
757.419882	2462.603654
757.747203	2543.262115
758.074477	2460.083077
758.401703	2502.932885
758.728882	2414.712692
759.056014	2465.124231
759.383099	2535.700385
759.710138	2444.959615
760.037129	2520.576923
760.364073	2472.685962
760.690970	2482.768269
761.017820	2588.632500
761.344623	2543.262115
761.671379	2500.412308
761.998088	2485.288846
762.324751	2515.535769
762.651366	2462.603654
762.977935	2525.618077
763.304456	2525.618077
763.630931	2452.521346
763.957359	2548.303269
764.283740	2530.659231
764.610074	2548.303269
764.936362	2482.768269
765.262602	2505.453462
765.588796	2457.562500
765.914943	2470.165385
766.241044	2502.932885
766.567097	2570.988462
766.893104	2427.315577
767.219064	2523.097500
767.544978	2419.753846
767.870845	2530.659231
768.196665	2530.659231
768.522438	2477.727115
768.848165	2475.206538
769.173846	2576.029615
769.499479	2540.741538
769.825066	2525.618077
770.150607	2487.809423
770.476101	2457.562500
770.801548	2578.550192
771.126949	2545.782692
771.452303	2412.192115
771.777611	2432.356731
772.102872	2502.932885
772.428087	2502.932885
772.753256	2487.809423
773.078378	2555.865000
773.403453	2490.330000
773.728482	2470.165385
774.053465	2540.741538
774.378401	2487.809423
774.703291	2507.974038
775.028135	2470.165385
775.352932	2465.124231
775.677683	2429.836154
776.002388	2482.768269
776.327046	2563.426731
776.651658	2470.165385
776.976224	2477.727115
777.300743	2525.618077
777.625216	2470.165385
777.949643	2565.947308
778.274024	2515.535769
778.598359	2553.344423
778.922647	2452.521346
779.246889	2429.836154
779.571086	2487.809423
779.895236	2563.426731
780.219339	2500.412308
780.543397	2434.877308
780.867409	2520.576923
781.191374	2482.768269
781.515294	2520.576923
781.839167	2480.247692
782.162995	2538.220962
782.486776	2465.124231
782.810511	2540.741538
783.134201	2444.959615
783.457844	2500.412308
783.781441	2528.138654
784.104993	2482.768269
784.428498	2510.494615
784.751958	2477.727115
785.075372	2465.124231
785.398739	2558.385577
785.722061	2424.795000
786.045337	2389.506923
786.368568	2472.685962
786.691752	2462.603654
787.014891	2467.644808
787.337983	2568.467885
787.661030	2495.371154
787.984031	2515.535769
788.306987	2576.029615
788.629897	2513.015192
788.952760	2477.727115
789.275579	2573.509038
789.598351	2472.685962
789.921078	2598.714808
790.243759	2485.288846
790.566395	2502.932885
790.888984	2530.659231
791.211529	2510.494615
791.534027	2558.385577
791.856480	2518.056346
792.178888	2500.412308
792.501249	2450.000769
792.823566	2576.029615
793.145836	2533.179808
793.468062	2371.862885
793.790241	2490.330000
794.112375	2500.412308
794.434464	2523.097500
794.756507	2520.576923
795.078505	2505.453462
795.400457	2495.371154
795.722364	2540.741538
796.044226	2485.288846
796.366042	2581.070769
796.687812	2538.220962
797.009538	2507.974038
797.331218	2500.412308
797.652852	2457.562500
797.974442	2490.330000
798.295986	2543.262115
798.617484	2482.768269
798.938938	2540.741538
799.260346	2497.891731
799.581709	2409.671538
799.903026	2465.124231
800.224299	2525.618077
800.545526	2565.947308
800.866708	2422.274423
801.187845	2465.124231
801.508936	2497.891731
801.829983	2497.891731
802.150984	2442.439038
802.471940	2429.836154
802.792851	2427.315577
803.113717	2477.727115
803.434538	2482.768269
803.755314	2530.659231
804.076045	2495.371154
804.396731	2497.891731
804.717372	2457.562500
805.037967	2490.330000
805.358518	2485.288846
805.679024	2573.509038
805.999485	2467.644808
806.319901	2553.344423
806.640272	2424.795000
806.960598	2553.344423
807.280879	2475.206538
807.601115	2533.179808
807.921306	2530.659231
808.241453	2447.480192
808.561554	2505.453462
808.881611	2573.509038
809.201623	2490.330000
809.521590	2439.918462
809.841513	2497.891731
810.161390	2482.768269
810.481223	2586.111923
810.801011	2409.671538
811.120755	2505.453462
811.440453	2563.426731
811.760107	2500.412308
812.079716	2392.027500
812.399281	2434.877308
812.718801	2553.344423
813.038276	2490.330000
813.357707	2470.165385
813.677093	2480.247692
813.996434	2533.179808
814.315731	2500.412308
814.634983	2560.906154
814.954191	2565.947308
815.273354	2515.535769
815.592473	2480.247692
815.911547	2465.124231
816.230577	2530.659231
816.549562	2513.015192
816.868502	2502.932885
817.187399	2576.029615
817.506250	2543.262115
817.825058	2460.083077
818.143821	2550.823846
818.462539	2530.659231
818.781213	2437.397885
819.099843	2560.906154
819.418429	2470.165385
819.736970	2565.947308
820.055466	2545.782692
820.373919	2462.603654
820.692327	2555.865000
821.010691	2565.947308
821.329011	2427.315577
821.647286	2497.891731
821.965517	2439.918462
822.283704	2492.850577
822.601847	2568.467885
822.919945	2507.974038
823.237999	2563.426731
823.556010	2525.618077
823.873976	2520.576923
824.191897	2472.685962
824.509775	2487.809423
824.827609	2505.453462
825.145398	2482.768269
825.463144	2475.206538
825.780845	2500.412308
826.098502	2407.150962
826.416116	2558.385577
826.733685	2535.700385
827.051210	2432.356731
827.368692	2565.947308
827.686129	2518.056346
828.003522	2528.138654
828.320872	2513.015192
828.638177	2465.124231
828.955439	2533.179808
829.272656	2502.932885
829.589830	2518.056346
829.906960	2470.165385
830.224046	2497.891731
830.541088	2414.712692
830.858086	2439.918462
831.175041	2467.644808
831.491952	2475.206538
831.808819	2462.603654
832.125642	2538.220962
832.442421	2586.111923
832.759157	2603.755962
833.075849	2543.262115
833.392497	2414.712692
833.709101	2482.768269
834.025662	2452.521346
834.342179	2515.535769
834.658653	2535.700385
834.975083	2402.109808
835.291469	2540.741538
835.607811	2434.877308
835.924110	2513.015192
836.240366	2397.068654
836.556578	2525.618077
836.872746	2455.041923
837.188871	2472.685962
837.504952	2465.124231
837.820990	2518.056346
838.136984	2598.714808
838.452935	2568.467885
838.768842	2525.618077
839.084706	2558.385577
839.400526	2487.809423
839.716303	2487.809423
840.032037	2523.097500
840.347727	2497.891731
840.663373	2417.233269
840.978977	2437.397885
841.294537	2487.809423
841.610054	2439.918462
841.925527	2518.056346
842.240957	2533.179808
842.556344	2457.562500
842.871687	2477.727115
843.186987	2429.836154
843.502244	2477.727115
843.817458	2530.659231
844.132629	2492.850577
844.447756	2417.233269
844.762840	2434.877308
845.077881	2422.274423
845.392879	2485.288846
845.707833	2475.206538
846.022745	2427.315577
846.337613	2467.644808
846.652438	2535.700385
846.967221	2422.274423
847.281960	2528.138654
847.596656	2447.480192
847.911309	2563.426731
848.225919	2437.397885
848.540485	2490.330000
848.855009	2477.727115
849.169490	2553.344423
849.483928	2520.576923
849.798323	2507.974038
850.112675	2545.782692
850.426984	2467.644808
850.741251	2500.412308
851.055474	2455.041923
851.369654	2548.303269
851.683792	2613.838269
851.997887	2528.138654
852.311938	2485.288846
852.625947	2427.315577
852.939914	2492.850577
853.253837	2465.124231
853.567718	2518.056346
853.881555	2513.015192
854.195350	2467.644808
854.509103	2444.959615
854.822812	2507.974038
855.136479	2487.809423
855.450103	2581.070769
855.763685	2543.262115
856.077224	2432.356731
856.390720	2497.891731
856.704173	2457.562500
857.017584	2510.494615
857.330953	2470.165385
857.644278	2570.988462
857.957561	2477.727115
858.270802	2477.727115
858.584000	2424.795000
858.897155	2535.700385
859.210268	2485.288846
859.523339	2472.685962
859.836367	2492.850577
860.149352	2487.809423
860.462295	2518.056346
860.775195	2528.138654
861.088054	2384.465769
861.400869	2495.371154
861.713642	2462.603654
862.026373	2558.385577
862.339062	2492.850577
862.651708	2402.109808
862.964312	2492.850577
863.276873	2470.165385
863.589392	2513.015192
863.901869	2555.865000
864.214303	2550.823846
864.526696	2470.165385
864.839045	2439.918462
865.151353	2389.506923
865.463619	2492.850577
865.775842	2505.453462
866.088023	2505.453462
866.400162	2500.412308
866.712258	2530.659231
867.024313	2465.124231
867.336325	2513.015192
867.648296	2402.109808
867.960224	2525.618077
868.272110	2465.124231
868.583954	2543.262115
868.895755	2515.535769
869.207515	2500.412308
869.519233	2497.891731
869.830909	2492.850577
870.142542	2535.700385
870.454134	2538.220962
870.765684	2399.589231
871.077191	2467.644808
871.388657	2565.947308
871.700081	2482.768269
872.011463	2518.056346
872.322803	2545.782692
872.634101	2452.521346
872.945357	2533.179808
873.256571	2515.535769
873.567744	2543.262115
873.878874	2437.397885
874.189963	2576.029615
874.501010	2505.453462
874.812015	2528.138654
875.122979	2520.576923
875.433900	2507.974038
875.744780	2497.891731
876.055618	2472.685962
876.366415	2472.685962
876.677169	2409.671538
876.987882	2492.850577
877.298554	2548.303269
877.609183	2485.288846
877.919771	2495.371154
878.230317	2525.618077
878.540822	2535.700385
878.851285	2578.550192
879.161707	2447.480192
879.472087	2507.974038
879.782425	2492.850577
880.092722	2497.891731
880.402977	2608.797115
880.713191	2533.179808
881.023363	2376.904038
881.333494	2450.000769
881.643583	2528.138654
881.953631	2462.603654
882.263637	2475.206538
882.573602	2518.056346
882.883526	2535.700385
883.193408	2523.097500
883.503248	2470.165385
883.813048	2477.727115
884.122806	2422.274423
884.432522	2472.685962
884.742197	2510.494615
885.051831	2555.865000
885.361424	2497.891731
885.670975	2525.618077
885.980485	2515.535769
886.289954	2495.371154
886.599382	2472.685962
886.908768	2558.385577
887.218113	2608.797115
887.527417	2568.467885
887.836680	2497.891731
888.145901	2550.823846
888.455082	2523.097500
888.764221	2523.097500
889.073319	2432.356731
889.382376	2497.891731
889.691392	2530.659231
890.000366	2480.247692
890.309300	2510.494615
890.618193	2495.371154
890.927044	2497.891731
891.235855	2545.782692
891.544625	2470.165385
891.853353	2450.000769
892.162041	2502.932885
892.470687	2452.521346
892.779293	2487.809423
893.087858	2455.041923
893.396381	2550.823846
893.704864	2586.111923
894.013306	2505.453462
894.321707	2472.685962
894.630068	2507.974038
894.938387	2439.918462
895.246665	2452.521346
895.554903	2523.097500
895.863100	2465.124231
896.171256	2543.262115
896.479371	2535.700385
896.787446	2434.877308
897.095480	2460.083077
897.403473	2593.673654
897.711425	2500.412308
898.019336	2422.274423
898.327207	2513.015192
898.635038	2570.988462
898.942827	2450.000769
899.250576	2485.288846
899.558284	2540.741538
899.865952	2399.589231
900.173579	2525.618077
900.481165	2525.618077
900.788711	2558.385577
901.096216	2424.795000
901.403681	2525.618077
901.711105	2492.850577
902.018489	2518.056346
902.325832	2523.097500
902.633135	2442.439038
902.940397	2427.315577
903.247619	2419.753846
903.554800	2558.385577
903.861941	2495.371154
904.169041	2500.412308
904.476101	2452.521346
904.783121	2495.371154
905.090100	2457.562500
905.397039	2538.220962
905.703938	2495.371154
906.010796	2480.247692
906.317614	2457.562500
906.624391	2548.303269
906.931129	2447.480192
907.237826	2482.768269
907.544483	2500.412308
907.851099	2437.397885
908.157675	2497.891731
908.464211	2482.768269
908.770707	2555.865000
909.077163	2581.070769
909.383578	2507.974038
909.689954	2528.138654
909.996289	2424.795000
910.302584	2482.768269
910.608839	2485.288846
910.915054	2487.809423
911.221229	2543.262115
911.527363	2457.562500
911.833458	2470.165385
912.139513	2422.274423
912.445527	2467.644808
912.751502	2409.671538
913.057436	2507.974038
913.363331	2545.782692
913.669186	2480.247692
913.975000	2502.932885
914.280775	2460.083077
914.586510	2588.632500
914.892205	2422.274423
915.197859	2535.700385
915.503475	2525.618077
915.809050	2500.412308
916.114585	2502.932885
916.420081	2444.959615
916.725536	2492.850577
917.030952	2482.768269
917.336328	2485.288846
917.641665	2434.877308
917.946961	2487.809423
918.252218	2465.124231
918.557435	2470.165385
918.862612	2487.809423
919.167750	2538.220962
919.472848	2477.727115
919.777906	2502.932885
920.082925	2485.288846
920.387904	2507.974038
920.692843	2462.603654
920.997743	2472.685962
921.302603	2530.659231
921.607423	2407.150962
921.912204	2472.685962
922.216946	2434.877308
922.521647	2455.041923
922.826310	2520.576923
923.130932	2427.315577
923.435516	2414.712692
923.740059	2568.467885
924.044564	2457.562500
924.349028	2490.330000
924.653454	2573.509038
924.957840	2437.397885
925.262186	2502.932885
925.566493	2497.891731
925.870761	2515.535769
926.174989	2419.753846
926.479178	2513.015192
926.783328	2555.865000
927.087438	2407.150962
927.391509	2417.233269
927.695541	2480.247692
927.999533	2500.412308
928.303486	2422.274423
928.607400	2477.727115
928.911275	2402.109808
929.215110	2545.782692
929.518906	2465.124231
929.822663	2565.947308
930.126381	2487.809423
930.430060	2530.659231
930.733699	2457.562500
931.037299	2462.603654
931.340861	2502.932885
931.644383	2447.480192
931.947866	2495.371154
932.251309	2502.932885
932.554714	2576.029615
932.858080	2485.288846
933.161407	2502.932885
933.464694	2487.809423
933.767943	2520.576923
934.071153	2523.097500
934.374323	2583.591346
934.677455	2460.083077
934.980548	2442.439038
935.283602	2520.576923
935.586617	2475.206538
935.889593	2460.083077
936.192530	2455.041923
936.495428	2490.330000
936.798287	2455.041923
937.101108	2523.097500
937.403890	2495.371154
937.706632	2452.521346
938.009336	2414.712692
938.312002	2447.480192
938.614628	2460.083077
938.917216	2518.056346
939.219765	2535.700385
939.522275	2467.644808
939.824747	2497.891731
940.127179	2444.959615
940.429573	2482.768269
940.731929	2397.068654
941.034246	2513.015192
941.336524	2487.809423
941.638763	2507.974038
941.940964	2495.371154
942.243126	2533.179808
942.545250	2515.535769
942.847335	2462.603654
943.149381	2462.603654
943.451389	2442.439038
943.753359	2540.741538
944.055290	2482.768269
944.357182	2510.494615
944.659036	2581.070769
944.960851	2555.865000
945.262628	2495.371154
945.564367	2485.288846
945.866067	2555.865000
946.167729	2490.330000
946.469352	2447.480192
946.770937	2497.891731
947.072484	2513.015192
947.373992	2518.056346
947.675462	2520.576923
947.976893	2452.521346
948.278286	2477.727115
948.579641	2540.741538
948.880958	2432.356731
949.182236	2586.111923
949.483476	2480.247692
949.784678	2528.138654
950.085841	2480.247692
950.386967	2495.371154
950.688054	2507.974038
950.989103	2495.371154
951.290114	2507.974038
951.591087	2450.000769
951.892021	2513.015192
952.192917	2533.179808
952.493776	2397.068654
952.794596	2482.768269
953.095378	2475.206538
953.396122	2535.700385
953.696828	2545.782692
953.997496	2457.562500
954.298126	2520.576923
954.598718	2518.056346
954.899272	2518.056346
955.199788	2467.644808
955.500266	2477.727115
955.800706	2444.959615
956.101108	2397.068654
956.401472	2452.521346
956.701798	2482.768269
957.002087	2452.521346
957.302337	2507.974038
957.602550	2472.685962
957.902724	2485.288846
958.202861	2369.342308
958.502960	2379.424615
958.803022	2533.179808
959.103045	2470.165385
959.403031	2518.056346
959.702979	2540.741538
960.002889	2374.383462
960.302762	2490.330000
960.602596	2404.630385
960.902393	2533.179808
961.202153	2434.877308
961.501875	2507.974038
961.801559	2490.330000
962.101205	2507.974038
962.400814	2495.371154
962.700385	2407.150962
962.999918	2543.262115
963.299414	2460.083077
963.598873	2472.685962
963.898293	2523.097500
964.197677	2518.056346
964.497022	2510.494615
964.796331	2500.412308
965.095601	2525.618077
965.394835	2490.330000
965.694030	2528.138654
965.993189	2520.576923
966.292309	2434.877308
966.591393	2482.768269
966.890439	2480.247692
967.189447	2492.850577
967.488419	2389.506923
967.787353	2442.439038
968.086249	2545.782692
968.385108	2485.288846
968.683930	2485.288846
968.982714	2455.041923
969.281462	2520.576923
969.580172	2482.768269
969.878844	2462.603654
970.177480	2432.356731
970.476078	2447.480192
970.774639	2560.906154
971.073162	2404.630385
971.371649	2475.206538
971.670098	2455.041923
971.968510	2497.891731
972.266885	2450.000769
972.565223	2513.015192
972.863524	2553.344423
973.161788	2482.768269
973.460014	2507.974038
973.758204	2520.576923
974.056356	2485.288846
974.354471	2475.206538
974.652550	2490.330000
974.950591	2513.015192
975.248595	2490.330000
975.546563	2477.727115
975.844493	2513.015192
976.142386	2520.576923
976.440243	2510.494615
976.738062	2485.288846
977.035845	2462.603654
977.333590	2475.206538
977.631299	2450.000769
977.928971	2465.124231
978.226606	2402.109808
978.524204	2596.194231
978.821765	2472.685962
979.119290	2530.659231
979.416777	2563.426731
979.714228	2384.465769
980.011642	2492.850577
980.309020	2555.865000
980.606360	2500.412308
980.903664	2525.618077
981.200931	2497.891731
981.498162	2560.906154
981.795356	2502.932885
982.092513	2429.836154
982.389633	2608.797115
982.686717	2477.727115
982.983764	2389.506923
983.280775	2520.576923
983.577749	2465.124231
983.874686	2482.768269
984.171587	2462.603654
984.468451	2520.576923
984.765279	2470.165385
985.062070	2422.274423
985.358824	2530.659231
985.655543	2475.206538
985.952224	2520.576923
986.248869	2490.330000
986.545478	2495.371154
986.842050	2439.918462
987.138586	2492.850577
987.435086	2439.918462
987.731549	2455.041923
988.027975	2507.974038
988.324366	2520.576923
988.620719	2439.918462
988.917037	2429.836154
989.213318	2533.179808
989.509563	2608.797115
989.805772	2480.247692
990.101944	2495.371154
990.398080	2475.206538
990.694180	2545.782692
990.990244	2553.344423
991.286271	2444.959615
991.582262	2467.644808
991.878217	2528.138654
992.174136	2472.685962
992.470019	2505.453462
992.765865	2407.150962
993.061676	2477.727115
993.357450	2447.480192
993.653188	2475.206538
993.948890	2523.097500
994.244556	2553.344423
994.540186	2563.426731
994.835780	2507.974038
995.131337	2502.932885
995.426859	2520.576923
995.722345	2535.700385
996.017795	2500.412308
996.313208	2417.233269
996.608586	2450.000769
996.903928	2515.535769
997.199234	2513.015192
997.494504	2530.659231
997.789738	2467.644808
998.084936	2525.618077
998.380099	2513.015192
998.675225	2570.988462
998.970316	2505.453462
999.265371	2437.397885
999.560390	2583.591346
999.855373	2455.041923
1000.150320	2525.618077
1000.445232	2402.109808
1000.740108	2482.768269
1001.034948	2460.083077
1001.329752	2573.509038
1001.624521	2548.303269
1001.919254	2455.041923
1002.213951	2485.288846
1002.508613	2414.712692
1002.803239	2490.330000
1003.097829	2422.274423
1003.392384	2482.768269
1003.686903	2462.603654
1003.981386	2528.138654
1004.275834	2475.206538
1004.570246	2601.235385
1004.864623	2485.288846
1005.158964	2470.165385
1005.453270	2487.809423
1005.747540	2593.673654
1006.041775	2414.712692
1006.335974	2467.644808
1006.630138	2455.041923
1006.924266	2407.150962
1007.218359	2520.576923
1007.512416	2482.768269
1007.806438	2538.220962
1008.100425	2644.085192
1008.394376	2482.768269
1008.688292	2450.000769
1008.982172	2444.959615
1009.276017	2472.685962
1009.569827	2409.671538
1009.863602	2450.000769
1010.157341	2525.618077
1010.451045	2482.768269
1010.744714	2490.330000
1011.038347	2444.959615
1011.331945	2424.795000
1011.625508	2523.097500
1011.919036	2480.247692
1012.212528	2570.988462
1012.505986	2523.097500
1012.799408	2497.891731
1013.092795	2550.823846
1013.386147	2555.865000
1013.679464	2500.412308
1013.972745	2379.424615
1014.265992	2548.303269
1014.559204	2475.206538
1014.852380	2437.397885
1015.145521	2450.000769
1015.438628	2490.330000
1015.731699	2548.303269
1016.024736	2507.974038
1016.317737	2513.015192
1016.610703	2450.000769
1016.903635	2475.206538
1017.196531	2497.891731
1017.489393	2487.809423
1017.782219	2550.823846
1018.075011	2555.865000
1018.367768	2402.109808
1018.660490	2513.015192
1018.953177	2513.015192
1019.245829	2513.015192
