Dividing Wavelength (nm)	Counts (n)	Blue Motor Position (mm): 0.000000	Red Motor Position (mm): 0.300000	
326.493990	2021.502692
326.888308	2021.502692
327.282561	2021.502692
327.676750	2071.914231
328.070874	2026.543846
328.464933	2039.146731
328.858929	2109.722885
329.252859	2011.420385
329.646726	2074.434808
330.040528	2066.873077
330.434265	2208.025385
330.827938	2122.325769
331.221547	2195.422500
331.615091	2190.381346
332.008571	2182.819615
332.401986	2208.025385
332.795338	2240.792885
333.188625	2220.628269
333.581847	2273.560385
333.975006	2296.245577
334.368100	2263.478077
334.761129	2364.301154
335.154095	2379.424615
335.546996	2381.945192
335.939833	2447.480192
336.332606	2296.245577
336.725315	2341.615962
337.117960	2424.795000
337.510540	2349.177692
337.903056	2472.685962
338.295508	2492.850577
338.687896	2354.218846
339.080220	2462.603654
339.472480	2404.630385
339.864676	2429.836154
340.256807	2455.041923
340.648875	2417.233269
341.040879	2419.753846
341.432818	2477.727115
341.824694	2480.247692
342.216506	2543.262115
342.608253	2452.521346
342.999937	2419.753846
343.391557	2497.891731
343.783113	2520.576923
344.174605	2490.330000
344.566033	2535.700385
344.957397	2439.918462
345.348697	2457.562500
345.739934	2434.877308
346.131106	2439.918462
346.522215	2528.138654
346.913260	2450.000769
347.304241	2502.932885
347.695159	2457.562500
348.086012	2500.412308
348.476802	2482.768269
348.867528	2510.494615
349.258191	2555.865000
349.648789	2417.233269
350.039324	2555.865000
350.429796	2581.070769
350.820203	2394.548077
351.210548	2412.192115
351.600828	2497.891731
351.991045	2452.521346
352.381198	2515.535769
352.771288	2427.315577
353.161314	2384.465769
353.551276	2477.727115
353.941175	2409.671538
354.331010	2487.809423
354.720782	2366.821731
355.110490	2437.397885
355.500135	2563.426731
355.889717	2444.959615
356.279235	2437.397885
356.668689	2477.727115
357.058080	2407.150962
357.447408	2429.836154
357.836672	2422.274423
358.225873	2462.603654
358.615010	2452.521346
359.004084	2402.109808
359.393095	2495.371154
359.782043	2439.918462
360.170927	2480.247692
360.559748	2460.083077
360.948505	2450.000769
361.337199	2447.480192
361.725830	2329.013077
362.114398	2384.465769
362.502903	2450.000769
362.891344	2455.041923
363.279722	2427.315577
363.668037	2530.659231
364.056289	2361.780577
364.444478	2354.218846
364.832603	2376.904038
365.220665	2462.603654
365.608665	2404.630385
365.996601	2460.083077
366.384474	2402.109808
366.772284	2492.850577
367.160031	2394.548077
367.547715	2437.397885
367.935336	2429.836154
368.322893	2434.877308
368.710388	2444.959615
369.097820	2402.109808
369.485189	2487.809423
369.872495	2409.671538
370.259738	2437.397885
370.646918	2482.768269
371.034035	2419.753846
371.421090	2472.685962
371.808081	2434.877308
372.195010	2407.150962
372.581875	2460.083077
372.968678	2434.877308
373.355418	2429.836154
373.742096	2477.727115
374.128710	2427.315577
374.515262	2470.165385
374.901751	2427.315577
375.288177	2460.083077
375.674540	2482.768269
376.060841	2492.850577
376.447079	2414.712692
376.833254	2437.397885
377.219367	2525.618077
377.605417	2444.959615
377.991404	2434.877308
378.377329	2462.603654
378.763191	2432.356731
379.148991	2472.685962
379.534727	2407.150962
379.920402	2492.850577
380.306013	2460.083077
380.691563	2490.330000
381.077049	2465.124231
381.462474	2528.138654
381.847835	2460.083077
382.233134	2460.083077
382.618371	2424.795000
383.003545	2467.644808
383.388657	2427.315577
383.773706	2480.247692
384.158693	2465.124231
384.543618	2442.439038
384.928480	2402.109808
385.313280	2462.603654
385.698017	2480.247692
386.082692	2447.480192
386.467305	2424.795000
386.851856	2419.753846
387.236344	2450.000769
387.620770	2470.165385
388.005133	2442.439038
388.389435	2528.138654
388.773674	2465.124231
389.157851	2429.836154
389.541965	2349.177692
389.926018	2490.330000
390.310008	2528.138654
390.693936	2502.932885
391.077802	2565.947308
391.461606	2480.247692
391.845348	2460.083077
392.229027	2402.109808
392.612645	2495.371154
392.996200	2492.850577
393.379694	2434.877308
393.763125	2439.918462
394.146494	2404.630385
394.529801	2462.603654
394.913047	2419.753846
395.296230	2397.068654
395.679351	2450.000769
396.062410	2513.015192
396.445408	2485.288846
396.828343	2510.494615
397.211217	2502.932885
397.594028	2455.041923
397.976778	2460.083077
398.359466	2452.521346
398.742092	2540.741538
399.124656	2485.288846
399.507158	2543.262115
399.889598	2530.659231
400.271977	2515.535769
400.654294	2480.247692
401.036549	2502.932885
401.418742	2434.877308
401.800874	2490.330000
402.182944	2523.097500
402.564952	2460.083077
402.946898	2550.823846
403.328783	2507.974038
403.710606	2535.700385
404.092367	2465.124231
404.474067	2525.618077
404.855705	2394.548077
405.237282	2437.397885
405.618797	2437.397885
406.000250	2507.974038
406.381642	2497.891731
406.762972	2487.809423
407.144240	2422.274423
407.525447	2492.850577
407.906593	2497.891731
408.287677	2427.315577
408.668700	2477.727115
409.049661	2515.535769
409.430560	2424.795000
409.811399	2427.315577
410.192176	2447.480192
410.572891	2397.068654
410.953545	2442.439038
411.334138	2538.220962
411.714669	2492.850577
412.095139	2492.850577
412.475547	2482.768269
412.855894	2475.206538
413.236180	2397.068654
413.616405	2485.288846
413.996568	2424.795000
414.376670	2515.535769
414.756711	2477.727115
415.136691	2507.974038
415.516609	2523.097500
415.896466	2422.274423
416.276262	2447.480192
416.655997	2402.109808
417.035670	2472.685962
417.415283	2505.453462
417.794834	2495.371154
418.174324	2528.138654
418.553753	2495.371154
418.933121	2424.795000
419.312428	2543.262115
419.691674	2427.315577
420.070859	2502.932885
420.449983	2518.056346
420.829045	2442.439038
421.208047	2500.412308
421.586988	2543.262115
421.965867	2470.165385
422.344686	2437.397885
422.723444	2515.535769
423.102141	2555.865000
423.480777	2485.288846
423.859352	2480.247692
424.237866	2422.274423
424.616319	2417.233269
424.994712	2457.562500
425.373044	2437.397885
425.751314	2505.453462
426.129524	2490.330000
426.507673	2472.685962
426.885762	2447.480192
427.263789	2518.056346
427.641756	2452.521346
428.019662	2545.782692
428.397508	2439.918462
428.775292	2432.356731
429.153016	2513.015192
429.530679	2555.865000
429.908282	2432.356731
430.285824	2475.206538
430.663305	2490.330000
431.040726	2520.576923
431.418086	2563.426731
431.795385	2465.124231
432.172624	2523.097500
432.549802	2480.247692
432.926920	2485.288846
433.303977	2460.083077
433.680974	2462.603654
434.057910	2495.371154
434.434786	2480.247692
434.811601	2523.097500
435.188355	2525.618077
435.565050	2500.412308
435.941683	2518.056346
436.318257	2515.535769
436.694770	2470.165385
437.071222	2467.644808
437.447614	2510.494615
437.823946	2502.932885
438.200218	2457.562500
438.576429	2520.576923
438.952580	2472.685962
439.328670	2525.618077
439.704700	2419.753846
440.080670	2543.262115
440.456580	2455.041923
440.832429	2535.700385
441.208218	2568.467885
441.583947	2444.959615
441.959616	2475.206538
442.335224	2477.727115
442.710773	2447.480192
443.086261	2437.397885
443.461689	2467.644808
443.837057	2528.138654
444.212365	2472.685962
444.587612	2437.397885
444.962800	2427.315577
445.337927	2497.891731
445.712995	2492.850577
446.088002	2424.795000
446.462949	2487.809423
446.837837	2578.550192
447.212664	2457.562500
447.587431	2424.795000
447.962139	2507.974038
448.336786	2467.644808
448.711374	2437.397885
449.085901	2472.685962
449.460369	2452.521346
449.834776	2386.986346
450.209124	2447.480192
450.583412	2497.891731
450.957640	2505.453462
451.331808	2465.124231
451.705917	2447.480192
452.079965	2487.809423
452.453954	2472.685962
452.827883	2548.303269
453.201752	2427.315577
453.575562	2492.850577
453.949311	2482.768269
454.323001	2485.288846
454.696632	2538.220962
455.070202	2412.192115
455.443713	2505.453462
455.817164	2525.618077
456.190556	2467.644808
456.563888	2477.727115
456.937160	2475.206538
457.310373	2492.850577
457.683526	2442.439038
458.056619	2487.809423
458.429653	2472.685962
458.802628	2482.768269
459.175542	2444.959615
459.548398	2505.453462
459.921194	2528.138654
460.293930	2545.782692
460.666607	2470.165385
461.039224	2548.303269
461.411782	2447.480192
461.784280	2548.303269
462.156719	2513.015192
462.529099	2545.782692
462.901419	2462.603654
463.273680	2507.974038
463.645882	2518.056346
464.018024	2475.206538
464.390106	2533.179808
464.762130	2475.206538
465.134094	2487.809423
465.505999	2462.603654
465.877845	2472.685962
466.249631	2505.453462
466.621358	2507.974038
466.993026	2507.974038
467.364634	2455.041923
467.736184	2530.659231
468.107674	2462.603654
468.479105	2507.974038
468.850477	2543.262115
469.221790	2437.397885
469.593043	2495.371154
469.964238	2318.930769
470.335373	2523.097500
470.706449	2475.206538
471.077467	2533.179808
471.448425	2442.439038
471.819324	2424.795000
472.190164	2450.000769
472.560945	2523.097500
472.931667	2525.618077
473.302330	2444.959615
473.672934	2497.891731
474.043479	2510.494615
474.413965	2525.618077
474.784393	2452.521346
475.154761	2523.097500
475.525070	2497.891731
475.895321	2460.083077
476.265513	2452.521346
476.635645	2545.782692
477.005719	2586.111923
477.375734	2523.097500
477.745691	2576.029615
478.115588	2525.618077
478.485427	2472.685962
478.855207	2407.150962
479.224928	2505.453462
479.594591	2528.138654
479.964194	2507.974038
480.333739	2525.618077
480.703226	2538.220962
481.072653	2467.644808
481.442022	2452.521346
481.811333	2472.685962
482.180584	2492.850577
482.549777	2538.220962
482.918912	2492.850577
483.287988	2485.288846
483.657005	2444.959615
484.025964	2576.029615
484.394864	2467.644808
484.763706	2424.795000
485.132489	2492.850577
485.501213	2548.303269
485.869879	2467.644808
486.238487	2518.056346
486.607036	2507.974038
486.975527	2505.453462
487.343959	2528.138654
487.712333	2533.179808
488.080648	2457.562500
488.448905	2457.562500
488.817104	2558.385577
489.185244	2528.138654
489.553326	2540.741538
489.921350	2482.768269
490.289315	2533.179808
490.657222	2492.850577
491.025070	2497.891731
491.392861	2419.753846
491.760593	2606.276538
492.128267	2419.753846
492.495883	2475.206538
492.863440	2437.397885
493.230939	2510.494615
493.598380	2548.303269
493.965763	2545.782692
494.333088	2523.097500
494.700354	2447.480192
495.067563	2535.700385
495.434713	2437.397885
495.801805	2422.274423
496.168839	2465.124231
496.535815	2497.891731
496.902733	2492.850577
497.269593	2447.480192
497.636395	2480.247692
498.003139	2533.179808
498.369825	2533.179808
498.736453	2606.276538
499.103023	2482.768269
499.469535	2465.124231
499.835989	2570.988462
500.202385	2520.576923
500.568723	2533.179808
500.935003	2535.700385
501.301226	2457.562500
501.667390	2475.206538
502.033497	2545.782692
502.399546	2465.124231
502.765537	2518.056346
503.131470	2427.315577
503.497345	2513.015192
503.863163	2502.932885
504.228923	2437.397885
504.594625	2497.891731
504.960269	2518.056346
505.325856	2535.700385
505.691385	2480.247692
506.056856	2497.891731
506.422270	2422.274423
506.787625	2523.097500
507.152924	2568.467885
507.518164	2490.330000
507.883347	2462.603654
508.248472	2555.865000
508.613540	2480.247692
508.978550	2422.274423
509.343503	2530.659231
509.708398	2470.165385
510.073236	2518.056346
510.438016	2455.041923
510.802738	2525.618077
511.167403	2465.124231
511.532010	2530.659231
511.896561	2472.685962
512.261053	2507.974038
512.625488	2482.768269
512.989866	2492.850577
513.354186	2505.453462
513.718449	2480.247692
514.082655	2477.727115
514.446803	2490.330000
514.810894	2485.288846
515.174927	2588.632500
515.538904	2535.700385
515.902822	2497.891731
516.266684	2525.618077
516.630488	2467.644808
516.994235	2447.480192
517.357925	2492.850577
517.721558	2467.644808
518.085133	2513.015192
518.448651	2452.521346
518.812112	2462.603654
519.175516	2545.782692
519.538863	2523.097500
519.902152	2480.247692
520.265385	2535.700385
520.628560	2475.206538
520.991678	2497.891731
521.354739	2475.206538
521.717743	2545.782692
522.080690	2442.439038
522.443580	2533.179808
522.806413	2462.603654
523.169189	2518.056346
523.531908	2502.932885
523.894569	2465.124231
524.257174	2465.124231
524.619722	2535.700385
524.982213	2477.727115
525.344647	2530.659231
525.707025	2407.150962
526.069345	2513.015192
526.431608	2507.974038
526.793815	2553.344423
527.155964	2500.412308
527.518057	2518.056346
527.880093	2434.877308
528.242072	2477.727115
528.603995	2480.247692
528.965860	2490.330000
529.327669	2427.315577
529.689421	2477.727115
530.051117	2482.768269
530.412755	2470.165385
530.774337	2530.659231
531.135862	2492.850577
531.497331	2528.138654
531.858743	2450.000769
532.220098	2586.111923
532.581396	2429.836154
532.942638	2525.618077
533.303824	2563.426731
533.664953	2455.041923
534.026025	2492.850577
534.387040	2560.906154
534.747999	2452.521346
535.108902	2495.371154
535.469748	2437.397885
535.830537	2480.247692
536.191270	2470.165385
536.551947	2520.576923
536.912567	2462.603654
537.273131	2497.891731
537.633638	2570.988462
537.994089	2465.124231
538.354483	2540.741538
538.714821	2480.247692
539.075103	2568.467885
539.435328	2490.330000
539.795497	2467.644808
540.155609	2510.494615
540.515665	2490.330000
540.875665	2462.603654
541.235609	2450.000769
541.595496	2361.780577
541.955328	2480.247692
542.315102	2525.618077
542.674821	2500.412308
543.034483	2480.247692
543.394090	2429.836154
543.753640	2424.795000
544.113134	2432.356731
544.472571	2500.412308
544.831953	2515.535769
545.191278	2470.165385
545.550548	2538.220962
545.909761	2510.494615
546.268918	2490.330000
546.628019	2467.644808
546.987064	2535.700385
547.346053	2487.809423
547.704986	2510.494615
548.063863	2490.330000
548.422684	2518.056346
548.781449	2553.344423
549.140158	2548.303269
549.498811	2485.288846
549.857408	2515.535769
550.215949	2462.603654
550.574434	2495.371154
550.932864	2548.303269
551.291237	2513.015192
551.649555	2432.356731
552.007817	2495.371154
552.366022	2487.809423
552.724173	2558.385577
553.082267	2495.371154
553.440305	2450.000769
553.798288	2482.768269
554.156215	2558.385577
554.514086	2487.809423
554.871902	2543.262115
555.229661	2450.000769
555.587365	2490.330000
555.945014	2502.932885
556.302606	2487.809423
556.660143	2485.288846
557.017625	2450.000769
557.375050	2515.535769
557.732421	2450.000769
558.089735	2492.850577
558.446994	2497.891731
558.804197	2475.206538
559.161345	2477.727115
559.518437	2500.412308
559.875474	2515.535769
560.232455	2492.850577
560.589381	2513.015192
560.946251	2457.562500
561.303065	2439.918462
561.659825	2553.344423
562.016528	2555.865000
562.373177	2570.988462
562.729770	2487.809423
563.086307	2490.330000
563.442789	2490.330000
563.799216	2487.809423
564.155587	2439.918462
564.511904	2412.192115
564.868164	2535.700385
565.224370	2444.959615
565.580520	2482.768269
565.936615	2404.630385
566.292654	2404.630385
566.648638	2492.850577
567.004567	2533.179808
567.360441	2399.589231
567.716260	2558.385577
568.072023	2492.850577
568.427732	2455.041923
568.783385	2515.535769
569.138982	2505.453462
569.494525	2497.891731
569.850013	2465.124231
570.205445	2457.562500
570.560823	2513.015192
570.916145	2563.426731
571.271412	2518.056346
571.626625	2548.303269
571.981782	2507.974038
572.336884	2515.535769
572.691931	2515.535769
573.046923	2492.850577
573.401860	2467.644808
573.756743	2548.303269
574.111570	2477.727115
574.466342	2487.809423
574.821059	2460.083077
575.175722	2462.603654
575.530330	2402.109808
575.884882	2386.986346
576.239380	2482.768269
576.593823	2576.029615
576.948211	2429.836154
577.302544	2485.288846
577.656823	2487.809423
578.011047	2505.453462
578.365216	2523.097500
578.719330	2510.494615
579.073389	2477.727115
579.427394	2502.932885
579.781344	2452.521346
580.135239	2505.453462
580.489080	2444.959615
580.842866	2523.097500
581.196597	2455.041923
581.550273	2586.111923
581.903895	2472.685962
582.257463	2467.644808
582.610975	2520.576923
582.964434	2492.850577
583.317837	2422.274423
583.671186	2500.412308
584.024481	2457.562500
584.377721	2520.576923
584.730906	2429.836154
585.084037	2510.494615
585.437113	2485.288846
585.790135	2432.356731
586.143103	2530.659231
586.496016	2520.576923
586.848874	2505.453462
587.201679	2528.138654
587.554428	2465.124231
587.907124	2475.206538
588.259765	2530.659231
588.612352	2477.727115
588.964884	2497.891731
589.317362	2437.397885
589.669786	2417.233269
590.022155	2495.371154
590.374470	2553.344423
590.726731	2497.891731
591.078937	2563.426731
591.431090	2518.056346
591.783188	2593.673654
592.135232	2465.124231
592.487222	2497.891731
592.839157	2530.659231
593.191038	2472.685962
593.542866	2525.618077
593.894639	2507.974038
594.246358	2543.262115
594.598022	2530.659231
594.949633	2500.412308
595.301190	2513.015192
595.652692	2507.974038
596.004141	2470.165385
596.355535	2505.453462
596.706876	2495.371154
597.058162	2510.494615
597.409395	2457.562500
597.760573	2455.041923
598.111698	2523.097500
598.462768	2417.233269
598.813785	2530.659231
599.164748	2523.097500
599.515657	2452.521346
599.866511	2460.083077
600.217312	2528.138654
600.568060	2485.288846
600.918753	2419.753846
601.269392	2485.288846
601.619978	2460.083077
601.970510	2538.220962
602.320988	2523.097500
602.671412	2490.330000
603.021783	2487.809423
603.372100	2560.906154
603.722363	2447.480192
604.072572	2510.494615
604.422728	2475.206538
604.772830	2528.138654
605.122878	2485.288846
605.472872	2507.974038
605.822813	2535.700385
606.172701	2487.809423
606.522534	2513.015192
606.872314	2457.562500
607.222041	2462.603654
607.571714	2346.657115
607.921333	2462.603654
608.270899	2419.753846
608.620411	2548.303269
608.969870	2485.288846
609.319276	2533.179808
609.668627	2530.659231
610.017926	2419.753846
610.367171	2487.809423
610.716362	2467.644808
611.065500	2515.535769
611.414585	2540.741538
611.763616	2520.576923
612.112594	2472.685962
612.461518	2507.974038
612.810389	2543.262115
613.159207	2495.371154
613.507971	2444.959615
613.856682	2555.865000
614.205340	2422.274423
614.553945	2505.453462
614.902496	2502.932885
615.250994	2472.685962
615.599439	2543.262115
615.947830	2495.371154
616.296169	2497.891731
616.644454	2510.494615
616.992686	2596.194231
617.340864	2540.741538
617.688990	2533.179808
618.037063	2513.015192
618.385082	2480.247692
618.733048	2523.097500
619.080961	2439.918462
619.428821	2550.823846
619.776628	2470.165385
620.124382	2540.741538
620.472083	2586.111923
620.819731	2450.000769
621.167326	2525.618077
621.514868	2570.988462
621.862357	2470.165385
622.209793	2467.644808
622.557176	2480.247692
622.904506	2497.891731
623.251783	2480.247692
623.599007	2520.576923
623.946179	2442.439038
624.293297	2444.959615
624.640363	2447.480192
624.987376	2450.000769
625.334336	2495.371154
625.681243	2470.165385
626.028097	2528.138654
626.374899	2518.056346
626.721647	2455.041923
627.068343	2457.562500
627.414987	2505.453462
627.761577	2518.056346
628.108115	2472.685962
628.454600	2538.220962
628.801032	2492.850577
629.147412	2513.015192
629.493739	2477.727115
629.840014	2485.288846
630.186236	2528.138654
630.532405	2520.576923
630.878521	2601.235385
631.224585	2457.562500
631.570597	2452.521346
631.916556	2371.862885
632.262462	2450.000769
632.608316	2555.865000
632.954117	2477.727115
633.299866	2379.424615
633.645562	2520.576923
633.991206	2444.959615
634.336797	2472.685962
634.682336	2558.385577
635.027823	2535.700385
635.373257	2465.124231
635.718639	2523.097500
636.063968	2576.029615
636.409245	2482.768269
636.754470	2467.644808
637.099642	2487.809423
637.444762	2490.330000
637.789829	2472.685962
638.134845	2480.247692
638.479808	2523.097500
638.824719	2467.644808
639.169577	2434.877308
639.514383	2424.795000
639.859137	2530.659231
640.203839	2470.165385
640.548489	2533.179808
640.893086	2507.974038
641.237632	2452.521346
641.582125	2455.041923
641.926566	2505.453462
642.270955	2520.576923
642.615292	2507.974038
642.959576	2439.918462
643.303809	2533.179808
643.647990	2497.891731
643.992118	2540.741538
644.336195	2482.768269
644.680219	2565.947308
645.024192	2424.795000
645.368112	2462.603654
645.711981	2490.330000
646.055797	2545.782692
646.399562	2452.521346
646.743274	2523.097500
647.086935	2540.741538
647.430544	2611.317692
647.774101	2472.685962
648.117606	2510.494615
648.461059	2520.576923
648.804460	2576.029615
649.147810	2419.753846
649.491108	2495.371154
649.834354	2485.288846
650.177548	2535.700385
650.520690	2563.426731
650.863781	2444.959615
651.206820	2548.303269
651.549807	2477.727115
651.892742	2437.397885
652.235626	2475.206538
652.578458	2513.015192
652.921238	2467.644808
653.263967	2462.603654
653.606644	2467.644808
653.949269	2457.562500
654.291843	2535.700385
654.634365	2502.932885
654.976836	2444.959615
655.319255	2528.138654
655.661622	2518.056346
656.003938	2528.138654
656.346203	2460.083077
656.688416	2417.233269
657.030577	2513.015192
657.372687	2538.220962
657.714746	2472.685962
658.056753	2550.823846
658.398708	2477.727115
658.740612	2555.865000
659.082465	2513.015192
659.424266	2495.371154
659.766016	2475.206538
660.107715	2513.015192
660.449362	2497.891731
660.790958	2429.836154
661.132503	2492.850577
661.473996	2497.891731
661.815438	2480.247692
662.156829	2513.015192
662.498168	2424.795000
662.839456	2465.124231
663.180693	2513.015192
663.521879	2384.465769
663.863013	2520.576923
664.204097	2437.397885
664.545129	2412.192115
664.886110	2450.000769
665.227040	2533.179808
665.567918	2505.453462
665.908746	2447.480192
666.249522	2470.165385
666.590248	2515.535769
666.930922	2555.865000
667.271545	2487.809423
667.612118	2497.891731
667.952639	2535.700385
668.293109	2432.356731
668.633528	2497.891731
668.973896	2417.233269
669.314213	2497.891731
669.654480	2457.562500
669.994695	2424.795000
670.334859	2472.685962
670.674973	2497.891731
671.015035	2497.891731
671.355047	2543.262115
671.695008	2543.262115
672.034918	2510.494615
672.374777	2507.974038
672.714585	2452.521346
673.054342	2490.330000
673.394049	2510.494615
673.733705	2576.029615
674.073310	2477.727115
674.412864	2485.288846
674.752368	2480.247692
675.091820	2495.371154
675.431223	2518.056346
675.770574	2523.097500
676.109875	2497.891731
676.449125	2505.453462
676.788324	2412.192115
677.127473	2507.974038
677.466571	2515.535769
677.805619	2513.015192
678.144616	2477.727115
678.483562	2485.288846
678.822458	2568.467885
679.161303	2482.768269
679.500098	2480.247692
679.838842	2492.850577
680.177535	2477.727115
680.516179	2518.056346
680.854771	2409.671538
681.193314	2510.494615
681.531805	2470.165385
681.870247	2452.521346
682.208638	2563.426731
682.546978	2495.371154
682.885268	2525.618077
683.223508	2505.453462
683.561697	2475.206538
683.899836	2455.041923
684.237925	2528.138654
684.575963	2477.727115
684.913951	2538.220962
685.251889	2467.644808
685.589776	2447.480192
685.927614	2477.727115
686.265401	2432.356731
686.603137	2472.685962
686.940824	2523.097500
687.278460	2402.109808
687.616046	2502.932885
687.953582	2450.000769
688.291068	2505.453462
688.628504	2460.083077
688.965889	2510.494615
689.303224	2485.288846
689.640510	2475.206538
689.977745	2523.097500
690.314930	2490.330000
690.652065	2500.412308
690.989150	2467.644808
691.326185	2417.233269
691.663170	2515.535769
692.000105	2495.371154
692.336990	2515.535769
692.673825	2487.809423
693.010610	2538.220962
693.347345	2497.891731
693.684030	2533.179808
694.020665	2502.932885
694.357251	2432.356731
694.693786	2518.056346
695.030272	2477.727115
695.366707	2525.618077
695.703093	2480.247692
696.039429	2535.700385
696.375716	2548.303269
696.711952	2407.150962
697.048139	2502.932885
697.384276	2555.865000
697.720363	2442.439038
698.056400	2543.262115
698.392388	2492.850577
698.728326	2439.918462
699.064214	2482.768269
699.400053	2505.453462
699.735842	2465.124231
700.071581	2495.371154
700.407270	2495.371154
700.742910	2434.877308
701.078501	2462.603654
701.414042	2492.850577
701.749533	2482.768269
702.084974	2492.850577
702.420366	2472.685962
702.755709	2470.165385
703.091002	2510.494615
703.426246	2465.124231
703.761440	2485.288846
704.096584	2570.988462
704.431679	2429.836154
704.766725	2545.782692
705.101721	2543.262115
705.436668	2477.727115
705.771565	2480.247692
706.106413	2535.700385
706.441212	2397.068654
706.775961	2480.247692
707.110661	2502.932885
707.445311	2490.330000
707.779913	2477.727115
708.114465	2457.562500
708.448967	2530.659231
708.783421	2429.836154
709.117825	2570.988462
709.452180	2487.809423
709.786485	2548.303269
710.120742	2444.959615
710.454949	2545.782692
710.789107	2439.918462
711.123216	2462.603654
711.457275	2538.220962
711.791286	2462.603654
712.125247	2497.891731
712.459159	2444.959615
712.793023	2470.165385
713.126837	2412.192115
713.460602	2540.741538
713.794318	2407.150962
714.127985	2588.632500
714.461602	2581.070769
714.795171	2429.836154
715.128691	2530.659231
715.462162	2513.015192
715.795584	2487.809423
716.128957	2530.659231
716.462281	2369.342308
716.795556	2540.741538
717.128782	2550.823846
717.461960	2613.838269
717.795088	2424.795000
718.128167	2540.741538
718.461198	2510.494615
718.794180	2485.288846
719.127113	2444.959615
719.459997	2513.015192
719.792833	2434.877308
720.125619	2545.782692
720.458357	2502.932885
720.791046	2502.932885
721.123686	2560.906154
721.456278	2422.274423
721.788821	2518.056346
722.121315	2470.165385
722.453761	2520.576923
722.786158	2505.453462
723.118506	2520.576923
723.450805	2457.562500
723.783056	2505.453462
724.115259	2480.247692
724.447412	2568.467885
724.779518	2455.041923
725.111574	2513.015192
725.443582	2467.644808
725.775542	2525.618077
726.107453	2497.891731
726.439315	2513.015192
726.771129	2505.453462
727.102895	2457.562500
727.434612	2487.809423
727.766281	2447.480192
728.097901	2480.247692
728.429473	2492.850577
728.760996	2497.891731
729.092471	2472.685962
729.423897	2528.138654
729.755276	2424.795000
730.086606	2434.877308
730.417887	2548.303269
730.749120	2520.576923
731.080305	2477.727115
731.411442	2437.397885
731.742530	2518.056346
732.073570	2477.727115
732.404562	2485.288846
732.735506	2447.480192
733.066401	2487.809423
733.397249	2583.591346
733.728048	2502.932885
734.058798	2397.068654
734.389501	2538.220962
734.720156	2502.932885
735.050762	2545.782692
735.381320	2540.741538
735.711831	2482.768269
736.042293	2497.891731
736.372707	2505.453462
736.703073	2513.015192
737.033391	2475.206538
737.363661	2530.659231
737.693883	2518.056346
738.024056	2523.097500
738.354182	2455.041923
738.684260	2477.727115
739.014290	2530.659231
739.344272	2497.891731
739.674207	2515.535769
740.004093	2487.809423
740.333931	2487.809423
740.663722	2450.000769
740.993464	2533.179808
741.323159	2487.809423
741.652806	2523.097500
741.982405	2487.809423
742.311956	2495.371154
742.641460	2550.823846
742.970915	2518.056346
743.300323	2545.782692
743.629683	2442.439038
743.958996	2528.138654
744.288260	2465.124231
744.617477	2513.015192
744.946647	2472.685962
745.275768	2429.836154
745.604842	2553.344423
745.933869	2518.056346
746.262847	2505.453462
746.591778	2404.630385
746.920662	2535.700385
747.249498	2520.576923
747.578286	2417.233269
747.907027	2553.344423
748.235720	2472.685962
748.564365	2467.644808
748.892963	2555.865000
749.221514	2452.521346
749.550017	2434.877308
749.878473	2455.041923
750.206881	2548.303269
750.535242	2538.220962
750.863555	2444.959615
751.191821	2518.056346
751.520039	2497.891731
751.848210	2578.550192
752.176334	2452.521346
752.504411	2553.344423
752.832440	2427.315577
753.160421	2502.932885
753.488356	2452.521346
753.816243	2520.576923
754.144082	2495.371154
754.471875	2472.685962
754.799620	2555.865000
755.127318	2581.070769
755.454969	2434.877308
755.782572	2518.056346
756.110129	2480.247692
756.437638	2497.891731
756.765100	2495.371154
757.092515	2507.974038
757.419882	2523.097500
757.747203	2334.054231
758.074477	2386.986346
758.401703	2578.550192
758.728882	2447.480192
759.056014	2485.288846
759.383099	2523.097500
759.710138	2502.932885
760.037129	2447.480192
760.364073	2487.809423
760.690970	2447.480192
761.017820	2450.000769
761.344623	2570.988462
761.671379	2457.562500
761.998088	2553.344423
762.324751	2412.192115
762.651366	2540.741538
762.977935	2455.041923
763.304456	2457.562500
763.630931	2475.206538
763.957359	2565.947308
764.283740	2530.659231
764.610074	2492.850577
764.936362	2437.397885
765.262602	2548.303269
765.588796	2513.015192
765.914943	2475.206538
766.241044	2535.700385
766.567097	2472.685962
766.893104	2523.097500
767.219064	2434.877308
767.544978	2432.356731
767.870845	2422.274423
768.196665	2500.412308
768.522438	2540.741538
768.848165	2528.138654
769.173846	2414.712692
769.499479	2485.288846
769.825066	2470.165385
770.150607	2581.070769
770.476101	2392.027500
770.801548	2462.603654
771.126949	2477.727115
771.452303	2460.083077
771.777611	2560.906154
772.102872	2485.288846
772.428087	2439.918462
772.753256	2507.974038
773.078378	2434.877308
773.403453	2596.194231
773.728482	2497.891731
774.053465	2500.412308
774.378401	2447.480192
774.703291	2477.727115
775.028135	2487.809423
775.352932	2543.262115
775.677683	2555.865000
776.002388	2492.850577
776.327046	2513.015192
776.651658	2513.015192
776.976224	2500.412308
777.300743	2523.097500
777.625216	2560.906154
777.949643	2565.947308
778.274024	2560.906154
778.598359	2505.453462
778.922647	2465.124231
779.246889	2515.535769
779.571086	2497.891731
779.895236	2560.906154
780.219339	2487.809423
780.543397	2543.262115
780.867409	2487.809423
781.191374	2472.685962
781.515294	2444.959615
781.839167	2437.397885
782.162995	2480.247692
782.486776	2492.850577
782.810511	2505.453462
783.134201	2502.932885
783.457844	2538.220962
783.781441	2510.494615
784.104993	2545.782692
784.428498	2477.727115
784.751958	2555.865000
785.075372	2563.426731
785.398739	2555.865000
785.722061	2563.426731
786.045337	2487.809423
786.368568	2442.439038
786.691752	2455.041923
787.014891	2523.097500
787.337983	2465.124231
787.661030	2402.109808
787.984031	2450.000769
788.306987	2442.439038
788.629897	2439.918462
788.952760	2467.644808
789.275579	2545.782692
789.598351	2530.659231
789.921078	2535.700385
790.243759	2495.371154
790.566395	2543.262115
790.888984	2412.192115
791.211529	2601.235385
791.534027	2507.974038
791.856480	2492.850577
792.178888	2480.247692
792.501249	2444.959615
792.823566	2470.165385
793.145836	2412.192115
793.468062	2470.165385
793.790241	2560.906154
794.112375	2482.768269
794.434464	2530.659231
794.756507	2500.412308
795.078505	2475.206538
795.400457	2490.330000
795.722364	2545.782692
796.044226	2470.165385
796.366042	2409.671538
796.687812	2528.138654
797.009538	2465.124231
797.331218	2467.644808
797.652852	2505.453462
797.974442	2490.330000
798.295986	2563.426731
798.617484	2442.439038
798.938938	2538.220962
799.260346	2477.727115
799.581709	2485.288846
799.903026	2444.959615
800.224299	2495.371154
800.545526	2432.356731
800.866708	2528.138654
801.187845	2427.315577
801.508936	2477.727115
801.829983	2588.632500
802.150984	2470.165385
802.471940	2487.809423
802.792851	2533.179808
803.113717	2472.685962
803.434538	2588.632500
803.755314	2465.124231
804.076045	2502.932885
804.396731	2470.165385
804.717372	2485.288846
805.037967	2513.015192
805.358518	2482.768269
805.679024	2560.906154
805.999485	2460.083077
806.319901	2513.015192
806.640272	2520.576923
806.960598	2424.795000
807.280879	2515.535769
807.601115	2480.247692
807.921306	2414.712692
808.241453	2545.782692
808.561554	2432.356731
808.881611	2507.974038
809.201623	2520.576923
809.521590	2457.562500
809.841513	2472.685962
810.161390	2555.865000
810.481223	2457.562500
810.801011	2450.000769
811.120755	2457.562500
811.440453	2591.153077
811.760107	2528.138654
812.079716	2477.727115
812.399281	2495.371154
812.718801	2452.521346
813.038276	2515.535769
813.357707	2568.467885
813.677093	2447.480192
813.996434	2442.439038
814.315731	2439.918462
814.634983	2457.562500
814.954191	2477.727115
815.273354	2548.303269
815.592473	2455.041923
815.911547	2515.535769
816.230577	2482.768269
816.549562	2371.862885
816.868502	2502.932885
817.187399	2482.768269
817.506250	2568.467885
817.825058	2576.029615
818.143821	2495.371154
818.462539	2500.412308
818.781213	2470.165385
819.099843	2457.562500
819.418429	2533.179808
819.736970	2523.097500
820.055466	2485.288846
820.373919	2505.453462
820.692327	2492.850577
821.010691	2490.330000
821.329011	2510.494615
821.647286	2558.385577
821.965517	2462.603654
822.283704	2490.330000
822.601847	2495.371154
822.919945	2555.865000
823.237999	2462.603654
823.556010	2399.589231
823.873976	2480.247692
824.191897	2427.315577
824.509775	2523.097500
824.827609	2500.412308
825.145398	2520.576923
825.463144	2480.247692
825.780845	2553.344423
826.098502	2424.795000
826.416116	2465.124231
826.733685	2505.453462
827.051210	2535.700385
827.368692	2560.906154
827.686129	2437.397885
828.003522	2533.179808
828.320872	2492.850577
828.638177	2412.192115
828.955439	2485.288846
829.272656	2518.056346
829.589830	2475.206538
829.906960	2490.330000
830.224046	2475.206538
830.541088	2432.356731
830.858086	2462.603654
831.175041	2472.685962
831.491952	2495.371154
831.808819	2447.480192
832.125642	2530.659231
832.442421	2465.124231
832.759157	2485.288846
833.075849	2492.850577
833.392497	2442.439038
833.709101	2439.918462
834.025662	2477.727115
834.342179	2513.015192
834.658653	2495.371154
834.975083	2500.412308
835.291469	2475.206538
835.607811	2402.109808
835.924110	2389.506923
836.240366	2482.768269
836.556578	2450.000769
836.872746	2513.015192
837.188871	2465.124231
837.504952	2480.247692
837.820990	2495.371154
838.136984	2429.836154
838.452935	2500.412308
838.768842	2502.932885
839.084706	2465.124231
839.400526	2397.068654
839.716303	2525.618077
840.032037	2485.288846
840.347727	2500.412308
840.663373	2533.179808
840.978977	2502.932885
841.294537	2528.138654
841.610054	2543.262115
841.925527	2500.412308
842.240957	2480.247692
842.556344	2500.412308
842.871687	2518.056346
843.186987	2450.000769
843.502244	2475.206538
843.817458	2485.288846
844.132629	2470.165385
844.447756	2578.550192
844.762840	2439.918462
845.077881	2502.932885
845.392879	2518.056346
845.707833	2470.165385
846.022745	2402.109808
846.337613	2439.918462
846.652438	2480.247692
846.967221	2447.480192
847.281960	2530.659231
847.596656	2409.671538
847.911309	2510.494615
848.225919	2540.741538
848.540485	2467.644808
848.855009	2515.535769
849.169490	2490.330000
849.483928	2475.206538
849.798323	2480.247692
850.112675	2467.644808
850.426984	2482.768269
850.741251	2505.453462
851.055474	2477.727115
851.369654	2424.795000
851.683792	2381.945192
851.997887	2424.795000
852.311938	2427.315577
852.625947	2568.467885
852.939914	2417.233269
853.253837	2419.753846
853.567718	2397.068654
853.881555	2482.768269
854.195350	2548.303269
854.509103	2518.056346
854.822812	2470.165385
855.136479	2427.315577
855.450103	2500.412308
855.763685	2502.932885
856.077224	2487.809423
856.390720	2444.959615
856.704173	2452.521346
857.017584	2500.412308
857.330953	2460.083077
857.644278	2472.685962
857.957561	2437.397885
858.270802	2490.330000
858.584000	2611.317692
858.897155	2485.288846
859.210268	2515.535769
859.523339	2412.192115
859.836367	2475.206538
860.149352	2510.494615
860.462295	2608.797115
860.775195	2543.262115
861.088054	2470.165385
861.400869	2507.974038
861.713642	2444.959615
862.026373	2477.727115
862.339062	2480.247692
862.651708	2364.301154
862.964312	2427.315577
863.276873	2482.768269
863.589392	2588.632500
863.901869	2490.330000
864.214303	2513.015192
864.526696	2548.303269
864.839045	2460.083077
865.151353	2538.220962
865.463619	2455.041923
865.775842	2455.041923
866.088023	2472.685962
866.400162	2444.959615
866.712258	2578.550192
867.024313	2492.850577
867.336325	2412.192115
867.648296	2530.659231
867.960224	2497.891731
868.272110	2507.974038
868.583954	2510.494615
868.895755	2550.823846
869.207515	2470.165385
869.519233	2538.220962
869.830909	2507.974038
870.142542	2485.288846
870.454134	2495.371154
870.765684	2570.988462
871.077191	2487.809423
871.388657	2558.385577
871.700081	2437.397885
872.011463	2482.768269
872.322803	2535.700385
872.634101	2472.685962
872.945357	2482.768269
873.256571	2487.809423
873.567744	2485.288846
873.878874	2477.727115
874.189963	2500.412308
874.501010	2500.412308
874.812015	2573.509038
875.122979	2502.932885
875.433900	2487.809423
875.744780	2540.741538
876.055618	2470.165385
876.366415	2450.000769
876.677169	2591.153077
876.987882	2402.109808
877.298554	2586.111923
877.609183	2510.494615
877.919771	2434.877308
878.230317	2444.959615
878.540822	2480.247692
878.851285	2553.344423
879.161707	2414.712692
879.472087	2502.932885
879.782425	2477.727115
880.092722	2444.959615
880.402977	2530.659231
880.713191	2452.521346
881.023363	2520.576923
881.333494	2523.097500
881.643583	2543.262115
881.953631	2465.124231
882.263637	2389.506923
882.573602	2475.206538
882.883526	2434.877308
883.193408	2480.247692
883.503248	2518.056346
883.813048	2434.877308
884.122806	2533.179808
884.432522	2467.644808
884.742197	2550.823846
885.051831	2497.891731
885.361424	2497.891731
885.670975	2490.330000
885.980485	2477.727115
886.289954	2424.795000
886.599382	2502.932885
886.908768	2497.891731
887.218113	2495.371154
887.527417	2502.932885
887.836680	2583.591346
888.145901	2495.371154
888.455082	2497.891731
888.764221	2513.015192
889.073319	2455.041923
889.382376	2439.918462
889.691392	2457.562500
890.000366	2548.303269
890.309300	2434.877308
890.618193	2518.056346
890.927044	2404.630385
891.235855	2507.974038
891.544625	2523.097500
891.853353	2422.274423
892.162041	2518.056346
892.470687	2457.562500
892.779293	2457.562500
893.087858	2444.959615
893.396381	2515.535769
893.704864	2447.480192
894.013306	2457.562500
894.321707	2386.986346
894.630068	2482.768269
894.938387	2417.233269
895.246665	2482.768269
895.554903	2528.138654
895.863100	2507.974038
896.171256	2480.247692
896.479371	2533.179808
896.787446	2434.877308
897.095480	2513.015192
897.403473	2518.056346
897.711425	2515.535769
898.019336	2515.535769
898.327207	2432.356731
898.635038	2520.576923
898.942827	2427.315577
899.250576	2502.932885
899.558284	2502.932885
899.865952	2495.371154
900.173579	2525.618077
900.481165	2487.809423
900.788711	2465.124231
901.096216	2505.453462
901.403681	2502.932885
901.711105	2568.467885
902.018489	2422.274423
902.325832	2442.439038
902.633135	2447.480192
902.940397	2515.535769
903.247619	2492.850577
903.554800	2465.124231
903.861941	2434.877308
904.169041	2513.015192
904.476101	2588.632500
904.783121	2581.070769
905.090100	2513.015192
905.397039	2523.097500
905.703938	2576.029615
906.010796	2538.220962
906.317614	2505.453462
906.624391	2545.782692
906.931129	2429.836154
907.237826	2462.603654
907.544483	2477.727115
907.851099	2477.727115
908.157675	2482.768269
908.464211	2485.288846
908.770707	2510.494615
909.077163	2457.562500
909.383578	2548.303269
909.689954	2389.506923
909.996289	2487.809423
910.302584	2455.041923
910.608839	2497.891731
910.915054	2447.480192
911.221229	2565.947308
911.527363	2482.768269
911.833458	2507.974038
912.139513	2452.521346
912.445527	2412.192115
912.751502	2513.015192
913.057436	2591.153077
913.363331	2447.480192
913.669186	2419.753846
913.975000	2510.494615
914.280775	2505.453462
914.586510	2419.753846
914.892205	2487.809423
915.197859	2495.371154
915.503475	2409.671538
915.809050	2533.179808
916.114585	2485.288846
916.420081	2467.644808
916.725536	2528.138654
917.030952	2434.877308
917.336328	2480.247692
917.641665	2447.480192
917.946961	2487.809423
918.252218	2533.179808
918.557435	2548.303269
918.862612	2429.836154
919.167750	2427.315577
919.472848	2492.850577
919.777906	2455.041923
920.082925	2543.262115
920.387904	2485.288846
920.692843	2507.974038
920.997743	2475.206538
921.302603	2558.385577
921.607423	2429.836154
921.912204	2548.303269
922.216946	2477.727115
922.521647	2432.356731
922.826310	2528.138654
923.130932	2409.671538
923.435516	2513.015192
923.740059	2507.974038
924.044564	2510.494615
924.349028	2407.150962
924.653454	2444.959615
924.957840	2495.371154
925.262186	2507.974038
925.566493	2460.083077
925.870761	2543.262115
926.174989	2502.932885
926.479178	2533.179808
926.783328	2573.509038
927.087438	2500.412308
927.391509	2525.618077
927.695541	2470.165385
927.999533	2465.124231
928.303486	2530.659231
928.607400	2505.453462
928.911275	2507.974038
929.215110	2525.618077
929.518906	2538.220962
929.822663	2490.330000
930.126381	2548.303269
930.430060	2497.891731
930.733699	2528.138654
931.037299	2452.521346
931.340861	2495.371154
931.644383	2432.356731
931.947866	2528.138654
932.251309	2553.344423
932.554714	2419.753846
932.858080	2472.685962
933.161407	2535.700385
933.464694	2487.809423
933.767943	2455.041923
934.071153	2470.165385
934.374323	2515.535769
934.677455	2563.426731
934.980548	2513.015192
935.283602	2492.850577
935.586617	2424.795000
935.889593	2573.509038
936.192530	2606.276538
936.495428	2450.000769
936.798287	2545.782692
937.101108	2548.303269
937.403890	2540.741538
937.706632	2502.932885
938.009336	2444.959615
938.312002	2523.097500
938.614628	2442.439038
938.917216	2450.000769
939.219765	2505.453462
939.522275	2472.685962
939.824747	2520.576923
940.127179	2601.235385
940.429573	2540.741538
940.731929	2442.439038
941.034246	2414.712692
941.336524	2540.741538
941.638763	2535.700385
941.940964	2470.165385
942.243126	2500.412308
942.545250	2457.562500
942.847335	2439.918462
943.149381	2502.932885
943.451389	2540.741538
943.753359	2444.959615
944.055290	2457.562500
944.357182	2510.494615
944.659036	2485.288846
944.960851	2455.041923
945.262628	2538.220962
945.564367	2482.768269
945.866067	2520.576923
946.167729	2447.480192
946.469352	2477.727115
946.770937	2472.685962
947.072484	2565.947308
947.373992	2555.865000
947.675462	2492.850577
947.976893	2497.891731
948.278286	2530.659231
948.579641	2472.685962
948.880958	2447.480192
949.182236	2465.124231
949.483476	2407.150962
949.784678	2444.959615
950.085841	2530.659231
950.386967	2482.768269
950.688054	2543.262115
950.989103	2447.480192
951.290114	2386.986346
951.591087	2424.795000
951.892021	2500.412308
952.192917	2510.494615
952.493776	2583.591346
952.794596	2477.727115
953.095378	2513.015192
953.396122	2515.535769
953.696828	2535.700385
953.997496	2364.301154
954.298126	2487.809423
954.598718	2475.206538
954.899272	2422.274423
955.199788	2457.562500
955.500266	2467.644808
955.800706	2462.603654
956.101108	2513.015192
956.401472	2495.371154
956.701798	2482.768269
957.002087	2513.015192
957.302337	2520.576923
957.602550	2500.412308
957.902724	2553.344423
958.202861	2480.247692
958.502960	2500.412308
958.803022	2490.330000
959.103045	2480.247692
959.403031	2530.659231
959.702979	2515.535769
960.002889	2439.918462
960.302762	2505.453462
960.602596	2439.918462
960.902393	2465.124231
961.202153	2497.891731
961.501875	2490.330000
961.801559	2507.974038
962.101205	2535.700385
962.400814	2497.891731
962.700385	2432.356731
962.999918	2545.782692
963.299414	2386.986346
963.598873	2548.303269
963.898293	2523.097500
964.197677	2434.877308
964.497022	2467.644808
964.796331	2558.385577
965.095601	2497.891731
965.394835	2444.959615
965.694030	2467.644808
965.993189	2477.727115
966.292309	2452.521346
966.591393	2487.809423
966.890439	2533.179808
967.189447	2482.768269
967.488419	2452.521346
967.787353	2545.782692
968.086249	2447.480192
968.385108	2565.947308
968.683930	2465.124231
968.982714	2510.494615
969.281462	2462.603654
969.580172	2467.644808
969.878844	2467.644808
970.177480	2392.027500
970.476078	2540.741538
970.774639	2495.371154
971.073162	2457.562500
971.371649	2533.179808
971.670098	2535.700385
971.968510	2515.535769
972.266885	2507.974038
972.565223	2507.974038
972.863524	2480.247692
973.161788	2457.562500
973.460014	2492.850577
973.758204	2437.397885
974.056356	2543.262115
974.354471	2520.576923
974.652550	2422.274423
974.950591	2480.247692
975.248595	2588.632500
975.546563	2530.659231
975.844493	2450.000769
976.142386	2424.795000
976.440243	2450.000769
976.738062	2518.056346
977.035845	2490.330000
977.333590	2505.453462
977.631299	2492.850577
977.928971	2515.535769
978.226606	2507.974038
978.524204	2475.206538
978.821765	2492.850577
979.119290	2424.795000
979.416777	2462.603654
979.714228	2497.891731
980.011642	2502.932885
980.309020	2560.906154
980.606360	2432.356731
980.903664	2515.535769
981.200931	2492.850577
981.498162	2475.206538
981.795356	2419.753846
982.092513	2495.371154
982.389633	2578.550192
982.686717	2495.371154
982.983764	2427.315577
983.280775	2520.576923
983.577749	2573.509038
983.874686	2523.097500
984.171587	2502.932885
984.468451	2472.685962
984.765279	2455.041923
985.062070	2389.506923
985.358824	2510.494615
985.655543	2535.700385
985.952224	2540.741538
986.248869	2492.850577
986.545478	2480.247692
986.842050	2505.453462
987.138586	2442.439038
987.435086	2500.412308
987.731549	2545.782692
988.027975	2560.906154
988.324366	2462.603654
988.620719	2419.753846
988.917037	2525.618077
989.213318	2502.932885
989.509563	2505.453462
989.805772	2500.412308
990.101944	2510.494615
990.398080	2543.262115
990.694180	2475.206538
990.990244	2477.727115
991.286271	2500.412308
991.582262	2535.700385
991.878217	2475.206538
992.174136	2477.727115
992.470019	2507.974038
992.765865	2404.630385
993.061676	2402.109808
993.357450	2452.521346
993.653188	2477.727115
993.948890	2507.974038
994.244556	2518.056346
994.540186	2525.618077
994.835780	2434.877308
995.131337	2553.344423
995.426859	2462.603654
995.722345	2528.138654
996.017795	2543.262115
996.313208	2442.439038
996.608586	2505.453462
996.903928	2429.836154
997.199234	2502.932885
997.494504	2460.083077
997.789738	2465.124231
998.084936	2548.303269
998.380099	2495.371154
998.675225	2540.741538
998.970316	2455.041923
999.265371	2518.056346
999.560390	2523.097500
999.855373	2472.685962
1000.150320	2535.700385
1000.445232	2502.932885
1000.740108	2472.685962
1001.034948	2424.795000
1001.329752	2505.453462
1001.624521	2533.179808
1001.919254	2490.330000
1002.213951	2545.782692
1002.508613	2417.233269
1002.803239	2507.974038
1003.097829	2404.630385
1003.392384	2515.535769
1003.686903	2447.480192
1003.981386	2472.685962
1004.275834	2371.862885
1004.570246	2513.015192
1004.864623	2472.685962
1005.158964	2462.603654
1005.453270	2455.041923
1005.747540	2515.535769
1006.041775	2495.371154
1006.335974	2560.906154
1006.630138	2424.795000
1006.924266	2407.150962
1007.218359	2467.644808
1007.512416	2497.891731
1007.806438	2409.671538
1008.100425	2568.467885
1008.394376	2482.768269
1008.688292	2427.315577
1008.982172	2432.356731
1009.276017	2470.165385
1009.569827	2467.644808
1009.863602	2515.535769
1010.157341	2457.562500
1010.451045	2480.247692
1010.744714	2581.070769
1011.038347	2523.097500
1011.331945	2467.644808
1011.625508	2437.397885
1011.919036	2439.918462
1012.212528	2520.576923
1012.505986	2500.412308
1012.799408	2563.426731
1013.092795	2457.562500
1013.386147	2535.700385
1013.679464	2480.247692
1013.972745	2515.535769
1014.265992	2460.083077
1014.559204	2507.974038
1014.852380	2502.932885
1015.145521	2540.741538
1015.438628	2492.850577
1015.731699	2505.453462
1016.024736	2386.986346
1016.317737	2500.412308
1016.610703	2480.247692
1016.903635	2439.918462
1017.196531	2543.262115
1017.489393	2462.603654
1017.782219	2510.494615
1018.075011	2439.918462
1018.367768	2414.712692
1018.660490	2520.576923
1018.953177	2520.576923
1019.245829	2520.576923
