Dividing Wavelength (nm)	Counts (n)	Blue Motor Position (mm): 0.000000	Red Motor Position (mm): 8.900000	
326.493990	2117.284615
326.888308	2117.284615
327.282561	2117.284615
327.676750	2099.640577
328.070874	2076.955385
328.464933	2011.420385
328.858929	2124.846346
329.252859	2150.052115
329.646726	2092.078846
330.040528	2208.025385
330.434265	2119.805192
330.827938	2094.599423
331.221547	2122.325769
331.615091	2155.093269
332.008571	2197.943077
332.401986	2248.354615
332.795338	2245.834038
333.188625	2260.957500
333.581847	2271.039808
333.975006	2298.766154
334.368100	2278.601538
334.761129	2376.904038
335.154095	2369.342308
335.546996	2334.054231
335.939833	2369.342308
336.332606	2344.136538
336.725315	2482.768269
337.117960	2384.465769
337.510540	2381.945192
337.903056	2505.453462
338.295508	2397.068654
338.687896	2439.918462
339.080220	2497.891731
339.472480	2414.712692
339.864676	2462.603654
340.256807	2402.109808
340.648875	2439.918462
341.040879	2452.521346
341.432818	2457.562500
341.824694	2495.371154
342.216506	2344.136538
342.608253	2500.412308
342.999937	2495.371154
343.391557	2523.097500
343.783113	2487.809423
344.174605	2482.768269
344.566033	2419.753846
344.957397	2492.850577
345.348697	2560.906154
345.739934	2482.768269
346.131106	2540.741538
346.522215	2399.589231
346.913260	2444.959615
347.304241	2394.548077
347.695159	2525.618077
348.086012	2455.041923
348.476802	2404.630385
348.867528	2472.685962
349.258191	2492.850577
349.648789	2518.056346
350.039324	2422.274423
350.429796	2482.768269
350.820203	2520.576923
351.210548	2520.576923
351.600828	2467.644808
351.991045	2409.671538
352.381198	2439.918462
352.771288	2439.918462
353.161314	2444.959615
353.551276	2432.356731
353.941175	2485.288846
354.331010	2505.453462
354.720782	2434.877308
355.110490	2376.904038
355.500135	2439.918462
355.889717	2452.521346
356.279235	2361.780577
356.668689	2427.315577
357.058080	2507.974038
357.447408	2429.836154
357.836672	2399.589231
358.225873	2374.383462
358.615010	2447.480192
359.004084	2507.974038
359.393095	2510.494615
359.782043	2475.206538
360.170927	2422.274423
360.559748	2417.233269
360.948505	2437.397885
361.337199	2409.671538
361.725830	2523.097500
362.114398	2555.865000
362.502903	2472.685962
362.891344	2487.809423
363.279722	2439.918462
363.668037	2434.877308
364.056289	2452.521346
364.444478	2490.330000
364.832603	2341.615962
365.220665	2550.823846
365.608665	2422.274423
365.996601	2444.959615
366.384474	2439.918462
366.772284	2414.712692
367.160031	2500.412308
367.547715	2429.836154
367.935336	2381.945192
368.322893	2424.795000
368.710388	2442.439038
369.097820	2470.165385
369.485189	2344.136538
369.872495	2434.877308
370.259738	2381.945192
370.646918	2485.288846
371.034035	2475.206538
371.421090	2472.685962
371.808081	2412.192115
372.195010	2450.000769
372.581875	2392.027500
372.968678	2407.150962
373.355418	2439.918462
373.742096	2535.700385
374.128710	2495.371154
374.515262	2550.823846
374.901751	2467.644808
375.288177	2450.000769
375.674540	2472.685962
376.060841	2457.562500
376.447079	2389.506923
376.833254	2412.192115
377.219367	2455.041923
377.605417	2535.700385
377.991404	2457.562500
378.377329	2460.083077
378.763191	2434.877308
379.148991	2427.315577
379.534727	2437.397885
379.920402	2366.821731
380.306013	2480.247692
380.691563	2513.015192
381.077049	2437.397885
381.462474	2422.274423
381.847835	2457.562500
382.233134	2470.165385
382.618371	2444.959615
383.003545	2487.809423
383.388657	2515.535769
383.773706	2492.850577
384.158693	2505.453462
384.543618	2467.644808
384.928480	2457.562500
385.313280	2437.397885
385.698017	2475.206538
386.082692	2513.015192
386.467305	2422.274423
386.851856	2502.932885
387.236344	2407.150962
387.620770	2477.727115
388.005133	2450.000769
388.389435	2444.959615
388.773674	2480.247692
389.157851	2492.850577
389.541965	2477.727115
389.926018	2495.371154
390.310008	2523.097500
390.693936	2450.000769
391.077802	2460.083077
391.461606	2457.562500
391.845348	2442.439038
392.229027	2460.083077
392.612645	2465.124231
392.996200	2505.453462
393.379694	2472.685962
393.763125	2414.712692
394.146494	2414.712692
394.529801	2513.015192
394.913047	2462.603654
395.296230	2450.000769
395.679351	2513.015192
396.062410	2442.439038
396.445408	2535.700385
396.828343	2455.041923
397.211217	2399.589231
397.594028	2485.288846
397.976778	2394.548077
398.359466	2513.015192
398.742092	2376.904038
399.124656	2490.330000
399.507158	2432.356731
399.889598	2432.356731
400.271977	2515.535769
400.654294	2437.397885
401.036549	2495.371154
401.418742	2510.494615
401.800874	2525.618077
402.182944	2417.233269
402.564952	2518.056346
402.946898	2417.233269
403.328783	2530.659231
403.710606	2422.274423
404.092367	2437.397885
404.474067	2427.315577
404.855705	2523.097500
405.237282	2379.424615
405.618797	2485.288846
406.000250	2457.562500
406.381642	2487.809423
406.762972	2444.959615
407.144240	2525.618077
407.525447	2462.603654
407.906593	2518.056346
408.287677	2482.768269
408.668700	2502.932885
409.049661	2452.521346
409.430560	2460.083077
409.811399	2371.862885
410.192176	2535.700385
410.572891	2465.124231
410.953545	2490.330000
411.334138	2404.630385
411.714669	2490.330000
412.095139	2513.015192
412.475547	2457.562500
412.855894	2439.918462
413.236180	2497.891731
413.616405	2480.247692
413.996568	2505.453462
414.376670	2482.768269
414.756711	2500.412308
415.136691	2477.727115
415.516609	2414.712692
415.896466	2492.850577
416.276262	2465.124231
416.655997	2510.494615
417.035670	2457.562500
417.415283	2452.521346
417.794834	2444.959615
418.174324	2528.138654
418.553753	2470.165385
418.933121	2422.274423
419.312428	2455.041923
419.691674	2507.974038
420.070859	2553.344423
420.449983	2465.124231
420.829045	2545.782692
421.208047	2507.974038
421.586988	2543.262115
421.965867	2439.918462
422.344686	2573.509038
422.723444	2502.932885
423.102141	2528.138654
423.480777	2424.795000
423.859352	2500.412308
424.237866	2414.712692
424.616319	2475.206538
424.994712	2472.685962
425.373044	2462.603654
425.751314	2460.083077
426.129524	2482.768269
426.507673	2477.727115
426.885762	2535.700385
427.263789	2409.671538
427.641756	2475.206538
428.019662	2460.083077
428.397508	2487.809423
428.775292	2548.303269
429.153016	2485.288846
429.530679	2492.850577
429.908282	2419.753846
430.285824	2502.932885
430.663305	2442.439038
431.040726	2548.303269
431.418086	2490.330000
431.795385	2510.494615
432.172624	2455.041923
432.549802	2475.206538
432.926920	2528.138654
433.303977	2545.782692
433.680974	2460.083077
434.057910	2523.097500
434.434786	2447.480192
434.811601	2502.932885
435.188355	2432.356731
435.565050	2444.959615
435.941683	2485.288846
436.318257	2412.192115
436.694770	2490.330000
437.071222	2455.041923
437.447614	2472.685962
437.823946	2452.521346
438.200218	2520.576923
438.576429	2480.247692
438.952580	2467.644808
439.328670	2480.247692
439.704700	2475.206538
440.080670	2465.124231
440.456580	2505.453462
440.832429	2442.439038
441.208218	2490.330000
441.583947	2548.303269
441.959616	2462.603654
442.335224	2573.509038
442.710773	2485.288846
443.086261	2525.618077
443.461689	2538.220962
443.837057	2525.618077
444.212365	2540.741538
444.587612	2548.303269
444.962800	2543.262115
445.337927	2518.056346
445.712995	2528.138654
446.088002	2495.371154
446.462949	2422.274423
446.837837	2475.206538
447.212664	2492.850577
447.587431	2417.233269
447.962139	2392.027500
448.336786	2444.959615
448.711374	2513.015192
449.085901	2470.165385
449.460369	2492.850577
449.834776	2525.618077
450.209124	2538.220962
450.583412	2455.041923
450.957640	2515.535769
451.331808	2560.906154
451.705917	2482.768269
452.079965	2507.974038
452.453954	2492.850577
452.827883	2588.632500
453.201752	2460.083077
453.575562	2500.412308
453.949311	2457.562500
454.323001	2540.741538
454.696632	2482.768269
455.070202	2434.877308
455.443713	2530.659231
455.817164	2462.603654
456.190556	2460.083077
456.563888	2490.330000
456.937160	2442.439038
457.310373	2434.877308
457.683526	2570.988462
458.056619	2550.823846
458.429653	2510.494615
458.802628	2389.506923
459.175542	2457.562500
459.548398	2460.083077
459.921194	2450.000769
460.293930	2505.453462
460.666607	2515.535769
461.039224	2462.603654
461.411782	2510.494615
461.784280	2515.535769
462.156719	2538.220962
462.529099	2497.891731
462.901419	2515.535769
463.273680	2535.700385
463.645882	2467.644808
464.018024	2487.809423
464.390106	2533.179808
464.762130	2467.644808
465.134094	2457.562500
465.505999	2513.015192
465.877845	2477.727115
466.249631	2485.288846
466.621358	2452.521346
466.993026	2487.809423
467.364634	2480.247692
467.736184	2376.904038
468.107674	2497.891731
468.479105	2455.041923
468.850477	2543.262115
469.221790	2434.877308
469.593043	2472.685962
469.964238	2497.891731
470.335373	2482.768269
470.706449	2470.165385
471.077467	2477.727115
471.448425	2465.124231
471.819324	2447.480192
472.190164	2495.371154
472.560945	2490.330000
472.931667	2497.891731
473.302330	2497.891731
473.672934	2487.809423
474.043479	2528.138654
474.413965	2495.371154
474.784393	2447.480192
475.154761	2437.397885
475.525070	2553.344423
475.895321	2482.768269
476.265513	2538.220962
476.635645	2543.262115
477.005719	2482.768269
477.375734	2515.535769
477.745691	2500.412308
478.115588	2492.850577
478.485427	2570.988462
478.855207	2505.453462
479.224928	2548.303269
479.594591	2510.494615
479.964194	2439.918462
480.333739	2495.371154
480.703226	2452.521346
481.072653	2518.056346
481.442022	2525.618077
481.811333	2409.671538
482.180584	2548.303269
482.549777	2465.124231
482.918912	2518.056346
483.287988	2447.480192
483.657005	2500.412308
484.025964	2482.768269
484.394864	2528.138654
484.763706	2457.562500
485.132489	2507.974038
485.501213	2525.618077
485.869879	2444.959615
486.238487	2507.974038
486.607036	2472.685962
486.975527	2442.439038
487.343959	2432.356731
487.712333	2477.727115
488.080648	2462.603654
488.448905	2505.453462
488.817104	2565.947308
489.185244	2439.918462
489.553326	2487.809423
489.921350	2465.124231
490.289315	2528.138654
490.657222	2427.315577
491.025070	2530.659231
491.392861	2497.891731
491.760593	2533.179808
492.128267	2482.768269
492.495883	2427.315577
492.863440	2460.083077
493.230939	2533.179808
493.598380	2515.535769
493.965763	2485.288846
494.333088	2548.303269
494.700354	2500.412308
495.067563	2490.330000
495.434713	2432.356731
495.801805	2563.426731
496.168839	2558.385577
496.535815	2460.083077
496.902733	2515.535769
497.269593	2525.618077
497.636395	2515.535769
498.003139	2568.467885
498.369825	2439.918462
498.736453	2507.974038
499.103023	2422.274423
499.469535	2528.138654
499.835989	2492.850577
500.202385	2525.618077
500.568723	2487.809423
500.935003	2535.700385
501.301226	2518.056346
501.667390	2455.041923
502.033497	2563.426731
502.399546	2502.932885
502.765537	2482.768269
503.131470	2492.850577
503.497345	2513.015192
503.863163	2505.453462
504.228923	2550.823846
504.594625	2505.453462
504.960269	2591.153077
505.325856	2495.371154
505.691385	2452.521346
506.056856	2515.535769
506.422270	2502.932885
506.787625	2525.618077
507.152924	2462.603654
507.518164	2540.741538
507.883347	2543.262115
508.248472	2510.494615
508.613540	2487.809423
508.978550	2510.494615
509.343503	2475.206538
509.708398	2505.453462
510.073236	2540.741538
510.438016	2492.850577
510.802738	2510.494615
511.167403	2457.562500
511.532010	2548.303269
511.896561	2460.083077
512.261053	2535.700385
512.625488	2490.330000
512.989866	2492.850577
513.354186	2502.932885
513.718449	2510.494615
514.082655	2462.603654
514.446803	2540.741538
514.810894	2480.247692
515.174927	2520.576923
515.538904	2485.288846
515.902822	2460.083077
516.266684	2434.877308
516.630488	2480.247692
516.994235	2404.630385
517.357925	2513.015192
517.721558	2535.700385
518.085133	2497.891731
518.448651	2550.823846
518.812112	2533.179808
519.175516	2510.494615
519.538863	2472.685962
519.902152	2507.974038
520.265385	2565.947308
520.628560	2450.000769
520.991678	2576.029615
521.354739	2470.165385
521.717743	2558.385577
522.080690	2457.562500
522.443580	2505.453462
522.806413	2528.138654
523.169189	2515.535769
523.531908	2543.262115
523.894569	2487.809423
524.257174	2502.932885
524.619722	2452.521346
524.982213	2563.426731
525.344647	2490.330000
525.707025	2482.768269
526.069345	2545.782692
526.431608	2444.959615
526.793815	2419.753846
527.155964	2450.000769
527.518057	2505.453462
527.880093	2432.356731
528.242072	2432.356731
528.603995	2465.124231
528.965860	2545.782692
529.327669	2563.426731
529.689421	2550.823846
530.051117	2475.206538
530.412755	2513.015192
530.774337	2447.480192
531.135862	2596.194231
531.497331	2550.823846
531.858743	2457.562500
532.220098	2540.741538
532.581396	2467.644808
532.942638	2492.850577
533.303824	2465.124231
533.664953	2518.056346
534.026025	2480.247692
534.387040	2462.603654
534.747999	2475.206538
535.108902	2482.768269
535.469748	2457.562500
535.830537	2505.453462
536.191270	2495.371154
536.551947	2457.562500
536.912567	2439.918462
537.273131	2487.809423
537.633638	2573.509038
537.994089	2497.891731
538.354483	2608.797115
538.714821	2450.000769
539.075103	2548.303269
539.435328	2455.041923
539.795497	2447.480192
540.155609	2533.179808
540.515665	2480.247692
540.875665	2533.179808
541.235609	2502.932885
541.595496	2487.809423
541.955328	2545.782692
542.315102	2480.247692
542.674821	2525.618077
543.034483	2626.441154
543.394090	2462.603654
543.753640	2518.056346
544.113134	2439.918462
544.472571	2437.397885
544.831953	2492.850577
545.191278	2434.877308
545.550548	2513.015192
545.909761	2490.330000
546.268918	2497.891731
546.628019	2444.959615
546.987064	2477.727115
547.346053	2515.535769
547.704986	2520.576923
548.063863	2482.768269
548.422684	2644.085192
548.781449	2502.932885
549.140158	2528.138654
549.498811	2530.659231
549.857408	2450.000769
550.215949	2465.124231
550.574434	2444.959615
550.932864	2507.974038
551.291237	2525.618077
551.649555	2485.288846
552.007817	2492.850577
552.366022	2533.179808
552.724173	2482.768269
553.082267	2462.603654
553.440305	2533.179808
553.798288	2495.371154
554.156215	2505.453462
554.514086	2570.988462
554.871902	2480.247692
555.229661	2515.535769
555.587365	2472.685962
555.945014	2492.850577
556.302606	2530.659231
556.660143	2455.041923
557.017625	2472.685962
557.375050	2455.041923
557.732421	2596.194231
558.089735	2455.041923
558.446994	2492.850577
558.804197	2409.671538
559.161345	2518.056346
559.518437	2497.891731
559.875474	2381.945192
560.232455	2520.576923
560.589381	2550.823846
560.946251	2507.974038
561.303065	2437.397885
561.659825	2570.988462
562.016528	2470.165385
562.373177	2465.124231
562.729770	2482.768269
563.086307	2518.056346
563.442789	2495.371154
563.799216	2444.959615
564.155587	2482.768269
564.511904	2450.000769
564.868164	2477.727115
565.224370	2553.344423
565.580520	2558.385577
565.936615	2500.412308
566.292654	2530.659231
566.648638	2482.768269
567.004567	2465.124231
567.360441	2442.439038
567.716260	2465.124231
568.072023	2510.494615
568.427732	2530.659231
568.783385	2432.356731
569.138982	2450.000769
569.494525	2417.233269
569.850013	2510.494615
570.205445	2495.371154
570.560823	2465.124231
570.916145	2520.576923
571.271412	2487.809423
571.626625	2399.589231
571.981782	2533.179808
572.336884	2563.426731
572.691931	2495.371154
573.046923	2467.644808
573.401860	2470.165385
573.756743	2500.412308
574.111570	2455.041923
574.466342	2523.097500
574.821059	2583.591346
575.175722	2576.029615
575.530330	2389.506923
575.884882	2573.509038
576.239380	2555.865000
576.593823	2450.000769
576.948211	2538.220962
577.302544	2480.247692
577.656823	2434.877308
578.011047	2533.179808
578.365216	2485.288846
578.719330	2437.397885
579.073389	2444.959615
579.427394	2523.097500
579.781344	2475.206538
580.135239	2573.509038
580.489080	2492.850577
580.842866	2492.850577
581.196597	2455.041923
581.550273	2442.439038
581.903895	2586.111923
582.257463	2455.041923
582.610975	2545.782692
582.964434	2437.397885
583.317837	2586.111923
583.671186	2477.727115
584.024481	2487.809423
584.377721	2528.138654
584.730906	2513.015192
585.084037	2482.768269
585.437113	2452.521346
585.790135	2482.768269
586.143103	2513.015192
586.496016	2586.111923
586.848874	2510.494615
587.201679	2530.659231
587.554428	2455.041923
587.907124	2520.576923
588.259765	2518.056346
588.612352	2510.494615
588.964884	2540.741538
589.317362	2518.056346
589.669786	2530.659231
590.022155	2487.809423
590.374470	2490.330000
590.726731	2485.288846
591.078937	2548.303269
591.431090	2444.959615
591.783188	2477.727115
592.135232	2475.206538
592.487222	2553.344423
592.839157	2432.356731
593.191038	2513.015192
593.542866	2588.632500
593.894639	2457.562500
594.246358	2429.836154
594.598022	2555.865000
594.949633	2394.548077
595.301190	2497.891731
595.652692	2497.891731
596.004141	2510.494615
596.355535	2502.932885
596.706876	2548.303269
597.058162	2528.138654
597.409395	2477.727115
597.760573	2490.330000
598.111698	2510.494615
598.462768	2442.439038
598.813785	2477.727115
599.164748	2381.945192
599.515657	2505.453462
599.866511	2545.782692
600.217312	2520.576923
600.568060	2513.015192
600.918753	2470.165385
601.269392	2492.850577
601.619978	2492.850577
601.970510	2515.535769
602.320988	2505.453462
602.671412	2374.383462
603.021783	2490.330000
603.372100	2485.288846
603.722363	2513.015192
604.072572	2462.603654
604.422728	2538.220962
604.772830	2460.083077
605.122878	2543.262115
605.472872	2480.247692
605.822813	2560.906154
606.172701	2482.768269
606.522534	2540.741538
606.872314	2555.865000
607.222041	2520.576923
607.571714	2515.535769
607.921333	2434.877308
608.270899	2500.412308
608.620411	2553.344423
608.969870	2505.453462
609.319276	2507.974038
609.668627	2553.344423
610.017926	2520.576923
610.367171	2450.000769
610.716362	2543.262115
611.065500	2407.150962
611.414585	2500.412308
611.763616	2515.535769
612.112594	2444.959615
612.461518	2424.795000
612.810389	2518.056346
613.159207	2460.083077
613.507971	2467.644808
613.856682	2477.727115
614.205340	2518.056346
614.553945	2523.097500
614.902496	2535.700385
615.250994	2482.768269
615.599439	2497.891731
615.947830	2507.974038
616.296169	2550.823846
616.644454	2477.727115
616.992686	2530.659231
617.340864	2548.303269
617.688990	2462.603654
618.037063	2500.412308
618.385082	2588.632500
618.733048	2540.741538
619.080961	2467.644808
619.428821	2500.412308
619.776628	2475.206538
620.124382	2502.932885
620.472083	2515.535769
620.819731	2502.932885
621.167326	2465.124231
621.514868	2568.467885
621.862357	2500.412308
622.209793	2502.932885
622.557176	2434.877308
622.904506	2492.850577
623.251783	2533.179808
623.599007	2424.795000
623.946179	2545.782692
624.293297	2568.467885
624.640363	2419.753846
624.987376	2560.906154
625.334336	2422.274423
625.681243	2457.562500
626.028097	2467.644808
626.374899	2535.700385
626.721647	2500.412308
627.068343	2510.494615
627.414987	2533.179808
627.761577	2502.932885
628.108115	2442.439038
628.454600	2500.412308
628.801032	2510.494615
629.147412	2545.782692
629.493739	2444.959615
629.840014	2530.659231
630.186236	2525.618077
630.532405	2545.782692
630.878521	2558.385577
631.224585	2487.809423
631.570597	2510.494615
631.916556	2533.179808
632.262462	2402.109808
632.608316	2553.344423
632.954117	2613.838269
633.299866	2470.165385
633.645562	2530.659231
633.991206	2460.083077
634.336797	2470.165385
634.682336	2510.494615
635.027823	2450.000769
635.373257	2465.124231
635.718639	2495.371154
636.063968	2586.111923
636.409245	2465.124231
636.754470	2510.494615
637.099642	2492.850577
637.444762	2497.891731
637.789829	2477.727115
638.134845	2386.986346
638.479808	2540.741538
638.824719	2535.700385
639.169577	2462.603654
639.514383	2502.932885
639.859137	2513.015192
640.203839	2455.041923
640.548489	2477.727115
640.893086	2434.877308
641.237632	2485.288846
641.582125	2555.865000
641.926566	2487.809423
642.270955	2518.056346
642.615292	2568.467885
642.959576	2553.344423
643.303809	2513.015192
643.647990	2422.274423
643.992118	2477.727115
644.336195	2492.850577
644.680219	2450.000769
645.024192	2505.453462
645.368112	2500.412308
645.711981	2563.426731
646.055797	2349.177692
646.399562	2495.371154
646.743274	2472.685962
647.086935	2545.782692
647.430544	2419.753846
647.774101	2560.906154
648.117606	2502.932885
648.461059	2530.659231
648.804460	2437.397885
649.147810	2525.618077
649.491108	2495.371154
649.834354	2394.548077
650.177548	2515.535769
650.520690	2432.356731
650.863781	2482.768269
651.206820	2573.509038
651.549807	2553.344423
651.892742	2598.714808
652.235626	2525.618077
652.578458	2485.288846
652.921238	2475.206538
653.263967	2505.453462
653.606644	2452.521346
653.949269	2563.426731
654.291843	2578.550192
654.634365	2462.603654
654.976836	2523.097500
655.319255	2535.700385
655.661622	2480.247692
656.003938	2437.397885
656.346203	2540.741538
656.688416	2570.988462
657.030577	2462.603654
657.372687	2455.041923
657.714746	2507.974038
658.056753	2500.412308
658.398708	2450.000769
658.740612	2510.494615
659.082465	2487.809423
659.424266	2462.603654
659.766016	2419.753846
660.107715	2570.988462
660.449362	2404.630385
660.790958	2528.138654
661.132503	2450.000769
661.473996	2510.494615
661.815438	2535.700385
662.156829	2457.562500
662.498168	2487.809423
662.839456	2576.029615
663.180693	2586.111923
663.521879	2543.262115
663.863013	2492.850577
664.204097	2518.056346
664.545129	2472.685962
664.886110	2563.426731
665.227040	2470.165385
665.567918	2485.288846
665.908746	2533.179808
666.249522	2581.070769
666.590248	2621.400000
666.930922	2455.041923
667.271545	2497.891731
667.612118	2470.165385
667.952639	2419.753846
668.293109	2500.412308
668.633528	2528.138654
668.973896	2533.179808
669.314213	2555.865000
669.654480	2500.412308
669.994695	2581.070769
670.334859	2427.315577
670.674973	2424.795000
671.015035	2432.356731
671.355047	2460.083077
671.695008	2495.371154
672.034918	2528.138654
672.374777	2518.056346
672.714585	2480.247692
673.054342	2470.165385
673.394049	2548.303269
673.733705	2427.315577
674.073310	2523.097500
674.412864	2480.247692
674.752368	2530.659231
675.091820	2467.644808
675.431223	2442.439038
675.770574	2520.576923
676.109875	2480.247692
676.449125	2535.700385
676.788324	2442.439038
677.127473	2450.000769
677.466571	2576.029615
677.805619	2455.041923
678.144616	2563.426731
678.483562	2465.124231
678.822458	2581.070769
679.161303	2457.562500
679.500098	2492.850577
679.838842	2500.412308
680.177535	2482.768269
680.516179	2520.576923
680.854771	2447.480192
681.193314	2480.247692
681.531805	2525.618077
681.870247	2500.412308
682.208638	2429.836154
682.546978	2432.356731
682.885268	2465.124231
683.223508	2477.727115
683.561697	2530.659231
683.899836	2570.988462
684.237925	2485.288846
684.575963	2477.727115
684.913951	2467.644808
685.251889	2500.412308
685.589776	2515.535769
685.927614	2437.397885
686.265401	2523.097500
686.603137	2472.685962
686.940824	2500.412308
687.278460	2427.315577
687.616046	2422.274423
687.953582	2505.453462
688.291068	2530.659231
688.628504	2495.371154
688.965889	2452.521346
689.303224	2439.918462
689.640510	2507.974038
689.977745	2540.741538
690.314930	2482.768269
690.652065	2530.659231
690.989150	2576.029615
691.326185	2442.439038
691.663170	2545.782692
692.000105	2450.000769
692.336990	2530.659231
692.673825	2533.179808
693.010610	2515.535769
693.347345	2497.891731
693.684030	2465.124231
694.020665	2460.083077
694.357251	2480.247692
694.693786	2543.262115
695.030272	2457.562500
695.366707	2513.015192
695.703093	2510.494615
696.039429	2591.153077
696.375716	2439.918462
696.711952	2528.138654
697.048139	2485.288846
697.384276	2525.618077
697.720363	2475.206538
698.056400	2570.988462
698.392388	2573.509038
698.728326	2477.727115
699.064214	2502.932885
699.400053	2482.768269
699.735842	2465.124231
700.071581	2409.671538
700.407270	2593.673654
700.742910	2550.823846
701.078501	2510.494615
701.414042	2452.521346
701.749533	2490.330000
702.084974	2560.906154
702.420366	2490.330000
702.755709	2444.959615
703.091002	2505.453462
703.426246	2490.330000
703.761440	2505.453462
704.096584	2500.412308
704.431679	2492.850577
704.766725	2482.768269
705.101721	2515.535769
705.436668	2492.850577
705.771565	2480.247692
706.106413	2434.877308
706.441212	2535.700385
706.775961	2487.809423
707.110661	2374.383462
707.445311	2465.124231
707.779913	2558.385577
708.114465	2432.356731
708.448967	2497.891731
708.783421	2588.632500
709.117825	2457.562500
709.452180	2437.397885
709.786485	2455.041923
710.120742	2553.344423
710.454949	2523.097500
710.789107	2427.315577
711.123216	2497.891731
711.457275	2472.685962
711.791286	2495.371154
712.125247	2520.576923
712.459159	2533.179808
712.793023	2457.562500
713.126837	2495.371154
713.460602	2487.809423
713.794318	2409.671538
714.127985	2490.330000
714.461602	2467.644808
714.795171	2497.891731
715.128691	2568.467885
715.462162	2520.576923
715.795584	2525.618077
716.128957	2528.138654
716.462281	2533.179808
716.795556	2467.644808
717.128782	2535.700385
717.461960	2502.932885
717.795088	2513.015192
718.128167	2444.959615
718.461198	2452.521346
718.794180	2447.480192
719.127113	2565.947308
719.459997	2480.247692
719.792833	2497.891731
720.125619	2535.700385
720.458357	2472.685962
720.791046	2472.685962
721.123686	2530.659231
721.456278	2442.439038
721.788821	2407.150962
722.121315	2510.494615
722.453761	2550.823846
722.786158	2560.906154
723.118506	2485.288846
723.450805	2487.809423
723.783056	2434.877308
724.115259	2535.700385
724.447412	2545.782692
724.779518	2497.891731
725.111574	2563.426731
725.443582	2447.480192
725.775542	2507.974038
726.107453	2492.850577
726.439315	2457.562500
726.771129	2485.288846
727.102895	2397.068654
727.434612	2518.056346
727.766281	2475.206538
728.097901	2502.932885
728.429473	2462.603654
728.760996	2538.220962
729.092471	2513.015192
729.423897	2437.397885
729.755276	2616.358846
730.086606	2520.576923
730.417887	2482.768269
730.749120	2470.165385
731.080305	2593.673654
731.411442	2467.644808
731.742530	2465.124231
732.073570	2465.124231
732.404562	2510.494615
732.735506	2424.795000
733.066401	2518.056346
733.397249	2538.220962
733.728048	2437.397885
734.058798	2424.795000
734.389501	2472.685962
734.720156	2518.056346
735.050762	2467.644808
735.381320	2513.015192
735.711831	2452.521346
736.042293	2505.453462
736.372707	2487.809423
736.703073	2492.850577
737.033391	2475.206538
737.363661	2485.288846
737.693883	2472.685962
738.024056	2442.439038
738.354182	2475.206538
738.684260	2523.097500
739.014290	2513.015192
739.344272	2500.412308
739.674207	2530.659231
740.004093	2487.809423
740.333931	2495.371154
740.663722	2540.741538
740.993464	2495.371154
741.323159	2565.947308
741.652806	2543.262115
741.982405	2538.220962
742.311956	2505.453462
742.641460	2507.974038
742.970915	2513.015192
743.300323	2444.959615
743.629683	2462.603654
743.958996	2497.891731
744.288260	2447.480192
744.617477	2505.453462
744.946647	2417.233269
745.275768	2490.330000
745.604842	2548.303269
745.933869	2467.644808
746.262847	2497.891731
746.591778	2502.932885
746.920662	2576.029615
747.249498	2452.521346
747.578286	2472.685962
747.907027	2467.644808
748.235720	2495.371154
748.564365	2467.644808
748.892963	2434.877308
749.221514	2485.288846
749.550017	2447.480192
749.878473	2482.768269
750.206881	2502.932885
750.535242	2548.303269
750.863555	2513.015192
751.191821	2533.179808
751.520039	2565.947308
751.848210	2480.247692
752.176334	2457.562500
752.504411	2490.330000
752.832440	2515.535769
753.160421	2588.632500
753.488356	2460.083077
753.816243	2492.850577
754.144082	2465.124231
754.471875	2533.179808
754.799620	2497.891731
755.127318	2505.453462
755.454969	2439.918462
755.782572	2553.344423
756.110129	2505.453462
756.437638	2538.220962
756.765100	2487.809423
757.092515	2439.918462
757.419882	2560.906154
757.747203	2437.397885
758.074477	2518.056346
758.401703	2528.138654
758.728882	2576.029615
759.056014	2525.618077
759.383099	2422.274423
759.710138	2543.262115
760.037129	2533.179808
760.364073	2548.303269
760.690970	2447.480192
761.017820	2540.741538
761.344623	2525.618077
761.671379	2616.358846
761.998088	2492.850577
762.324751	2497.891731
762.651366	2596.194231
762.977935	2523.097500
763.304456	2497.891731
763.630931	2510.494615
763.957359	2533.179808
764.283740	2523.097500
764.610074	2470.165385
764.936362	2538.220962
765.262602	2439.918462
765.588796	2520.576923
765.914943	2455.041923
766.241044	2525.618077
766.567097	2432.356731
766.893104	2490.330000
767.219064	2480.247692
767.544978	2482.768269
767.870845	2502.932885
768.196665	2545.782692
768.522438	2475.206538
768.848165	2545.782692
769.173846	2495.371154
769.499479	2485.288846
769.825066	2447.480192
770.150607	2497.891731
770.476101	2538.220962
770.801548	2442.439038
771.126949	2507.974038
771.452303	2472.685962
771.777611	2528.138654
772.102872	2442.439038
772.428087	2525.618077
772.753256	2477.727115
773.078378	2485.288846
773.403453	2533.179808
773.728482	2555.865000
774.053465	2492.850577
774.378401	2482.768269
774.703291	2518.056346
775.028135	2555.865000
775.352932	2452.521346
775.677683	2470.165385
776.002388	2409.671538
776.327046	2568.467885
776.651658	2417.233269
776.976224	2444.959615
777.300743	2545.782692
777.625216	2515.535769
777.949643	2593.673654
778.274024	2487.809423
778.598359	2523.097500
778.922647	2553.344423
779.246889	2502.932885
779.571086	2560.906154
779.895236	2588.632500
780.219339	2510.494615
780.543397	2520.576923
780.867409	2525.618077
781.191374	2530.659231
781.515294	2507.974038
781.839167	2424.795000
782.162995	2500.412308
782.486776	2558.385577
782.810511	2490.330000
783.134201	2553.344423
783.457844	2513.015192
783.781441	2500.412308
784.104993	2482.768269
784.428498	2465.124231
784.751958	2586.111923
785.075372	2490.330000
785.398739	2475.206538
785.722061	2460.083077
786.045337	2497.891731
786.368568	2442.439038
786.691752	2535.700385
787.014891	2402.109808
787.337983	2485.288846
787.661030	2528.138654
787.984031	2465.124231
788.306987	2407.150962
788.629897	2510.494615
788.952760	2487.809423
789.275579	2518.056346
789.598351	2538.220962
789.921078	2603.755962
790.243759	2414.712692
790.566395	2543.262115
790.888984	2608.797115
791.211529	2467.644808
791.534027	2460.083077
791.856480	2472.685962
792.178888	2475.206538
792.501249	2497.891731
792.823566	2573.509038
793.145836	2419.753846
793.468062	2500.412308
793.790241	2533.179808
794.112375	2513.015192
794.434464	2439.918462
794.756507	2465.124231
795.078505	2510.494615
795.400457	2485.288846
795.722364	2540.741538
796.044226	2535.700385
796.366042	2487.809423
796.687812	2520.576923
797.009538	2502.932885
797.331218	2495.371154
797.652852	2492.850577
797.974442	2422.274423
798.295986	2525.618077
798.617484	2465.124231
798.938938	2482.768269
799.260346	2505.453462
799.581709	2470.165385
799.903026	2518.056346
800.224299	2432.356731
800.545526	2500.412308
800.866708	2538.220962
801.187845	2515.535769
801.508936	2548.303269
801.829983	2419.753846
802.150984	2505.453462
802.471940	2502.932885
802.792851	2502.932885
803.113717	2533.179808
803.434538	2485.288846
803.755314	2497.891731
804.076045	2591.153077
804.396731	2455.041923
804.717372	2525.618077
805.037967	2477.727115
805.358518	2538.220962
805.679024	2500.412308
805.999485	2447.480192
806.319901	2588.632500
806.640272	2442.439038
806.960598	2482.768269
807.280879	2490.330000
807.601115	2518.056346
807.921306	2487.809423
808.241453	2540.741538
808.561554	2470.165385
808.881611	2510.494615
809.201623	2528.138654
809.521590	2583.591346
809.841513	2424.795000
810.161390	2439.918462
810.481223	2439.918462
810.801011	2543.262115
811.120755	2465.124231
811.440453	2568.467885
811.760107	2495.371154
812.079716	2490.330000
812.399281	2414.712692
812.718801	2533.179808
813.038276	2457.562500
813.357707	2447.480192
813.677093	2535.700385
813.996434	2533.179808
814.315731	2480.247692
814.634983	2502.932885
814.954191	2472.685962
815.273354	2548.303269
815.592473	2500.412308
815.911547	2480.247692
816.230577	2450.000769
816.549562	2535.700385
816.868502	2513.015192
817.187399	2450.000769
817.506250	2485.288846
817.825058	2500.412308
818.143821	2482.768269
818.462539	2409.671538
818.781213	2530.659231
819.099843	2452.521346
819.418429	2505.453462
819.736970	2550.823846
820.055466	2399.589231
820.373919	2444.959615
820.692327	2601.235385
821.010691	2472.685962
821.329011	2560.906154
821.647286	2510.494615
821.965517	2538.220962
822.283704	2460.083077
822.601847	2485.288846
822.919945	2465.124231
823.237999	2591.153077
823.556010	2533.179808
823.873976	2485.288846
824.191897	2518.056346
824.509775	2427.315577
824.827609	2404.630385
825.145398	2384.465769
825.463144	2502.932885
825.780845	2518.056346
826.098502	2467.644808
826.416116	2442.439038
826.733685	2497.891731
827.051210	2555.865000
827.368692	2477.727115
827.686129	2407.150962
828.003522	2515.535769
828.320872	2432.356731
828.638177	2528.138654
828.955439	2472.685962
829.272656	2608.797115
829.589830	2432.356731
829.906960	2404.630385
830.224046	2467.644808
830.541088	2500.412308
830.858086	2487.809423
831.175041	2439.918462
831.491952	2502.932885
831.808819	2467.644808
832.125642	2465.124231
832.442421	2563.426731
832.759157	2555.865000
833.075849	2465.124231
833.392497	2568.467885
833.709101	2548.303269
834.025662	2505.453462
834.342179	2513.015192
834.658653	2467.644808
834.975083	2528.138654
835.291469	2472.685962
835.607811	2477.727115
835.924110	2520.576923
836.240366	2563.426731
836.556578	2502.932885
836.872746	2490.330000
837.188871	2477.727115
837.504952	2455.041923
837.820990	2565.947308
838.136984	2450.000769
838.452935	2525.618077
838.768842	2548.303269
839.084706	2502.932885
839.400526	2487.809423
839.716303	2515.535769
840.032037	2568.467885
840.347727	2553.344423
840.663373	2455.041923
840.978977	2568.467885
841.294537	2523.097500
841.610054	2487.809423
841.925527	2505.453462
842.240957	2407.150962
842.556344	2528.138654
842.871687	2520.576923
843.186987	2477.727115
843.502244	2432.356731
843.817458	2457.562500
844.132629	2452.521346
844.447756	2369.342308
844.762840	2513.015192
845.077881	2460.083077
845.392879	2487.809423
845.707833	2555.865000
846.022745	2455.041923
846.337613	2465.124231
846.652438	2565.947308
846.967221	2472.685962
847.281960	2492.850577
847.596656	2457.562500
847.911309	2447.480192
848.225919	2427.315577
848.540485	2455.041923
848.855009	2606.276538
849.169490	2523.097500
849.483928	2447.480192
849.798323	2502.932885
850.112675	2487.809423
850.426984	2482.768269
850.741251	2520.576923
851.055474	2492.850577
851.369654	2465.124231
851.683792	2472.685962
851.997887	2414.712692
852.311938	2470.165385
852.625947	2419.753846
852.939914	2553.344423
853.253837	2424.795000
853.567718	2518.056346
853.881555	2550.823846
854.195350	2419.753846
854.509103	2525.618077
854.822812	2513.015192
855.136479	2513.015192
855.450103	2465.124231
855.763685	2424.795000
856.077224	2523.097500
856.390720	2455.041923
856.704173	2520.576923
857.017584	2472.685962
857.330953	2482.768269
857.644278	2475.206538
857.957561	2482.768269
858.270802	2450.000769
858.584000	2444.959615
858.897155	2520.576923
859.210268	2482.768269
859.523339	2475.206538
859.836367	2490.330000
860.149352	2553.344423
860.462295	2530.659231
860.775195	2434.877308
861.088054	2513.015192
861.400869	2495.371154
861.713642	2465.124231
862.026373	2485.288846
862.339062	2437.397885
862.651708	2490.330000
862.964312	2417.233269
863.276873	2568.467885
863.589392	2492.850577
863.901869	2507.974038
864.214303	2450.000769
864.526696	2513.015192
864.839045	2457.562500
865.151353	2455.041923
865.463619	2497.891731
865.775842	2455.041923
866.088023	2465.124231
866.400162	2487.809423
866.712258	2548.303269
867.024313	2487.809423
867.336325	2502.932885
867.648296	2492.850577
867.960224	2528.138654
868.272110	2492.850577
868.583954	2497.891731
868.895755	2500.412308
869.207515	2576.029615
869.519233	2472.685962
869.830909	2495.371154
870.142542	2427.315577
870.454134	2495.371154
870.765684	2457.562500
871.077191	2450.000769
871.388657	2588.632500
871.700081	2457.562500
872.011463	2513.015192
872.322803	2462.603654
872.634101	2475.206538
872.945357	2497.891731
873.256571	2457.562500
873.567744	2505.453462
873.878874	2424.795000
874.189963	2442.439038
874.501010	2492.850577
874.812015	2477.727115
875.122979	2497.891731
875.433900	2502.932885
875.744780	2450.000769
876.055618	2530.659231
876.366415	2442.439038
876.677169	2432.356731
876.987882	2485.288846
877.298554	2429.836154
877.609183	2434.877308
877.919771	2450.000769
878.230317	2586.111923
878.540822	2528.138654
878.851285	2515.535769
879.161707	2502.932885
879.472087	2485.288846
879.782425	2442.439038
880.092722	2523.097500
880.402977	2487.809423
880.713191	2485.288846
881.023363	2402.109808
881.333494	2439.918462
881.643583	2485.288846
881.953631	2432.356731
882.263637	2477.727115
882.573602	2560.906154
882.883526	2439.918462
883.193408	2558.385577
883.503248	2475.206538
883.813048	2543.262115
884.122806	2485.288846
884.432522	2500.412308
884.742197	2482.768269
885.051831	2492.850577
885.361424	2535.700385
885.670975	2442.439038
885.980485	2510.494615
886.289954	2404.630385
886.599382	2389.506923
886.908768	2477.727115
887.218113	2444.959615
887.527417	2480.247692
887.836680	2427.315577
888.145901	2480.247692
888.455082	2518.056346
888.764221	2507.974038
889.073319	2510.494615
889.382376	2452.521346
889.691392	2485.288846
890.000366	2447.480192
890.309300	2543.262115
890.618193	2475.206538
890.927044	2576.029615
891.235855	2523.097500
891.544625	2437.397885
891.853353	2389.506923
892.162041	2402.109808
892.470687	2447.480192
892.779293	2525.618077
893.087858	2417.233269
893.396381	2475.206538
893.704864	2510.494615
894.013306	2457.562500
894.321707	2518.056346
894.630068	2477.727115
894.938387	2462.603654
895.246665	2510.494615
895.554903	2447.480192
895.863100	2457.562500
896.171256	2482.768269
896.479371	2565.947308
896.787446	2510.494615
897.095480	2497.891731
897.403473	2507.974038
897.711425	2535.700385
898.019336	2497.891731
898.327207	2495.371154
898.635038	2533.179808
898.942827	2487.809423
899.250576	2447.480192
899.558284	2543.262115
899.865952	2472.685962
900.173579	2505.453462
900.481165	2432.356731
900.788711	2507.974038
901.096216	2465.124231
901.403681	2540.741538
901.711105	2452.521346
902.018489	2510.494615
902.325832	2497.891731
902.633135	2513.015192
902.940397	2525.618077
903.247619	2444.959615
903.554800	2510.494615
903.861941	2492.850577
904.169041	2404.630385
904.476101	2472.685962
904.783121	2447.480192
905.090100	2414.712692
905.397039	2550.823846
905.703938	2538.220962
906.010796	2505.453462
906.317614	2467.644808
906.624391	2472.685962
906.931129	2444.959615
907.237826	2548.303269
907.544483	2533.179808
907.851099	2467.644808
908.157675	2455.041923
908.464211	2492.850577
908.770707	2523.097500
909.077163	2460.083077
909.383578	2518.056346
909.689954	2472.685962
909.996289	2505.453462
910.302584	2545.782692
910.608839	2570.988462
910.915054	2477.727115
911.221229	2525.618077
911.527363	2502.932885
911.833458	2477.727115
912.139513	2555.865000
912.445527	2477.727115
912.751502	2497.891731
913.057436	2450.000769
913.363331	2523.097500
913.669186	2548.303269
913.975000	2457.562500
914.280775	2538.220962
914.586510	2414.712692
914.892205	2495.371154
915.197859	2518.056346
915.503475	2492.850577
915.809050	2513.015192
916.114585	2452.521346
916.420081	2528.138654
916.725536	2502.932885
917.030952	2465.124231
917.336328	2525.618077
917.641665	2535.700385
917.946961	2568.467885
918.252218	2444.959615
918.557435	2487.809423
918.862612	2467.644808
919.167750	2482.768269
919.472848	2528.138654
919.777906	2543.262115
920.082925	2442.439038
920.387904	2507.974038
920.692843	2460.083077
920.997743	2482.768269
921.302603	2434.877308
921.607423	2444.959615
921.912204	2457.562500
922.216946	2530.659231
922.521647	2520.576923
922.826310	2523.097500
923.130932	2492.850577
923.435516	2518.056346
923.740059	2520.576923
924.044564	2475.206538
924.349028	2530.659231
924.653454	2455.041923
924.957840	2407.150962
925.262186	2475.206538
925.566493	2467.644808
925.870761	2500.412308
926.174989	2407.150962
926.479178	2442.439038
926.783328	2528.138654
927.087438	2507.974038
927.391509	2424.795000
927.695541	2507.974038
927.999533	2505.453462
928.303486	2442.439038
928.607400	2462.603654
928.911275	2533.179808
929.215110	2553.344423
929.518906	2482.768269
929.822663	2515.535769
930.126381	2419.753846
930.430060	2384.465769
930.733699	2399.589231
931.037299	2429.836154
931.340861	2452.521346
931.644383	2475.206538
931.947866	2523.097500
932.251309	2525.618077
932.554714	2450.000769
932.858080	2515.535769
933.161407	2523.097500
933.464694	2460.083077
933.767943	2386.986346
934.071153	2540.741538
934.374323	2457.562500
934.677455	2505.453462
934.980548	2500.412308
935.283602	2482.768269
935.586617	2409.671538
935.889593	2457.562500
936.192530	2518.056346
936.495428	2570.988462
936.798287	2465.124231
937.101108	2470.165385
937.403890	2563.426731
937.706632	2427.315577
938.009336	2419.753846
938.312002	2593.673654
938.614628	2535.700385
938.917216	2540.741538
939.219765	2573.509038
939.522275	2450.000769
939.824747	2480.247692
940.127179	2548.303269
940.429573	2455.041923
940.731929	2455.041923
941.034246	2480.247692
941.336524	2525.618077
941.638763	2538.220962
941.940964	2513.015192
942.243126	2482.768269
942.545250	2470.165385
942.847335	2472.685962
943.149381	2417.233269
943.451389	2555.865000
943.753359	2510.494615
944.055290	2485.288846
944.357182	2565.947308
944.659036	2467.644808
944.960851	2518.056346
945.262628	2404.630385
945.564367	2507.974038
945.866067	2427.315577
946.167729	2533.179808
946.469352	2467.644808
946.770937	2513.015192
947.072484	2422.274423
947.373992	2563.426731
947.675462	2530.659231
947.976893	2497.891731
948.278286	2465.124231
948.579641	2404.630385
948.880958	2460.083077
949.182236	2530.659231
949.483476	2497.891731
949.784678	2513.015192
950.085841	2502.932885
950.386967	2505.453462
950.688054	2495.371154
950.989103	2497.891731
951.290114	2480.247692
951.591087	2434.877308
951.892021	2518.056346
952.192917	2467.644808
952.493776	2538.220962
952.794596	2500.412308
953.095378	2477.727115
953.396122	2442.439038
953.696828	2457.562500
953.997496	2442.439038
954.298126	2485.288846
954.598718	2432.356731
954.899272	2470.165385
955.199788	2462.603654
955.500266	2490.330000
955.800706	2472.685962
956.101108	2505.453462
956.401472	2455.041923
956.701798	2485.288846
957.002087	2414.712692
957.302337	2399.589231
957.602550	2543.262115
957.902724	2502.932885
958.202861	2507.974038
958.502960	2447.480192
958.803022	2480.247692
959.103045	2576.029615
959.403031	2480.247692
959.702979	2467.644808
960.002889	2482.768269
960.302762	2510.494615
960.602596	2623.920577
960.902393	2530.659231
961.202153	2482.768269
961.501875	2535.700385
961.801559	2530.659231
962.101205	2475.206538
962.400814	2505.453462
962.700385	2530.659231
962.999918	2533.179808
963.299414	2470.165385
963.598873	2447.480192
963.898293	2513.015192
964.197677	2439.918462
964.497022	2379.424615
964.796331	2429.836154
965.095601	2533.179808
965.394835	2424.795000
965.694030	2444.959615
965.993189	2470.165385
966.292309	2480.247692
966.591393	2550.823846
966.890439	2558.385577
967.189447	2432.356731
967.488419	2475.206538
967.787353	2455.041923
968.086249	2470.165385
968.385108	2528.138654
968.683930	2560.906154
968.982714	2477.727115
969.281462	2528.138654
969.580172	2470.165385
969.878844	2472.685962
970.177480	2450.000769
970.476078	2487.809423
970.774639	2447.480192
971.073162	2429.836154
971.371649	2434.877308
971.670098	2424.795000
971.968510	2462.603654
972.266885	2462.603654
972.565223	2475.206538
972.863524	2462.603654
973.161788	2442.439038
973.460014	2500.412308
973.758204	2525.618077
974.056356	2422.274423
974.354471	2455.041923
974.652550	2525.618077
974.950591	2465.124231
975.248595	2502.932885
975.546563	2460.083077
975.844493	2518.056346
976.142386	2528.138654
976.440243	2513.015192
976.738062	2490.330000
977.035845	2429.836154
977.333590	2422.274423
977.631299	2507.974038
977.928971	2465.124231
978.226606	2586.111923
978.524204	2475.206538
978.821765	2500.412308
979.119290	2558.385577
979.416777	2447.480192
979.714228	2417.233269
980.011642	2533.179808
980.309020	2429.836154
980.606360	2437.397885
980.903664	2482.768269
981.200931	2538.220962
981.498162	2570.988462
981.795356	2490.330000
982.092513	2492.850577
982.389633	2455.041923
982.686717	2523.097500
982.983764	2545.782692
983.280775	2409.671538
983.577749	2450.000769
983.874686	2447.480192
984.171587	2500.412308
984.468451	2533.179808
984.765279	2450.000769
985.062070	2545.782692
985.358824	2523.097500
985.655543	2455.041923
985.952224	2515.535769
986.248869	2419.753846
986.545478	2452.521346
986.842050	2439.918462
987.138586	2528.138654
987.435086	2477.727115
987.731549	2500.412308
988.027975	2520.576923
988.324366	2465.124231
988.620719	2472.685962
988.917037	2492.850577
989.213318	2525.618077
989.509563	2500.412308
989.805772	2472.685962
990.101944	2555.865000
990.398080	2434.877308
990.694180	2447.480192
990.990244	2505.453462
991.286271	2550.823846
991.582262	2502.932885
991.878217	2457.562500
992.174136	2563.426731
992.470019	2558.385577
992.765865	2515.535769
993.061676	2490.330000
993.357450	2472.685962
993.653188	2450.000769
993.948890	2452.521346
994.244556	2487.809423
994.540186	2550.823846
994.835780	2404.630385
995.131337	2485.288846
995.426859	2465.124231
995.722345	2528.138654
996.017795	2505.453462
996.313208	2497.891731
996.608586	2507.974038
996.903928	2502.932885
997.199234	2533.179808
997.494504	2548.303269
997.789738	2482.768269
998.084936	2513.015192
998.380099	2414.712692
998.675225	2485.288846
998.970316	2553.344423
999.265371	2465.124231
999.560390	2465.124231
999.855373	2482.768269
1000.150320	2543.262115
1000.445232	2465.124231
1000.740108	2513.015192
1001.034948	2447.480192
1001.329752	2530.659231
1001.624521	2404.630385
1001.919254	2502.932885
1002.213951	2515.535769
1002.508613	2397.068654
1002.803239	2394.548077
1003.097829	2447.480192
1003.392384	2510.494615
1003.686903	2502.932885
1003.981386	2578.550192
1004.275834	2437.397885
1004.570246	2497.891731
1004.864623	2515.535769
1005.158964	2500.412308
1005.453270	2497.891731
1005.747540	2528.138654
1006.041775	2487.809423
1006.335974	2558.385577
1006.630138	2450.000769
1006.924266	2487.809423
1007.218359	2558.385577
1007.512416	2492.850577
1007.806438	2381.945192
1008.100425	2500.412308
1008.394376	2462.603654
1008.688292	2583.591346
1008.982172	2455.041923
1009.276017	2500.412308
1009.569827	2495.371154
1009.863602	2560.906154
1010.157341	2480.247692
1010.451045	2497.891731
1010.744714	2591.153077
1011.038347	2513.015192
1011.331945	2505.453462
1011.625508	2490.330000
1011.919036	2417.233269
1012.212528	2475.206538
1012.505986	2470.165385
1012.799408	2497.891731
1013.092795	2500.412308
1013.386147	2437.397885
1013.679464	2417.233269
1013.972745	2505.453462
1014.265992	2482.768269
1014.559204	2450.000769
1014.852380	2437.397885
1015.145521	2578.550192
1015.438628	2482.768269
1015.731699	2586.111923
1016.024736	2570.988462
1016.317737	2432.356731
1016.610703	2558.385577
1016.903635	2495.371154
1017.196531	2487.809423
1017.489393	2455.041923
1017.782219	2515.535769
1018.075011	2437.397885
1018.367768	2482.768269
1018.660490	2487.809423
1018.953177	2487.809423
1019.245829	2487.809423
