Dividing Wavelength (nm)	Counts (n)	Blue Motor Position (mm): 0.000000	Red Motor Position (mm): 6.900000	
326.493990	2139.969808
326.888308	2139.969808
327.282561	2139.969808
327.676750	2079.475962
328.070874	2061.831923
328.464933	2006.379231
328.858929	2049.229038
329.252859	2104.681731
329.646726	2071.914231
330.040528	2079.475962
330.434265	2152.572692
330.827938	2162.655000
331.221547	2185.340192
331.615091	2150.052115
332.008571	2228.190000
332.401986	2145.010962
332.795338	2230.710577
333.188625	2165.175577
333.581847	2238.272308
333.975006	2258.436923
334.368100	2316.410192
334.761129	2399.589231
335.154095	2361.780577
335.546996	2394.548077
335.939833	2349.177692
336.332606	2386.986346
336.725315	2444.959615
337.117960	2399.589231
337.510540	2346.657115
337.903056	2475.206538
338.295508	2543.262115
338.687896	2386.986346
339.080220	2485.288846
339.472480	2437.397885
339.864676	2361.780577
340.256807	2409.671538
340.648875	2412.192115
341.040879	2497.891731
341.432818	2548.303269
341.824694	2460.083077
342.216506	2550.823846
342.608253	2434.877308
342.999937	2548.303269
343.391557	2417.233269
343.783113	2485.288846
344.174605	2394.548077
344.566033	2437.397885
344.957397	2523.097500
345.348697	2578.550192
345.739934	2487.809423
346.131106	2528.138654
346.522215	2437.397885
346.913260	2465.124231
347.304241	2437.397885
347.695159	2427.315577
348.086012	2412.192115
348.476802	2432.356731
348.867528	2472.685962
349.258191	2482.768269
349.648789	2442.439038
350.039324	2480.247692
350.429796	2444.959615
350.820203	2409.671538
351.210548	2384.465769
351.600828	2570.988462
351.991045	2470.165385
352.381198	2447.480192
352.771288	2444.959615
353.161314	2467.644808
353.551276	2419.753846
353.941175	2475.206538
354.331010	2457.562500
354.720782	2482.768269
355.110490	2437.397885
355.500135	2424.795000
355.889717	2457.562500
356.279235	2427.315577
356.668689	2419.753846
357.058080	2472.685962
357.447408	2492.850577
357.836672	2366.821731
358.225873	2507.974038
358.615010	2434.877308
359.004084	2460.083077
359.393095	2475.206538
359.782043	2482.768269
360.170927	2412.192115
360.559748	2437.397885
360.948505	2485.288846
361.337199	2392.027500
361.725830	2470.165385
362.114398	2429.836154
362.502903	2366.821731
362.891344	2366.821731
363.279722	2475.206538
363.668037	2414.712692
364.056289	2414.712692
364.444478	2392.027500
364.832603	2407.150962
365.220665	2523.097500
365.608665	2482.768269
365.996601	2402.109808
366.384474	2510.494615
366.772284	2412.192115
367.160031	2450.000769
367.547715	2379.424615
367.935336	2434.877308
368.322893	2369.342308
368.710388	2485.288846
369.097820	2455.041923
369.485189	2409.671538
369.872495	2447.480192
370.259738	2450.000769
370.646918	2472.685962
371.034035	2462.603654
371.421090	2470.165385
371.808081	2452.521346
372.195010	2465.124231
372.581875	2485.288846
372.968678	2409.671538
373.355418	2404.630385
373.742096	2409.671538
374.128710	2447.480192
374.515262	2553.344423
374.901751	2424.795000
375.288177	2467.644808
375.674540	2374.383462
376.060841	2417.233269
376.447079	2460.083077
376.833254	2457.562500
377.219367	2452.521346
377.605417	2467.644808
377.991404	2386.986346
378.377329	2495.371154
378.763191	2432.356731
379.148991	2555.865000
379.534727	2462.603654
379.920402	2386.986346
380.306013	2386.986346
380.691563	2399.589231
381.077049	2361.780577
381.462474	2485.288846
381.847835	2447.480192
382.233134	2462.603654
382.618371	2419.753846
383.003545	2490.330000
383.388657	2351.698269
383.773706	2487.809423
384.158693	2500.412308
384.543618	2434.877308
384.928480	2480.247692
385.313280	2465.124231
385.698017	2432.356731
386.082692	2399.589231
386.467305	2497.891731
386.851856	2470.165385
387.236344	2402.109808
387.620770	2455.041923
388.005133	2409.671538
388.389435	2492.850577
388.773674	2444.959615
389.157851	2424.795000
389.541965	2513.015192
389.926018	2505.453462
390.310008	2510.494615
390.693936	2477.727115
391.077802	2513.015192
391.461606	2470.165385
391.845348	2497.891731
392.229027	2450.000769
392.612645	2457.562500
392.996200	2470.165385
393.379694	2480.247692
393.763125	2543.262115
394.146494	2349.177692
394.529801	2447.480192
394.913047	2434.877308
395.296230	2475.206538
395.679351	2475.206538
396.062410	2475.206538
396.445408	2467.644808
396.828343	2467.644808
397.211217	2518.056346
397.594028	2502.932885
397.976778	2538.220962
398.359466	2427.315577
398.742092	2502.932885
399.124656	2452.521346
399.507158	2470.165385
399.889598	2528.138654
400.271977	2407.150962
400.654294	2475.206538
401.036549	2500.412308
401.418742	2530.659231
401.800874	2447.480192
402.182944	2452.521346
402.564952	2447.480192
402.946898	2460.083077
403.328783	2460.083077
403.710606	2462.603654
404.092367	2545.782692
404.474067	2386.986346
404.855705	2475.206538
405.237282	2394.548077
405.618797	2535.700385
406.000250	2452.521346
406.381642	2487.809423
406.762972	2497.891731
407.144240	2497.891731
407.525447	2442.439038
407.906593	2490.330000
408.287677	2462.603654
408.668700	2482.768269
409.049661	2533.179808
409.430560	2460.083077
409.811399	2379.424615
410.192176	2495.371154
410.572891	2364.301154
410.953545	2470.165385
411.334138	2480.247692
411.714669	2475.206538
412.095139	2492.850577
412.475547	2573.509038
412.855894	2490.330000
413.236180	2450.000769
413.616405	2507.974038
413.996568	2424.795000
414.376670	2490.330000
414.756711	2485.288846
415.136691	2465.124231
415.516609	2482.768269
415.896466	2472.685962
416.276262	2540.741538
416.655997	2452.521346
417.035670	2568.467885
417.415283	2424.795000
417.794834	2485.288846
418.174324	2545.782692
418.553753	2560.906154
418.933121	2422.274423
419.312428	2477.727115
419.691674	2502.932885
420.070859	2477.727115
420.449983	2444.959615
420.829045	2465.124231
421.208047	2492.850577
421.586988	2475.206538
421.965867	2533.179808
422.344686	2502.932885
422.723444	2447.480192
423.102141	2505.453462
423.480777	2427.315577
423.859352	2525.618077
424.237866	2470.165385
424.616319	2422.274423
424.994712	2548.303269
425.373044	2452.521346
425.751314	2412.192115
426.129524	2460.083077
426.507673	2576.029615
426.885762	2432.356731
427.263789	2500.412308
427.641756	2485.288846
428.019662	2394.548077
428.397508	2462.603654
428.775292	2495.371154
429.153016	2490.330000
429.530679	2492.850577
429.908282	2568.467885
430.285824	2480.247692
430.663305	2538.220962
431.040726	2535.700385
431.418086	2480.247692
431.795385	2502.932885
432.172624	2465.124231
432.549802	2513.015192
432.926920	2533.179808
433.303977	2485.288846
433.680974	2475.206538
434.057910	2497.891731
434.434786	2439.918462
434.811601	2480.247692
435.188355	2376.904038
435.565050	2507.974038
435.941683	2467.644808
436.318257	2460.083077
436.694770	2455.041923
437.071222	2507.974038
437.447614	2492.850577
437.823946	2477.727115
438.200218	2465.124231
438.576429	2487.809423
438.952580	2462.603654
439.328670	2465.124231
439.704700	2467.644808
440.080670	2523.097500
440.456580	2427.315577
440.832429	2475.206538
441.208218	2477.727115
441.583947	2558.385577
441.959616	2530.659231
442.335224	2523.097500
442.710773	2523.097500
443.086261	2472.685962
443.461689	2477.727115
443.837057	2510.494615
444.212365	2550.823846
444.587612	2500.412308
444.962800	2444.959615
445.337927	2528.138654
445.712995	2586.111923
446.088002	2444.959615
446.462949	2404.630385
446.837837	2422.274423
447.212664	2523.097500
447.587431	2507.974038
447.962139	2507.974038
448.336786	2457.562500
448.711374	2515.535769
449.085901	2505.453462
449.460369	2442.439038
449.834776	2507.974038
450.209124	2472.685962
450.583412	2482.768269
450.957640	2573.509038
451.331808	2485.288846
451.705917	2502.932885
452.079965	2505.453462
452.453954	2455.041923
452.827883	2510.494615
453.201752	2442.439038
453.575562	2500.412308
453.949311	2462.603654
454.323001	2477.727115
454.696632	2465.124231
455.070202	2500.412308
455.443713	2460.083077
455.817164	2495.371154
456.190556	2492.850577
456.563888	2422.274423
456.937160	2505.453462
457.310373	2505.453462
457.683526	2462.603654
458.056619	2535.700385
458.429653	2510.494615
458.802628	2487.809423
459.175542	2472.685962
459.548398	2470.165385
459.921194	2528.138654
460.293930	2450.000769
460.666607	2568.467885
461.039224	2505.453462
461.411782	2560.906154
461.784280	2452.521346
462.156719	2495.371154
462.529099	2472.685962
462.901419	2513.015192
463.273680	2505.453462
463.645882	2439.918462
464.018024	2487.809423
464.390106	2505.453462
464.762130	2485.288846
465.134094	2437.397885
465.505999	2429.836154
465.877845	2518.056346
466.249631	2427.315577
466.621358	2513.015192
466.993026	2533.179808
467.364634	2480.247692
467.736184	2507.974038
468.107674	2487.809423
468.479105	2394.548077
468.850477	2570.988462
469.221790	2465.124231
469.593043	2497.891731
469.964238	2392.027500
470.335373	2568.467885
470.706449	2444.959615
471.077467	2487.809423
471.448425	2467.644808
471.819324	2434.877308
472.190164	2482.768269
472.560945	2538.220962
472.931667	2513.015192
473.302330	2518.056346
473.672934	2482.768269
474.043479	2495.371154
474.413965	2497.891731
474.784393	2455.041923
475.154761	2492.850577
475.525070	2450.000769
475.895321	2492.850577
476.265513	2482.768269
476.635645	2442.439038
477.005719	2520.576923
477.375734	2485.288846
477.745691	2475.206538
478.115588	2555.865000
478.485427	2455.041923
478.855207	2515.535769
479.224928	2583.591346
479.594591	2497.891731
479.964194	2467.644808
480.333739	2422.274423
480.703226	2497.891731
481.072653	2500.412308
481.442022	2513.015192
481.811333	2442.439038
482.180584	2470.165385
482.549777	2487.809423
482.918912	2480.247692
483.287988	2399.589231
483.657005	2500.412308
484.025964	2439.918462
484.394864	2427.315577
484.763706	2495.371154
485.132489	2555.865000
485.501213	2470.165385
485.869879	2510.494615
486.238487	2432.356731
486.607036	2528.138654
486.975527	2497.891731
487.343959	2500.412308
487.712333	2475.206538
488.080648	2505.453462
488.448905	2487.809423
488.817104	2467.644808
489.185244	2399.589231
489.553326	2528.138654
489.921350	2452.521346
490.289315	2457.562500
490.657222	2472.685962
491.025070	2455.041923
491.392861	2507.974038
491.760593	2510.494615
492.128267	2548.303269
492.495883	2409.671538
492.863440	2533.179808
493.230939	2492.850577
493.598380	2450.000769
493.965763	2432.356731
494.333088	2520.576923
494.700354	2439.918462
495.067563	2510.494615
495.434713	2565.947308
495.801805	2596.194231
496.168839	2404.630385
496.535815	2530.659231
496.902733	2455.041923
497.269593	2492.850577
497.636395	2507.974038
498.003139	2482.768269
498.369825	2490.330000
498.736453	2502.932885
499.103023	2510.494615
499.469535	2447.480192
499.835989	2606.276538
500.202385	2455.041923
500.568723	2490.330000
500.935003	2586.111923
501.301226	2502.932885
501.667390	2548.303269
502.033497	2558.385577
502.399546	2475.206538
502.765537	2397.068654
503.131470	2515.535769
503.497345	2432.356731
503.863163	2543.262115
504.228923	2553.344423
504.594625	2452.521346
504.960269	2477.727115
505.325856	2510.494615
505.691385	2470.165385
506.056856	2409.671538
506.422270	2525.618077
506.787625	2402.109808
507.152924	2515.535769
507.518164	2530.659231
507.883347	2470.165385
508.248472	2513.015192
508.613540	2530.659231
508.978550	2467.644808
509.343503	2439.918462
509.708398	2540.741538
510.073236	2444.959615
510.438016	2439.918462
510.802738	2497.891731
511.167403	2475.206538
511.532010	2439.918462
511.896561	2563.426731
512.261053	2550.823846
512.625488	2437.397885
512.989866	2523.097500
513.354186	2465.124231
513.718449	2465.124231
514.082655	2520.576923
514.446803	2462.603654
514.810894	2475.206538
515.174927	2533.179808
515.538904	2553.344423
515.902822	2475.206538
516.266684	2490.330000
516.630488	2487.809423
516.994235	2530.659231
517.357925	2475.206538
517.721558	2487.809423
518.085133	2505.453462
518.448651	2518.056346
518.812112	2460.083077
519.175516	2497.891731
519.538863	2356.739423
519.902152	2563.426731
520.265385	2442.439038
520.628560	2460.083077
520.991678	2608.797115
521.354739	2513.015192
521.717743	2505.453462
522.080690	2424.795000
522.443580	2429.836154
522.806413	2487.809423
523.169189	2465.124231
523.531908	2538.220962
523.894569	2487.809423
524.257174	2515.535769
524.619722	2422.274423
524.982213	2502.932885
525.344647	2523.097500
525.707025	2467.644808
526.069345	2462.603654
526.431608	2364.301154
526.793815	2409.671538
527.155964	2495.371154
527.518057	2437.397885
527.880093	2565.947308
528.242072	2442.439038
528.603995	2520.576923
528.965860	2472.685962
529.327669	2518.056346
529.689421	2513.015192
530.051117	2495.371154
530.412755	2525.618077
530.774337	2475.206538
531.135862	2497.891731
531.497331	2550.823846
531.858743	2507.974038
532.220098	2518.056346
532.581396	2502.932885
532.942638	2492.850577
533.303824	2429.836154
533.664953	2492.850577
534.026025	2507.974038
534.387040	2540.741538
534.747999	2540.741538
535.108902	2540.741538
535.469748	2485.288846
535.830537	2482.768269
536.191270	2540.741538
536.551947	2550.823846
536.912567	2570.988462
537.273131	2472.685962
537.633638	2455.041923
537.994089	2530.659231
538.354483	2455.041923
538.714821	2510.494615
539.075103	2485.288846
539.435328	2583.591346
539.795497	2485.288846
540.155609	2548.303269
540.515665	2515.535769
540.875665	2482.768269
541.235609	2500.412308
541.595496	2497.891731
541.955328	2482.768269
542.315102	2467.644808
542.674821	2485.288846
543.034483	2470.165385
543.394090	2533.179808
543.753640	2565.947308
544.113134	2528.138654
544.472571	2452.521346
544.831953	2495.371154
545.191278	2576.029615
545.550548	2442.439038
545.909761	2507.974038
546.268918	2520.576923
546.628019	2513.015192
546.987064	2533.179808
547.346053	2460.083077
547.704986	2523.097500
548.063863	2495.371154
548.422684	2510.494615
548.781449	2581.070769
549.140158	2480.247692
549.498811	2545.782692
549.857408	2497.891731
550.215949	2439.918462
550.574434	2545.782692
550.932864	2444.959615
551.291237	2472.685962
551.649555	2497.891731
552.007817	2470.165385
552.366022	2507.974038
552.724173	2437.397885
553.082267	2475.206538
553.440305	2427.315577
553.798288	2515.535769
554.156215	2442.439038
554.514086	2457.562500
554.871902	2442.439038
555.229661	2518.056346
555.587365	2417.233269
555.945014	2570.988462
556.302606	2487.809423
556.660143	2485.288846
557.017625	2513.015192
557.375050	2523.097500
557.732421	2490.330000
558.089735	2528.138654
558.446994	2578.550192
558.804197	2485.288846
559.161345	2455.041923
559.518437	2485.288846
559.875474	2482.768269
560.232455	2513.015192
560.589381	2427.315577
560.946251	2492.850577
561.303065	2507.974038
561.659825	2434.877308
562.016528	2409.671538
562.373177	2437.397885
562.729770	2490.330000
563.086307	2492.850577
563.442789	2497.891731
563.799216	2475.206538
564.155587	2487.809423
564.511904	2475.206538
564.868164	2505.453462
565.224370	2462.603654
565.580520	2563.426731
565.936615	2462.603654
566.292654	2492.850577
566.648638	2543.262115
567.004567	2465.124231
567.360441	2495.371154
567.716260	2460.083077
568.072023	2490.330000
568.427732	2424.795000
568.783385	2558.385577
569.138982	2462.603654
569.494525	2495.371154
569.850013	2535.700385
570.205445	2487.809423
570.560823	2513.015192
570.916145	2465.124231
571.271412	2548.303269
571.626625	2472.685962
571.981782	2492.850577
572.336884	2475.206538
572.691931	2437.397885
573.046923	2523.097500
573.401860	2480.247692
573.756743	2530.659231
574.111570	2558.385577
574.466342	2477.727115
574.821059	2490.330000
575.175722	2480.247692
575.530330	2505.453462
575.884882	2513.015192
576.239380	2558.385577
576.593823	2510.494615
576.948211	2495.371154
577.302544	2467.644808
577.656823	2545.782692
578.011047	2573.509038
578.365216	2450.000769
578.719330	2447.480192
579.073389	2447.480192
579.427394	2598.714808
579.781344	2530.659231
580.135239	2505.453462
580.489080	2543.262115
580.842866	2467.644808
581.196597	2543.262115
581.550273	2530.659231
581.903895	2543.262115
582.257463	2520.576923
582.610975	2598.714808
582.964434	2550.823846
583.317837	2465.124231
583.671186	2515.535769
584.024481	2470.165385
584.377721	2502.932885
584.730906	2510.494615
585.084037	2548.303269
585.437113	2533.179808
585.790135	2601.235385
586.143103	2490.330000
586.496016	2505.453462
586.848874	2482.768269
587.201679	2520.576923
587.554428	2570.988462
587.907124	2495.371154
588.259765	2523.097500
588.612352	2510.494615
588.964884	2550.823846
589.317362	2485.288846
589.669786	2432.356731
590.022155	2515.535769
590.374470	2621.400000
590.726731	2515.535769
591.078937	2553.344423
591.431090	2485.288846
591.783188	2386.986346
592.135232	2520.576923
592.487222	2492.850577
592.839157	2530.659231
593.191038	2558.385577
593.542866	2487.809423
593.894639	2510.494615
594.246358	2540.741538
594.598022	2545.782692
594.949633	2528.138654
595.301190	2422.274423
595.652692	2520.576923
596.004141	2525.618077
596.355535	2568.467885
596.706876	2452.521346
597.058162	2439.918462
597.409395	2525.618077
597.760573	2472.685962
598.111698	2513.015192
598.462768	2591.153077
598.813785	2560.906154
599.164748	2472.685962
599.515657	2495.371154
599.866511	2485.288846
600.217312	2460.083077
600.568060	2470.165385
600.918753	2510.494615
601.269392	2563.426731
601.619978	2497.891731
601.970510	2450.000769
602.320988	2424.795000
602.671412	2510.494615
603.021783	2505.453462
603.372100	2583.591346
603.722363	2545.782692
604.072572	2462.603654
604.422728	2475.206538
604.772830	2573.509038
605.122878	2505.453462
605.472872	2497.891731
605.822813	2455.041923
606.172701	2502.932885
606.522534	2475.206538
606.872314	2507.974038
607.222041	2482.768269
607.571714	2513.015192
607.921333	2535.700385
608.270899	2502.932885
608.620411	2482.768269
608.969870	2586.111923
609.319276	2540.741538
609.668627	2538.220962
610.017926	2490.330000
610.367171	2520.576923
610.716362	2452.521346
611.065500	2480.247692
611.414585	2502.932885
611.763616	2601.235385
612.112594	2470.165385
612.461518	2550.823846
612.810389	2510.494615
613.159207	2555.865000
613.507971	2470.165385
613.856682	2480.247692
614.205340	2525.618077
614.553945	2555.865000
614.902496	2437.397885
615.250994	2520.576923
615.599439	2535.700385
615.947830	2457.562500
616.296169	2477.727115
616.644454	2417.233269
616.992686	2505.453462
617.340864	2523.097500
617.688990	2543.262115
618.037063	2447.480192
618.385082	2543.262115
618.733048	2447.480192
619.080961	2555.865000
619.428821	2515.535769
619.776628	2437.397885
620.124382	2495.371154
620.472083	2467.644808
620.819731	2523.097500
621.167326	2467.644808
621.514868	2518.056346
621.862357	2457.562500
622.209793	2513.015192
622.557176	2490.330000
622.904506	2543.262115
623.251783	2487.809423
623.599007	2558.385577
623.946179	2470.165385
624.293297	2535.700385
624.640363	2525.618077
624.987376	2573.509038
625.334336	2502.932885
625.681243	2525.618077
626.028097	2417.233269
626.374899	2432.356731
626.721647	2515.535769
627.068343	2470.165385
627.414987	2487.809423
627.761577	2487.809423
628.108115	2525.618077
628.454600	2452.521346
628.801032	2485.288846
629.147412	2427.315577
629.493739	2513.015192
629.840014	2543.262115
630.186236	2460.083077
630.532405	2432.356731
630.878521	2432.356731
631.224585	2480.247692
631.570597	2515.535769
631.916556	2495.371154
632.262462	2485.288846
632.608316	2485.288846
632.954117	2530.659231
633.299866	2477.727115
633.645562	2432.356731
633.991206	2376.904038
634.336797	2457.562500
634.682336	2570.988462
635.027823	2492.850577
635.373257	2525.618077
635.718639	2492.850577
636.063968	2452.521346
636.409245	2465.124231
636.754470	2475.206538
637.099642	2477.727115
637.444762	2460.083077
637.789829	2500.412308
638.134845	2457.562500
638.479808	2588.632500
638.824719	2518.056346
639.169577	2570.988462
639.514383	2460.083077
639.859137	2492.850577
640.203839	2578.550192
640.548489	2563.426731
640.893086	2505.453462
641.237632	2601.235385
641.582125	2439.918462
641.926566	2578.550192
642.270955	2424.795000
642.615292	2523.097500
642.959576	2515.535769
643.303809	2475.206538
643.647990	2497.891731
643.992118	2477.727115
644.336195	2470.165385
644.680219	2452.521346
645.024192	2482.768269
645.368112	2462.603654
645.711981	2477.727115
646.055797	2460.083077
646.399562	2530.659231
646.743274	2419.753846
647.086935	2500.412308
647.430544	2553.344423
647.774101	2540.741538
648.117606	2505.453462
648.461059	2520.576923
648.804460	2560.906154
649.147810	2444.959615
649.491108	2505.453462
649.834354	2472.685962
650.177548	2515.535769
650.520690	2404.630385
650.863781	2437.397885
651.206820	2513.015192
651.549807	2515.535769
651.892742	2462.603654
652.235626	2492.850577
652.578458	2523.097500
652.921238	2505.453462
653.263967	2472.685962
653.606644	2485.288846
653.949269	2545.782692
654.291843	2480.247692
654.634365	2568.467885
654.976836	2525.618077
655.319255	2568.467885
655.661622	2502.932885
656.003938	2565.947308
656.346203	2397.068654
656.688416	2386.986346
657.030577	2513.015192
657.372687	2465.124231
657.714746	2477.727115
658.056753	2568.467885
658.398708	2432.356731
658.740612	2540.741538
659.082465	2447.480192
659.424266	2482.768269
659.766016	2457.562500
660.107715	2450.000769
660.449362	2550.823846
660.790958	2568.467885
661.132503	2500.412308
661.473996	2548.303269
661.815438	2434.877308
662.156829	2515.535769
662.498168	2528.138654
662.839456	2500.412308
663.180693	2472.685962
663.521879	2507.974038
663.863013	2507.974038
664.204097	2563.426731
664.545129	2570.988462
664.886110	2455.041923
665.227040	2528.138654
665.567918	2452.521346
665.908746	2490.330000
666.249522	2450.000769
666.590248	2447.480192
666.930922	2548.303269
667.271545	2470.165385
667.612118	2490.330000
667.952639	2606.276538
668.293109	2427.315577
668.633528	2548.303269
668.973896	2500.412308
669.314213	2515.535769
669.654480	2442.439038
669.994695	2397.068654
670.334859	2452.521346
670.674973	2530.659231
671.015035	2528.138654
671.355047	2460.083077
671.695008	2518.056346
672.034918	2490.330000
672.374777	2465.124231
672.714585	2472.685962
673.054342	2455.041923
673.394049	2513.015192
673.733705	2480.247692
674.073310	2462.603654
674.412864	2550.823846
674.752368	2487.809423
675.091820	2450.000769
675.431223	2525.618077
675.770574	2550.823846
676.109875	2500.412308
676.449125	2422.274423
676.788324	2444.959615
677.127473	2432.356731
677.466571	2490.330000
677.805619	2530.659231
678.144616	2535.700385
678.483562	2578.550192
678.822458	2545.782692
679.161303	2550.823846
679.500098	2500.412308
679.838842	2513.015192
680.177535	2452.521346
680.516179	2492.850577
680.854771	2490.330000
681.193314	2515.535769
681.531805	2480.247692
681.870247	2495.371154
682.208638	2490.330000
682.546978	2475.206538
682.885268	2523.097500
683.223508	2520.576923
683.561697	2477.727115
683.899836	2570.988462
684.237925	2563.426731
684.575963	2465.124231
684.913951	2565.947308
685.251889	2482.768269
685.589776	2510.494615
685.927614	2480.247692
686.265401	2492.850577
686.603137	2502.932885
686.940824	2470.165385
687.278460	2510.494615
687.616046	2455.041923
687.953582	2424.795000
688.291068	2505.453462
688.628504	2450.000769
688.965889	2465.124231
689.303224	2492.850577
689.640510	2513.015192
689.977745	2412.192115
690.314930	2399.589231
690.652065	2538.220962
690.989150	2455.041923
691.326185	2505.453462
691.663170	2505.453462
692.000105	2455.041923
692.336990	2513.015192
692.673825	2558.385577
693.010610	2442.439038
693.347345	2412.192115
693.684030	2447.480192
694.020665	2525.618077
694.357251	2507.974038
694.693786	2475.206538
695.030272	2520.576923
695.366707	2492.850577
695.703093	2442.439038
696.039429	2583.591346
696.375716	2487.809423
696.711952	2520.576923
697.048139	2505.453462
697.384276	2560.906154
697.720363	2535.700385
698.056400	2513.015192
698.392388	2500.412308
698.728326	2513.015192
699.064214	2555.865000
699.400053	2477.727115
699.735842	2540.741538
700.071581	2455.041923
700.407270	2540.741538
700.742910	2467.644808
701.078501	2467.644808
701.414042	2470.165385
701.749533	2533.179808
702.084974	2475.206538
702.420366	2462.603654
702.755709	2492.850577
703.091002	2550.823846
703.426246	2505.453462
703.761440	2462.603654
704.096584	2535.700385
704.431679	2500.412308
704.766725	2570.988462
705.101721	2553.344423
705.436668	2450.000769
705.771565	2538.220962
706.106413	2520.576923
706.441212	2450.000769
706.775961	2480.247692
707.110661	2555.865000
707.445311	2518.056346
707.779913	2439.918462
708.114465	2601.235385
708.448967	2485.288846
708.783421	2528.138654
709.117825	2563.426731
709.452180	2495.371154
709.786485	2576.029615
710.120742	2457.562500
710.454949	2412.192115
710.789107	2409.671538
711.123216	2528.138654
711.457275	2462.603654
711.791286	2472.685962
712.125247	2485.288846
712.459159	2500.412308
712.793023	2477.727115
713.126837	2550.823846
713.460602	2455.041923
713.794318	2528.138654
714.127985	2470.165385
714.461602	2523.097500
714.795171	2470.165385
715.128691	2487.809423
715.462162	2452.521346
715.795584	2485.288846
716.128957	2510.494615
716.462281	2485.288846
716.795556	2467.644808
717.128782	2515.535769
717.461960	2442.439038
717.795088	2389.506923
718.128167	2543.262115
718.461198	2548.303269
718.794180	2507.974038
719.127113	2485.288846
719.459997	2545.782692
719.792833	2535.700385
720.125619	2553.344423
720.458357	2523.097500
720.791046	2462.603654
721.123686	2457.562500
721.456278	2417.233269
721.788821	2470.165385
722.121315	2500.412308
722.453761	2480.247692
722.786158	2487.809423
723.118506	2502.932885
723.450805	2439.918462
723.783056	2500.412308
724.115259	2505.453462
724.447412	2563.426731
724.779518	2470.165385
725.111574	2460.083077
725.443582	2520.576923
725.775542	2432.356731
726.107453	2409.671538
726.439315	2530.659231
726.771129	2485.288846
727.102895	2444.959615
727.434612	2510.494615
727.766281	2530.659231
728.097901	2419.753846
728.429473	2523.097500
728.760996	2462.603654
729.092471	2515.535769
729.423897	2591.153077
729.755276	2480.247692
730.086606	2439.918462
730.417887	2444.959615
730.749120	2528.138654
731.080305	2460.083077
731.411442	2540.741538
731.742530	2525.618077
732.073570	2477.727115
732.404562	2381.945192
732.735506	2495.371154
733.066401	2465.124231
733.397249	2437.397885
733.728048	2477.727115
734.058798	2510.494615
734.389501	2523.097500
734.720156	2507.974038
735.050762	2432.356731
735.381320	2543.262115
735.711831	2495.371154
736.042293	2576.029615
736.372707	2442.439038
736.703073	2434.877308
737.033391	2485.288846
737.363661	2553.344423
737.693883	2533.179808
738.024056	2439.918462
738.354182	2497.891731
738.684260	2442.439038
739.014290	2465.124231
739.344272	2530.659231
739.674207	2525.618077
740.004093	2548.303269
740.333931	2515.535769
740.663722	2452.521346
740.993464	2495.371154
741.323159	2482.768269
741.652806	2523.097500
741.982405	2558.385577
742.311956	2485.288846
742.641460	2548.303269
742.970915	2586.111923
743.300323	2419.753846
743.629683	2407.150962
743.958996	2538.220962
744.288260	2578.550192
744.617477	2497.891731
744.946647	2550.823846
745.275768	2492.850577
745.604842	2482.768269
745.933869	2467.644808
746.262847	2472.685962
746.591778	2510.494615
746.920662	2480.247692
747.249498	2475.206538
747.578286	2462.603654
747.907027	2470.165385
748.235720	2505.453462
748.564365	2450.000769
748.892963	2507.974038
749.221514	2565.947308
749.550017	2500.412308
749.878473	2422.274423
750.206881	2485.288846
750.535242	2513.015192
750.863555	2528.138654
751.191821	2505.453462
751.520039	2540.741538
751.848210	2528.138654
752.176334	2530.659231
752.504411	2482.768269
752.832440	2402.109808
753.160421	2510.494615
753.488356	2518.056346
753.816243	2535.700385
754.144082	2450.000769
754.471875	2470.165385
754.799620	2545.782692
755.127318	2518.056346
755.454969	2487.809423
755.782572	2495.371154
756.110129	2480.247692
756.437638	2518.056346
756.765100	2497.891731
757.092515	2492.850577
757.419882	2467.644808
757.747203	2505.453462
758.074477	2452.521346
758.401703	2477.727115
758.728882	2545.782692
759.056014	2538.220962
759.383099	2452.521346
759.710138	2505.453462
760.037129	2492.850577
760.364073	2548.303269
760.690970	2533.179808
761.017820	2500.412308
761.344623	2477.727115
761.671379	2510.494615
761.998088	2467.644808
762.324751	2470.165385
762.651366	2520.576923
762.977935	2487.809423
763.304456	2450.000769
763.630931	2427.315577
763.957359	2555.865000
764.283740	2424.795000
764.610074	2467.644808
764.936362	2434.877308
765.262602	2447.480192
765.588796	2487.809423
765.914943	2487.809423
766.241044	2523.097500
766.567097	2492.850577
766.893104	2538.220962
767.219064	2442.439038
767.544978	2472.685962
767.870845	2540.741538
768.196665	2576.029615
768.522438	2467.644808
768.848165	2374.383462
769.173846	2490.330000
769.499479	2429.836154
769.825066	2467.644808
770.150607	2467.644808
770.476101	2518.056346
770.801548	2490.330000
771.126949	2525.618077
771.452303	2553.344423
771.777611	2437.397885
772.102872	2507.974038
772.428087	2485.288846
772.753256	2477.727115
773.078378	2485.288846
773.403453	2563.426731
773.728482	2563.426731
774.053465	2467.644808
774.378401	2568.467885
774.703291	2437.397885
775.028135	2460.083077
775.352932	2480.247692
775.677683	2533.179808
776.002388	2502.932885
776.327046	2513.015192
776.651658	2409.671538
776.976224	2555.865000
777.300743	2500.412308
777.625216	2429.836154
777.949643	2480.247692
778.274024	2545.782692
778.598359	2513.015192
778.922647	2460.083077
779.246889	2424.795000
779.571086	2450.000769
779.895236	2477.727115
780.219339	2465.124231
780.543397	2510.494615
780.867409	2442.439038
781.191374	2485.288846
781.515294	2502.932885
781.839167	2482.768269
782.162995	2530.659231
782.486776	2470.165385
782.810511	2412.192115
783.134201	2465.124231
783.457844	2455.041923
783.781441	2485.288846
784.104993	2429.836154
784.428498	2515.535769
784.751958	2487.809423
785.075372	2482.768269
785.398739	2412.192115
785.722061	2485.288846
786.045337	2397.068654
786.368568	2507.974038
786.691752	2545.782692
787.014891	2470.165385
787.337983	2487.809423
787.661030	2538.220962
787.984031	2533.179808
788.306987	2518.056346
788.629897	2485.288846
788.952760	2588.632500
789.275579	2462.603654
789.598351	2505.453462
789.921078	2487.809423
790.243759	2452.521346
790.566395	2381.945192
790.888984	2429.836154
791.211529	2462.603654
791.534027	2578.550192
791.856480	2485.288846
792.178888	2434.877308
792.501249	2510.494615
792.823566	2576.029615
793.145836	2472.685962
793.468062	2543.262115
793.790241	2487.809423
794.112375	2510.494615
794.434464	2507.974038
794.756507	2505.453462
795.078505	2545.782692
795.400457	2497.891731
795.722364	2515.535769
796.044226	2502.932885
796.366042	2502.932885
796.687812	2507.974038
797.009538	2477.727115
797.331218	2538.220962
797.652852	2460.083077
797.974442	2470.165385
798.295986	2568.467885
798.617484	2432.356731
798.938938	2593.673654
799.260346	2470.165385
799.581709	2460.083077
799.903026	2437.397885
800.224299	2490.330000
800.545526	2495.371154
800.866708	2475.206538
801.187845	2565.947308
801.508936	2502.932885
801.829983	2535.700385
802.150984	2502.932885
802.471940	2588.632500
802.792851	2427.315577
803.113717	2379.424615
803.434538	2482.768269
803.755314	2465.124231
804.076045	2553.344423
804.396731	2392.027500
804.717372	2510.494615
805.037967	2460.083077
805.358518	2558.385577
805.679024	2576.029615
805.999485	2555.865000
806.319901	2460.083077
806.640272	2535.700385
806.960598	2513.015192
807.280879	2487.809423
807.601115	2392.027500
807.921306	2485.288846
808.241453	2583.591346
808.561554	2500.412308
808.881611	2497.891731
809.201623	2520.576923
809.521590	2432.356731
809.841513	2424.795000
810.161390	2444.959615
810.481223	2553.344423
810.801011	2555.865000
811.120755	2495.371154
811.440453	2497.891731
811.760107	2432.356731
812.079716	2495.371154
812.399281	2462.603654
812.718801	2472.685962
813.038276	2492.850577
813.357707	2460.083077
813.677093	2366.821731
813.996434	2510.494615
814.315731	2520.576923
814.634983	2540.741538
814.954191	2460.083077
815.273354	2482.768269
815.592473	2525.618077
815.911547	2495.371154
816.230577	2555.865000
816.549562	2455.041923
816.868502	2465.124231
817.187399	2452.521346
817.506250	2528.138654
817.825058	2487.809423
818.143821	2477.727115
818.462539	2513.015192
818.781213	2490.330000
819.099843	2538.220962
819.418429	2472.685962
819.736970	2518.056346
820.055466	2490.330000
820.373919	2535.700385
820.692327	2462.603654
821.010691	2505.453462
821.329011	2437.397885
821.647286	2510.494615
821.965517	2548.303269
822.283704	2485.288846
822.601847	2523.097500
822.919945	2472.685962
823.237999	2510.494615
823.556010	2477.727115
823.873976	2507.974038
824.191897	2439.918462
824.509775	2414.712692
824.827609	2475.206538
825.145398	2553.344423
825.463144	2432.356731
825.780845	2530.659231
826.098502	2487.809423
826.416116	2366.821731
826.733685	2490.330000
827.051210	2581.070769
827.368692	2460.083077
827.686129	2513.015192
828.003522	2563.426731
828.320872	2455.041923
828.638177	2475.206538
828.955439	2545.782692
829.272656	2475.206538
829.589830	2515.535769
829.906960	2432.356731
830.224046	2472.685962
830.541088	2513.015192
830.858086	2583.591346
831.175041	2447.480192
831.491952	2495.371154
831.808819	2495.371154
832.125642	2485.288846
832.442421	2510.494615
832.759157	2553.344423
833.075849	2502.932885
833.392497	2472.685962
833.709101	2477.727115
834.025662	2470.165385
834.342179	2429.836154
834.658653	2525.618077
834.975083	2414.712692
835.291469	2482.768269
835.607811	2409.671538
835.924110	2470.165385
836.240366	2518.056346
836.556578	2548.303269
836.872746	2510.494615
837.188871	2409.671538
837.504952	2439.918462
837.820990	2487.809423
838.136984	2533.179808
838.452935	2480.247692
838.768842	2510.494615
839.084706	2515.535769
839.400526	2482.768269
839.716303	2470.165385
840.032037	2520.576923
840.347727	2576.029615
840.663373	2563.426731
840.978977	2495.371154
841.294537	2576.029615
841.610054	2485.288846
841.925527	2492.850577
842.240957	2444.959615
842.556344	2472.685962
842.871687	2462.603654
843.186987	2442.439038
843.502244	2439.918462
843.817458	2407.150962
844.132629	2500.412308
844.447756	2450.000769
844.762840	2490.330000
845.077881	2465.124231
845.392879	2518.056346
845.707833	2490.330000
846.022745	2540.741538
846.337613	2515.535769
846.652438	2487.809423
846.967221	2513.015192
847.281960	2490.330000
847.596656	2475.206538
847.911309	2533.179808
848.225919	2467.644808
848.540485	2450.000769
848.855009	2540.741538
849.169490	2518.056346
849.483928	2530.659231
849.798323	2437.397885
850.112675	2591.153077
850.426984	2495.371154
850.741251	2502.932885
851.055474	2525.618077
851.369654	2477.727115
851.683792	2480.247692
851.997887	2543.262115
852.311938	2439.918462
852.625947	2538.220962
852.939914	2432.356731
853.253837	2455.041923
853.567718	2500.412308
853.881555	2616.358846
854.195350	2593.673654
854.509103	2455.041923
854.822812	2528.138654
855.136479	2570.988462
855.450103	2513.015192
855.763685	2535.700385
856.077224	2487.809423
856.390720	2507.974038
856.704173	2470.165385
857.017584	2500.412308
857.330953	2472.685962
857.644278	2563.426731
857.957561	2502.932885
858.270802	2535.700385
858.584000	2505.453462
858.897155	2520.576923
859.210268	2500.412308
859.523339	2470.165385
859.836367	2437.397885
860.149352	2543.262115
860.462295	2520.576923
860.775195	2540.741538
861.088054	2470.165385
861.400869	2492.850577
861.713642	2485.288846
862.026373	2515.535769
862.339062	2480.247692
862.651708	2515.535769
862.964312	2530.659231
863.276873	2533.179808
863.589392	2543.262115
863.901869	2490.330000
864.214303	2492.850577
864.526696	2424.795000
864.839045	2384.465769
865.151353	2490.330000
865.463619	2510.494615
865.775842	2485.288846
866.088023	2452.521346
866.400162	2523.097500
866.712258	2480.247692
867.024313	2495.371154
867.336325	2437.397885
867.648296	2520.576923
867.960224	2505.453462
868.272110	2465.124231
868.583954	2502.932885
868.895755	2543.262115
869.207515	2515.535769
869.519233	2487.809423
869.830909	2422.274423
870.142542	2515.535769
870.454134	2460.083077
870.765684	2467.644808
871.077191	2407.150962
871.388657	2510.494615
871.700081	2492.850577
872.011463	2465.124231
872.322803	2472.685962
872.634101	2528.138654
872.945357	2465.124231
873.256571	2505.453462
873.567744	2472.685962
873.878874	2510.494615
874.189963	2412.192115
874.501010	2528.138654
874.812015	2447.480192
875.122979	2455.041923
875.433900	2404.630385
875.744780	2470.165385
876.055618	2447.480192
876.366415	2533.179808
876.677169	2447.480192
876.987882	2407.150962
877.298554	2520.576923
877.609183	2502.932885
877.919771	2444.959615
878.230317	2528.138654
878.540822	2523.097500
878.851285	2475.206538
879.161707	2434.877308
879.472087	2462.603654
879.782425	2457.562500
880.092722	2490.330000
880.402977	2502.932885
880.713191	2523.097500
881.023363	2480.247692
881.333494	2472.685962
881.643583	2480.247692
881.953631	2500.412308
882.263637	2475.206538
882.573602	2520.576923
882.883526	2515.535769
883.193408	2570.988462
883.503248	2490.330000
883.813048	2477.727115
884.122806	2525.618077
884.432522	2412.192115
884.742197	2525.618077
885.051831	2500.412308
885.361424	2427.315577
885.670975	2497.891731
885.980485	2505.453462
886.289954	2538.220962
886.599382	2344.136538
886.908768	2533.179808
887.218113	2538.220962
887.527417	2462.603654
887.836680	2487.809423
888.145901	2477.727115
888.455082	2505.453462
888.764221	2417.233269
889.073319	2429.836154
889.382376	2447.480192
889.691392	2412.192115
890.000366	2543.262115
890.309300	2487.809423
890.618193	2515.535769
890.927044	2371.862885
891.235855	2535.700385
891.544625	2475.206538
891.853353	2492.850577
892.162041	2402.109808
892.470687	2485.288846
892.779293	2492.850577
893.087858	2528.138654
893.396381	2535.700385
893.704864	2470.165385
894.013306	2467.644808
894.321707	2530.659231
894.630068	2462.603654
894.938387	2457.562500
895.246665	2570.988462
895.554903	2477.727115
895.863100	2510.494615
896.171256	2525.618077
896.479371	2432.356731
896.787446	2545.782692
897.095480	2427.315577
897.403473	2510.494615
897.711425	2477.727115
898.019336	2495.371154
898.327207	2528.138654
898.635038	2518.056346
898.942827	2510.494615
899.250576	2427.315577
899.558284	2487.809423
899.865952	2513.015192
900.173579	2497.891731
900.481165	2465.124231
900.788711	2528.138654
901.096216	2452.521346
901.403681	2565.947308
901.711105	2437.397885
902.018489	2538.220962
902.325832	2472.685962
902.633135	2530.659231
902.940397	2452.521346
903.247619	2502.932885
903.554800	2452.521346
903.861941	2525.618077
904.169041	2535.700385
904.476101	2535.700385
904.783121	2455.041923
905.090100	2510.494615
905.397039	2518.056346
905.703938	2492.850577
906.010796	2548.303269
906.317614	2487.809423
906.624391	2414.712692
906.931129	2507.974038
907.237826	2444.959615
907.544483	2442.439038
907.851099	2472.685962
908.157675	2487.809423
908.464211	2518.056346
908.770707	2523.097500
909.077163	2510.494615
909.383578	2520.576923
909.689954	2543.262115
909.996289	2507.974038
910.302584	2505.453462
910.608839	2490.330000
910.915054	2460.083077
911.221229	2439.918462
911.527363	2588.632500
911.833458	2462.603654
912.139513	2475.206538
912.445527	2450.000769
912.751502	2450.000769
913.057436	2447.480192
913.363331	2490.330000
913.669186	2548.303269
913.975000	2576.029615
914.280775	2480.247692
914.586510	2502.932885
914.892205	2576.029615
915.197859	2472.685962
915.503475	2518.056346
915.809050	2439.918462
916.114585	2470.165385
916.420081	2497.891731
916.725536	2480.247692
917.030952	2543.262115
917.336328	2444.959615
917.641665	2480.247692
917.946961	2462.603654
918.252218	2480.247692
918.557435	2596.194231
918.862612	2482.768269
919.167750	2490.330000
919.472848	2525.618077
919.777906	2485.288846
920.082925	2507.974038
920.387904	2490.330000
920.692843	2485.288846
920.997743	2417.233269
921.302603	2533.179808
921.607423	2507.974038
921.912204	2465.124231
922.216946	2573.509038
922.521647	2513.015192
922.826310	2525.618077
923.130932	2427.315577
923.435516	2477.727115
923.740059	2586.111923
924.044564	2485.288846
924.349028	2528.138654
924.653454	2518.056346
924.957840	2482.768269
925.262186	2472.685962
925.566493	2518.056346
925.870761	2507.974038
926.174989	2507.974038
926.479178	2490.330000
926.783328	2490.330000
927.087438	2513.015192
927.391509	2457.562500
927.695541	2548.303269
927.999533	2505.453462
928.303486	2404.630385
928.607400	2465.124231
928.911275	2457.562500
929.215110	2452.521346
929.518906	2538.220962
929.822663	2573.509038
930.126381	2432.356731
930.430060	2507.974038
930.733699	2444.959615
931.037299	2447.480192
931.340861	2475.206538
931.644383	2480.247692
931.947866	2472.685962
932.251309	2538.220962
932.554714	2452.521346
932.858080	2492.850577
933.161407	2450.000769
933.464694	2439.918462
933.767943	2513.015192
934.071153	2429.836154
934.374323	2450.000769
934.677455	2510.494615
934.980548	2505.453462
935.283602	2515.535769
935.586617	2444.959615
935.889593	2530.659231
936.192530	2465.124231
936.495428	2492.850577
936.798287	2558.385577
937.101108	2497.891731
937.403890	2540.741538
937.706632	2533.179808
938.009336	2525.618077
938.312002	2563.426731
938.614628	2553.344423
938.917216	2535.700385
939.219765	2576.029615
939.522275	2487.809423
939.824747	2460.083077
940.127179	2455.041923
940.429573	2467.644808
940.731929	2548.303269
941.034246	2437.397885
941.336524	2555.865000
941.638763	2462.603654
941.940964	2472.685962
942.243126	2432.356731
942.545250	2513.015192
942.847335	2507.974038
943.149381	2490.330000
943.451389	2520.576923
943.753359	2455.041923
944.055290	2515.535769
944.357182	2513.015192
944.659036	2424.795000
944.960851	2505.453462
945.262628	2447.480192
945.564367	2497.891731
945.866067	2520.576923
946.167729	2422.274423
946.469352	2492.850577
946.770937	2487.809423
947.072484	2417.233269
947.373992	2500.412308
947.675462	2434.877308
947.976893	2495.371154
948.278286	2462.603654
948.579641	2492.850577
948.880958	2409.671538
949.182236	2467.644808
949.483476	2442.439038
949.784678	2505.453462
950.085841	2555.865000
950.386967	2434.877308
950.688054	2502.932885
950.989103	2465.124231
951.290114	2507.974038
951.591087	2477.727115
951.892021	2432.356731
952.192917	2545.782692
952.493776	2492.850577
952.794596	2442.439038
953.095378	2452.521346
953.396122	2570.988462
953.696828	2492.850577
953.997496	2424.795000
954.298126	2485.288846
954.598718	2545.782692
954.899272	2505.453462
955.199788	2480.247692
955.500266	2472.685962
955.800706	2502.932885
956.101108	2507.974038
956.401472	2513.015192
956.701798	2475.206538
957.002087	2480.247692
957.302337	2429.836154
957.602550	2497.891731
957.902724	2424.795000
958.202861	2492.850577
958.502960	2520.576923
958.803022	2606.276538
959.103045	2392.027500
959.403031	2487.809423
959.702979	2530.659231
960.002889	2455.041923
960.302762	2507.974038
960.602596	2470.165385
960.902393	2533.179808
961.202153	2510.494615
961.501875	2538.220962
961.801559	2502.932885
962.101205	2460.083077
962.400814	2520.576923
962.700385	2460.083077
962.999918	2447.480192
963.299414	2480.247692
963.598873	2591.153077
963.898293	2455.041923
964.197677	2475.206538
964.497022	2472.685962
964.796331	2475.206538
965.095601	2480.247692
965.394835	2437.397885
965.694030	2538.220962
965.993189	2399.589231
966.292309	2482.768269
966.591393	2470.165385
966.890439	2558.385577
967.189447	2467.644808
967.488419	2520.576923
967.787353	2460.083077
968.086249	2490.330000
968.385108	2447.480192
968.683930	2528.138654
968.982714	2530.659231
969.281462	2404.630385
969.580172	2490.330000
969.878844	2447.480192
970.177480	2528.138654
970.476078	2545.782692
970.774639	2523.097500
971.073162	2515.535769
971.371649	2518.056346
971.670098	2442.439038
971.968510	2502.932885
972.266885	2535.700385
972.565223	2467.644808
972.863524	2523.097500
973.161788	2510.494615
973.460014	2510.494615
973.758204	2513.015192
974.056356	2467.644808
974.354471	2409.671538
974.652550	2490.330000
974.950591	2500.412308
975.248595	2450.000769
975.546563	2497.891731
975.844493	2475.206538
976.142386	2510.494615
976.440243	2500.412308
976.738062	2485.288846
977.035845	2442.439038
977.333590	2553.344423
977.631299	2465.124231
977.928971	2485.288846
978.226606	2467.644808
978.524204	2480.247692
978.821765	2444.959615
979.119290	2533.179808
979.416777	2568.467885
979.714228	2523.097500
980.011642	2490.330000
980.309020	2477.727115
980.606360	2389.506923
980.903664	2457.562500
981.200931	2596.194231
981.498162	2460.083077
981.795356	2467.644808
982.092513	2379.424615
982.389633	2482.768269
982.686717	2507.974038
982.983764	2429.836154
983.280775	2507.974038
983.577749	2475.206538
983.874686	2434.877308
984.171587	2507.974038
984.468451	2510.494615
984.765279	2492.850577
985.062070	2523.097500
985.358824	2447.480192
985.655543	2462.603654
985.952224	2439.918462
986.248869	2470.165385
986.545478	2465.124231
986.842050	2467.644808
987.138586	2485.288846
987.435086	2470.165385
987.731549	2555.865000
988.027975	2447.480192
988.324366	2528.138654
988.620719	2462.603654
988.917037	2525.618077
989.213318	2427.315577
989.509563	2487.809423
989.805772	2472.685962
990.101944	2565.947308
990.398080	2502.932885
990.694180	2417.233269
990.990244	2533.179808
991.286271	2439.918462
991.582262	2432.356731
991.878217	2510.494615
992.174136	2477.727115
992.470019	2545.782692
992.765865	2460.083077
993.061676	2540.741538
993.357450	2439.918462
993.653188	2553.344423
993.948890	2452.521346
994.244556	2495.371154
994.540186	2455.041923
994.835780	2490.330000
995.131337	2460.083077
995.426859	2475.206538
995.722345	2528.138654
996.017795	2452.521346
996.313208	2490.330000
996.608586	2495.371154
996.903928	2533.179808
997.199234	2482.768269
997.494504	2490.330000
997.789738	2414.712692
998.084936	2553.344423
998.380099	2455.041923
998.675225	2490.330000
998.970316	2450.000769
999.265371	2497.891731
999.560390	2480.247692
999.855373	2563.426731
1000.150320	2495.371154
1000.445232	2505.453462
1000.740108	2412.192115
1001.034948	2500.412308
1001.329752	2455.041923
1001.624521	2513.015192
1001.919254	2477.727115
1002.213951	2540.741538
1002.508613	2485.288846
1002.803239	2452.521346
1003.097829	2455.041923
1003.392384	2457.562500
1003.686903	2515.535769
1003.981386	2472.685962
1004.275834	2399.589231
1004.570246	2487.809423
1004.864623	2472.685962
1005.158964	2502.932885
1005.453270	2444.959615
1005.747540	2475.206538
1006.041775	2467.644808
1006.335974	2606.276538
1006.630138	2465.124231
1006.924266	2472.685962
1007.218359	2457.562500
1007.512416	2502.932885
1007.806438	2518.056346
1008.100425	2467.644808
1008.394376	2490.330000
1008.688292	2553.344423
1008.982172	2460.083077
1009.276017	2422.274423
1009.569827	2513.015192
1009.863602	2455.041923
1010.157341	2500.412308
1010.451045	2591.153077
1010.744714	2439.918462
1011.038347	2485.288846
1011.331945	2467.644808
1011.625508	2485.288846
1011.919036	2505.453462
1012.212528	2530.659231
1012.505986	2533.179808
1012.799408	2487.809423
1013.092795	2427.315577
1013.386147	2472.685962
1013.679464	2515.535769
1013.972745	2490.330000
1014.265992	2442.439038
1014.559204	2528.138654
1014.852380	2404.630385
1015.145521	2502.932885
1015.438628	2601.235385
1015.731699	2414.712692
1016.024736	2447.480192
1016.317737	2502.932885
1016.610703	2414.712692
1016.903635	2404.630385
1017.196531	2482.768269
1017.489393	2502.932885
1017.782219	2520.576923
1018.075011	2482.768269
1018.367768	2528.138654
1018.660490	2510.494615
1018.953177	2510.494615
1019.245829	2510.494615
