Dividing Wavelength (nm)	Counts (n)	Blue Motor Position (mm): 0.000000	Red Motor Position (mm): 7.600000	
326.493990	2089.558269
326.888308	2089.558269
327.282561	2089.558269
327.676750	2132.408077
328.070874	2051.749615
328.464933	2041.667308
328.858929	2094.599423
329.252859	2076.955385
329.646726	2124.846346
330.040528	2165.175577
330.434265	2119.805192
330.827938	2175.257885
331.221547	2152.572692
331.615091	2104.681731
332.008571	2185.340192
332.401986	2167.696154
332.795338	2195.422500
333.188625	2255.916346
333.581847	2200.463654
333.975006	2336.574808
334.368100	2288.683846
334.761129	2286.163269
335.154095	2336.574808
335.546996	2450.000769
335.939833	2306.327885
336.332606	2349.177692
336.725315	2417.233269
337.117960	2341.615962
337.510540	2313.889615
337.903056	2492.850577
338.295508	2424.795000
338.687896	2386.986346
339.080220	2414.712692
339.472480	2507.974038
339.864676	2465.124231
340.256807	2452.521346
340.648875	2447.480192
341.040879	2533.179808
341.432818	2386.986346
341.824694	2397.068654
342.216506	2495.371154
342.608253	2497.891731
342.999937	2530.659231
343.391557	2543.262115
343.783113	2477.727115
344.174605	2447.480192
344.566033	2376.904038
344.957397	2460.083077
345.348697	2520.576923
345.739934	2462.603654
346.131106	2472.685962
346.522215	2452.521346
346.913260	2520.576923
347.304241	2485.288846
347.695159	2540.741538
348.086012	2384.465769
348.476802	2465.124231
348.867528	2450.000769
349.258191	2487.809423
349.648789	2450.000769
350.039324	2452.521346
350.429796	2427.315577
350.820203	2480.247692
351.210548	2427.315577
351.600828	2490.330000
351.991045	2530.659231
352.381198	2568.467885
352.771288	2369.342308
353.161314	2482.768269
353.551276	2389.506923
353.941175	2550.823846
354.331010	2412.192115
354.720782	2465.124231
355.110490	2394.548077
355.500135	2434.877308
355.889717	2480.247692
356.279235	2465.124231
356.668689	2432.356731
357.058080	2447.480192
357.447408	2407.150962
357.836672	2455.041923
358.225873	2573.509038
358.615010	2434.877308
359.004084	2497.891731
359.393095	2467.644808
359.782043	2412.192115
360.170927	2419.753846
360.559748	2447.480192
360.948505	2397.068654
361.337199	2437.397885
361.725830	2364.301154
362.114398	2369.342308
362.502903	2447.480192
362.891344	2437.397885
363.279722	2502.932885
363.668037	2402.109808
364.056289	2490.330000
364.444478	2432.356731
364.832603	2507.974038
365.220665	2450.000769
365.608665	2439.918462
365.996601	2495.371154
366.384474	2490.330000
366.772284	2502.932885
367.160031	2414.712692
367.547715	2505.453462
367.935336	2412.192115
368.322893	2490.330000
368.710388	2540.741538
369.097820	2437.397885
369.485189	2452.521346
369.872495	2570.988462
370.259738	2455.041923
370.646918	2500.412308
371.034035	2447.480192
371.421090	2434.877308
371.808081	2444.959615
372.195010	2502.932885
372.581875	2429.836154
372.968678	2437.397885
373.355418	2422.274423
373.742096	2548.303269
374.128710	2485.288846
374.515262	2424.795000
374.901751	2457.562500
375.288177	2424.795000
375.674540	2447.480192
376.060841	2402.109808
376.447079	2437.397885
376.833254	2462.603654
377.219367	2452.521346
377.605417	2472.685962
377.991404	2424.795000
378.377329	2477.727115
378.763191	2414.712692
379.148991	2515.535769
379.534727	2490.330000
379.920402	2467.644808
380.306013	2402.109808
380.691563	2392.027500
381.077049	2452.521346
381.462474	2444.959615
381.847835	2467.644808
382.233134	2470.165385
382.618371	2475.206538
383.003545	2450.000769
383.388657	2457.562500
383.773706	2417.233269
384.158693	2465.124231
384.543618	2452.521346
384.928480	2515.535769
385.313280	2482.768269
385.698017	2528.138654
386.082692	2462.603654
386.467305	2500.412308
386.851856	2472.685962
387.236344	2500.412308
387.620770	2497.891731
388.005133	2560.906154
388.389435	2424.795000
388.773674	2490.330000
389.157851	2404.630385
389.541965	2553.344423
389.926018	2470.165385
390.310008	2482.768269
390.693936	2455.041923
391.077802	2507.974038
391.461606	2399.589231
391.845348	2429.836154
392.229027	2475.206538
392.612645	2462.603654
392.996200	2462.603654
393.379694	2505.453462
393.763125	2570.988462
394.146494	2422.274423
394.529801	2510.494615
394.913047	2485.288846
395.296230	2452.521346
395.679351	2404.630385
396.062410	2490.330000
396.445408	2475.206538
396.828343	2513.015192
397.211217	2490.330000
397.594028	2502.932885
397.976778	2470.165385
398.359466	2518.056346
398.742092	2450.000769
399.124656	2510.494615
399.507158	2601.235385
399.889598	2465.124231
400.271977	2392.027500
400.654294	2495.371154
401.036549	2485.288846
401.418742	2465.124231
401.800874	2507.974038
402.182944	2485.288846
402.564952	2477.727115
402.946898	2422.274423
403.328783	2492.850577
403.710606	2487.809423
404.092367	2422.274423
404.474067	2492.850577
404.855705	2540.741538
405.237282	2439.918462
405.618797	2427.315577
406.000250	2399.589231
406.381642	2465.124231
406.762972	2450.000769
407.144240	2565.947308
407.525447	2437.397885
407.906593	2419.753846
408.287677	2523.097500
408.668700	2455.041923
409.049661	2513.015192
409.430560	2417.233269
409.811399	2399.589231
410.192176	2475.206538
410.572891	2507.974038
410.953545	2495.371154
411.334138	2412.192115
411.714669	2409.671538
412.095139	2467.644808
412.475547	2386.986346
412.855894	2538.220962
413.236180	2500.412308
413.616405	2475.206538
413.996568	2472.685962
414.376670	2548.303269
414.756711	2442.439038
415.136691	2540.741538
415.516609	2462.603654
415.896466	2465.124231
416.276262	2507.974038
416.655997	2460.083077
417.035670	2545.782692
417.415283	2455.041923
417.794834	2513.015192
418.174324	2442.439038
418.553753	2480.247692
418.933121	2437.397885
419.312428	2402.109808
419.691674	2409.671538
420.070859	2490.330000
420.449983	2444.959615
420.829045	2533.179808
421.208047	2439.918462
421.586988	2409.671538
421.965867	2495.371154
422.344686	2533.179808
422.723444	2530.659231
423.102141	2460.083077
423.480777	2434.877308
423.859352	2462.603654
424.237866	2409.671538
424.616319	2520.576923
424.994712	2444.959615
425.373044	2477.727115
425.751314	2515.535769
426.129524	2455.041923
426.507673	2419.753846
426.885762	2482.768269
427.263789	2432.356731
427.641756	2417.233269
428.019662	2578.550192
428.397508	2480.247692
428.775292	2520.576923
429.153016	2515.535769
429.530679	2407.150962
429.908282	2412.192115
430.285824	2439.918462
430.663305	2444.959615
431.040726	2477.727115
431.418086	2442.439038
431.795385	2450.000769
432.172624	2424.795000
432.549802	2538.220962
432.926920	2502.932885
433.303977	2460.083077
433.680974	2460.083077
434.057910	2543.262115
434.434786	2487.809423
434.811601	2480.247692
435.188355	2500.412308
435.565050	2490.330000
435.941683	2460.083077
436.318257	2482.768269
436.694770	2394.548077
437.071222	2510.494615
437.447614	2495.371154
437.823946	2520.576923
438.200218	2525.618077
438.576429	2432.356731
438.952580	2485.288846
439.328670	2472.685962
439.704700	2424.795000
440.080670	2452.521346
440.456580	2545.782692
440.832429	2482.768269
441.208218	2485.288846
441.583947	2472.685962
441.959616	2500.412308
442.335224	2427.315577
442.710773	2429.836154
443.086261	2518.056346
443.461689	2465.124231
443.837057	2530.659231
444.212365	2548.303269
444.587612	2545.782692
444.962800	2543.262115
445.337927	2507.974038
445.712995	2490.330000
446.088002	2553.344423
446.462949	2462.603654
446.837837	2419.753846
447.212664	2472.685962
447.587431	2419.753846
447.962139	2460.083077
448.336786	2490.330000
448.711374	2419.753846
449.085901	2530.659231
449.460369	2399.589231
449.834776	2470.165385
450.209124	2444.959615
450.583412	2535.700385
450.957640	2475.206538
451.331808	2450.000769
451.705917	2444.959615
452.079965	2477.727115
452.453954	2477.727115
452.827883	2518.056346
453.201752	2515.535769
453.575562	2538.220962
453.949311	2523.097500
454.323001	2447.480192
454.696632	2492.850577
455.070202	2487.809423
455.443713	2487.809423
455.817164	2535.700385
456.190556	2437.397885
456.563888	2424.795000
456.937160	2457.562500
457.310373	2497.891731
457.683526	2487.809423
458.056619	2507.974038
458.429653	2432.356731
458.802628	2442.439038
459.175542	2543.262115
459.548398	2513.015192
459.921194	2548.303269
460.293930	2485.288846
460.666607	2540.741538
461.039224	2505.453462
461.411782	2555.865000
461.784280	2528.138654
462.156719	2472.685962
462.529099	2576.029615
462.901419	2482.768269
463.273680	2462.603654
463.645882	2427.315577
464.018024	2550.823846
464.390106	2427.315577
464.762130	2434.877308
465.134094	2384.465769
465.505999	2457.562500
465.877845	2515.535769
466.249631	2507.974038
466.621358	2422.274423
466.993026	2502.932885
467.364634	2402.109808
467.736184	2487.809423
468.107674	2573.509038
468.479105	2460.083077
468.850477	2535.700385
469.221790	2485.288846
469.593043	2497.891731
469.964238	2379.424615
470.335373	2490.330000
470.706449	2477.727115
471.077467	2452.521346
471.448425	2518.056346
471.819324	2455.041923
472.190164	2596.194231
472.560945	2523.097500
472.931667	2485.288846
473.302330	2492.850577
473.672934	2477.727115
474.043479	2558.385577
474.413965	2475.206538
474.784393	2442.439038
475.154761	2409.671538
475.525070	2593.673654
475.895321	2502.932885
476.265513	2386.986346
476.635645	2434.877308
477.005719	2505.453462
477.375734	2470.165385
477.745691	2500.412308
478.115588	2543.262115
478.485427	2492.850577
478.855207	2477.727115
479.224928	2434.877308
479.594591	2450.000769
479.964194	2515.535769
480.333739	2530.659231
480.703226	2472.685962
481.072653	2548.303269
481.442022	2560.906154
481.811333	2502.932885
482.180584	2606.276538
482.549777	2500.412308
482.918912	2492.850577
483.287988	2429.836154
483.657005	2490.330000
484.025964	2457.562500
484.394864	2510.494615
484.763706	2470.165385
485.132489	2480.247692
485.501213	2470.165385
485.869879	2442.439038
486.238487	2480.247692
486.607036	2485.288846
486.975527	2460.083077
487.343959	2500.412308
487.712333	2455.041923
488.080648	2434.877308
488.448905	2502.932885
488.817104	2465.124231
489.185244	2535.700385
489.553326	2457.562500
489.921350	2487.809423
490.289315	2465.124231
490.657222	2447.480192
491.025070	2467.644808
491.392861	2462.603654
491.760593	2477.727115
492.128267	2523.097500
492.495883	2467.644808
492.863440	2507.974038
493.230939	2480.247692
493.598380	2528.138654
493.965763	2535.700385
494.333088	2507.974038
494.700354	2442.439038
495.067563	2535.700385
495.434713	2457.562500
495.801805	2477.727115
496.168839	2442.439038
496.535815	2495.371154
496.902733	2477.727115
497.269593	2507.974038
497.636395	2533.179808
498.003139	2444.959615
498.369825	2457.562500
498.736453	2497.891731
499.103023	2427.315577
499.469535	2490.330000
499.835989	2487.809423
500.202385	2543.262115
500.568723	2573.509038
500.935003	2518.056346
501.301226	2485.288846
501.667390	2457.562500
502.033497	2505.453462
502.399546	2601.235385
502.765537	2513.015192
503.131470	2497.891731
503.497345	2487.809423
503.863163	2513.015192
504.228923	2540.741538
504.594625	2455.041923
504.960269	2507.974038
505.325856	2553.344423
505.691385	2510.494615
506.056856	2444.959615
506.422270	2507.974038
506.787625	2523.097500
507.152924	2576.029615
507.518164	2540.741538
507.883347	2518.056346
508.248472	2462.603654
508.613540	2505.453462
508.978550	2538.220962
509.343503	2520.576923
509.708398	2502.932885
510.073236	2485.288846
510.438016	2472.685962
510.802738	2462.603654
511.167403	2576.029615
511.532010	2530.659231
511.896561	2568.467885
512.261053	2470.165385
512.625488	2555.865000
512.989866	2432.356731
513.354186	2525.618077
513.718449	2482.768269
514.082655	2525.618077
514.446803	2543.262115
514.810894	2434.877308
515.174927	2417.233269
515.538904	2490.330000
515.902822	2513.015192
516.266684	2611.317692
516.630488	2482.768269
516.994235	2518.056346
517.357925	2565.947308
517.721558	2470.165385
518.085133	2565.947308
518.448651	2525.618077
518.812112	2447.480192
519.175516	2497.891731
519.538863	2505.453462
519.902152	2502.932885
520.265385	2452.521346
520.628560	2502.932885
520.991678	2492.850577
521.354739	2472.685962
521.717743	2520.576923
522.080690	2490.330000
522.443580	2480.247692
522.806413	2530.659231
523.169189	2424.795000
523.531908	2545.782692
523.894569	2520.576923
524.257174	2480.247692
524.619722	2455.041923
524.982213	2462.603654
525.344647	2523.097500
525.707025	2434.877308
526.069345	2505.453462
526.431608	2447.480192
526.793815	2540.741538
527.155964	2465.124231
527.518057	2578.550192
527.880093	2462.603654
528.242072	2543.262115
528.603995	2510.494615
528.965860	2548.303269
529.327669	2538.220962
529.689421	2525.618077
530.051117	2555.865000
530.412755	2495.371154
530.774337	2538.220962
531.135862	2442.439038
531.497331	2472.685962
531.858743	2427.315577
532.220098	2543.262115
532.581396	2548.303269
532.942638	2576.029615
533.303824	2434.877308
533.664953	2578.550192
534.026025	2460.083077
534.387040	2523.097500
534.747999	2502.932885
535.108902	2417.233269
535.469748	2497.891731
535.830537	2495.371154
536.191270	2480.247692
536.551947	2591.153077
536.912567	2442.439038
537.273131	2502.932885
537.633638	2482.768269
537.994089	2434.877308
538.354483	2485.288846
538.714821	2485.288846
539.075103	2530.659231
539.435328	2540.741538
539.795497	2417.233269
540.155609	2497.891731
540.515665	2502.932885
540.875665	2535.700385
541.235609	2520.576923
541.595496	2548.303269
541.955328	2553.344423
542.315102	2460.083077
542.674821	2533.179808
543.034483	2450.000769
543.394090	2513.015192
543.753640	2550.823846
544.113134	2439.918462
544.472571	2530.659231
544.831953	2480.247692
545.191278	2465.124231
545.550548	2515.535769
545.909761	2550.823846
546.268918	2419.753846
546.628019	2490.330000
546.987064	2533.179808
547.346053	2462.603654
547.704986	2465.124231
548.063863	2510.494615
548.422684	2414.712692
548.781449	2515.535769
549.140158	2480.247692
549.498811	2523.097500
549.857408	2460.083077
550.215949	2497.891731
550.574434	2472.685962
550.932864	2525.618077
551.291237	2374.383462
551.649555	2576.029615
552.007817	2437.397885
552.366022	2545.782692
552.724173	2507.974038
553.082267	2583.591346
553.440305	2513.015192
553.798288	2518.056346
554.156215	2543.262115
554.514086	2563.426731
554.871902	2485.288846
555.229661	2485.288846
555.587365	2492.850577
555.945014	2444.959615
556.302606	2500.412308
556.660143	2568.467885
557.017625	2467.644808
557.375050	2460.083077
557.732421	2533.179808
558.089735	2520.576923
558.446994	2467.644808
558.804197	2462.603654
559.161345	2434.877308
559.518437	2419.753846
559.875474	2465.124231
560.232455	2538.220962
560.589381	2485.288846
560.946251	2502.932885
561.303065	2500.412308
561.659825	2457.562500
562.016528	2568.467885
562.373177	2477.727115
562.729770	2495.371154
563.086307	2520.576923
563.442789	2578.550192
563.799216	2467.644808
564.155587	2482.768269
564.511904	2442.439038
564.868164	2535.700385
565.224370	2457.562500
565.580520	2543.262115
565.936615	2520.576923
566.292654	2550.823846
566.648638	2477.727115
567.004567	2422.274423
567.360441	2560.906154
567.716260	2510.494615
568.072023	2565.947308
568.427732	2432.356731
568.783385	2520.576923
569.138982	2520.576923
569.494525	2475.206538
569.850013	2543.262115
570.205445	2460.083077
570.560823	2495.371154
570.916145	2530.659231
571.271412	2457.562500
571.626625	2495.371154
571.981782	2525.618077
572.336884	2482.768269
572.691931	2545.782692
573.046923	2492.850577
573.401860	2467.644808
573.756743	2502.932885
574.111570	2450.000769
574.466342	2523.097500
574.821059	2414.712692
575.175722	2588.632500
575.530330	2490.330000
575.884882	2470.165385
576.239380	2455.041923
576.593823	2518.056346
576.948211	2412.192115
577.302544	2510.494615
577.656823	2475.206538
578.011047	2558.385577
578.365216	2497.891731
578.719330	2455.041923
579.073389	2591.153077
579.427394	2477.727115
579.781344	2502.932885
580.135239	2513.015192
580.489080	2568.467885
580.842866	2450.000769
581.196597	2543.262115
581.550273	2550.823846
581.903895	2485.288846
582.257463	2452.521346
582.610975	2470.165385
582.964434	2520.576923
583.317837	2535.700385
583.671186	2583.591346
584.024481	2465.124231
584.377721	2510.494615
584.730906	2475.206538
585.084037	2472.685962
585.437113	2424.795000
585.790135	2502.932885
586.143103	2530.659231
586.496016	2518.056346
586.848874	2460.083077
587.201679	2538.220962
587.554428	2460.083077
587.907124	2485.288846
588.259765	2558.385577
588.612352	2475.206538
588.964884	2507.974038
589.317362	2439.918462
589.669786	2502.932885
590.022155	2538.220962
590.374470	2467.644808
590.726731	2482.768269
591.078937	2450.000769
591.431090	2535.700385
591.783188	2533.179808
592.135232	2442.439038
592.487222	2439.918462
592.839157	2429.836154
593.191038	2482.768269
593.542866	2560.906154
593.894639	2404.630385
594.246358	2535.700385
594.598022	2565.947308
594.949633	2490.330000
595.301190	2540.741538
595.652692	2613.838269
596.004141	2588.632500
596.355535	2432.356731
596.706876	2555.865000
597.058162	2429.836154
597.409395	2530.659231
597.760573	2548.303269
598.111698	2560.906154
598.462768	2528.138654
598.813785	2460.083077
599.164748	2495.371154
599.515657	2528.138654
599.866511	2455.041923
600.217312	2482.768269
600.568060	2525.618077
600.918753	2477.727115
601.269392	2538.220962
601.619978	2502.932885
601.970510	2510.494615
602.320988	2502.932885
602.671412	2442.439038
603.021783	2502.932885
603.372100	2500.412308
603.722363	2500.412308
604.072572	2434.877308
604.422728	2490.330000
604.772830	2490.330000
605.122878	2515.535769
605.472872	2485.288846
605.822813	2467.644808
606.172701	2419.753846
606.522534	2520.576923
606.872314	2533.179808
607.222041	2518.056346
607.571714	2482.768269
607.921333	2500.412308
608.270899	2485.288846
608.620411	2505.453462
608.969870	2513.015192
609.319276	2429.836154
609.668627	2510.494615
610.017926	2533.179808
610.367171	2497.891731
610.716362	2525.618077
611.065500	2555.865000
611.414585	2545.782692
611.763616	2450.000769
612.112594	2538.220962
612.461518	2548.303269
612.810389	2497.891731
613.159207	2563.426731
613.507971	2540.741538
613.856682	2482.768269
614.205340	2412.192115
614.553945	2452.521346
614.902496	2500.412308
615.250994	2505.453462
615.599439	2455.041923
615.947830	2545.782692
616.296169	2460.083077
616.644454	2555.865000
616.992686	2583.591346
617.340864	2513.015192
617.688990	2518.056346
618.037063	2530.659231
618.385082	2452.521346
618.733048	2439.918462
619.080961	2535.700385
619.428821	2573.509038
619.776628	2414.712692
620.124382	2535.700385
620.472083	2439.918462
620.819731	2492.850577
621.167326	2520.576923
621.514868	2523.097500
621.862357	2447.480192
622.209793	2465.124231
622.557176	2465.124231
622.904506	2500.412308
623.251783	2490.330000
623.599007	2513.015192
623.946179	2523.097500
624.293297	2497.891731
624.640363	2409.671538
624.987376	2586.111923
625.334336	2586.111923
625.681243	2555.865000
626.028097	2487.809423
626.374899	2429.836154
626.721647	2533.179808
627.068343	2467.644808
627.414987	2513.015192
627.761577	2447.480192
628.108115	2535.700385
628.454600	2601.235385
628.801032	2472.685962
629.147412	2525.618077
629.493739	2462.603654
629.840014	2502.932885
630.186236	2470.165385
630.532405	2389.506923
630.878521	2563.426731
631.224585	2530.659231
631.570597	2424.795000
631.916556	2470.165385
632.262462	2444.959615
632.608316	2480.247692
632.954117	2555.865000
633.299866	2492.850577
633.645562	2505.453462
633.991206	2533.179808
634.336797	2480.247692
634.682336	2507.974038
635.027823	2525.618077
635.373257	2472.685962
635.718639	2444.959615
636.063968	2495.371154
636.409245	2492.850577
636.754470	2477.727115
637.099642	2505.453462
637.444762	2497.891731
637.789829	2492.850577
638.134845	2545.782692
638.479808	2477.727115
638.824719	2497.891731
639.169577	2543.262115
639.514383	2535.700385
639.859137	2462.603654
640.203839	2502.932885
640.548489	2502.932885
640.893086	2530.659231
641.237632	2432.356731
641.582125	2550.823846
641.926566	2525.618077
642.270955	2515.535769
642.615292	2480.247692
642.959576	2455.041923
643.303809	2535.700385
643.647990	2477.727115
643.992118	2467.644808
644.336195	2576.029615
644.680219	2457.562500
645.024192	2533.179808
645.368112	2452.521346
645.711981	2518.056346
646.055797	2518.056346
646.399562	2553.344423
646.743274	2450.000769
647.086935	2485.288846
647.430544	2462.603654
647.774101	2507.974038
648.117606	2419.753846
648.461059	2455.041923
648.804460	2417.233269
649.147810	2495.371154
649.491108	2432.356731
649.834354	2540.741538
650.177548	2467.644808
650.520690	2608.797115
650.863781	2558.385577
651.206820	2611.317692
651.549807	2485.288846
651.892742	2507.974038
652.235626	2447.480192
652.578458	2543.262115
652.921238	2490.330000
653.263967	2487.809423
653.606644	2543.262115
653.949269	2568.467885
654.291843	2470.165385
654.634365	2555.865000
654.976836	2457.562500
655.319255	2560.906154
655.661622	2462.603654
656.003938	2560.906154
656.346203	2548.303269
656.688416	2492.850577
657.030577	2530.659231
657.372687	2419.753846
657.714746	2485.288846
658.056753	2583.591346
658.398708	2500.412308
658.740612	2540.741538
659.082465	2444.959615
659.424266	2487.809423
659.766016	2460.083077
660.107715	2510.494615
660.449362	2570.988462
660.790958	2467.644808
661.132503	2487.809423
661.473996	2490.330000
661.815438	2540.741538
662.156829	2510.494615
662.498168	2507.974038
662.839456	2487.809423
663.180693	2510.494615
663.521879	2450.000769
663.863013	2490.330000
664.204097	2467.644808
664.545129	2518.056346
664.886110	2480.247692
665.227040	2490.330000
665.567918	2515.535769
665.908746	2528.138654
666.249522	2513.015192
666.590248	2540.741538
666.930922	2530.659231
667.271545	2487.809423
667.612118	2452.521346
667.952639	2540.741538
668.293109	2490.330000
668.633528	2460.083077
668.973896	2457.562500
669.314213	2520.576923
669.654480	2419.753846
669.994695	2470.165385
670.334859	2450.000769
670.674973	2558.385577
671.015035	2439.918462
671.355047	2450.000769
671.695008	2480.247692
672.034918	2570.988462
672.374777	2457.562500
672.714585	2470.165385
673.054342	2444.959615
673.394049	2530.659231
673.733705	2455.041923
674.073310	2452.521346
674.412864	2470.165385
674.752368	2432.356731
675.091820	2495.371154
675.431223	2477.727115
675.770574	2429.836154
676.109875	2364.301154
676.449125	2450.000769
676.788324	2487.809423
677.127473	2437.397885
677.466571	2490.330000
677.805619	2467.644808
678.144616	2530.659231
678.483562	2487.809423
678.822458	2487.809423
679.161303	2470.165385
679.500098	2497.891731
679.838842	2480.247692
680.177535	2548.303269
680.516179	2482.768269
680.854771	2480.247692
681.193314	2553.344423
681.531805	2560.906154
681.870247	2487.809423
682.208638	2530.659231
682.546978	2500.412308
682.885268	2470.165385
683.223508	2576.029615
683.561697	2467.644808
683.899836	2480.247692
684.237925	2621.400000
684.575963	2485.288846
684.913951	2507.974038
685.251889	2457.562500
685.589776	2470.165385
685.927614	2560.906154
686.265401	2548.303269
686.603137	2497.891731
686.940824	2548.303269
687.278460	2490.330000
687.616046	2520.576923
687.953582	2533.179808
688.291068	2447.480192
688.628504	2523.097500
688.965889	2515.535769
689.303224	2581.070769
689.640510	2555.865000
689.977745	2487.809423
690.314930	2429.836154
690.652065	2573.509038
690.989150	2480.247692
691.326185	2497.891731
691.663170	2533.179808
692.000105	2465.124231
692.336990	2460.083077
692.673825	2480.247692
693.010610	2462.603654
693.347345	2510.494615
693.684030	2467.644808
694.020665	2490.330000
694.357251	2510.494615
694.693786	2500.412308
695.030272	2530.659231
695.366707	2402.109808
695.703093	2560.906154
696.039429	2525.618077
696.375716	2510.494615
696.711952	2429.836154
697.048139	2520.576923
697.384276	2465.124231
697.720363	2507.974038
698.056400	2520.576923
698.392388	2450.000769
698.728326	2520.576923
699.064214	2518.056346
699.400053	2502.932885
699.735842	2470.165385
700.071581	2485.288846
700.407270	2480.247692
700.742910	2507.974038
701.078501	2429.836154
701.414042	2576.029615
701.749533	2568.467885
702.084974	2439.918462
702.420366	2518.056346
702.755709	2465.124231
703.091002	2548.303269
703.426246	2482.768269
703.761440	2495.371154
704.096584	2477.727115
704.431679	2442.439038
704.766725	2573.509038
705.101721	2439.918462
705.436668	2538.220962
705.771565	2502.932885
706.106413	2510.494615
706.441212	2540.741538
706.775961	2465.124231
707.110661	2457.562500
707.445311	2495.371154
707.779913	2505.453462
708.114465	2570.988462
708.448967	2422.274423
708.783421	2543.262115
709.117825	2447.480192
709.452180	2457.562500
709.786485	2414.712692
710.120742	2596.194231
710.454949	2490.330000
710.789107	2492.850577
711.123216	2467.644808
711.457275	2397.068654
711.791286	2477.727115
712.125247	2540.741538
712.459159	2510.494615
712.793023	2422.274423
713.126837	2548.303269
713.460602	2437.397885
713.794318	2439.918462
714.127985	2490.330000
714.461602	2480.247692
714.795171	2513.015192
715.128691	2507.974038
715.462162	2500.412308
715.795584	2520.576923
716.128957	2450.000769
716.462281	2460.083077
716.795556	2452.521346
717.128782	2500.412308
717.461960	2535.700385
717.795088	2460.083077
718.128167	2530.659231
718.461198	2475.206538
718.794180	2490.330000
719.127113	2462.603654
719.459997	2510.494615
719.792833	2480.247692
720.125619	2482.768269
720.458357	2460.083077
720.791046	2409.671538
721.123686	2525.618077
721.456278	2460.083077
721.788821	2560.906154
722.121315	2495.371154
722.453761	2470.165385
722.786158	2497.891731
723.118506	2576.029615
723.450805	2460.083077
723.783056	2397.068654
724.115259	2525.618077
724.447412	2507.974038
724.779518	2613.838269
725.111574	2576.029615
725.443582	2568.467885
725.775542	2538.220962
726.107453	2598.714808
726.439315	2424.795000
726.771129	2523.097500
727.102895	2467.644808
727.434612	2457.562500
727.766281	2497.891731
728.097901	2487.809423
728.429473	2520.576923
728.760996	2538.220962
729.092471	2538.220962
729.423897	2497.891731
729.755276	2528.138654
730.086606	2460.083077
730.417887	2507.974038
730.749120	2528.138654
731.080305	2518.056346
731.411442	2568.467885
731.742530	2439.918462
732.073570	2513.015192
732.404562	2417.233269
732.735506	2497.891731
733.066401	2462.603654
733.397249	2505.453462
733.728048	2515.535769
734.058798	2533.179808
734.389501	2477.727115
734.720156	2555.865000
735.050762	2513.015192
735.381320	2477.727115
735.711831	2439.918462
736.042293	2487.809423
736.372707	2477.727115
736.703073	2439.918462
737.033391	2538.220962
737.363661	2530.659231
737.693883	2568.467885
738.024056	2568.467885
738.354182	2480.247692
738.684260	2397.068654
739.014290	2500.412308
739.344272	2462.603654
739.674207	2538.220962
740.004093	2500.412308
740.333931	2558.385577
740.663722	2475.206538
740.993464	2414.712692
741.323159	2507.974038
741.652806	2495.371154
741.982405	2518.056346
742.311956	2447.480192
742.641460	2518.056346
742.970915	2543.262115
743.300323	2472.685962
743.629683	2538.220962
743.958996	2538.220962
744.288260	2528.138654
744.617477	2540.741538
744.946647	2530.659231
745.275768	2507.974038
745.604842	2457.562500
745.933869	2518.056346
746.262847	2460.083077
746.591778	2505.453462
746.920662	2538.220962
747.249498	2477.727115
747.578286	2452.521346
747.907027	2515.535769
748.235720	2432.356731
748.564365	2427.315577
748.892963	2447.480192
749.221514	2555.865000
749.550017	2507.974038
749.878473	2515.535769
750.206881	2442.439038
750.535242	2502.932885
750.863555	2548.303269
751.191821	2502.932885
751.520039	2462.603654
751.848210	2439.918462
752.176334	2510.494615
752.504411	2548.303269
752.832440	2460.083077
753.160421	2530.659231
753.488356	2470.165385
753.816243	2576.029615
754.144082	2507.974038
754.471875	2460.083077
754.799620	2490.330000
755.127318	2465.124231
755.454969	2533.179808
755.782572	2523.097500
756.110129	2606.276538
756.437638	2460.083077
756.765100	2507.974038
757.092515	2455.041923
757.419882	2530.659231
757.747203	2492.850577
758.074477	2475.206538
758.401703	2457.562500
758.728882	2386.986346
759.056014	2520.576923
759.383099	2465.124231
759.710138	2482.768269
760.037129	2518.056346
760.364073	2467.644808
760.690970	2439.918462
761.017820	2533.179808
761.344623	2460.083077
761.671379	2497.891731
761.998088	2412.192115
762.324751	2505.453462
762.651366	2485.288846
762.977935	2565.947308
763.304456	2507.974038
763.630931	2465.124231
763.957359	2381.945192
764.283740	2528.138654
764.610074	2588.632500
764.936362	2412.192115
765.262602	2518.056346
765.588796	2480.247692
765.914943	2563.426731
766.241044	2573.509038
766.567097	2485.288846
766.893104	2412.192115
767.219064	2510.494615
767.544978	2495.371154
767.870845	2525.618077
768.196665	2482.768269
768.522438	2591.153077
768.848165	2510.494615
769.173846	2477.727115
769.499479	2472.685962
769.825066	2475.206538
770.150607	2470.165385
770.476101	2515.535769
770.801548	2538.220962
771.126949	2439.918462
771.452303	2518.056346
771.777611	2545.782692
772.102872	2538.220962
772.428087	2457.562500
772.753256	2480.247692
773.078378	2548.303269
773.403453	2482.768269
773.728482	2543.262115
774.053465	2397.068654
774.378401	2586.111923
774.703291	2558.385577
775.028135	2480.247692
775.352932	2444.959615
775.677683	2392.027500
776.002388	2502.932885
776.327046	2452.521346
776.651658	2515.535769
776.976224	2513.015192
777.300743	2500.412308
777.625216	2460.083077
777.949643	2596.194231
778.274024	2487.809423
778.598359	2495.371154
778.922647	2495.371154
779.246889	2500.412308
779.571086	2528.138654
779.895236	2482.768269
780.219339	2548.303269
780.543397	2563.426731
780.867409	2555.865000
781.191374	2487.809423
781.515294	2500.412308
781.839167	2462.603654
782.162995	2510.494615
782.486776	2467.644808
782.810511	2513.015192
783.134201	2434.877308
783.457844	2399.589231
783.781441	2520.576923
784.104993	2457.562500
784.428498	2475.206538
784.751958	2472.685962
785.075372	2510.494615
785.398739	2530.659231
785.722061	2462.603654
786.045337	2568.467885
786.368568	2450.000769
786.691752	2465.124231
787.014891	2510.494615
787.337983	2429.836154
787.661030	2553.344423
787.984031	2490.330000
788.306987	2568.467885
788.629897	2465.124231
788.952760	2470.165385
789.275579	2419.753846
789.598351	2460.083077
789.921078	2497.891731
790.243759	2482.768269
790.566395	2480.247692
790.888984	2485.288846
791.211529	2465.124231
791.534027	2563.426731
791.856480	2535.700385
792.178888	2460.083077
792.501249	2563.426731
792.823566	2477.727115
793.145836	2500.412308
793.468062	2467.644808
793.790241	2520.576923
794.112375	2550.823846
794.434464	2457.562500
794.756507	2450.000769
795.078505	2477.727115
795.400457	2490.330000
795.722364	2480.247692
796.044226	2477.727115
796.366042	2540.741538
796.687812	2523.097500
797.009538	2520.576923
797.331218	2434.877308
797.652852	2598.714808
797.974442	2495.371154
798.295986	2530.659231
798.617484	2465.124231
798.938938	2518.056346
799.260346	2442.439038
799.581709	2487.809423
799.903026	2414.712692
800.224299	2497.891731
800.545526	2533.179808
800.866708	2510.494615
801.187845	2477.727115
801.508936	2538.220962
801.829983	2447.480192
802.150984	2540.741538
802.471940	2520.576923
802.792851	2528.138654
803.113717	2538.220962
803.434538	2518.056346
803.755314	2525.618077
804.076045	2530.659231
804.396731	2502.932885
804.717372	2502.932885
805.037967	2502.932885
805.358518	2502.932885
805.679024	2495.371154
805.999485	2495.371154
806.319901	2475.206538
806.640272	2505.453462
806.960598	2434.877308
807.280879	2533.179808
807.601115	2482.768269
807.921306	2513.015192
808.241453	2447.480192
808.561554	2502.932885
808.881611	2500.412308
809.201623	2490.330000
809.521590	2460.083077
809.841513	2487.809423
810.161390	2450.000769
810.481223	2429.836154
810.801011	2455.041923
811.120755	2419.753846
811.440453	2502.932885
811.760107	2540.741538
812.079716	2515.535769
812.399281	2548.303269
812.718801	2450.000769
813.038276	2470.165385
813.357707	2460.083077
813.677093	2447.480192
813.996434	2407.150962
814.315731	2520.576923
814.634983	2470.165385
814.954191	2399.589231
815.273354	2502.932885
815.592473	2467.644808
815.911547	2525.618077
816.230577	2490.330000
816.549562	2505.453462
816.868502	2439.918462
817.187399	2528.138654
817.506250	2457.562500
817.825058	2515.535769
818.143821	2407.150962
818.462539	2434.877308
818.781213	2351.698269
819.099843	2513.015192
819.418429	2482.768269
819.736970	2528.138654
820.055466	2492.850577
820.373919	2500.412308
820.692327	2399.589231
821.010691	2460.083077
821.329011	2528.138654
821.647286	2500.412308
821.965517	2480.247692
822.283704	2495.371154
822.601847	2570.988462
822.919945	2452.521346
823.237999	2434.877308
823.556010	2555.865000
823.873976	2472.685962
824.191897	2470.165385
824.509775	2545.782692
824.827609	2543.262115
825.145398	2507.974038
825.463144	2535.700385
825.780845	2450.000769
826.098502	2523.097500
826.416116	2530.659231
826.733685	2543.262115
827.051210	2437.397885
827.368692	2515.535769
827.686129	2490.330000
828.003522	2505.453462
828.320872	2419.753846
828.638177	2507.974038
828.955439	2538.220962
829.272656	2535.700385
829.589830	2467.644808
829.906960	2455.041923
830.224046	2487.809423
830.541088	2533.179808
830.858086	2487.809423
831.175041	2573.509038
831.491952	2437.397885
831.808819	2497.891731
832.125642	2560.906154
832.442421	2507.974038
832.759157	2465.124231
833.075849	2402.109808
833.392497	2563.426731
833.709101	2535.700385
834.025662	2462.603654
834.342179	2553.344423
834.658653	2586.111923
834.975083	2475.206538
835.291469	2553.344423
835.607811	2419.753846
835.924110	2455.041923
836.240366	2543.262115
836.556578	2487.809423
836.872746	2505.453462
837.188871	2525.618077
837.504952	2502.932885
837.820990	2434.877308
838.136984	2533.179808
838.452935	2492.850577
838.768842	2497.891731
839.084706	2455.041923
839.400526	2477.727115
839.716303	2485.288846
840.032037	2535.700385
840.347727	2492.850577
840.663373	2548.303269
840.978977	2487.809423
841.294537	2507.974038
841.610054	2477.727115
841.925527	2470.165385
842.240957	2437.397885
842.556344	2533.179808
842.871687	2487.809423
843.186987	2457.562500
843.502244	2520.576923
843.817458	2528.138654
844.132629	2460.083077
844.447756	2492.850577
844.762840	2437.397885
845.077881	2439.918462
845.392879	2497.891731
845.707833	2485.288846
846.022745	2550.823846
846.337613	2583.591346
846.652438	2444.959615
846.967221	2507.974038
847.281960	2563.426731
847.596656	2555.865000
847.911309	2535.700385
848.225919	2452.521346
848.540485	2548.303269
848.855009	2480.247692
849.169490	2427.315577
849.483928	2563.426731
849.798323	2510.494615
850.112675	2538.220962
850.426984	2515.535769
850.741251	2457.562500
851.055474	2490.330000
851.369654	2465.124231
851.683792	2528.138654
851.997887	2507.974038
852.311938	2543.262115
852.625947	2444.959615
852.939914	2538.220962
853.253837	2502.932885
853.567718	2447.480192
853.881555	2540.741538
854.195350	2487.809423
854.509103	2518.056346
854.822812	2485.288846
855.136479	2548.303269
855.450103	2525.618077
855.763685	2482.768269
856.077224	2553.344423
856.390720	2482.768269
856.704173	2477.727115
857.017584	2507.974038
857.330953	2540.741538
857.644278	2581.070769
857.957561	2480.247692
858.270802	2548.303269
858.584000	2538.220962
858.897155	2500.412308
859.210268	2520.576923
859.523339	2485.288846
859.836367	2467.644808
860.149352	2528.138654
860.462295	2525.618077
860.775195	2439.918462
861.088054	2492.850577
861.400869	2487.809423
861.713642	2583.591346
862.026373	2548.303269
862.339062	2485.288846
862.651708	2460.083077
862.964312	2513.015192
863.276873	2540.741538
863.589392	2553.344423
863.901869	2422.274423
864.214303	2555.865000
864.526696	2550.823846
864.839045	2480.247692
865.151353	2510.494615
865.463619	2419.753846
865.775842	2578.550192
866.088023	2510.494615
866.400162	2505.453462
866.712258	2460.083077
867.024313	2490.330000
867.336325	2457.562500
867.648296	2480.247692
867.960224	2432.356731
868.272110	2495.371154
868.583954	2475.206538
868.895755	2482.768269
869.207515	2465.124231
869.519233	2535.700385
869.830909	2523.097500
870.142542	2472.685962
870.454134	2535.700385
870.765684	2467.644808
871.077191	2482.768269
871.388657	2545.782692
871.700081	2505.453462
872.011463	2543.262115
872.322803	2457.562500
872.634101	2490.330000
872.945357	2507.974038
873.256571	2593.673654
873.567744	2510.494615
873.878874	2538.220962
874.189963	2434.877308
874.501010	2437.397885
874.812015	2515.535769
875.122979	2545.782692
875.433900	2452.521346
875.744780	2507.974038
876.055618	2467.644808
876.366415	2457.562500
876.677169	2467.644808
876.987882	2419.753846
877.298554	2457.562500
877.609183	2432.356731
877.919771	2507.974038
878.230317	2487.809423
878.540822	2414.712692
878.851285	2487.809423
879.161707	2505.453462
879.472087	2502.932885
879.782425	2392.027500
880.092722	2513.015192
880.402977	2477.727115
880.713191	2467.644808
881.023363	2480.247692
881.333494	2429.836154
881.643583	2444.959615
881.953631	2538.220962
882.263637	2523.097500
882.573602	2535.700385
882.883526	2434.877308
883.193408	2492.850577
883.503248	2548.303269
883.813048	2470.165385
884.122806	2437.397885
884.432522	2482.768269
884.742197	2520.576923
885.051831	2568.467885
885.361424	2460.083077
885.670975	2538.220962
885.980485	2424.795000
886.289954	2470.165385
886.599382	2462.603654
886.908768	2611.317692
887.218113	2472.685962
887.527417	2452.521346
887.836680	2485.288846
888.145901	2560.906154
888.455082	2505.453462
888.764221	2540.741538
889.073319	2505.453462
889.382376	2548.303269
889.691392	2475.206538
890.000366	2548.303269
890.309300	2636.523462
890.618193	2523.097500
890.927044	2543.262115
891.235855	2513.015192
891.544625	2497.891731
891.853353	2477.727115
892.162041	2404.630385
892.470687	2520.576923
892.779293	2515.535769
893.087858	2548.303269
893.396381	2482.768269
893.704864	2452.521346
894.013306	2515.535769
894.321707	2528.138654
894.630068	2502.932885
894.938387	2505.453462
895.246665	2490.330000
895.554903	2533.179808
895.863100	2442.439038
896.171256	2384.465769
896.479371	2573.509038
896.787446	2434.877308
897.095480	2555.865000
897.403473	2560.906154
897.711425	2472.685962
898.019336	2460.083077
898.327207	2472.685962
898.635038	2462.603654
898.942827	2439.918462
899.250576	2460.083077
899.558284	2586.111923
899.865952	2555.865000
900.173579	2424.795000
900.481165	2520.576923
900.788711	2444.959615
901.096216	2563.426731
901.403681	2507.974038
901.711105	2437.397885
902.018489	2450.000769
902.325832	2558.385577
902.633135	2439.918462
902.940397	2502.932885
903.247619	2497.891731
903.554800	2490.330000
903.861941	2397.068654
904.169041	2455.041923
904.476101	2540.741538
904.783121	2472.685962
905.090100	2394.548077
905.397039	2487.809423
905.703938	2507.974038
906.010796	2515.535769
906.317614	2520.576923
906.624391	2502.932885
906.931129	2563.426731
907.237826	2482.768269
907.544483	2427.315577
907.851099	2510.494615
908.157675	2480.247692
908.464211	2515.535769
908.770707	2535.700385
909.077163	2447.480192
909.383578	2530.659231
909.689954	2555.865000
909.996289	2437.397885
910.302584	2497.891731
910.608839	2452.521346
910.915054	2576.029615
911.221229	2558.385577
911.527363	2543.262115
911.833458	2447.480192
912.139513	2439.918462
912.445527	2452.521346
912.751502	2376.904038
913.057436	2490.330000
913.363331	2432.356731
913.669186	2470.165385
913.975000	2434.877308
914.280775	2533.179808
914.586510	2404.630385
914.892205	2505.453462
915.197859	2485.288846
915.503475	2553.344423
915.809050	2429.836154
916.114585	2573.509038
916.420081	2427.315577
916.725536	2497.891731
917.030952	2500.412308
917.336328	2500.412308
917.641665	2485.288846
917.946961	2518.056346
918.252218	2487.809423
918.557435	2475.206538
918.862612	2470.165385
919.167750	2427.315577
919.472848	2507.974038
919.777906	2467.644808
920.082925	2497.891731
920.387904	2450.000769
920.692843	2492.850577
920.997743	2437.397885
921.302603	2573.509038
921.607423	2437.397885
921.912204	2510.494615
922.216946	2510.494615
922.521647	2462.603654
922.826310	2480.247692
923.130932	2502.932885
923.435516	2530.659231
923.740059	2485.288846
924.044564	2520.576923
924.349028	2515.535769
924.653454	2540.741538
924.957840	2490.330000
925.262186	2427.315577
925.566493	2530.659231
925.870761	2497.891731
926.174989	2485.288846
926.479178	2409.671538
926.783328	2507.974038
927.087438	2399.589231
927.391509	2462.603654
927.695541	2467.644808
927.999533	2545.782692
928.303486	2482.768269
928.607400	2510.494615
928.911275	2424.795000
929.215110	2543.262115
929.518906	2497.891731
929.822663	2535.700385
930.126381	2475.206538
930.430060	2523.097500
930.733699	2404.630385
931.037299	2523.097500
931.340861	2553.344423
931.644383	2447.480192
931.947866	2495.371154
932.251309	2447.480192
932.554714	2510.494615
932.858080	2485.288846
933.161407	2528.138654
933.464694	2548.303269
933.767943	2513.015192
934.071153	2525.618077
934.374323	2427.315577
934.677455	2492.850577
934.980548	2528.138654
935.283602	2480.247692
935.586617	2507.974038
935.889593	2477.727115
936.192530	2500.412308
936.495428	2487.809423
936.798287	2530.659231
937.101108	2533.179808
937.403890	2467.644808
937.706632	2450.000769
938.009336	2457.562500
938.312002	2455.041923
938.614628	2439.918462
938.917216	2472.685962
939.219765	2450.000769
939.522275	2568.467885
939.824747	2497.891731
940.127179	2439.918462
940.429573	2429.836154
940.731929	2434.877308
941.034246	2528.138654
941.336524	2578.550192
941.638763	2535.700385
941.940964	2409.671538
942.243126	2523.097500
942.545250	2518.056346
942.847335	2467.644808
943.149381	2477.727115
943.451389	2490.330000
943.753359	2515.535769
944.055290	2497.891731
944.357182	2457.562500
944.659036	2462.603654
944.960851	2475.206538
945.262628	2497.891731
945.564367	2462.603654
945.866067	2492.850577
946.167729	2530.659231
946.469352	2482.768269
946.770937	2558.385577
947.072484	2500.412308
947.373992	2515.535769
947.675462	2510.494615
947.976893	2429.836154
948.278286	2538.220962
948.579641	2550.823846
948.880958	2513.015192
949.182236	2475.206538
949.483476	2581.070769
949.784678	2573.509038
950.085841	2591.153077
950.386967	2555.865000
950.688054	2407.150962
950.989103	2460.083077
951.290114	2470.165385
951.591087	2444.959615
951.892021	2457.562500
952.192917	2507.974038
952.493776	2510.494615
952.794596	2510.494615
953.095378	2447.480192
953.396122	2492.850577
953.696828	2528.138654
953.997496	2500.412308
954.298126	2480.247692
954.598718	2447.480192
954.899272	2545.782692
955.199788	2507.974038
955.500266	2444.959615
955.800706	2515.535769
956.101108	2467.644808
956.401472	2528.138654
956.701798	2583.591346
957.002087	2412.192115
957.302337	2523.097500
957.602550	2538.220962
957.902724	2482.768269
958.202861	2455.041923
958.502960	2460.083077
958.803022	2480.247692
959.103045	2412.192115
959.403031	2570.988462
959.702979	2487.809423
960.002889	2555.865000
960.302762	2500.412308
960.602596	2480.247692
960.902393	2475.206538
961.202153	2518.056346
961.501875	2462.603654
961.801559	2510.494615
962.101205	2525.618077
962.400814	2558.385577
962.700385	2477.727115
962.999918	2364.301154
963.299414	2500.412308
963.598873	2482.768269
963.898293	2492.850577
964.197677	2462.603654
964.497022	2528.138654
964.796331	2520.576923
965.095601	2520.576923
965.394835	2424.795000
965.694030	2530.659231
965.993189	2568.467885
966.292309	2460.083077
966.591393	2419.753846
966.890439	2397.068654
967.189447	2470.165385
967.488419	2548.303269
967.787353	2510.494615
968.086249	2565.947308
968.385108	2462.603654
968.683930	2565.947308
968.982714	2523.097500
969.281462	2540.741538
969.580172	2427.315577
969.878844	2530.659231
970.177480	2432.356731
970.476078	2510.494615
970.774639	2515.535769
971.073162	2553.344423
971.371649	2475.206538
971.670098	2495.371154
971.968510	2394.548077
972.266885	2366.821731
972.565223	2500.412308
972.863524	2523.097500
973.161788	2497.891731
973.460014	2477.727115
973.758204	2518.056346
974.056356	2550.823846
974.354471	2470.165385
974.652550	2513.015192
974.950591	2452.521346
975.248595	2482.768269
975.546563	2520.576923
975.844493	2475.206538
976.142386	2444.959615
976.440243	2535.700385
976.738062	2515.535769
977.035845	2439.918462
977.333590	2502.932885
977.631299	2558.385577
977.928971	2492.850577
978.226606	2477.727115
978.524204	2520.576923
978.821765	2465.124231
979.119290	2563.426731
979.416777	2480.247692
979.714228	2507.974038
980.011642	2490.330000
980.309020	2513.015192
980.606360	2490.330000
980.903664	2500.412308
981.200931	2563.426731
981.498162	2485.288846
981.795356	2576.029615
982.092513	2485.288846
982.389633	2460.083077
982.686717	2510.494615
982.983764	2452.521346
983.280775	2558.385577
983.577749	2553.344423
983.874686	2520.576923
984.171587	2525.618077
984.468451	2475.206538
984.765279	2462.603654
985.062070	2530.659231
985.358824	2500.412308
985.655543	2492.850577
985.952224	2497.891731
986.248869	2485.288846
986.545478	2495.371154
986.842050	2495.371154
987.138586	2570.988462
987.435086	2457.562500
987.731549	2437.397885
988.027975	2533.179808
988.324366	2462.603654
988.620719	2510.494615
988.917037	2442.439038
989.213318	2442.439038
989.509563	2480.247692
989.805772	2419.753846
990.101944	2565.947308
990.398080	2485.288846
990.694180	2485.288846
990.990244	2510.494615
991.286271	2414.712692
991.582262	2533.179808
991.878217	2472.685962
992.174136	2457.562500
992.470019	2490.330000
992.765865	2553.344423
993.061676	2520.576923
993.357450	2515.535769
993.653188	2482.768269
993.948890	2515.535769
994.244556	2515.535769
994.540186	2434.877308
994.835780	2533.179808
995.131337	2419.753846
995.426859	2538.220962
995.722345	2457.562500
996.017795	2568.467885
996.313208	2505.453462
996.608586	2480.247692
996.903928	2452.521346
997.199234	2432.356731
997.494504	2543.262115
997.789738	2487.809423
998.084936	2500.412308
998.380099	2495.371154
998.675225	2515.535769
998.970316	2555.865000
999.265371	2437.397885
999.560390	2399.589231
999.855373	2513.015192
1000.150320	2497.891731
1000.445232	2513.015192
1000.740108	2467.644808
1001.034948	2490.330000
1001.329752	2450.000769
1001.624521	2543.262115
1001.919254	2515.535769
1002.213951	2462.603654
1002.508613	2480.247692
1002.803239	2495.371154
1003.097829	2490.330000
1003.392384	2543.262115
1003.686903	2540.741538
1003.981386	2455.041923
1004.275834	2442.439038
1004.570246	2535.700385
1004.864623	2581.070769
1005.158964	2404.630385
1005.453270	2482.768269
1005.747540	2505.453462
1006.041775	2432.356731
1006.335974	2510.494615
1006.630138	2457.562500
1006.924266	2515.535769
1007.218359	2563.426731
1007.512416	2480.247692
1007.806438	2465.124231
1008.100425	2553.344423
1008.394376	2472.685962
1008.688292	2525.618077
1008.982172	2475.206538
1009.276017	2437.397885
1009.569827	2364.301154
1009.863602	2455.041923
1010.157341	2472.685962
1010.451045	2472.685962
1010.744714	2407.150962
1011.038347	2553.344423
1011.331945	2513.015192
1011.625508	2470.165385
1011.919036	2520.576923
1012.212528	2442.439038
1012.505986	2500.412308
1012.799408	2515.535769
1013.092795	2455.041923
1013.386147	2439.918462
1013.679464	2495.371154
1013.972745	2450.000769
1014.265992	2467.644808
1014.559204	2477.727115
1014.852380	2475.206538
1015.145521	2528.138654
1015.438628	2520.576923
1015.731699	2523.097500
1016.024736	2417.233269
1016.317737	2407.150962
1016.610703	2482.768269
1016.903635	2429.836154
1017.196531	2555.865000
1017.489393	2447.480192
1017.782219	2497.891731
1018.075011	2581.070769
1018.367768	2444.959615
1018.660490	2578.550192
1018.953177	2578.550192
1019.245829	2578.550192
