Dividing Wavelength (nm)	Counts (n)	Blue Motor Position (mm): 0.000000	Red Motor Position (mm): 9.700000	
326.493990	2104.681731
326.888308	2104.681731
327.282561	2104.681731
327.676750	2129.887500
328.070874	2046.708462
328.464933	2119.805192
328.858929	2102.161154
329.252859	2114.764038
329.646726	2071.914231
330.040528	2051.749615
330.434265	2157.613846
330.827938	2180.299038
331.221547	2114.764038
331.615091	2205.504808
332.008571	2225.669423
332.401986	2182.819615
332.795338	2192.901923
333.188625	2195.422500
333.581847	2175.257885
333.975006	2235.751731
334.368100	2306.327885
334.761129	2291.204423
335.154095	2351.698269
335.546996	2351.698269
335.939833	2371.862885
336.332606	2361.780577
336.725315	2444.959615
337.117960	2308.848462
337.510540	2419.753846
337.903056	2450.000769
338.295508	2439.918462
338.687896	2427.315577
339.080220	2500.412308
339.472480	2450.000769
339.864676	2404.630385
340.256807	2470.165385
340.648875	2513.015192
341.040879	2525.618077
341.432818	2485.288846
341.824694	2568.467885
342.216506	2404.630385
342.608253	2525.618077
342.999937	2518.056346
343.391557	2502.932885
343.783113	2412.192115
344.174605	2513.015192
344.566033	2538.220962
344.957397	2477.727115
345.348697	2470.165385
345.739934	2525.618077
346.131106	2424.795000
346.522215	2482.768269
346.913260	2417.233269
347.304241	2470.165385
347.695159	2477.727115
348.086012	2518.056346
348.476802	2485.288846
348.867528	2447.480192
349.258191	2455.041923
349.648789	2507.974038
350.039324	2513.015192
350.429796	2472.685962
350.820203	2538.220962
351.210548	2467.644808
351.600828	2467.644808
351.991045	2399.589231
352.381198	2409.671538
352.771288	2462.603654
353.161314	2432.356731
353.551276	2402.109808
353.941175	2444.959615
354.331010	2404.630385
354.720782	2455.041923
355.110490	2465.124231
355.500135	2495.371154
355.889717	2492.850577
356.279235	2452.521346
356.668689	2437.397885
357.058080	2392.027500
357.447408	2497.891731
357.836672	2334.054231
358.225873	2495.371154
358.615010	2422.274423
359.004084	2399.589231
359.393095	2457.562500
359.782043	2422.274423
360.170927	2492.850577
360.559748	2450.000769
360.948505	2429.836154
361.337199	2482.768269
361.725830	2475.206538
362.114398	2515.535769
362.502903	2470.165385
362.891344	2450.000769
363.279722	2480.247692
363.668037	2427.315577
364.056289	2427.315577
364.444478	2439.918462
364.832603	2460.083077
365.220665	2475.206538
365.608665	2417.233269
365.996601	2422.274423
366.384474	2424.795000
366.772284	2399.589231
367.160031	2442.439038
367.547715	2472.685962
367.935336	2384.465769
368.322893	2457.562500
368.710388	2455.041923
369.097820	2419.753846
369.485189	2455.041923
369.872495	2558.385577
370.259738	2492.850577
370.646918	2492.850577
371.034035	2444.959615
371.421090	2502.932885
371.808081	2502.932885
372.195010	2540.741538
372.581875	2450.000769
372.968678	2487.809423
373.355418	2399.589231
373.742096	2515.535769
374.128710	2490.330000
374.515262	2505.453462
374.901751	2447.480192
375.288177	2429.836154
375.674540	2457.562500
376.060841	2460.083077
376.447079	2412.192115
376.833254	2432.356731
377.219367	2480.247692
377.605417	2502.932885
377.991404	2465.124231
378.377329	2424.795000
378.763191	2475.206538
379.148991	2439.918462
379.534727	2545.782692
379.920402	2507.974038
380.306013	2538.220962
380.691563	2563.426731
381.077049	2444.959615
381.462474	2402.109808
381.847835	2487.809423
382.233134	2462.603654
382.618371	2470.165385
383.003545	2452.521346
383.388657	2485.288846
383.773706	2437.397885
384.158693	2555.865000
384.543618	2450.000769
384.928480	2414.712692
385.313280	2472.685962
385.698017	2467.644808
386.082692	2477.727115
386.467305	2399.589231
386.851856	2563.426731
387.236344	2450.000769
387.620770	2462.603654
388.005133	2507.974038
388.389435	2424.795000
388.773674	2490.330000
389.157851	2520.576923
389.541965	2515.535769
389.926018	2472.685962
390.310008	2452.521346
390.693936	2470.165385
391.077802	2465.124231
391.461606	2492.850577
391.845348	2490.330000
392.229027	2490.330000
392.612645	2500.412308
392.996200	2452.521346
393.379694	2404.630385
393.763125	2540.741538
394.146494	2460.083077
394.529801	2475.206538
394.913047	2424.795000
395.296230	2472.685962
395.679351	2389.506923
396.062410	2515.535769
396.445408	2513.015192
396.828343	2452.521346
397.211217	2485.288846
397.594028	2520.576923
397.976778	2376.904038
398.359466	2495.371154
398.742092	2444.959615
399.124656	2482.768269
399.507158	2520.576923
399.889598	2457.562500
400.271977	2447.480192
400.654294	2462.603654
401.036549	2434.877308
401.418742	2414.712692
401.800874	2381.945192
402.182944	2548.303269
402.564952	2424.795000
402.946898	2528.138654
403.328783	2442.439038
403.710606	2424.795000
404.092367	2472.685962
404.474067	2447.480192
404.855705	2477.727115
405.237282	2404.630385
405.618797	2518.056346
406.000250	2455.041923
406.381642	2432.356731
406.762972	2538.220962
407.144240	2442.439038
407.525447	2502.932885
407.906593	2432.356731
408.287677	2475.206538
408.668700	2462.603654
409.049661	2565.947308
409.430560	2495.371154
409.811399	2344.136538
410.192176	2477.727115
410.572891	2565.947308
410.953545	2356.739423
411.334138	2432.356731
411.714669	2523.097500
412.095139	2407.150962
412.475547	2462.603654
412.855894	2482.768269
413.236180	2414.712692
413.616405	2530.659231
413.996568	2538.220962
414.376670	2465.124231
414.756711	2460.083077
415.136691	2427.315577
415.516609	2540.741538
415.896466	2528.138654
416.276262	2513.015192
416.655997	2450.000769
417.035670	2487.809423
417.415283	2439.918462
417.794834	2477.727115
418.174324	2490.330000
418.553753	2485.288846
418.933121	2427.315577
419.312428	2555.865000
419.691674	2543.262115
420.070859	2419.753846
420.449983	2437.397885
420.829045	2507.974038
421.208047	2477.727115
421.586988	2495.371154
421.965867	2565.947308
422.344686	2492.850577
422.723444	2528.138654
423.102141	2376.904038
423.480777	2507.974038
423.859352	2502.932885
424.237866	2379.424615
424.616319	2472.685962
424.994712	2487.809423
425.373044	2507.974038
425.751314	2555.865000
426.129524	2460.083077
426.507673	2439.918462
426.885762	2563.426731
427.263789	2467.644808
427.641756	2472.685962
428.019662	2460.083077
428.397508	2540.741538
428.775292	2424.795000
429.153016	2533.179808
429.530679	2520.576923
429.908282	2414.712692
430.285824	2545.782692
430.663305	2513.015192
431.040726	2475.206538
431.418086	2535.700385
431.795385	2462.603654
432.172624	2442.439038
432.549802	2460.083077
432.926920	2513.015192
433.303977	2513.015192
433.680974	2500.412308
434.057910	2510.494615
434.434786	2470.165385
434.811601	2429.836154
435.188355	2470.165385
435.565050	2470.165385
435.941683	2434.877308
436.318257	2434.877308
436.694770	2510.494615
437.071222	2480.247692
437.447614	2525.618077
437.823946	2477.727115
438.200218	2467.644808
438.576429	2429.836154
438.952580	2444.959615
439.328670	2477.727115
439.704700	2528.138654
440.080670	2356.739423
440.456580	2439.918462
440.832429	2482.768269
441.208218	2457.562500
441.583947	2528.138654
441.959616	2538.220962
442.335224	2525.618077
442.710773	2465.124231
443.086261	2487.809423
443.461689	2397.068654
443.837057	2528.138654
444.212365	2392.027500
444.587612	2492.850577
444.962800	2467.644808
445.337927	2523.097500
445.712995	2538.220962
446.088002	2450.000769
446.462949	2540.741538
446.837837	2513.015192
447.212664	2475.206538
447.587431	2447.480192
447.962139	2550.823846
448.336786	2455.041923
448.711374	2510.494615
449.085901	2523.097500
449.460369	2518.056346
449.834776	2470.165385
450.209124	2482.768269
450.583412	2444.959615
450.957640	2455.041923
451.331808	2497.891731
451.705917	2505.453462
452.079965	2555.865000
452.453954	2502.932885
452.827883	2442.439038
453.201752	2477.727115
453.575562	2507.974038
453.949311	2482.768269
454.323001	2520.576923
454.696632	2394.548077
455.070202	2553.344423
455.443713	2523.097500
455.817164	2540.741538
456.190556	2485.288846
456.563888	2477.727115
456.937160	2540.741538
457.310373	2424.795000
457.683526	2505.453462
458.056619	2497.891731
458.429653	2477.727115
458.802628	2414.712692
459.175542	2462.603654
459.548398	2452.521346
459.921194	2568.467885
460.293930	2528.138654
460.666607	2371.862885
461.039224	2399.589231
461.411782	2565.947308
461.784280	2492.850577
462.156719	2477.727115
462.529099	2470.165385
462.901419	2576.029615
463.273680	2477.727115
463.645882	2434.877308
464.018024	2583.591346
464.390106	2520.576923
464.762130	2452.521346
465.134094	2497.891731
465.505999	2528.138654
465.877845	2535.700385
466.249631	2480.247692
466.621358	2555.865000
466.993026	2558.385577
467.364634	2492.850577
467.736184	2422.274423
468.107674	2535.700385
468.479105	2452.521346
468.850477	2507.974038
469.221790	2490.330000
469.593043	2485.288846
469.964238	2477.727115
470.335373	2530.659231
470.706449	2513.015192
471.077467	2510.494615
471.448425	2397.068654
471.819324	2472.685962
472.190164	2500.412308
472.560945	2490.330000
472.931667	2510.494615
473.302330	2523.097500
473.672934	2470.165385
474.043479	2439.918462
474.413965	2450.000769
474.784393	2465.124231
475.154761	2586.111923
475.525070	2465.124231
475.895321	2480.247692
476.265513	2545.782692
476.635645	2427.315577
477.005719	2462.603654
477.375734	2513.015192
477.745691	2399.589231
478.115588	2477.727115
478.485427	2397.068654
478.855207	2530.659231
479.224928	2429.836154
479.594591	2460.083077
479.964194	2548.303269
480.333739	2447.480192
480.703226	2439.918462
481.072653	2465.124231
481.442022	2434.877308
481.811333	2507.974038
482.180584	2558.385577
482.549777	2404.630385
482.918912	2492.850577
483.287988	2573.509038
483.657005	2502.932885
484.025964	2472.685962
484.394864	2457.562500
484.763706	2495.371154
485.132489	2455.041923
485.501213	2520.576923
485.869879	2520.576923
486.238487	2482.768269
486.607036	2452.521346
486.975527	2487.809423
487.343959	2450.000769
487.712333	2460.083077
488.080648	2460.083077
488.448905	2540.741538
488.817104	2487.809423
489.185244	2404.630385
489.553326	2515.535769
489.921350	2510.494615
490.289315	2515.535769
490.657222	2497.891731
491.025070	2482.768269
491.392861	2513.015192
491.760593	2581.070769
492.128267	2538.220962
492.495883	2563.426731
492.863440	2560.906154
493.230939	2419.753846
493.598380	2490.330000
493.965763	2502.932885
494.333088	2560.906154
494.700354	2444.959615
495.067563	2520.576923
495.434713	2465.124231
495.801805	2565.947308
496.168839	2540.741538
496.535815	2497.891731
496.902733	2450.000769
497.269593	2412.192115
497.636395	2482.768269
498.003139	2399.589231
498.369825	2497.891731
498.736453	2495.371154
499.103023	2535.700385
499.469535	2520.576923
499.835989	2520.576923
500.202385	2523.097500
500.568723	2417.233269
500.935003	2548.303269
501.301226	2490.330000
501.667390	2505.453462
502.033497	2495.371154
502.399546	2487.809423
502.765537	2502.932885
503.131470	2525.618077
503.497345	2533.179808
503.863163	2507.974038
504.228923	2548.303269
504.594625	2414.712692
504.960269	2563.426731
505.325856	2555.865000
505.691385	2462.603654
506.056856	2497.891731
506.422270	2502.932885
506.787625	2510.494615
507.152924	2452.521346
507.518164	2530.659231
507.883347	2502.932885
508.248472	2530.659231
508.613540	2460.083077
508.978550	2540.741538
509.343503	2444.959615
509.708398	2465.124231
510.073236	2414.712692
510.438016	2450.000769
510.802738	2470.165385
511.167403	2507.974038
511.532010	2452.521346
511.896561	2422.274423
512.261053	2505.453462
512.625488	2389.506923
512.989866	2492.850577
513.354186	2586.111923
513.718449	2450.000769
514.082655	2543.262115
514.446803	2490.330000
514.810894	2525.618077
515.174927	2452.521346
515.538904	2545.782692
515.902822	2525.618077
516.266684	2444.959615
516.630488	2568.467885
516.994235	2485.288846
517.357925	2452.521346
517.721558	2502.932885
518.085133	2462.603654
518.448651	2482.768269
518.812112	2533.179808
519.175516	2465.124231
519.538863	2495.371154
519.902152	2485.288846
520.265385	2475.206538
520.628560	2576.029615
520.991678	2457.562500
521.354739	2518.056346
521.717743	2467.644808
522.080690	2487.809423
522.443580	2472.685962
522.806413	2492.850577
523.169189	2568.467885
523.531908	2533.179808
523.894569	2487.809423
524.257174	2510.494615
524.619722	2565.947308
524.982213	2507.974038
525.344647	2611.317692
525.707025	2472.685962
526.069345	2530.659231
526.431608	2457.562500
526.793815	2548.303269
527.155964	2570.988462
527.518057	2480.247692
527.880093	2450.000769
528.242072	2507.974038
528.603995	2477.727115
528.965860	2485.288846
529.327669	2485.288846
529.689421	2444.959615
530.051117	2528.138654
530.412755	2482.768269
530.774337	2513.015192
531.135862	2437.397885
531.497331	2497.891731
531.858743	2613.838269
532.220098	2480.247692
532.581396	2510.494615
532.942638	2457.562500
533.303824	2467.644808
533.664953	2500.412308
534.026025	2550.823846
534.387040	2460.083077
534.747999	2462.603654
535.108902	2477.727115
535.469748	2429.836154
535.830537	2581.070769
536.191270	2460.083077
536.551947	2480.247692
536.912567	2422.274423
537.273131	2525.618077
537.633638	2495.371154
537.994089	2495.371154
538.354483	2500.412308
538.714821	2520.576923
539.075103	2427.315577
539.435328	2482.768269
539.795497	2507.974038
540.155609	2510.494615
540.515665	2550.823846
540.875665	2573.509038
541.235609	2530.659231
541.595496	2487.809423
541.955328	2510.494615
542.315102	2540.741538
542.674821	2475.206538
543.034483	2530.659231
543.394090	2558.385577
543.753640	2455.041923
544.113134	2510.494615
544.472571	2467.644808
544.831953	2505.453462
545.191278	2502.932885
545.550548	2523.097500
545.909761	2510.494615
546.268918	2573.509038
546.628019	2502.932885
546.987064	2505.453462
547.346053	2434.877308
547.704986	2601.235385
548.063863	2550.823846
548.422684	2414.712692
548.781449	2523.097500
549.140158	2447.480192
549.498811	2470.165385
549.857408	2475.206538
550.215949	2528.138654
550.574434	2434.877308
550.932864	2518.056346
551.291237	2480.247692
551.649555	2528.138654
552.007817	2528.138654
552.366022	2497.891731
552.724173	2487.809423
553.082267	2434.877308
553.440305	2563.426731
553.798288	2523.097500
554.156215	2477.727115
554.514086	2598.714808
554.871902	2533.179808
555.229661	2560.906154
555.587365	2545.782692
555.945014	2462.603654
556.302606	2588.632500
556.660143	2485.288846
557.017625	2520.576923
557.375050	2543.262115
557.732421	2570.988462
558.089735	2497.891731
558.446994	2533.179808
558.804197	2555.865000
559.161345	2591.153077
559.518437	2465.124231
559.875474	2538.220962
560.232455	2490.330000
560.589381	2608.797115
560.946251	2495.371154
561.303065	2492.850577
561.659825	2492.850577
562.016528	2515.535769
562.373177	2533.179808
562.729770	2477.727115
563.086307	2550.823846
563.442789	2576.029615
563.799216	2497.891731
564.155587	2510.494615
564.511904	2507.974038
564.868164	2505.453462
565.224370	2502.932885
565.580520	2533.179808
565.936615	2480.247692
566.292654	2487.809423
566.648638	2543.262115
567.004567	2439.918462
567.360441	2419.753846
567.716260	2475.206538
568.072023	2518.056346
568.427732	2475.206538
568.783385	2475.206538
569.138982	2434.877308
569.494525	2523.097500
569.850013	2427.315577
570.205445	2538.220962
570.560823	2462.603654
570.916145	2492.850577
571.271412	2530.659231
571.626625	2457.562500
571.981782	2407.150962
572.336884	2475.206538
572.691931	2565.947308
573.046923	2515.535769
573.401860	2502.932885
573.756743	2553.344423
574.111570	2482.768269
574.466342	2447.480192
574.821059	2477.727115
575.175722	2460.083077
575.530330	2500.412308
575.884882	2540.741538
576.239380	2553.344423
576.593823	2518.056346
576.948211	2444.959615
577.302544	2480.247692
577.656823	2434.877308
578.011047	2596.194231
578.365216	2518.056346
578.719330	2442.439038
579.073389	2570.988462
579.427394	2472.685962
579.781344	2523.097500
580.135239	2533.179808
580.489080	2525.618077
580.842866	2545.782692
581.196597	2530.659231
581.550273	2460.083077
581.903895	2530.659231
582.257463	2472.685962
582.610975	2482.768269
582.964434	2465.124231
583.317837	2500.412308
583.671186	2550.823846
584.024481	2434.877308
584.377721	2601.235385
584.730906	2523.097500
585.084037	2515.535769
585.437113	2424.795000
585.790135	2528.138654
586.143103	2419.753846
586.496016	2540.741538
586.848874	2482.768269
587.201679	2502.932885
587.554428	2518.056346
587.907124	2495.371154
588.259765	2460.083077
588.612352	2510.494615
588.964884	2475.206538
589.317362	2513.015192
589.669786	2583.591346
590.022155	2505.453462
590.374470	2525.618077
590.726731	2432.356731
591.078937	2455.041923
591.431090	2576.029615
591.783188	2528.138654
592.135232	2518.056346
592.487222	2535.700385
592.839157	2518.056346
593.191038	2472.685962
593.542866	2482.768269
593.894639	2492.850577
594.246358	2422.274423
594.598022	2553.344423
594.949633	2525.618077
595.301190	2460.083077
595.652692	2419.753846
596.004141	2535.700385
596.355535	2429.836154
596.706876	2518.056346
597.058162	2485.288846
597.409395	2495.371154
597.760573	2507.974038
598.111698	2399.589231
598.462768	2528.138654
598.813785	2538.220962
599.164748	2538.220962
599.515657	2422.274423
599.866511	2495.371154
600.217312	2447.480192
600.568060	2487.809423
600.918753	2492.850577
601.269392	2520.576923
601.619978	2502.932885
601.970510	2497.891731
602.320988	2507.974038
602.671412	2520.576923
603.021783	2434.877308
603.372100	2495.371154
603.722363	2467.644808
604.072572	2568.467885
604.422728	2550.823846
604.772830	2538.220962
605.122878	2392.027500
605.472872	2457.562500
605.822813	2502.932885
606.172701	2565.947308
606.522534	2507.974038
606.872314	2581.070769
607.222041	2482.768269
607.571714	2444.959615
607.921333	2578.550192
608.270899	2482.768269
608.620411	2510.494615
608.969870	2480.247692
609.319276	2502.932885
609.668627	2543.262115
610.017926	2530.659231
610.367171	2525.618077
610.716362	2545.782692
611.065500	2495.371154
611.414585	2510.494615
611.763616	2545.782692
612.112594	2563.426731
612.461518	2548.303269
612.810389	2523.097500
613.159207	2520.576923
613.507971	2412.192115
613.856682	2500.412308
614.205340	2447.480192
614.553945	2545.782692
614.902496	2510.494615
615.250994	2495.371154
615.599439	2540.741538
615.947830	2447.480192
616.296169	2482.768269
616.644454	2520.576923
616.992686	2538.220962
617.340864	2455.041923
617.688990	2538.220962
618.037063	2450.000769
618.385082	2591.153077
618.733048	2513.015192
619.080961	2502.932885
619.428821	2507.974038
619.776628	2439.918462
620.124382	2510.494615
620.472083	2439.918462
620.819731	2555.865000
621.167326	2442.439038
621.514868	2455.041923
621.862357	2470.165385
622.209793	2470.165385
622.557176	2467.644808
622.904506	2586.111923
623.251783	2543.262115
623.599007	2520.576923
623.946179	2500.412308
624.293297	2487.809423
624.640363	2397.068654
624.987376	2450.000769
625.334336	2500.412308
625.681243	2520.576923
626.028097	2452.521346
626.374899	2533.179808
626.721647	2535.700385
627.068343	2470.165385
627.414987	2555.865000
627.761577	2565.947308
628.108115	2530.659231
628.454600	2472.685962
628.801032	2414.712692
629.147412	2472.685962
629.493739	2513.015192
629.840014	2444.959615
630.186236	2475.206538
630.532405	2472.685962
630.878521	2545.782692
631.224585	2490.330000
631.570597	2563.426731
631.916556	2513.015192
632.262462	2500.412308
632.608316	2467.644808
632.954117	2500.412308
633.299866	2439.918462
633.645562	2434.877308
633.991206	2434.877308
634.336797	2533.179808
634.682336	2485.288846
635.027823	2520.576923
635.373257	2568.467885
635.718639	2548.303269
636.063968	2500.412308
636.409245	2507.974038
636.754470	2596.194231
637.099642	2447.480192
637.444762	2518.056346
637.789829	2470.165385
638.134845	2457.562500
638.479808	2497.891731
638.824719	2523.097500
639.169577	2427.315577
639.514383	2399.589231
639.859137	2538.220962
640.203839	2523.097500
640.548489	2485.288846
640.893086	2507.974038
641.237632	2495.371154
641.582125	2472.685962
641.926566	2535.700385
642.270955	2427.315577
642.615292	2533.179808
642.959576	2482.768269
643.303809	2565.947308
643.647990	2487.809423
643.992118	2507.974038
644.336195	2515.535769
644.680219	2560.906154
645.024192	2457.562500
645.368112	2543.262115
645.711981	2598.714808
646.055797	2518.056346
646.399562	2444.959615
646.743274	2427.315577
647.086935	2460.083077
647.430544	2533.179808
647.774101	2442.439038
648.117606	2492.850577
648.461059	2457.562500
648.804460	2540.741538
649.147810	2540.741538
649.491108	2525.618077
649.834354	2475.206538
650.177548	2548.303269
650.520690	2470.165385
650.863781	2495.371154
651.206820	2462.603654
651.549807	2533.179808
651.892742	2457.562500
652.235626	2540.741538
652.578458	2487.809423
652.921238	2520.576923
653.263967	2520.576923
653.606644	2548.303269
653.949269	2591.153077
654.291843	2487.809423
654.634365	2520.576923
654.976836	2490.330000
655.319255	2502.932885
655.661622	2485.288846
656.003938	2593.673654
656.346203	2455.041923
656.688416	2455.041923
657.030577	2485.288846
657.372687	2502.932885
657.714746	2450.000769
658.056753	2502.932885
658.398708	2487.809423
658.740612	2563.426731
659.082465	2525.618077
659.424266	2525.618077
659.766016	2555.865000
660.107715	2492.850577
660.449362	2510.494615
660.790958	2477.727115
661.132503	2518.056346
661.473996	2497.891731
661.815438	2581.070769
662.156829	2550.823846
662.498168	2538.220962
662.839456	2553.344423
663.180693	2513.015192
663.521879	2565.947308
663.863013	2470.165385
664.204097	2477.727115
664.545129	2540.741538
664.886110	2490.330000
665.227040	2553.344423
665.567918	2399.589231
665.908746	2472.685962
666.249522	2535.700385
666.590248	2560.906154
666.930922	2576.029615
667.271545	2550.823846
667.612118	2540.741538
667.952639	2502.932885
668.293109	2485.288846
668.633528	2513.015192
668.973896	2490.330000
669.314213	2510.494615
669.654480	2591.153077
669.994695	2477.727115
670.334859	2505.453462
670.674973	2465.124231
671.015035	2505.453462
671.355047	2525.618077
671.695008	2543.262115
672.034918	2543.262115
672.374777	2437.397885
672.714585	2523.097500
673.054342	2437.397885
673.394049	2525.618077
673.733705	2530.659231
674.073310	2467.644808
674.412864	2540.741538
674.752368	2502.932885
675.091820	2497.891731
675.431223	2570.988462
675.770574	2422.274423
676.109875	2434.877308
676.449125	2525.618077
676.788324	2513.015192
677.127473	2495.371154
677.466571	2540.741538
677.805619	2513.015192
678.144616	2422.274423
678.483562	2434.877308
678.822458	2558.385577
679.161303	2510.494615
679.500098	2500.412308
679.838842	2495.371154
680.177535	2487.809423
680.516179	2452.521346
680.854771	2505.453462
681.193314	2475.206538
681.531805	2507.974038
681.870247	2603.755962
682.208638	2364.301154
682.546978	2507.974038
682.885268	2427.315577
683.223508	2487.809423
683.561697	2444.959615
683.899836	2563.426731
684.237925	2538.220962
684.575963	2538.220962
684.913951	2523.097500
685.251889	2386.986346
685.589776	2490.330000
685.927614	2422.274423
686.265401	2583.591346
686.603137	2434.877308
686.940824	2462.603654
687.278460	2515.535769
687.616046	2460.083077
687.953582	2495.371154
688.291068	2487.809423
688.628504	2465.124231
688.965889	2513.015192
689.303224	2460.083077
689.640510	2477.727115
689.977745	2447.480192
690.314930	2442.439038
690.652065	2515.535769
690.989150	2525.618077
691.326185	2452.521346
691.663170	2447.480192
692.000105	2555.865000
692.336990	2477.727115
692.673825	2497.891731
693.010610	2540.741538
693.347345	2467.644808
693.684030	2492.850577
694.020665	2462.603654
694.357251	2608.797115
694.693786	2550.823846
695.030272	2462.603654
695.366707	2520.576923
695.703093	2505.453462
696.039429	2452.521346
696.375716	2601.235385
696.711952	2490.330000
697.048139	2495.371154
697.384276	2452.521346
697.720363	2475.206538
698.056400	2475.206538
698.392388	2545.782692
698.728326	2558.385577
699.064214	2444.959615
699.400053	2487.809423
699.735842	2502.932885
700.071581	2568.467885
700.407270	2492.850577
700.742910	2497.891731
701.078501	2533.179808
701.414042	2505.453462
701.749533	2487.809423
702.084974	2505.453462
702.420366	2497.891731
702.755709	2591.153077
703.091002	2502.932885
703.426246	2457.562500
703.761440	2538.220962
704.096584	2472.685962
704.431679	2389.506923
704.766725	2465.124231
705.101721	2442.439038
705.436668	2558.385577
705.771565	2591.153077
706.106413	2475.206538
706.441212	2427.315577
706.775961	2505.453462
707.110661	2502.932885
707.445311	2475.206538
707.779913	2462.603654
708.114465	2462.603654
708.448967	2502.932885
708.783421	2429.836154
709.117825	2528.138654
709.452180	2510.494615
709.786485	2444.959615
710.120742	2530.659231
710.454949	2450.000769
710.789107	2497.891731
711.123216	2570.988462
711.457275	2487.809423
711.791286	2429.836154
712.125247	2414.712692
712.459159	2497.891731
712.793023	2460.083077
713.126837	2472.685962
713.460602	2470.165385
713.794318	2518.056346
714.127985	2472.685962
714.461602	2500.412308
714.795171	2475.206538
715.128691	2581.070769
715.462162	2467.644808
715.795584	2500.412308
716.128957	2555.865000
716.462281	2563.426731
716.795556	2485.288846
717.128782	2432.356731
717.461960	2490.330000
717.795088	2386.986346
718.128167	2565.947308
718.461198	2487.809423
718.794180	2510.494615
719.127113	2510.494615
719.459997	2472.685962
719.792833	2477.727115
720.125619	2427.315577
720.458357	2480.247692
720.791046	2520.576923
721.123686	2490.330000
721.456278	2477.727115
721.788821	2538.220962
722.121315	2485.288846
722.453761	2475.206538
722.786158	2540.741538
723.118506	2452.521346
723.450805	2442.439038
723.783056	2502.932885
724.115259	2482.768269
724.447412	2480.247692
724.779518	2515.535769
725.111574	2515.535769
725.443582	2500.412308
725.775542	2520.576923
726.107453	2510.494615
726.439315	2513.015192
726.771129	2442.439038
727.102895	2480.247692
727.434612	2490.330000
727.766281	2555.865000
728.097901	2540.741538
728.429473	2560.906154
728.760996	2490.330000
729.092471	2601.235385
729.423897	2492.850577
729.755276	2555.865000
730.086606	2510.494615
730.417887	2490.330000
730.749120	2419.753846
731.080305	2565.947308
731.411442	2457.562500
731.742530	2505.453462
732.073570	2510.494615
732.404562	2530.659231
732.735506	2487.809423
733.066401	2523.097500
733.397249	2472.685962
733.728048	2535.700385
734.058798	2505.453462
734.389501	2538.220962
734.720156	2555.865000
735.050762	2460.083077
735.381320	2548.303269
735.711831	2487.809423
736.042293	2523.097500
736.372707	2467.644808
736.703073	2525.618077
737.033391	2543.262115
737.363661	2487.809423
737.693883	2505.453462
738.024056	2523.097500
738.354182	2492.850577
738.684260	2540.741538
739.014290	2523.097500
739.344272	2492.850577
739.674207	2520.576923
740.004093	2495.371154
740.333931	2465.124231
740.663722	2455.041923
740.993464	2576.029615
741.323159	2510.494615
741.652806	2452.521346
741.982405	2467.644808
742.311956	2523.097500
742.641460	2548.303269
742.970915	2455.041923
743.300323	2455.041923
743.629683	2558.385577
743.958996	2515.535769
744.288260	2528.138654
744.617477	2578.550192
744.946647	2497.891731
745.275768	2477.727115
745.604842	2492.850577
745.933869	2523.097500
746.262847	2447.480192
746.591778	2457.562500
746.920662	2507.974038
747.249498	2540.741538
747.578286	2460.083077
747.907027	2563.426731
748.235720	2538.220962
748.564365	2573.509038
748.892963	2550.823846
749.221514	2475.206538
749.550017	2565.947308
749.878473	2472.685962
750.206881	2424.795000
750.535242	2480.247692
750.863555	2497.891731
751.191821	2487.809423
751.520039	2485.288846
751.848210	2467.644808
752.176334	2505.453462
752.504411	2457.562500
752.832440	2482.768269
753.160421	2502.932885
753.488356	2538.220962
753.816243	2502.932885
754.144082	2472.685962
754.471875	2480.247692
754.799620	2429.836154
755.127318	2492.850577
755.454969	2530.659231
755.782572	2515.535769
756.110129	2495.371154
756.437638	2465.124231
756.765100	2550.823846
757.092515	2465.124231
757.419882	2538.220962
757.747203	2502.932885
758.074477	2523.097500
758.401703	2525.618077
758.728882	2422.274423
759.056014	2528.138654
759.383099	2444.959615
759.710138	2535.700385
760.037129	2482.768269
760.364073	2460.083077
760.690970	2397.068654
761.017820	2507.974038
761.344623	2457.562500
761.671379	2490.330000
761.998088	2444.959615
762.324751	2558.385577
762.651366	2568.467885
762.977935	2553.344423
763.304456	2450.000769
763.630931	2513.015192
763.957359	2553.344423
764.283740	2528.138654
764.610074	2434.877308
764.936362	2444.959615
765.262602	2500.412308
765.588796	2515.535769
765.914943	2487.809423
766.241044	2472.685962
766.567097	2477.727115
766.893104	2480.247692
767.219064	2523.097500
767.544978	2462.603654
767.870845	2394.548077
768.196665	2513.015192
768.522438	2460.083077
768.848165	2480.247692
769.173846	2495.371154
769.499479	2477.727115
769.825066	2409.671538
770.150607	2490.330000
770.476101	2570.988462
770.801548	2452.521346
771.126949	2507.974038
771.452303	2480.247692
771.777611	2550.823846
772.102872	2540.741538
772.428087	2591.153077
772.753256	2477.727115
773.078378	2586.111923
773.403453	2606.276538
773.728482	2576.029615
774.053465	2510.494615
774.378401	2588.632500
774.703291	2502.932885
775.028135	2432.356731
775.352932	2477.727115
775.677683	2586.111923
776.002388	2543.262115
776.327046	2490.330000
776.651658	2470.165385
776.976224	2487.809423
777.300743	2492.850577
777.625216	2550.823846
777.949643	2455.041923
778.274024	2490.330000
778.598359	2568.467885
778.922647	2495.371154
779.246889	2540.741538
779.571086	2477.727115
779.895236	2540.741538
780.219339	2432.356731
780.543397	2442.439038
780.867409	2475.206538
781.191374	2502.932885
781.515294	2525.618077
781.839167	2490.330000
782.162995	2404.630385
782.486776	2518.056346
782.810511	2510.494615
783.134201	2507.974038
783.457844	2460.083077
783.781441	2442.439038
784.104993	2563.426731
784.428498	2525.618077
784.751958	2548.303269
785.075372	2495.371154
785.398739	2485.288846
785.722061	2530.659231
786.045337	2437.397885
786.368568	2477.727115
786.691752	2497.891731
787.014891	2472.685962
787.337983	2485.288846
787.661030	2442.439038
787.984031	2482.768269
788.306987	2477.727115
788.629897	2520.576923
788.952760	2533.179808
789.275579	2460.083077
789.598351	2485.288846
789.921078	2417.233269
790.243759	2475.206538
790.566395	2530.659231
790.888984	2505.453462
791.211529	2543.262115
791.534027	2553.344423
791.856480	2482.768269
792.178888	2470.165385
792.501249	2497.891731
792.823566	2510.494615
793.145836	2444.959615
793.468062	2495.371154
793.790241	2510.494615
794.112375	2432.356731
794.434464	2475.206538
794.756507	2482.768269
795.078505	2487.809423
795.400457	2485.288846
795.722364	2455.041923
796.044226	2467.644808
796.366042	2530.659231
796.687812	2432.356731
797.009538	2523.097500
797.331218	2482.768269
797.652852	2482.768269
797.974442	2455.041923
798.295986	2520.576923
798.617484	2465.124231
798.938938	2450.000769
799.260346	2485.288846
799.581709	2533.179808
799.903026	2485.288846
800.224299	2513.015192
800.545526	2475.206538
800.866708	2568.467885
801.187845	2409.671538
801.508936	2497.891731
801.829983	2565.947308
802.150984	2513.015192
802.471940	2457.562500
802.792851	2460.083077
803.113717	2538.220962
803.434538	2452.521346
803.755314	2470.165385
804.076045	2452.521346
804.396731	2515.535769
804.717372	2528.138654
805.037967	2540.741538
805.358518	2525.618077
805.679024	2419.753846
805.999485	2523.097500
806.319901	2452.521346
806.640272	2490.330000
806.960598	2472.685962
807.280879	2520.576923
807.601115	2480.247692
807.921306	2565.947308
808.241453	2424.795000
808.561554	2515.535769
808.881611	2455.041923
809.201623	2555.865000
809.521590	2437.397885
809.841513	2573.509038
810.161390	2502.932885
810.481223	2432.356731
810.801011	2538.220962
811.120755	2422.274423
811.440453	2550.823846
811.760107	2520.576923
812.079716	2394.548077
812.399281	2487.809423
812.718801	2439.918462
813.038276	2515.535769
813.357707	2480.247692
813.677093	2437.397885
813.996434	2558.385577
814.315731	2485.288846
814.634983	2487.809423
814.954191	2470.165385
815.273354	2482.768269
815.592473	2472.685962
815.911547	2518.056346
816.230577	2507.974038
816.549562	2525.618077
816.868502	2450.000769
817.187399	2550.823846
817.506250	2502.932885
817.825058	2462.603654
818.143821	2507.974038
818.462539	2495.371154
818.781213	2500.412308
819.099843	2399.589231
819.418429	2550.823846
819.736970	2507.974038
820.055466	2467.644808
820.373919	2470.165385
820.692327	2510.494615
821.010691	2434.877308
821.329011	2533.179808
821.647286	2427.315577
821.965517	2429.836154
822.283704	2570.988462
822.601847	2482.768269
822.919945	2540.741538
823.237999	2543.262115
823.556010	2500.412308
823.873976	2510.494615
824.191897	2540.741538
824.509775	2460.083077
824.827609	2485.288846
825.145398	2510.494615
825.463144	2500.412308
825.780845	2545.782692
826.098502	2520.576923
826.416116	2462.603654
826.733685	2520.576923
827.051210	2389.506923
827.368692	2548.303269
827.686129	2520.576923
828.003522	2444.959615
828.320872	2495.371154
828.638177	2460.083077
828.955439	2472.685962
829.272656	2495.371154
829.589830	2533.179808
829.906960	2467.644808
830.224046	2475.206538
830.541088	2414.712692
830.858086	2528.138654
831.175041	2525.618077
831.491952	2538.220962
831.808819	2583.591346
832.125642	2457.562500
832.442421	2467.644808
832.759157	2528.138654
833.075849	2467.644808
833.392497	2555.865000
833.709101	2523.097500
834.025662	2437.397885
834.342179	2492.850577
834.658653	2558.385577
834.975083	2603.755962
835.291469	2576.029615
835.607811	2558.385577
835.924110	2520.576923
836.240366	2457.562500
836.556578	2485.288846
836.872746	2513.015192
837.188871	2487.809423
837.504952	2490.330000
837.820990	2477.727115
838.136984	2417.233269
838.452935	2414.712692
838.768842	2523.097500
839.084706	2495.371154
839.400526	2507.974038
839.716303	2472.685962
840.032037	2558.385577
840.347727	2465.124231
840.663373	2432.356731
840.978977	2588.632500
841.294537	2510.494615
841.610054	2543.262115
841.925527	2603.755962
842.240957	2480.247692
842.556344	2447.480192
842.871687	2475.206538
843.186987	2515.535769
843.502244	2495.371154
843.817458	2465.124231
844.132629	2467.644808
844.447756	2593.673654
844.762840	2502.932885
845.077881	2437.397885
845.392879	2533.179808
845.707833	2502.932885
846.022745	2515.535769
846.337613	2434.877308
846.652438	2497.891731
846.967221	2555.865000
847.281960	2394.548077
847.596656	2507.974038
847.911309	2457.562500
848.225919	2543.262115
848.540485	2507.974038
848.855009	2492.850577
849.169490	2507.974038
849.483928	2523.097500
849.798323	2460.083077
850.112675	2492.850577
850.426984	2525.618077
850.741251	2578.550192
851.055474	2384.465769
851.369654	2439.918462
851.683792	2530.659231
851.997887	2507.974038
852.311938	2548.303269
852.625947	2437.397885
852.939914	2495.371154
853.253837	2369.342308
853.567718	2462.603654
853.881555	2497.891731
854.195350	2487.809423
854.509103	2477.727115
854.822812	2485.288846
855.136479	2520.576923
855.450103	2447.480192
855.763685	2452.521346
856.077224	2543.262115
856.390720	2381.945192
856.704173	2414.712692
857.017584	2442.439038
857.330953	2510.494615
857.644278	2470.165385
857.957561	2591.153077
858.270802	2442.439038
858.584000	2540.741538
858.897155	2444.959615
859.210268	2550.823846
859.523339	2570.988462
859.836367	2444.959615
860.149352	2460.083077
860.462295	2462.603654
860.775195	2515.535769
861.088054	2429.836154
861.400869	2563.426731
861.713642	2434.877308
862.026373	2520.576923
862.339062	2528.138654
862.651708	2480.247692
862.964312	2515.535769
863.276873	2442.439038
863.589392	2550.823846
863.901869	2427.315577
864.214303	2444.959615
864.526696	2482.768269
864.839045	2465.124231
865.151353	2434.877308
865.463619	2538.220962
865.775842	2492.850577
866.088023	2465.124231
866.400162	2497.891731
866.712258	2467.644808
867.024313	2467.644808
867.336325	2505.453462
867.648296	2397.068654
867.960224	2528.138654
868.272110	2528.138654
868.583954	2568.467885
868.895755	2497.891731
869.207515	2381.945192
869.519233	2462.603654
869.830909	2432.356731
870.142542	2533.179808
870.454134	2437.397885
870.765684	2495.371154
871.077191	2520.576923
871.388657	2404.630385
871.700081	2475.206538
872.011463	2538.220962
872.322803	2482.768269
872.634101	2480.247692
872.945357	2427.315577
873.256571	2507.974038
873.567744	2492.850577
873.878874	2545.782692
874.189963	2485.288846
874.501010	2507.974038
874.812015	2487.809423
875.122979	2515.535769
875.433900	2568.467885
875.744780	2437.397885
876.055618	2593.673654
876.366415	2513.015192
876.677169	2432.356731
876.987882	2507.974038
877.298554	2492.850577
877.609183	2530.659231
877.919771	2535.700385
878.230317	2444.959615
878.540822	2538.220962
878.851285	2510.494615
879.161707	2510.494615
879.472087	2482.768269
879.782425	2447.480192
880.092722	2523.097500
880.402977	2485.288846
880.713191	2515.535769
881.023363	2505.453462
881.333494	2533.179808
881.643583	2434.877308
881.953631	2447.480192
882.263637	2518.056346
882.573602	2487.809423
882.883526	2500.412308
883.193408	2452.521346
883.503248	2442.439038
883.813048	2523.097500
884.122806	2497.891731
884.432522	2455.041923
884.742197	2495.371154
885.051831	2520.576923
885.361424	2530.659231
885.670975	2452.521346
885.980485	2412.192115
886.289954	2492.850577
886.599382	2510.494615
886.908768	2434.877308
887.218113	2409.671538
887.527417	2515.535769
887.836680	2450.000769
888.145901	2490.330000
888.455082	2568.467885
888.764221	2475.206538
889.073319	2381.945192
889.382376	2444.959615
889.691392	2520.576923
890.000366	2432.356731
890.309300	2573.509038
890.618193	2465.124231
890.927044	2482.768269
891.235855	2550.823846
891.544625	2460.083077
891.853353	2460.083077
892.162041	2533.179808
892.470687	2409.671538
892.779293	2485.288846
893.087858	2444.959615
893.396381	2505.453462
893.704864	2399.589231
894.013306	2475.206538
894.321707	2482.768269
894.630068	2543.262115
894.938387	2467.644808
895.246665	2515.535769
895.554903	2523.097500
895.863100	2434.877308
896.171256	2586.111923
896.479371	2553.344423
896.787446	2518.056346
897.095480	2450.000769
897.403473	2482.768269
897.711425	2507.974038
898.019336	2465.124231
898.327207	2543.262115
898.635038	2424.795000
898.942827	2515.535769
899.250576	2578.550192
899.558284	2462.603654
899.865952	2460.083077
900.173579	2523.097500
900.481165	2442.439038
900.788711	2518.056346
901.096216	2439.918462
901.403681	2495.371154
901.711105	2495.371154
902.018489	2480.247692
902.325832	2497.891731
902.633135	2465.124231
902.940397	2538.220962
903.247619	2457.562500
903.554800	2515.535769
903.861941	2533.179808
904.169041	2417.233269
904.476101	2588.632500
904.783121	2563.426731
905.090100	2447.480192
905.397039	2545.782692
905.703938	2578.550192
906.010796	2513.015192
906.317614	2540.741538
906.624391	2472.685962
906.931129	2523.097500
907.237826	2608.797115
907.544483	2409.671538
907.851099	2444.959615
908.157675	2450.000769
908.464211	2495.371154
908.770707	2477.727115
909.077163	2535.700385
909.383578	2518.056346
909.689954	2510.494615
909.996289	2487.809423
910.302584	2487.809423
910.608839	2513.015192
910.915054	2457.562500
911.221229	2505.453462
911.527363	2497.891731
911.833458	2487.809423
912.139513	2465.124231
912.445527	2523.097500
912.751502	2472.685962
913.057436	2543.262115
913.363331	2502.932885
913.669186	2558.385577
913.975000	2530.659231
914.280775	2555.865000
914.586510	2550.823846
914.892205	2540.741538
915.197859	2502.932885
915.503475	2465.124231
915.809050	2502.932885
916.114585	2515.535769
916.420081	2460.083077
916.725536	2444.959615
917.030952	2548.303269
917.336328	2444.959615
917.641665	2487.809423
917.946961	2596.194231
918.252218	2492.850577
918.557435	2528.138654
918.862612	2376.904038
919.167750	2573.509038
919.472848	2513.015192
919.777906	2550.823846
920.082925	2477.727115
920.387904	2543.262115
920.692843	2485.288846
920.997743	2550.823846
921.302603	2399.589231
921.607423	2528.138654
921.912204	2530.659231
922.216946	2513.015192
922.521647	2515.535769
922.826310	2480.247692
923.130932	2452.521346
923.435516	2540.741538
923.740059	2455.041923
924.044564	2492.850577
924.349028	2495.371154
924.653454	2404.630385
924.957840	2550.823846
925.262186	2558.385577
925.566493	2404.630385
925.870761	2507.974038
926.174989	2502.932885
926.479178	2470.165385
926.783328	2442.439038
927.087438	2518.056346
927.391509	2482.768269
927.695541	2510.494615
927.999533	2455.041923
928.303486	2505.453462
928.607400	2528.138654
928.911275	2515.535769
929.215110	2515.535769
929.518906	2538.220962
929.822663	2558.385577
930.126381	2482.768269
930.430060	2492.850577
930.733699	2497.891731
931.037299	2513.015192
931.340861	2487.809423
931.644383	2485.288846
931.947866	2465.124231
932.251309	2487.809423
932.554714	2540.741538
932.858080	2452.521346
933.161407	2513.015192
933.464694	2442.439038
933.767943	2523.097500
934.071153	2545.782692
934.374323	2525.618077
934.677455	2525.618077
934.980548	2500.412308
935.283602	2450.000769
935.586617	2497.891731
935.889593	2548.303269
936.192530	2467.644808
936.495428	2515.535769
936.798287	2480.247692
937.101108	2482.768269
937.403890	2507.974038
937.706632	2477.727115
938.009336	2513.015192
938.312002	2424.795000
938.614628	2520.576923
938.917216	2487.809423
939.219765	2422.274423
939.522275	2560.906154
939.824747	2492.850577
940.127179	2525.618077
940.429573	2507.974038
940.731929	2520.576923
941.034246	2470.165385
941.336524	2510.494615
941.638763	2533.179808
941.940964	2492.850577
942.243126	2475.206538
942.545250	2500.412308
942.847335	2500.412308
943.149381	2565.947308
943.451389	2429.836154
943.753359	2543.262115
944.055290	2414.712692
944.357182	2530.659231
944.659036	2538.220962
944.960851	2455.041923
945.262628	2550.823846
945.564367	2392.027500
945.866067	2500.412308
946.167729	2417.233269
946.469352	2523.097500
946.770937	2439.918462
947.072484	2520.576923
947.373992	2455.041923
947.675462	2513.015192
947.976893	2510.494615
948.278286	2485.288846
948.579641	2505.453462
948.880958	2462.603654
949.182236	2555.865000
949.483476	2424.795000
949.784678	2528.138654
950.085841	2518.056346
950.386967	2495.371154
950.688054	2437.397885
950.989103	2477.727115
951.290114	2432.356731
951.591087	2497.891731
951.892021	2528.138654
952.192917	2402.109808
952.493776	2502.932885
952.794596	2470.165385
953.095378	2507.974038
953.396122	2518.056346
953.696828	2470.165385
953.997496	2540.741538
954.298126	2455.041923
954.598718	2447.480192
954.899272	2397.068654
955.199788	2570.988462
955.500266	2424.795000
955.800706	2528.138654
956.101108	2407.150962
956.401472	2523.097500
956.701798	2505.453462
957.002087	2457.562500
957.302337	2507.974038
957.602550	2467.644808
957.902724	2510.494615
958.202861	2497.891731
958.502960	2518.056346
958.803022	2497.891731
959.103045	2482.768269
959.403031	2490.330000
959.702979	2553.344423
960.002889	2502.932885
960.302762	2487.809423
960.602596	2450.000769
960.902393	2535.700385
961.202153	2470.165385
961.501875	2540.741538
961.801559	2533.179808
962.101205	2505.453462
962.400814	2447.480192
962.700385	2480.247692
962.999918	2510.494615
963.299414	2475.206538
963.598873	2497.891731
963.898293	2523.097500
964.197677	2495.371154
964.497022	2480.247692
964.796331	2507.974038
965.095601	2487.809423
965.394835	2470.165385
965.694030	2573.509038
965.993189	2500.412308
966.292309	2472.685962
966.591393	2457.562500
966.890439	2500.412308
967.189447	2485.288846
967.488419	2540.741538
967.787353	2490.330000
968.086249	2467.644808
968.385108	2530.659231
968.683930	2462.603654
968.982714	2500.412308
969.281462	2565.947308
969.580172	2533.179808
969.878844	2475.206538
970.177480	2460.083077
970.476078	2535.700385
970.774639	2507.974038
971.073162	2500.412308
971.371649	2482.768269
971.670098	2495.371154
971.968510	2568.467885
972.266885	2472.685962
972.565223	2540.741538
972.863524	2535.700385
973.161788	2472.685962
973.460014	2457.562500
973.758204	2490.330000
974.056356	2490.330000
974.354471	2507.974038
974.652550	2525.618077
974.950591	2497.891731
975.248595	2535.700385
975.546563	2460.083077
975.844493	2432.356731
976.142386	2538.220962
976.440243	2442.439038
976.738062	2492.850577
977.035845	2500.412308
977.333590	2505.453462
977.631299	2457.562500
977.928971	2510.494615
978.226606	2515.535769
978.524204	2581.070769
978.821765	2487.809423
979.119290	2462.603654
979.416777	2444.959615
979.714228	2487.809423
980.011642	2470.165385
980.309020	2392.027500
980.606360	2495.371154
980.903664	2518.056346
981.200931	2523.097500
981.498162	2470.165385
981.795356	2455.041923
982.092513	2452.521346
982.389633	2412.192115
982.686717	2505.453462
982.983764	2394.548077
983.280775	2467.644808
983.577749	2560.906154
983.874686	2409.671538
984.171587	2492.850577
984.468451	2457.562500
984.765279	2548.303269
985.062070	2450.000769
985.358824	2460.083077
985.655543	2429.836154
985.952224	2502.932885
986.248869	2447.480192
986.545478	2475.206538
986.842050	2450.000769
987.138586	2485.288846
987.435086	2510.494615
987.731549	2467.644808
988.027975	2482.768269
988.324366	2495.371154
988.620719	2437.397885
988.917037	2505.453462
989.213318	2447.480192
989.509563	2520.576923
989.805772	2482.768269
990.101944	2533.179808
990.398080	2452.521346
990.694180	2502.932885
990.990244	2470.165385
991.286271	2530.659231
991.582262	2495.371154
991.878217	2530.659231
992.174136	2530.659231
992.470019	2535.700385
992.765865	2450.000769
993.061676	2442.439038
993.357450	2455.041923
993.653188	2515.535769
993.948890	2553.344423
994.244556	2429.836154
994.540186	2510.494615
994.835780	2523.097500
995.131337	2538.220962
995.426859	2480.247692
995.722345	2515.535769
996.017795	2540.741538
996.313208	2470.165385
996.608586	2533.179808
996.903928	2485.288846
997.199234	2427.315577
997.494504	2495.371154
997.789738	2404.630385
998.084936	2500.412308
998.380099	2417.233269
998.675225	2528.138654
998.970316	2427.315577
999.265371	2487.809423
999.560390	2586.111923
999.855373	2578.550192
1000.150320	2432.356731
1000.445232	2518.056346
1000.740108	2462.603654
1001.034948	2523.097500
1001.329752	2598.714808
1001.624521	2460.083077
1001.919254	2417.233269
1002.213951	2560.906154
1002.508613	2419.753846
1002.803239	2477.727115
1003.097829	2460.083077
1003.392384	2523.097500
1003.686903	2470.165385
1003.981386	2470.165385
1004.275834	2447.480192
1004.570246	2429.836154
1004.864623	2455.041923
1005.158964	2515.535769
1005.453270	2450.000769
1005.747540	2538.220962
1006.041775	2555.865000
1006.335974	2447.480192
1006.630138	2502.932885
1006.924266	2505.453462
1007.218359	2482.768269
1007.512416	2437.397885
1007.806438	2538.220962
1008.100425	2505.453462
1008.394376	2533.179808
1008.688292	2470.165385
1008.982172	2507.974038
1009.276017	2518.056346
1009.569827	2497.891731
1009.863602	2455.041923
1010.157341	2510.494615
1010.451045	2507.974038
1010.744714	2442.439038
1011.038347	2457.562500
1011.331945	2573.509038
1011.625508	2455.041923
1011.919036	2447.480192
1012.212528	2555.865000
1012.505986	2487.809423
1012.799408	2560.906154
1013.092795	2513.015192
1013.386147	2518.056346
1013.679464	2513.015192
1013.972745	2492.850577
1014.265992	2475.206538
1014.559204	2500.412308
1014.852380	2442.439038
1015.145521	2540.741538
1015.438628	2475.206538
1015.731699	2482.768269
1016.024736	2530.659231
1016.317737	2515.535769
1016.610703	2500.412308
1016.903635	2447.480192
1017.196531	2510.494615
1017.489393	2500.412308
1017.782219	2482.768269
1018.075011	2520.576923
1018.367768	2487.809423
1018.660490	2520.576923
1018.953177	2520.576923
1019.245829	2520.576923
