Dividing Wavelength (nm)	Counts (n)	Blue Motor Position (mm): 0.000000	Red Motor Position (mm): 9.500000	
326.493990	2157.613846
326.888308	2157.613846
327.282561	2157.613846
327.676750	2008.899808
328.070874	2160.134423
328.464933	2041.667308
328.858929	2031.585000
329.252859	2122.325769
329.646726	2087.037692
330.040528	2097.120000
330.434265	2049.229038
330.827938	2034.105577
331.221547	2180.299038
331.615091	2152.572692
332.008571	2208.025385
332.401986	2268.519231
332.795338	2235.751731
333.188625	2253.395769
333.581847	2205.504808
333.975006	2293.725000
334.368100	2339.095385
334.761129	2296.245577
335.154095	2331.533654
335.546996	2351.698269
335.939833	2422.274423
336.332606	2364.301154
336.725315	2417.233269
337.117960	2450.000769
337.510540	2409.671538
337.903056	2429.836154
338.295508	2412.192115
338.687896	2432.356731
339.080220	2419.753846
339.472480	2470.165385
339.864676	2455.041923
340.256807	2500.412308
340.648875	2419.753846
341.040879	2444.959615
341.432818	2424.795000
341.824694	2513.015192
342.216506	2480.247692
342.608253	2404.630385
342.999937	2472.685962
343.391557	2457.562500
343.783113	2369.342308
344.174605	2384.465769
344.566033	2442.439038
344.957397	2450.000769
345.348697	2502.932885
345.739934	2475.206538
346.131106	2482.768269
346.522215	2450.000769
346.913260	2535.700385
347.304241	2394.548077
347.695159	2427.315577
348.086012	2414.712692
348.476802	2439.918462
348.867528	2507.974038
349.258191	2366.821731
349.648789	2417.233269
350.039324	2442.439038
350.429796	2455.041923
350.820203	2482.768269
351.210548	2477.727115
351.600828	2407.150962
351.991045	2429.836154
352.381198	2492.850577
352.771288	2470.165385
353.161314	2502.932885
353.551276	2467.644808
353.941175	2318.930769
354.331010	2450.000769
354.720782	2414.712692
355.110490	2384.465769
355.500135	2457.562500
355.889717	2429.836154
356.279235	2409.671538
356.668689	2467.644808
357.058080	2452.521346
357.447408	2497.891731
357.836672	2414.712692
358.225873	2500.412308
358.615010	2432.356731
359.004084	2414.712692
359.393095	2472.685962
359.782043	2432.356731
360.170927	2434.877308
360.559748	2455.041923
360.948505	2482.768269
361.337199	2510.494615
361.725830	2485.288846
362.114398	2452.521346
362.502903	2397.068654
362.891344	2515.535769
363.279722	2434.877308
363.668037	2432.356731
364.056289	2429.836154
364.444478	2513.015192
364.832603	2392.027500
365.220665	2397.068654
365.608665	2465.124231
365.996601	2510.494615
366.384474	2475.206538
366.772284	2525.618077
367.160031	2452.521346
367.547715	2447.480192
367.935336	2424.795000
368.322893	2497.891731
368.710388	2437.397885
369.097820	2480.247692
369.485189	2427.315577
369.872495	2502.932885
370.259738	2457.562500
370.646918	2518.056346
371.034035	2450.000769
371.421090	2447.480192
371.808081	2450.000769
372.195010	2432.356731
372.581875	2472.685962
372.968678	2480.247692
373.355418	2427.315577
373.742096	2389.506923
374.128710	2379.424615
374.515262	2495.371154
374.901751	2434.877308
375.288177	2477.727115
375.674540	2485.288846
376.060841	2475.206538
376.447079	2447.480192
376.833254	2513.015192
377.219367	2417.233269
377.605417	2513.015192
377.991404	2447.480192
378.377329	2502.932885
378.763191	2570.988462
379.148991	2487.809423
379.534727	2535.700385
379.920402	2447.480192
380.306013	2419.753846
380.691563	2374.383462
381.077049	2381.945192
381.462474	2467.644808
381.847835	2492.850577
382.233134	2404.630385
382.618371	2497.891731
383.003545	2424.795000
383.388657	2432.356731
383.773706	2460.083077
384.158693	2477.727115
384.543618	2487.809423
384.928480	2346.657115
385.313280	2450.000769
385.698017	2505.453462
386.082692	2502.932885
386.467305	2442.439038
386.851856	2442.439038
387.236344	2384.465769
387.620770	2507.974038
388.005133	2429.836154
388.389435	2500.412308
388.773674	2510.494615
389.157851	2477.727115
389.541965	2502.932885
389.926018	2450.000769
390.310008	2480.247692
390.693936	2399.589231
391.077802	2477.727115
391.461606	2510.494615
391.845348	2460.083077
392.229027	2500.412308
392.612645	2455.041923
392.996200	2422.274423
393.379694	2490.330000
393.763125	2490.330000
394.146494	2475.206538
394.529801	2543.262115
394.913047	2465.124231
395.296230	2480.247692
395.679351	2439.918462
396.062410	2452.521346
396.445408	2576.029615
396.828343	2452.521346
397.211217	2560.906154
397.594028	2490.330000
397.976778	2485.288846
398.359466	2568.467885
398.742092	2379.424615
399.124656	2475.206538
399.507158	2389.506923
399.889598	2477.727115
400.271977	2457.562500
400.654294	2530.659231
401.036549	2442.439038
401.418742	2444.959615
401.800874	2467.644808
402.182944	2442.439038
402.564952	2450.000769
402.946898	2525.618077
403.328783	2482.768269
403.710606	2472.685962
404.092367	2455.041923
404.474067	2510.494615
404.855705	2462.603654
405.237282	2576.029615
405.618797	2444.959615
406.000250	2492.850577
406.381642	2460.083077
406.762972	2460.083077
407.144240	2497.891731
407.525447	2427.315577
407.906593	2530.659231
408.287677	2389.506923
408.668700	2545.782692
409.049661	2467.644808
409.430560	2583.591346
409.811399	2455.041923
410.192176	2409.671538
410.572891	2427.315577
410.953545	2492.850577
411.334138	2444.959615
411.714669	2507.974038
412.095139	2444.959615
412.475547	2457.562500
412.855894	2475.206538
413.236180	2507.974038
413.616405	2477.727115
413.996568	2452.521346
414.376670	2528.138654
414.756711	2482.768269
415.136691	2432.356731
415.516609	2472.685962
415.896466	2389.506923
416.276262	2447.480192
416.655997	2429.836154
417.035670	2505.453462
417.415283	2419.753846
417.794834	2495.371154
418.174324	2518.056346
418.553753	2470.165385
418.933121	2523.097500
419.312428	2480.247692
419.691674	2492.850577
420.070859	2507.974038
420.449983	2480.247692
420.829045	2495.371154
421.208047	2545.782692
421.586988	2455.041923
421.965867	2497.891731
422.344686	2429.836154
422.723444	2548.303269
423.102141	2452.521346
423.480777	2487.809423
423.859352	2573.509038
424.237866	2485.288846
424.616319	2533.179808
424.994712	2414.712692
425.373044	2462.603654
425.751314	2480.247692
426.129524	2563.426731
426.507673	2475.206538
426.885762	2487.809423
427.263789	2520.576923
427.641756	2540.741538
428.019662	2465.124231
428.397508	2502.932885
428.775292	2528.138654
429.153016	2560.906154
429.530679	2596.194231
429.908282	2492.850577
430.285824	2465.124231
430.663305	2502.932885
431.040726	2465.124231
431.418086	2492.850577
431.795385	2439.918462
432.172624	2432.356731
432.549802	2500.412308
432.926920	2492.850577
433.303977	2530.659231
433.680974	2480.247692
434.057910	2525.618077
434.434786	2500.412308
434.811601	2480.247692
435.188355	2480.247692
435.565050	2475.206538
435.941683	2452.521346
436.318257	2525.618077
436.694770	2475.206538
437.071222	2490.330000
437.447614	2402.109808
437.823946	2530.659231
438.200218	2452.521346
438.576429	2533.179808
438.952580	2550.823846
439.328670	2460.083077
439.704700	2470.165385
440.080670	2475.206538
440.456580	2470.165385
440.832429	2434.877308
441.208218	2505.453462
441.583947	2495.371154
441.959616	2467.644808
442.335224	2520.576923
442.710773	2437.397885
443.086261	2497.891731
443.461689	2462.603654
443.837057	2452.521346
444.212365	2515.535769
444.587612	2492.850577
444.962800	2467.644808
445.337927	2505.453462
445.712995	2490.330000
446.088002	2472.685962
446.462949	2555.865000
446.837837	2407.150962
447.212664	2467.644808
447.587431	2535.700385
447.962139	2525.618077
448.336786	2472.685962
448.711374	2447.480192
449.085901	2523.097500
449.460369	2548.303269
449.834776	2381.945192
450.209124	2475.206538
450.583412	2492.850577
450.957640	2555.865000
451.331808	2538.220962
451.705917	2525.618077
452.079965	2492.850577
452.453954	2465.124231
452.827883	2447.480192
453.201752	2553.344423
453.575562	2487.809423
453.949311	2434.877308
454.323001	2513.015192
454.696632	2528.138654
455.070202	2490.330000
455.443713	2502.932885
455.817164	2497.891731
456.190556	2475.206538
456.563888	2502.932885
456.937160	2465.124231
457.310373	2429.836154
457.683526	2553.344423
458.056619	2533.179808
458.429653	2460.083077
458.802628	2543.262115
459.175542	2450.000769
459.548398	2515.535769
459.921194	2480.247692
460.293930	2530.659231
460.666607	2465.124231
461.039224	2495.371154
461.411782	2477.727115
461.784280	2525.618077
462.156719	2505.453462
462.529099	2447.480192
462.901419	2457.562500
463.273680	2502.932885
463.645882	2417.233269
464.018024	2507.974038
464.390106	2442.439038
464.762130	2578.550192
465.134094	2475.206538
465.505999	2543.262115
465.877845	2477.727115
466.249631	2500.412308
466.621358	2477.727115
466.993026	2447.480192
467.364634	2535.700385
467.736184	2523.097500
468.107674	2535.700385
468.479105	2487.809423
468.850477	2588.632500
469.221790	2482.768269
469.593043	2540.741538
469.964238	2518.056346
470.335373	2497.891731
470.706449	2497.891731
471.077467	2455.041923
471.448425	2520.576923
471.819324	2437.397885
472.190164	2497.891731
472.560945	2538.220962
472.931667	2507.974038
473.302330	2485.288846
473.672934	2447.480192
474.043479	2528.138654
474.413965	2563.426731
474.784393	2523.097500
475.154761	2447.480192
475.525070	2482.768269
475.895321	2452.521346
476.265513	2525.618077
476.635645	2495.371154
477.005719	2583.591346
477.375734	2450.000769
477.745691	2500.412308
478.115588	2528.138654
478.485427	2422.274423
478.855207	2510.494615
479.224928	2434.877308
479.594591	2540.741538
479.964194	2518.056346
480.333739	2465.124231
480.703226	2500.412308
481.072653	2518.056346
481.442022	2465.124231
481.811333	2467.644808
482.180584	2518.056346
482.549777	2500.412308
482.918912	2502.932885
483.287988	2447.480192
483.657005	2477.727115
484.025964	2507.974038
484.394864	2414.712692
484.763706	2530.659231
485.132489	2507.974038
485.501213	2482.768269
485.869879	2482.768269
486.238487	2502.932885
486.607036	2535.700385
486.975527	2528.138654
487.343959	2485.288846
487.712333	2545.782692
488.080648	2570.988462
488.448905	2447.480192
488.817104	2578.550192
489.185244	2467.644808
489.553326	2528.138654
489.921350	2510.494615
490.289315	2558.385577
490.657222	2452.521346
491.025070	2523.097500
491.392861	2558.385577
491.760593	2560.906154
492.128267	2533.179808
492.495883	2515.535769
492.863440	2510.494615
493.230939	2538.220962
493.598380	2540.741538
493.965763	2485.288846
494.333088	2502.932885
494.700354	2560.906154
495.067563	2432.356731
495.434713	2480.247692
495.801805	2528.138654
496.168839	2520.576923
496.535815	2505.453462
496.902733	2485.288846
497.269593	2480.247692
497.636395	2518.056346
498.003139	2500.412308
498.369825	2507.974038
498.736453	2543.262115
499.103023	2465.124231
499.469535	2507.974038
499.835989	2515.535769
500.202385	2528.138654
500.568723	2565.947308
500.935003	2497.891731
501.301226	2472.685962
501.667390	2452.521346
502.033497	2502.932885
502.399546	2492.850577
502.765537	2538.220962
503.131470	2520.576923
503.497345	2505.453462
503.863163	2419.753846
504.228923	2485.288846
504.594625	2543.262115
504.960269	2485.288846
505.325856	2578.550192
505.691385	2475.206538
506.056856	2442.439038
506.422270	2450.000769
506.787625	2492.850577
507.152924	2502.932885
507.518164	2477.727115
507.883347	2530.659231
508.248472	2525.618077
508.613540	2505.453462
508.978550	2535.700385
509.343503	2563.426731
509.708398	2500.412308
510.073236	2533.179808
510.438016	2538.220962
510.802738	2533.179808
511.167403	2465.124231
511.532010	2490.330000
511.896561	2500.412308
512.261053	2472.685962
512.625488	2510.494615
512.989866	2523.097500
513.354186	2424.795000
513.718449	2540.741538
514.082655	2520.576923
514.446803	2510.494615
514.810894	2429.836154
515.174927	2467.644808
515.538904	2510.494615
515.902822	2475.206538
516.266684	2490.330000
516.630488	2424.795000
516.994235	2462.603654
517.357925	2510.494615
517.721558	2543.262115
518.085133	2570.988462
518.448651	2422.274423
518.812112	2495.371154
519.175516	2460.083077
519.538863	2530.659231
519.902152	2555.865000
520.265385	2460.083077
520.628560	2518.056346
520.991678	2475.206538
521.354739	2550.823846
521.717743	2518.056346
522.080690	2505.453462
522.443580	2402.109808
522.806413	2518.056346
523.169189	2510.494615
523.531908	2568.467885
523.894569	2452.521346
524.257174	2480.247692
524.619722	2654.167500
524.982213	2560.906154
525.344647	2447.480192
525.707025	2500.412308
526.069345	2434.877308
526.431608	2505.453462
526.793815	2520.576923
527.155964	2457.562500
527.518057	2465.124231
527.880093	2548.303269
528.242072	2477.727115
528.603995	2560.906154
528.965860	2528.138654
529.327669	2407.150962
529.689421	2518.056346
530.051117	2558.385577
530.412755	2485.288846
530.774337	2487.809423
531.135862	2502.932885
531.497331	2452.521346
531.858743	2502.932885
532.220098	2427.315577
532.581396	2462.603654
532.942638	2515.535769
533.303824	2520.576923
533.664953	2515.535769
534.026025	2553.344423
534.387040	2525.618077
534.747999	2518.056346
535.108902	2535.700385
535.469748	2588.632500
535.830537	2540.741538
536.191270	2497.891731
536.551947	2492.850577
536.912567	2538.220962
537.273131	2437.397885
537.633638	2520.576923
537.994089	2487.809423
538.354483	2475.206538
538.714821	2507.974038
539.075103	2462.603654
539.435328	2500.412308
539.795497	2513.015192
540.155609	2452.521346
540.515665	2528.138654
540.875665	2470.165385
541.235609	2470.165385
541.595496	2581.070769
541.955328	2460.083077
542.315102	2563.426731
542.674821	2444.959615
543.034483	2581.070769
543.394090	2505.453462
543.753640	2490.330000
544.113134	2565.947308
544.472571	2462.603654
544.831953	2490.330000
545.191278	2548.303269
545.550548	2565.947308
545.909761	2507.974038
546.268918	2485.288846
546.628019	2570.988462
546.987064	2452.521346
547.346053	2553.344423
547.704986	2502.932885
548.063863	2497.891731
548.422684	2581.070769
548.781449	2485.288846
549.140158	2475.206538
549.498811	2470.165385
549.857408	2518.056346
550.215949	2505.453462
550.574434	2472.685962
550.932864	2507.974038
551.291237	2490.330000
551.649555	2422.274423
552.007817	2573.509038
552.366022	2470.165385
552.724173	2457.562500
553.082267	2475.206538
553.440305	2510.494615
553.798288	2480.247692
554.156215	2485.288846
554.514086	2482.768269
554.871902	2543.262115
555.229661	2439.918462
555.587365	2525.618077
555.945014	2462.603654
556.302606	2525.618077
556.660143	2510.494615
557.017625	2505.453462
557.375050	2417.233269
557.732421	2465.124231
558.089735	2477.727115
558.446994	2455.041923
558.804197	2477.727115
559.161345	2543.262115
559.518437	2487.809423
559.875474	2553.344423
560.232455	2437.397885
560.589381	2482.768269
560.946251	2490.330000
561.303065	2518.056346
561.659825	2510.494615
562.016528	2497.891731
562.373177	2485.288846
562.729770	2455.041923
563.086307	2523.097500
563.442789	2530.659231
563.799216	2538.220962
564.155587	2452.521346
564.511904	2523.097500
564.868164	2470.165385
565.224370	2505.453462
565.580520	2442.439038
565.936615	2485.288846
566.292654	2455.041923
566.648638	2515.535769
567.004567	2513.015192
567.360441	2465.124231
567.716260	2402.109808
568.072023	2472.685962
568.427732	2482.768269
568.783385	2545.782692
569.138982	2548.303269
569.494525	2485.288846
569.850013	2500.412308
570.205445	2525.618077
570.560823	2502.932885
570.916145	2482.768269
571.271412	2462.603654
571.626625	2555.865000
571.981782	2578.550192
572.336884	2485.288846
572.691931	2530.659231
573.046923	2581.070769
573.401860	2528.138654
573.756743	2492.850577
574.111570	2457.562500
574.466342	2570.988462
574.821059	2460.083077
575.175722	2437.397885
575.530330	2490.330000
575.884882	2507.974038
576.239380	2450.000769
576.593823	2460.083077
576.948211	2502.932885
577.302544	2450.000769
577.656823	2452.521346
578.011047	2515.535769
578.365216	2500.412308
578.719330	2545.782692
579.073389	2520.576923
579.427394	2520.576923
579.781344	2482.768269
580.135239	2480.247692
580.489080	2452.521346
580.842866	2490.330000
581.196597	2505.453462
581.550273	2465.124231
581.903895	2601.235385
582.257463	2460.083077
582.610975	2495.371154
582.964434	2548.303269
583.317837	2548.303269
583.671186	2530.659231
584.024481	2490.330000
584.377721	2507.974038
584.730906	2462.603654
585.084037	2457.562500
585.437113	2505.453462
585.790135	2460.083077
586.143103	2467.644808
586.496016	2530.659231
586.848874	2543.262115
587.201679	2467.644808
587.554428	2510.494615
587.907124	2477.727115
588.259765	2525.618077
588.612352	2424.795000
588.964884	2543.262115
589.317362	2500.412308
589.669786	2528.138654
590.022155	2482.768269
590.374470	2467.644808
590.726731	2540.741538
591.078937	2439.918462
591.431090	2533.179808
591.783188	2550.823846
592.135232	2487.809423
592.487222	2434.877308
592.839157	2510.494615
593.191038	2475.206538
593.542866	2525.618077
593.894639	2467.644808
594.246358	2502.932885
594.598022	2444.959615
594.949633	2528.138654
595.301190	2538.220962
595.652692	2533.179808
596.004141	2455.041923
596.355535	2523.097500
596.706876	2543.262115
597.058162	2513.015192
597.409395	2606.276538
597.760573	2528.138654
598.111698	2429.836154
598.462768	2530.659231
598.813785	2495.371154
599.164748	2462.603654
599.515657	2538.220962
599.866511	2450.000769
600.217312	2550.823846
600.568060	2568.467885
600.918753	2444.959615
601.269392	2518.056346
601.619978	2540.741538
601.970510	2520.576923
602.320988	2487.809423
602.671412	2427.315577
603.021783	2442.439038
603.372100	2480.247692
603.722363	2495.371154
604.072572	2492.850577
604.422728	2497.891731
604.772830	2480.247692
605.122878	2450.000769
605.472872	2472.685962
605.822813	2515.535769
606.172701	2361.780577
606.522534	2485.288846
606.872314	2515.535769
607.222041	2470.165385
607.571714	2442.439038
607.921333	2505.453462
608.270899	2457.562500
608.620411	2452.521346
608.969870	2490.330000
609.319276	2530.659231
609.668627	2593.673654
610.017926	2518.056346
610.367171	2560.906154
610.716362	2455.041923
611.065500	2490.330000
611.414585	2586.111923
611.763616	2568.467885
612.112594	2591.153077
612.461518	2462.603654
612.810389	2485.288846
613.159207	2381.945192
613.507971	2553.344423
613.856682	2444.959615
614.205340	2429.836154
614.553945	2487.809423
614.902496	2515.535769
615.250994	2490.330000
615.599439	2568.467885
615.947830	2550.823846
616.296169	2447.480192
616.644454	2502.932885
616.992686	2399.589231
617.340864	2538.220962
617.688990	2500.412308
618.037063	2568.467885
618.385082	2490.330000
618.733048	2581.070769
619.080961	2553.344423
619.428821	2555.865000
619.776628	2608.797115
620.124382	2570.988462
620.472083	2515.535769
620.819731	2414.712692
621.167326	2538.220962
621.514868	2457.562500
621.862357	2515.535769
622.209793	2482.768269
622.557176	2538.220962
622.904506	2457.562500
623.251783	2457.562500
623.599007	2452.521346
623.946179	2480.247692
624.293297	2422.274423
624.640363	2518.056346
624.987376	2487.809423
625.334336	2545.782692
625.681243	2510.494615
626.028097	2480.247692
626.374899	2538.220962
626.721647	2513.015192
627.068343	2492.850577
627.414987	2429.836154
627.761577	2495.371154
628.108115	2477.727115
628.454600	2515.535769
628.801032	2510.494615
629.147412	2495.371154
629.493739	2497.891731
629.840014	2422.274423
630.186236	2447.480192
630.532405	2444.959615
630.878521	2462.603654
631.224585	2523.097500
631.570597	2470.165385
631.916556	2472.685962
632.262462	2341.615962
632.608316	2560.906154
632.954117	2480.247692
633.299866	2490.330000
633.645562	2520.576923
633.991206	2444.959615
634.336797	2495.371154
634.682336	2485.288846
635.027823	2490.330000
635.373257	2510.494615
635.718639	2482.768269
636.063968	2533.179808
636.409245	2432.356731
636.754470	2515.535769
637.099642	2495.371154
637.444762	2525.618077
637.789829	2434.877308
638.134845	2545.782692
638.479808	2437.397885
638.824719	2513.015192
639.169577	2462.603654
639.514383	2507.974038
639.859137	2477.727115
640.203839	2548.303269
640.548489	2434.877308
640.893086	2465.124231
641.237632	2467.644808
641.582125	2412.192115
641.926566	2543.262115
642.270955	2452.521346
642.615292	2523.097500
642.959576	2533.179808
643.303809	2480.247692
643.647990	2576.029615
643.992118	2495.371154
644.336195	2470.165385
644.680219	2450.000769
645.024192	2480.247692
645.368112	2528.138654
645.711981	2538.220962
646.055797	2535.700385
646.399562	2621.400000
646.743274	2490.330000
647.086935	2427.315577
647.430544	2553.344423
647.774101	2502.932885
648.117606	2515.535769
648.461059	2394.548077
648.804460	2477.727115
649.147810	2530.659231
649.491108	2520.576923
649.834354	2452.521346
650.177548	2467.644808
650.520690	2477.727115
650.863781	2525.618077
651.206820	2490.330000
651.549807	2520.576923
651.892742	2487.809423
652.235626	2513.015192
652.578458	2482.768269
652.921238	2621.400000
653.263967	2550.823846
653.606644	2563.426731
653.949269	2470.165385
654.291843	2581.070769
654.634365	2475.206538
654.976836	2495.371154
655.319255	2545.782692
655.661622	2444.959615
656.003938	2480.247692
656.346203	2523.097500
656.688416	2462.603654
657.030577	2573.509038
657.372687	2442.439038
657.714746	2490.330000
658.056753	2480.247692
658.398708	2470.165385
658.740612	2439.918462
659.082465	2480.247692
659.424266	2455.041923
659.766016	2505.453462
660.107715	2475.206538
660.449362	2490.330000
660.790958	2525.618077
661.132503	2427.315577
661.473996	2558.385577
661.815438	2588.632500
662.156829	2399.589231
662.498168	2482.768269
662.839456	2482.768269
663.180693	2538.220962
663.521879	2583.591346
663.863013	2480.247692
664.204097	2480.247692
664.545129	2525.618077
664.886110	2437.397885
665.227040	2565.947308
665.567918	2545.782692
665.908746	2465.124231
666.249522	2487.809423
666.590248	2538.220962
666.930922	2533.179808
667.271545	2402.109808
667.612118	2513.015192
667.952639	2513.015192
668.293109	2588.632500
668.633528	2475.206538
668.973896	2470.165385
669.314213	2565.947308
669.654480	2490.330000
669.994695	2452.521346
670.334859	2553.344423
670.674973	2581.070769
671.015035	2447.480192
671.355047	2434.877308
671.695008	2480.247692
672.034918	2520.576923
672.374777	2520.576923
672.714585	2502.932885
673.054342	2467.644808
673.394049	2555.865000
673.733705	2576.029615
674.073310	2525.618077
674.412864	2389.506923
674.752368	2523.097500
675.091820	2472.685962
675.431223	2528.138654
675.770574	2482.768269
676.109875	2520.576923
676.449125	2465.124231
676.788324	2505.453462
677.127473	2543.262115
677.466571	2505.453462
677.805619	2500.412308
678.144616	2467.644808
678.483562	2452.521346
678.822458	2581.070769
679.161303	2528.138654
679.500098	2540.741538
679.838842	2452.521346
680.177535	2515.535769
680.516179	2570.988462
680.854771	2432.356731
681.193314	2550.823846
681.531805	2434.877308
681.870247	2482.768269
682.208638	2581.070769
682.546978	2490.330000
682.885268	2480.247692
683.223508	2568.467885
683.561697	2455.041923
683.899836	2485.288846
684.237925	2581.070769
684.575963	2485.288846
684.913951	2467.644808
685.251889	2492.850577
685.589776	2563.426731
685.927614	2500.412308
686.265401	2518.056346
686.603137	2487.809423
686.940824	2576.029615
687.278460	2485.288846
687.616046	2545.782692
687.953582	2417.233269
688.291068	2568.467885
688.628504	2381.945192
688.965889	2371.862885
689.303224	2487.809423
689.640510	2497.891731
689.977745	2513.015192
690.314930	2515.535769
690.652065	2439.918462
690.989150	2523.097500
691.326185	2432.356731
691.663170	2439.918462
692.000105	2518.056346
692.336990	2525.618077
692.673825	2455.041923
693.010610	2470.165385
693.347345	2409.671538
693.684030	2452.521346
694.020665	2482.768269
694.357251	2472.685962
694.693786	2515.535769
695.030272	2475.206538
695.366707	2485.288846
695.703093	2576.029615
696.039429	2470.165385
696.375716	2583.591346
696.711952	2538.220962
697.048139	2563.426731
697.384276	2528.138654
697.720363	2515.535769
698.056400	2439.918462
698.392388	2477.727115
698.728326	2520.576923
699.064214	2528.138654
699.400053	2482.768269
699.735842	2460.083077
700.071581	2412.192115
700.407270	2510.494615
700.742910	2442.439038
701.078501	2450.000769
701.414042	2485.288846
701.749533	2535.700385
702.084974	2470.165385
702.420366	2379.424615
702.755709	2530.659231
703.091002	2487.809423
703.426246	2502.932885
703.761440	2480.247692
704.096584	2555.865000
704.431679	2535.700385
704.766725	2452.521346
705.101721	2444.959615
705.436668	2444.959615
705.771565	2457.562500
706.106413	2452.521346
706.441212	2510.494615
706.775961	2402.109808
707.110661	2528.138654
707.445311	2432.356731
707.779913	2515.535769
708.114465	2505.453462
708.448967	2475.206538
708.783421	2472.685962
709.117825	2550.823846
709.452180	2447.480192
709.786485	2472.685962
710.120742	2603.755962
710.454949	2500.412308
710.789107	2444.959615
711.123216	2407.150962
711.457275	2404.630385
711.791286	2409.671538
712.125247	2434.877308
712.459159	2518.056346
712.793023	2427.315577
713.126837	2432.356731
713.460602	2470.165385
713.794318	2502.932885
714.127985	2543.262115
714.461602	2543.262115
714.795171	2545.782692
715.128691	2540.741538
715.462162	2545.782692
715.795584	2530.659231
716.128957	2500.412308
716.462281	2513.015192
716.795556	2465.124231
717.128782	2467.644808
717.461960	2505.453462
717.795088	2450.000769
718.128167	2490.330000
718.461198	2502.932885
718.794180	2573.509038
719.127113	2543.262115
719.459997	2475.206538
719.792833	2576.029615
720.125619	2439.918462
720.458357	2490.330000
720.791046	2500.412308
721.123686	2452.521346
721.456278	2598.714808
721.788821	2444.959615
722.121315	2530.659231
722.453761	2505.453462
722.786158	2560.906154
723.118506	2442.439038
723.450805	2447.480192
723.783056	2450.000769
724.115259	2472.685962
724.447412	2510.494615
724.779518	2480.247692
725.111574	2553.344423
725.443582	2510.494615
725.775542	2510.494615
726.107453	2495.371154
726.439315	2515.535769
726.771129	2480.247692
727.102895	2520.576923
727.434612	2485.288846
727.766281	2533.179808
728.097901	2482.768269
728.429473	2444.959615
728.760996	2470.165385
729.092471	2492.850577
729.423897	2475.206538
729.755276	2424.795000
730.086606	2533.179808
730.417887	2444.959615
730.749120	2545.782692
731.080305	2558.385577
731.411442	2507.974038
731.742530	2540.741538
732.073570	2437.397885
732.404562	2497.891731
732.735506	2437.397885
733.066401	2497.891731
733.397249	2480.247692
733.728048	2523.097500
734.058798	2447.480192
734.389501	2472.685962
734.720156	2507.974038
735.050762	2565.947308
735.381320	2515.535769
735.711831	2548.303269
736.042293	2485.288846
736.372707	2518.056346
736.703073	2497.891731
737.033391	2533.179808
737.363661	2507.974038
737.693883	2558.385577
738.024056	2518.056346
738.354182	2573.509038
738.684260	2555.865000
739.014290	2533.179808
739.344272	2487.809423
739.674207	2437.397885
740.004093	2439.918462
740.333931	2538.220962
740.663722	2530.659231
740.993464	2432.356731
741.323159	2477.727115
741.652806	2444.959615
741.982405	2492.850577
742.311956	2525.618077
742.641460	2530.659231
742.970915	2548.303269
743.300323	2477.727115
743.629683	2515.535769
743.958996	2528.138654
744.288260	2500.412308
744.617477	2518.056346
744.946647	2457.562500
745.275768	2482.768269
745.604842	2462.603654
745.933869	2525.618077
746.262847	2523.097500
746.591778	2462.603654
746.920662	2495.371154
747.249498	2505.453462
747.578286	2467.644808
747.907027	2510.494615
748.235720	2485.288846
748.564365	2507.974038
748.892963	2543.262115
749.221514	2457.562500
749.550017	2586.111923
749.878473	2462.603654
750.206881	2452.521346
750.535242	2475.206538
750.863555	2533.179808
751.191821	2568.467885
751.520039	2450.000769
751.848210	2555.865000
752.176334	2507.974038
752.504411	2505.453462
752.832440	2553.344423
753.160421	2525.618077
753.488356	2558.385577
753.816243	2538.220962
754.144082	2477.727115
754.471875	2480.247692
754.799620	2452.521346
755.127318	2573.509038
755.454969	2528.138654
755.782572	2477.727115
756.110129	2535.700385
756.437638	2434.877308
756.765100	2555.865000
757.092515	2497.891731
757.419882	2492.850577
757.747203	2538.220962
758.074477	2548.303269
758.401703	2553.344423
758.728882	2432.356731
759.056014	2439.918462
759.383099	2518.056346
759.710138	2472.685962
760.037129	2520.576923
760.364073	2555.865000
760.690970	2485.288846
761.017820	2462.603654
761.344623	2424.795000
761.671379	2480.247692
761.998088	2543.262115
762.324751	2492.850577
762.651366	2530.659231
762.977935	2513.015192
763.304456	2439.918462
763.630931	2525.618077
763.957359	2505.453462
764.283740	2545.782692
764.610074	2520.576923
764.936362	2485.288846
765.262602	2538.220962
765.588796	2538.220962
765.914943	2422.274423
766.241044	2560.906154
766.567097	2563.426731
766.893104	2457.562500
767.219064	2437.397885
767.544978	2535.700385
767.870845	2480.247692
768.196665	2485.288846
768.522438	2528.138654
768.848165	2513.015192
769.173846	2447.480192
769.499479	2560.906154
769.825066	2487.809423
770.150607	2548.303269
770.476101	2535.700385
770.801548	2553.344423
771.126949	2520.576923
771.452303	2432.356731
771.777611	2543.262115
772.102872	2457.562500
772.428087	2535.700385
772.753256	2419.753846
773.078378	2480.247692
773.403453	2570.988462
773.728482	2442.439038
774.053465	2553.344423
774.378401	2490.330000
774.703291	2490.330000
775.028135	2439.918462
775.352932	2424.795000
775.677683	2525.618077
776.002388	2475.206538
776.327046	2485.288846
776.651658	2450.000769
776.976224	2533.179808
777.300743	2507.974038
777.625216	2472.685962
777.949643	2462.603654
778.274024	2520.576923
778.598359	2611.317692
778.922647	2457.562500
779.246889	2540.741538
779.571086	2450.000769
779.895236	2555.865000
780.219339	2460.083077
780.543397	2573.509038
780.867409	2555.865000
781.191374	2555.865000
781.515294	2608.797115
781.839167	2465.124231
782.162995	2495.371154
782.486776	2502.932885
782.810511	2573.509038
783.134201	2533.179808
783.457844	2518.056346
783.781441	2472.685962
784.104993	2450.000769
784.428498	2505.453462
784.751958	2444.959615
785.075372	2518.056346
785.398739	2550.823846
785.722061	2495.371154
786.045337	2402.109808
786.368568	2497.891731
786.691752	2467.644808
787.014891	2465.124231
787.337983	2457.562500
787.661030	2525.618077
787.984031	2427.315577
788.306987	2482.768269
788.629897	2412.192115
788.952760	2487.809423
789.275579	2437.397885
789.598351	2502.932885
789.921078	2429.836154
790.243759	2470.165385
790.566395	2462.603654
790.888984	2427.315577
791.211529	2394.548077
791.534027	2505.453462
791.856480	2409.671538
792.178888	2490.330000
792.501249	2502.932885
792.823566	2528.138654
793.145836	2492.850577
793.468062	2520.576923
793.790241	2525.618077
794.112375	2480.247692
794.434464	2467.644808
794.756507	2525.618077
795.078505	2545.782692
795.400457	2422.274423
795.722364	2429.836154
796.044226	2538.220962
796.366042	2442.439038
796.687812	2548.303269
797.009538	2540.741538
797.331218	2450.000769
797.652852	2477.727115
797.974442	2419.753846
798.295986	2543.262115
798.617484	2490.330000
798.938938	2510.494615
799.260346	2492.850577
799.581709	2450.000769
799.903026	2520.576923
800.224299	2475.206538
800.545526	2505.453462
800.866708	2555.865000
801.187845	2515.535769
801.508936	2510.494615
801.829983	2568.467885
802.150984	2482.768269
802.471940	2502.932885
802.792851	2402.109808
803.113717	2495.371154
803.434538	2518.056346
803.755314	2490.330000
804.076045	2490.330000
804.396731	2455.041923
804.717372	2487.809423
805.037967	2427.315577
805.358518	2444.959615
805.679024	2419.753846
805.999485	2487.809423
806.319901	2518.056346
806.640272	2457.562500
806.960598	2487.809423
807.280879	2470.165385
807.601115	2432.356731
807.921306	2492.850577
808.241453	2497.891731
808.561554	2442.439038
808.881611	2505.453462
809.201623	2510.494615
809.521590	2535.700385
809.841513	2533.179808
810.161390	2450.000769
810.481223	2472.685962
810.801011	2495.371154
811.120755	2472.685962
811.440453	2525.618077
811.760107	2460.083077
812.079716	2530.659231
812.399281	2427.315577
812.718801	2470.165385
813.038276	2467.644808
813.357707	2545.782692
813.677093	2470.165385
813.996434	2467.644808
814.315731	2480.247692
814.634983	2462.603654
814.954191	2452.521346
815.273354	2510.494615
815.592473	2538.220962
815.911547	2389.506923
816.230577	2560.906154
816.549562	2429.836154
816.868502	2550.823846
817.187399	2497.891731
817.506250	2540.741538
817.825058	2480.247692
818.143821	2475.206538
818.462539	2500.412308
818.781213	2492.850577
819.099843	2475.206538
819.418429	2495.371154
819.736970	2447.480192
820.055466	2570.988462
820.373919	2465.124231
820.692327	2477.727115
821.010691	2477.727115
821.329011	2533.179808
821.647286	2475.206538
821.965517	2543.262115
822.283704	2528.138654
822.601847	2432.356731
822.919945	2535.700385
823.237999	2548.303269
823.556010	2560.906154
823.873976	2487.809423
824.191897	2490.330000
824.509775	2477.727115
824.827609	2457.562500
825.145398	2444.959615
825.463144	2507.974038
825.780845	2404.630385
826.098502	2568.467885
826.416116	2482.768269
826.733685	2513.015192
827.051210	2502.932885
827.368692	2507.974038
827.686129	2477.727115
828.003522	2480.247692
828.320872	2500.412308
828.638177	2455.041923
828.955439	2432.356731
829.272656	2452.521346
829.589830	2480.247692
829.906960	2460.083077
830.224046	2578.550192
830.541088	2606.276538
830.858086	2485.288846
831.175041	2490.330000
831.491952	2490.330000
831.808819	2507.974038
832.125642	2442.439038
832.442421	2487.809423
832.759157	2505.453462
833.075849	2505.453462
833.392497	2452.521346
833.709101	2560.906154
834.025662	2543.262115
834.342179	2563.426731
834.658653	2513.015192
834.975083	2515.535769
835.291469	2490.330000
835.607811	2525.618077
835.924110	2475.206538
836.240366	2545.782692
836.556578	2442.439038
836.872746	2535.700385
837.188871	2432.356731
837.504952	2402.109808
837.820990	2482.768269
838.136984	2460.083077
838.452935	2513.015192
838.768842	2515.535769
839.084706	2505.453462
839.400526	2450.000769
839.716303	2475.206538
840.032037	2550.823846
840.347727	2462.603654
840.663373	2553.344423
840.978977	2591.153077
841.294537	2497.891731
841.610054	2535.700385
841.925527	2480.247692
842.240957	2475.206538
842.556344	2520.576923
842.871687	2437.397885
843.186987	2492.850577
843.502244	2470.165385
843.817458	2518.056346
844.132629	2439.918462
844.447756	2497.891731
844.762840	2460.083077
845.077881	2485.288846
845.392879	2518.056346
845.707833	2419.753846
846.022745	2472.685962
846.337613	2525.618077
846.652438	2538.220962
846.967221	2563.426731
847.281960	2495.371154
847.596656	2480.247692
847.911309	2507.974038
848.225919	2442.439038
848.540485	2530.659231
848.855009	2558.385577
849.169490	2535.700385
849.483928	2432.356731
849.798323	2480.247692
850.112675	2510.494615
850.426984	2568.467885
850.741251	2427.315577
851.055474	2485.288846
851.369654	2490.330000
851.683792	2490.330000
851.997887	2482.768269
852.311938	2497.891731
852.625947	2538.220962
852.939914	2500.412308
853.253837	2465.124231
853.567718	2379.424615
853.881555	2507.974038
854.195350	2518.056346
854.509103	2560.906154
854.822812	2462.603654
855.136479	2500.412308
855.450103	2548.303269
855.763685	2548.303269
856.077224	2510.494615
856.390720	2505.453462
856.704173	2460.083077
857.017584	2472.685962
857.330953	2513.015192
857.644278	2540.741538
857.957561	2573.509038
858.270802	2460.083077
858.584000	2429.836154
858.897155	2540.741538
859.210268	2510.494615
859.523339	2520.576923
859.836367	2475.206538
860.149352	2505.453462
860.462295	2470.165385
860.775195	2450.000769
861.088054	2475.206538
861.400869	2477.727115
861.713642	2472.685962
862.026373	2460.083077
862.339062	2460.083077
862.651708	2412.192115
862.964312	2457.562500
863.276873	2535.700385
863.589392	2530.659231
863.901869	2535.700385
864.214303	2470.165385
864.526696	2578.550192
864.839045	2477.727115
865.151353	2596.194231
865.463619	2528.138654
865.775842	2515.535769
866.088023	2548.303269
866.400162	2467.644808
866.712258	2513.015192
867.024313	2482.768269
867.336325	2538.220962
867.648296	2462.603654
867.960224	2447.480192
868.272110	2490.330000
868.583954	2465.124231
868.895755	2492.850577
869.207515	2490.330000
869.519233	2457.562500
869.830909	2510.494615
870.142542	2422.274423
870.454134	2475.206538
870.765684	2495.371154
871.077191	2472.685962
871.388657	2470.165385
871.700081	2485.288846
872.011463	2432.356731
872.322803	2568.467885
872.634101	2414.712692
872.945357	2515.535769
873.256571	2518.056346
873.567744	2450.000769
873.878874	2422.274423
874.189963	2528.138654
874.501010	2507.974038
874.812015	2462.603654
875.122979	2389.506923
875.433900	2500.412308
875.744780	2492.850577
876.055618	2507.974038
876.366415	2535.700385
876.677169	2505.453462
876.987882	2485.288846
877.298554	2434.877308
877.609183	2573.509038
877.919771	2457.562500
878.230317	2502.932885
878.540822	2588.632500
878.851285	2518.056346
879.161707	2470.165385
879.472087	2457.562500
879.782425	2560.906154
880.092722	2457.562500
880.402977	2523.097500
880.713191	2570.988462
881.023363	2457.562500
881.333494	2460.083077
881.643583	2477.727115
881.953631	2490.330000
882.263637	2490.330000
882.573602	2548.303269
882.883526	2409.671538
883.193408	2543.262115
883.503248	2399.589231
883.813048	2505.453462
884.122806	2477.727115
884.432522	2480.247692
884.742197	2586.111923
885.051831	2540.741538
885.361424	2533.179808
885.670975	2568.467885
885.980485	2404.630385
886.289954	2568.467885
886.599382	2429.836154
886.908768	2500.412308
887.218113	2523.097500
887.527417	2568.467885
887.836680	2497.891731
888.145901	2505.453462
888.455082	2399.589231
888.764221	2581.070769
889.073319	2437.397885
889.382376	2518.056346
889.691392	2457.562500
890.000366	2414.712692
890.309300	2369.342308
890.618193	2513.015192
890.927044	2492.850577
891.235855	2497.891731
891.544625	2568.467885
891.853353	2560.906154
892.162041	2495.371154
892.470687	2545.782692
892.779293	2543.262115
893.087858	2462.603654
893.396381	2470.165385
893.704864	2543.262115
894.013306	2533.179808
894.321707	2540.741538
894.630068	2470.165385
894.938387	2470.165385
895.246665	2470.165385
895.554903	2510.494615
895.863100	2475.206538
896.171256	2439.918462
896.479371	2429.836154
896.787446	2465.124231
897.095480	2470.165385
897.403473	2452.521346
897.711425	2490.330000
898.019336	2560.906154
898.327207	2452.521346
898.635038	2525.618077
898.942827	2495.371154
899.250576	2596.194231
899.558284	2545.782692
899.865952	2389.506923
900.173579	2422.274423
900.481165	2507.974038
900.788711	2457.562500
901.096216	2477.727115
901.403681	2434.877308
901.711105	2475.206538
902.018489	2487.809423
902.325832	2548.303269
902.633135	2563.426731
902.940397	2457.562500
903.247619	2447.480192
903.554800	2457.562500
903.861941	2477.727115
904.169041	2444.959615
904.476101	2523.097500
904.783121	2487.809423
905.090100	2477.727115
905.397039	2533.179808
905.703938	2472.685962
906.010796	2530.659231
906.317614	2467.644808
906.624391	2462.603654
906.931129	2540.741538
907.237826	2444.959615
907.544483	2520.576923
907.851099	2442.439038
908.157675	2535.700385
908.464211	2475.206538
908.770707	2417.233269
909.077163	2505.453462
909.383578	2470.165385
909.689954	2497.891731
909.996289	2477.727115
910.302584	2452.521346
910.608839	2487.809423
910.915054	2485.288846
911.221229	2492.850577
911.527363	2538.220962
911.833458	2475.206538
912.139513	2528.138654
912.445527	2513.015192
912.751502	2490.330000
913.057436	2502.932885
913.363331	2386.986346
913.669186	2518.056346
913.975000	2424.795000
914.280775	2475.206538
914.586510	2535.700385
914.892205	2467.644808
915.197859	2432.356731
915.503475	2533.179808
915.809050	2497.891731
916.114585	2482.768269
916.420081	2427.315577
916.725536	2555.865000
917.030952	2475.206538
917.336328	2477.727115
917.641665	2485.288846
917.946961	2588.632500
918.252218	2568.467885
918.557435	2507.974038
918.862612	2472.685962
919.167750	2523.097500
919.472848	2513.015192
919.777906	2492.850577
920.082925	2593.673654
920.387904	2470.165385
920.692843	2450.000769
920.997743	2475.206538
921.302603	2465.124231
921.607423	2545.782692
921.912204	2429.836154
922.216946	2550.823846
922.521647	2497.891731
922.826310	2497.891731
923.130932	2442.439038
923.435516	2424.795000
923.740059	2530.659231
924.044564	2477.727115
924.349028	2497.891731
924.653454	2444.959615
924.957840	2417.233269
925.262186	2354.218846
925.566493	2513.015192
925.870761	2472.685962
926.174989	2492.850577
926.479178	2457.562500
926.783328	2538.220962
927.087438	2455.041923
927.391509	2485.288846
927.695541	2520.576923
927.999533	2442.439038
928.303486	2563.426731
928.607400	2502.932885
928.911275	2533.179808
929.215110	2485.288846
929.518906	2490.330000
929.822663	2495.371154
930.126381	2515.535769
930.430060	2510.494615
930.733699	2492.850577
931.037299	2455.041923
931.340861	2462.603654
931.644383	2427.315577
931.947866	2485.288846
932.251309	2570.988462
932.554714	2533.179808
932.858080	2429.836154
933.161407	2442.439038
933.464694	2422.274423
933.767943	2470.165385
934.071153	2565.947308
934.374323	2500.412308
934.677455	2409.671538
934.980548	2439.918462
935.283602	2465.124231
935.586617	2507.974038
935.889593	2500.412308
936.192530	2525.618077
936.495428	2490.330000
936.798287	2548.303269
937.101108	2507.974038
937.403890	2419.753846
937.706632	2467.644808
938.009336	2444.959615
938.312002	2523.097500
938.614628	2497.891731
938.917216	2455.041923
939.219765	2513.015192
939.522275	2452.521346
939.824747	2485.288846
940.127179	2477.727115
940.429573	2518.056346
940.731929	2500.412308
941.034246	2495.371154
941.336524	2548.303269
941.638763	2513.015192
941.940964	2462.603654
942.243126	2510.494615
942.545250	2518.056346
942.847335	2507.974038
943.149381	2510.494615
943.451389	2490.330000
943.753359	2525.618077
944.055290	2447.480192
944.357182	2507.974038
944.659036	2475.206538
944.960851	2535.700385
945.262628	2447.480192
945.564367	2518.056346
945.866067	2497.891731
946.167729	2502.932885
946.469352	2487.809423
946.770937	2492.850577
947.072484	2482.768269
947.373992	2543.262115
947.675462	2505.453462
947.976893	2467.644808
948.278286	2444.959615
948.579641	2429.836154
948.880958	2470.165385
949.182236	2402.109808
949.483476	2543.262115
949.784678	2507.974038
950.085841	2490.330000
950.386967	2495.371154
950.688054	2490.330000
950.989103	2460.083077
951.290114	2427.315577
951.591087	2465.124231
951.892021	2507.974038
952.192917	2465.124231
952.493776	2495.371154
952.794596	2533.179808
953.095378	2578.550192
953.396122	2583.591346
953.696828	2487.809423
953.997496	2543.262115
954.298126	2601.235385
954.598718	2533.179808
954.899272	2429.836154
955.199788	2553.344423
955.500266	2470.165385
955.800706	2500.412308
956.101108	2465.124231
956.401472	2399.589231
956.701798	2505.453462
957.002087	2470.165385
957.302337	2490.330000
957.602550	2397.068654
957.902724	2515.535769
958.202861	2513.015192
958.502960	2490.330000
958.803022	2444.959615
959.103045	2376.904038
959.403031	2452.521346
959.702979	2465.124231
960.002889	2480.247692
960.302762	2452.521346
960.602596	2573.509038
960.902393	2495.371154
961.202153	2502.932885
961.501875	2485.288846
961.801559	2455.041923
962.101205	2455.041923
962.400814	2437.397885
962.700385	2450.000769
962.999918	2528.138654
963.299414	2492.850577
963.598873	2462.603654
963.898293	2538.220962
964.197677	2434.877308
964.497022	2472.685962
964.796331	2495.371154
965.095601	2460.083077
965.394835	2477.727115
965.694030	2472.685962
965.993189	2444.959615
966.292309	2427.315577
966.591393	2520.576923
966.890439	2518.056346
967.189447	2470.165385
967.488419	2492.850577
967.787353	2507.974038
968.086249	2470.165385
968.385108	2568.467885
968.683930	2510.494615
968.982714	2495.371154
969.281462	2412.192115
969.580172	2505.453462
969.878844	2523.097500
970.177480	2485.288846
970.476078	2417.233269
970.774639	2530.659231
971.073162	2548.303269
971.371649	2455.041923
971.670098	2502.932885
971.968510	2583.591346
972.266885	2439.918462
972.565223	2432.356731
972.863524	2447.480192
973.161788	2505.453462
973.460014	2475.206538
973.758204	2500.412308
974.056356	2465.124231
974.354471	2507.974038
974.652550	2437.397885
974.950591	2472.685962
975.248595	2530.659231
975.546563	2442.439038
975.844493	2462.603654
976.142386	2634.002885
976.440243	2470.165385
976.738062	2470.165385
977.035845	2394.548077
977.333590	2455.041923
977.631299	2505.453462
977.928971	2545.782692
978.226606	2475.206538
978.524204	2502.932885
978.821765	2452.521346
979.119290	2467.644808
979.416777	2381.945192
979.714228	2513.015192
980.011642	2530.659231
980.309020	2470.165385
980.606360	2467.644808
980.903664	2505.453462
981.200931	2510.494615
981.498162	2510.494615
981.795356	2419.753846
982.092513	2422.274423
982.389633	2518.056346
982.686717	2515.535769
982.983764	2525.618077
983.280775	2384.465769
983.577749	2500.412308
983.874686	2502.932885
984.171587	2442.439038
984.468451	2518.056346
984.765279	2507.974038
985.062070	2550.823846
985.358824	2470.165385
985.655543	2505.453462
985.952224	2457.562500
986.248869	2497.891731
986.545478	2389.506923
986.842050	2444.959615
987.138586	2452.521346
987.435086	2513.015192
987.731549	2417.233269
988.027975	2560.906154
988.324366	2442.439038
988.620719	2465.124231
988.917037	2460.083077
989.213318	2523.097500
989.509563	2490.330000
989.805772	2586.111923
990.101944	2462.603654
990.398080	2470.165385
990.694180	2439.918462
990.990244	2530.659231
991.286271	2412.192115
991.582262	2475.206538
991.878217	2470.165385
992.174136	2535.700385
992.470019	2470.165385
992.765865	2419.753846
993.061676	2462.603654
993.357450	2515.535769
993.653188	2412.192115
993.948890	2414.712692
994.244556	2555.865000
994.540186	2495.371154
994.835780	2528.138654
995.131337	2485.288846
995.426859	2477.727115
995.722345	2487.809423
996.017795	2553.344423
996.313208	2472.685962
996.608586	2487.809423
996.903928	2417.233269
997.199234	2502.932885
997.494504	2495.371154
997.789738	2414.712692
998.084936	2502.932885
998.380099	2548.303269
998.675225	2490.330000
998.970316	2533.179808
999.265371	2497.891731
999.560390	2520.576923
999.855373	2492.850577
1000.150320	2495.371154
1000.445232	2409.671538
1000.740108	2467.644808
1001.034948	2480.247692
1001.329752	2414.712692
1001.624521	2447.480192
1001.919254	2555.865000
1002.213951	2578.550192
1002.508613	2480.247692
1002.803239	2472.685962
1003.097829	2447.480192
1003.392384	2371.862885
1003.686903	2497.891731
1003.981386	2495.371154
1004.275834	2455.041923
1004.570246	2427.315577
1004.864623	2455.041923
1005.158964	2502.932885
1005.453270	2548.303269
1005.747540	2528.138654
1006.041775	2437.397885
1006.335974	2477.727115
1006.630138	2434.877308
1006.924266	2477.727115
1007.218359	2553.344423
1007.512416	2462.603654
1007.806438	2513.015192
1008.100425	2407.150962
1008.394376	2452.521346
1008.688292	2535.700385
1008.982172	2419.753846
1009.276017	2470.165385
1009.569827	2487.809423
1009.863602	2586.111923
1010.157341	2513.015192
1010.451045	2555.865000
1010.744714	2439.918462
1011.038347	2487.809423
1011.331945	2447.480192
1011.625508	2480.247692
1011.919036	2467.644808
1012.212528	2465.124231
1012.505986	2502.932885
1012.799408	2518.056346
1013.092795	2475.206538
1013.386147	2487.809423
1013.679464	2502.932885
1013.972745	2470.165385
1014.265992	2502.932885
1014.559204	2523.097500
1014.852380	2447.480192
1015.145521	2490.330000
1015.438628	2560.906154
1015.731699	2394.548077
1016.024736	2545.782692
1016.317737	2432.356731
1016.610703	2485.288846
1016.903635	2465.124231
1017.196531	2482.768269
1017.489393	2432.356731
1017.782219	2515.535769
1018.075011	2528.138654
1018.367768	2497.891731
1018.660490	2475.206538
1018.953177	2475.206538
1019.245829	2475.206538
