Dividing Wavelength (nm)	Counts (n)	Blue Motor Position (mm): 0.000000	Red Motor Position (mm): 9.000000	
326.493990	2145.010962
326.888308	2145.010962
327.282561	2145.010962
327.676750	2112.243462
328.070874	2195.422500
328.464933	2185.340192
328.858929	2117.284615
329.252859	2192.901923
329.646726	2129.887500
330.040528	2155.093269
330.434265	2170.216731
330.827938	2233.231154
331.221547	2195.422500
331.615091	2288.683846
332.008571	2291.204423
332.401986	2283.642692
332.795338	2392.027500
333.188625	2336.574808
333.581847	2349.177692
333.975006	2369.342308
334.368100	2281.122115
334.761129	2444.959615
335.154095	2422.274423
335.546996	2465.124231
335.939833	2490.330000
336.332606	2455.041923
336.725315	2603.755962
337.117960	2540.741538
337.510540	2533.179808
337.903056	2475.206538
338.295508	2603.755962
338.687896	2510.494615
339.080220	2470.165385
339.472480	2540.741538
339.864676	2487.809423
340.256807	2555.865000
340.648875	2560.906154
341.040879	2636.523462
341.432818	2576.029615
341.824694	2623.920577
342.216506	2573.509038
342.608253	2576.029615
342.999937	2603.755962
343.391557	2573.509038
343.783113	2586.111923
344.174605	2550.823846
344.566033	2603.755962
344.957397	2611.317692
345.348697	2540.741538
345.739934	2578.550192
346.131106	2530.659231
346.522215	2631.482308
346.913260	2565.947308
347.304241	2525.618077
347.695159	2553.344423
348.086012	2576.029615
348.476802	2601.235385
348.867528	2694.496731
349.258191	2639.044038
349.648789	2465.124231
350.039324	2507.974038
350.429796	2545.782692
350.820203	2530.659231
351.210548	2558.385577
351.600828	2588.632500
351.991045	2558.385577
352.381198	2558.385577
352.771288	2596.194231
353.161314	2507.974038
353.551276	2573.509038
353.941175	2548.303269
354.331010	2563.426731
354.720782	2618.879423
355.110490	2518.056346
355.500135	2515.535769
355.889717	2543.262115
356.279235	2565.947308
356.668689	2548.303269
357.058080	2513.015192
357.447408	2588.632500
357.836672	2535.700385
358.225873	2593.673654
358.615010	2482.768269
359.004084	2565.947308
359.393095	2452.521346
359.782043	2528.138654
360.170927	2586.111923
360.559748	2550.823846
360.948505	2608.797115
361.337199	2475.206538
361.725830	2538.220962
362.114398	2533.179808
362.502903	2555.865000
362.891344	2482.768269
363.279722	2533.179808
363.668037	2578.550192
364.056289	2570.988462
364.444478	2553.344423
364.832603	2596.194231
365.220665	2666.770385
365.608665	2497.891731
365.996601	2545.782692
366.384474	2596.194231
366.772284	2497.891731
367.160031	2593.673654
367.547715	2477.727115
367.935336	2598.714808
368.322893	2573.509038
368.710388	2578.550192
369.097820	2535.700385
369.485189	2507.974038
369.872495	2538.220962
370.259738	2570.988462
370.646918	2623.920577
371.034035	2608.797115
371.421090	2623.920577
371.808081	2548.303269
372.195010	2586.111923
372.581875	2475.206538
372.968678	2538.220962
373.355418	2606.276538
373.742096	2502.932885
374.128710	2573.509038
374.515262	2598.714808
374.901751	2497.891731
375.288177	2578.550192
375.674540	2581.070769
376.060841	2555.865000
376.447079	2558.385577
376.833254	2628.961731
377.219367	2628.961731
377.605417	2586.111923
377.991404	2644.085192
378.377329	2628.961731
378.763191	2502.932885
379.148991	2553.344423
379.534727	2639.044038
379.920402	2545.782692
380.306013	2593.673654
380.691563	2626.441154
381.077049	2581.070769
381.462474	2588.632500
381.847835	2548.303269
382.233134	2540.741538
382.618371	2462.603654
383.003545	2515.535769
383.388657	2654.167500
383.773706	2603.755962
384.158693	2560.906154
384.543618	2586.111923
384.928480	2538.220962
385.313280	2601.235385
385.698017	2586.111923
386.082692	2576.029615
386.467305	2523.097500
386.851856	2568.467885
387.236344	2581.070769
387.620770	2588.632500
388.005133	2558.385577
388.389435	2520.576923
388.773674	2568.467885
389.157851	2666.770385
389.541965	2593.673654
389.926018	2543.262115
390.310008	2565.947308
390.693936	2669.290962
391.077802	2533.179808
391.461606	2555.865000
391.845348	2465.124231
392.229027	2548.303269
392.612645	2603.755962
392.996200	2611.317692
393.379694	2583.591346
393.763125	2618.879423
394.146494	2528.138654
394.529801	2586.111923
394.913047	2626.441154
395.296230	2606.276538
395.679351	2563.426731
396.062410	2573.509038
396.445408	2447.480192
396.828343	2568.467885
397.211217	2608.797115
397.594028	2606.276538
397.976778	2596.194231
398.359466	2553.344423
398.742092	2639.044038
399.124656	2593.673654
399.507158	2518.056346
399.889598	2548.303269
400.271977	2586.111923
400.654294	2553.344423
401.036549	2591.153077
401.418742	2583.591346
401.800874	2502.932885
402.182944	2573.509038
402.564952	2540.741538
402.946898	2671.811538
403.328783	2586.111923
403.710606	2565.947308
404.092367	2570.988462
404.474067	2530.659231
404.855705	2545.782692
405.237282	2513.015192
405.618797	2644.085192
406.000250	2535.700385
406.381642	2565.947308
406.762972	2543.262115
407.144240	2555.865000
407.525447	2631.482308
407.906593	2553.344423
408.287677	2669.290962
408.668700	2661.729231
409.049661	2613.838269
409.430560	2560.906154
409.811399	2510.494615
410.192176	2568.467885
410.572891	2616.358846
410.953545	2576.029615
411.334138	2606.276538
411.714669	2500.412308
412.095139	2573.509038
412.475547	2639.044038
412.855894	2523.097500
413.236180	2608.797115
413.616405	2616.358846
413.996568	2515.535769
414.376670	2598.714808
414.756711	2581.070769
415.136691	2659.208654
415.516609	2588.632500
415.896466	2644.085192
416.276262	2598.714808
416.655997	2596.194231
417.035670	2507.974038
417.415283	2669.290962
417.794834	2581.070769
418.174324	2588.632500
418.553753	2573.509038
418.933121	2634.002885
419.312428	2634.002885
419.691674	2596.194231
420.070859	2593.673654
420.449983	2581.070769
420.829045	2565.947308
421.208047	2565.947308
421.586988	2593.673654
421.965867	2545.782692
422.344686	2601.235385
422.723444	2598.714808
423.102141	2613.838269
423.480777	2616.358846
423.859352	2659.208654
424.237866	2616.358846
424.616319	2518.056346
424.994712	2596.194231
425.373044	2603.755962
425.751314	2628.961731
426.129524	2603.755962
426.507673	2588.632500
426.885762	2563.426731
427.263789	2636.523462
427.641756	2563.426731
428.019662	2601.235385
428.397508	2649.126346
428.775292	2565.947308
429.153016	2568.467885
429.530679	2651.646923
429.908282	2606.276538
430.285824	2588.632500
430.663305	2593.673654
431.040726	2634.002885
431.418086	2631.482308
431.795385	2533.179808
432.172624	2598.714808
432.549802	2631.482308
432.926920	2576.029615
433.303977	2636.523462
433.680974	2570.988462
434.057910	2628.961731
434.434786	2631.482308
434.811601	2684.414423
435.188355	2704.579038
435.565050	2661.729231
435.941683	2634.002885
436.318257	2636.523462
436.694770	2596.194231
437.071222	2591.153077
437.447614	2641.564615
437.823946	2651.646923
438.200218	2649.126346
438.576429	2598.714808
438.952580	2636.523462
439.328670	2671.811538
439.704700	2691.976154
440.080670	2709.620192
440.456580	2674.332115
440.832429	2709.620192
441.208218	2661.729231
441.583947	2686.935000
441.959616	2639.044038
442.335224	2676.852692
442.710773	2724.743654
443.086261	2797.840385
443.461689	2754.990577
443.837057	2810.443269
444.212365	2870.937115
444.587612	2954.116154
444.962800	2906.225192
445.337927	2878.498846
445.712995	2946.554423
446.088002	2986.883654
446.462949	3095.268462
446.837837	3125.515385
447.212664	3097.789038
447.587431	3135.597692
447.962139	3306.996923
448.336786	3463.272692
448.711374	3574.178077
449.085901	3377.573077
449.460369	3468.313846
449.834776	3478.396154
450.209124	3717.850962
450.583412	3743.056731
450.957640	3972.429231
451.331808	3775.824231
451.705917	3972.429231
452.079965	3914.455962
452.453954	4078.293462
452.827883	4158.951923
453.201752	4216.925192
453.575562	4279.939615
453.949311	4400.927308
454.323001	4393.365577
454.696632	4781.534423
455.070202	4894.960385
455.443713	4857.151731
455.817164	5210.032500
456.190556	5280.608654
456.563888	5535.186923
456.937160	5618.365962
457.310373	5583.077885
457.683526	5809.929808
458.056619	5809.929808
458.429653	6079.631538
458.802628	6004.014231
459.175542	6016.617115
459.548398	6719.858077
459.921194	6951.751154
460.293930	7314.714231
460.666607	7851.597115
461.039224	8330.506731
461.411782	9011.062500
461.784280	9021.144808
462.156719	9051.391731
462.529099	8834.622115
462.901419	8701.031538
463.273680	8638.017115
463.645882	9041.309423
464.018024	8975.774423
464.390106	9159.776538
464.762130	10152.883846
465.134094	10639.355192
465.505999	12630.610962
465.877845	14664.716538
466.249631	16018.266346
466.621358	16051.033846
466.993026	15526.753846
467.364634	15176.393654
467.736184	14470.632115
468.107674	14415.179423
468.479105	14795.786538
468.850477	14533.646538
469.221790	14700.004615
469.593043	14150.518846
469.964238	14193.368654
470.335373	14067.339808
470.706449	14591.619808
471.077467	14911.733077
471.448425	17127.320192
471.819324	20066.312885
472.190164	20945.994231
472.560945	17901.137308
472.931667	16524.902308
473.302330	16754.274808
473.672934	16429.120385
474.043479	16799.645192
474.413965	16950.879808
474.784393	16504.737692
475.154761	17586.065192
475.525070	17303.760577
475.895321	17427.268846
476.265513	18369.964615
476.635645	18984.985385
477.005719	18712.763077
477.375734	19105.973077
477.745691	19627.732500
478.115588	20199.903462
478.485427	21460.191923
478.855207	22453.299231
479.224928	24429.431538
479.594591	26337.508269
479.964194	25888.845577
480.333739	26236.685192
480.703226	25866.160385
481.072653	25997.230385
481.442022	26834.061923
481.811333	27844.813269
482.180584	27247.436538
482.549777	26256.849808
482.918912	26801.294423
483.287988	26745.841731
483.657005	25707.364038
484.025964	25883.804423
484.394864	25714.925769
484.763706	25109.987308
485.132489	25157.878269
485.501213	25112.507885
485.869879	25034.370000
486.238487	24895.738269
486.607036	24573.104423
486.975527	24318.526154
487.343959	24563.022115
487.712333	24358.855385
488.080648	24268.114615
488.448905	24313.485000
488.817104	24288.279231
489.185244	24605.871923
489.553326	25014.205385
489.921350	25654.431923
490.289315	28137.200192
490.657222	28936.223077
491.025070	29180.719038
491.392861	28527.889615
491.760593	27446.562115
492.128267	26050.162500
492.495883	25039.411154
492.863440	24525.213462
493.230939	23670.737885
493.598380	23375.830385
493.965763	22707.877500
494.333088	22097.897885
494.700354	21598.823654
495.067563	21341.724808
495.434713	20847.691731
495.801805	20945.994231
496.168839	20525.057885
496.535815	19912.557692
496.902733	20010.860192
497.269593	19884.831346
497.636395	19481.539038
498.003139	19219.399038
498.369825	19000.108846
498.736453	18679.995577
499.103023	18440.540769
499.469535	18264.100385
499.835989	18112.865769
500.202385	17979.275192
500.568723	17399.542500
500.935003	17381.898462
501.301226	16834.933269
501.667390	17238.225577
502.033497	17129.840769
502.399546	16764.357115
502.765537	16222.433077
503.131470	15962.813654
503.497345	15937.607885
503.863163	15335.190000
504.228923	15292.340192
504.594625	15153.708462
504.960269	14725.210385
505.325856	14843.677500
505.691385	14221.095000
506.056856	14309.315192
506.422270	13903.502308
506.787625	13341.413654
507.152924	13323.769615
507.518164	13205.302500
507.883347	12950.724231
508.248472	12517.185000
508.613540	12335.703462
508.978550	12272.689038
509.343503	12121.454423
509.708398	11763.532500
510.073236	11763.532500
510.438016	11430.816346
510.802738	11151.032308
511.167403	10904.015769
511.532010	10644.396346
511.896561	10583.902500
512.261053	10548.614423
512.625488	10374.694615
512.989866	9984.005192
513.354186	9661.371346
513.718449	9651.289038
514.082655	9437.040000
514.446803	9089.200385
514.810894	9043.830000
515.174927	8660.702308
515.538904	8731.278462
515.902822	8479.220769
516.266684	8234.724808
516.630488	8091.051923
516.994235	7783.541538
517.357925	7854.117692
517.721558	7617.183462
518.085133	7584.415962
518.448651	7281.946731
518.812112	7289.508462
519.175516	7133.232692
519.538863	6893.777885
519.902152	6785.393077
520.265385	6765.228462
520.628560	6553.500000
520.991678	6263.633654
521.354739	6198.098654
521.717743	6145.166538
522.080690	6044.343462
522.443580	5837.656154
522.806413	5711.627308
523.169189	5653.654038
523.531908	5507.460577
523.894569	5421.760962
524.257174	5202.470769
524.619722	5114.250577
524.982213	4957.974808
525.344647	5091.565385
525.707025	4947.892500
526.069345	4743.725769
526.431608	4854.631154
526.793815	4660.546731
527.155964	4567.285385
527.518057	4569.805962
527.880093	4423.612500
528.242072	4327.830577
528.603995	4184.157692
528.965860	4179.116538
529.327669	4143.828462
529.689421	4126.184423
530.051117	4002.676154
530.412755	3972.429231
530.774337	3828.756346
531.135862	3785.906538
531.497331	3755.659615
531.858743	3624.589615
532.220098	3720.371538
532.581396	3687.604038
532.942638	3637.192500
533.303824	3506.122500
533.664953	3531.328269
534.026025	3402.778846
534.387040	3410.340577
534.747999	3400.258269
535.108902	3349.846731
535.469748	3256.585385
535.830537	3218.776731
536.191270	3211.215000
536.551947	3160.803462
536.912567	3201.132692
537.273131	3251.544231
537.633638	3150.721154
537.994089	3148.200577
538.354483	3122.994808
538.714821	3017.130577
539.075103	3097.789038
539.435328	3017.130577
539.795497	2999.486538
540.155609	3037.295192
540.515665	3019.651154
540.875665	2979.321923
541.235609	2984.363077
541.595496	2946.554423
541.955328	2938.992692
542.315102	2886.060577
542.674821	2951.595577
543.034483	2883.540000
543.394090	2828.087308
543.753640	2840.690192
544.113134	2873.457692
544.472571	2875.978269
544.831953	2792.799231
545.191278	2840.690192
545.550548	2790.278654
545.909761	2843.210769
546.268918	2777.675769
546.628019	2802.881538
546.987064	2810.443269
547.346053	2785.237500
547.704986	2792.799231
548.063863	2749.949423
548.422684	2732.305385
548.781449	2760.031731
549.140158	2727.264231
549.498811	2762.552308
549.857408	2780.196346
550.215949	2807.922692
550.574434	2754.990577
550.932864	2795.319808
551.291237	2712.140769
551.649555	2729.784808
552.007817	2760.031731
552.366022	2661.729231
552.724173	2742.387692
553.082267	2681.893846
553.440305	2664.249808
553.798288	2729.784808
554.156215	2707.099615
554.514086	2691.976154
554.871902	2671.811538
555.229661	2671.811538
555.587365	2618.879423
555.945014	2719.702500
556.302606	2616.358846
556.660143	2712.140769
557.017625	2656.688077
557.375050	2689.455577
557.732421	2689.455577
558.089735	2709.620192
558.446994	2676.852692
558.804197	2684.414423
559.161345	2684.414423
559.518437	2644.085192
559.875474	2744.908269
560.232455	2628.961731
560.589381	2671.811538
560.946251	2661.729231
561.303065	2596.194231
561.659825	2611.317692
562.016528	2684.414423
562.373177	2616.358846
562.729770	2661.729231
563.086307	2623.920577
563.442789	2671.811538
563.799216	2681.893846
564.155587	2644.085192
564.511904	2671.811538
564.868164	2676.852692
565.224370	2596.194231
565.580520	2681.893846
565.936615	2606.276538
566.292654	2697.017308
566.648638	2724.743654
567.004567	2543.262115
567.360441	2591.153077
567.716260	2679.373269
568.072023	2664.249808
568.427732	2606.276538
568.783385	2676.852692
569.138982	2646.605769
569.494525	2578.550192
569.850013	2606.276538
570.205445	2598.714808
570.560823	2618.879423
570.916145	2649.126346
571.271412	2654.167500
571.626625	2608.797115
571.981782	2729.784808
572.336884	2649.126346
572.691931	2674.332115
573.046923	2671.811538
573.401860	2669.290962
573.756743	2639.044038
574.111570	2639.044038
574.466342	2626.441154
574.821059	2641.564615
575.175722	2684.414423
575.530330	2704.579038
575.884882	2628.961731
576.239380	2654.167500
576.593823	2646.605769
576.948211	2631.482308
577.302544	2596.194231
577.656823	2659.208654
578.011047	2656.688077
578.365216	2639.044038
578.719330	2636.523462
579.073389	2644.085192
579.427394	2649.126346
579.781344	2649.126346
580.135239	2593.673654
580.489080	2674.332115
580.842866	2601.235385
581.196597	2608.797115
581.550273	2654.167500
581.903895	2641.564615
582.257463	2646.605769
582.610975	2621.400000
582.964434	2684.414423
583.317837	2631.482308
583.671186	2601.235385
584.024481	2618.879423
584.377721	2661.729231
584.730906	2671.811538
585.084037	2641.564615
585.437113	2727.264231
585.790135	2634.002885
586.143103	2686.935000
586.496016	2636.523462
586.848874	2631.482308
587.201679	2618.879423
587.554428	2636.523462
587.907124	2628.961731
588.259765	2644.085192
588.612352	2631.482308
588.964884	2694.496731
589.317362	2618.879423
589.669786	2598.714808
590.022155	2626.441154
590.374470	2606.276538
590.726731	2727.264231
591.078937	2644.085192
591.431090	2719.702500
591.783188	2684.414423
592.135232	2679.373269
592.487222	2729.784808
592.839157	2621.400000
593.191038	2694.496731
593.542866	2666.770385
593.894639	2603.755962
594.246358	2568.467885
594.598022	2576.029615
594.949633	2636.523462
595.301190	2598.714808
595.652692	2631.482308
596.004141	2613.838269
596.355535	2664.249808
596.706876	2603.755962
597.058162	2634.002885
597.409395	2631.482308
597.760573	2570.988462
598.111698	2616.358846
598.462768	2666.770385
598.813785	2581.070769
599.164748	2656.688077
599.515657	2641.564615
599.866511	2623.920577
600.217312	2649.126346
600.568060	2596.194231
600.918753	2654.167500
601.269392	2646.605769
601.619978	2656.688077
601.970510	2724.743654
602.320988	2618.879423
602.671412	2752.470000
603.021783	2628.961731
603.372100	2644.085192
603.722363	2732.305385
604.072572	2553.344423
604.422728	2606.276538
604.772830	2639.044038
605.122878	2565.947308
605.472872	2576.029615
605.822813	2661.729231
606.172701	2634.002885
606.522534	2639.044038
606.872314	2659.208654
607.222041	2603.755962
607.571714	2666.770385
607.921333	2596.194231
608.270899	2613.838269
608.620411	2649.126346
608.969870	2596.194231
609.319276	2649.126346
609.668627	2578.550192
610.017926	2606.276538
610.367171	2644.085192
610.716362	2583.591346
611.065500	2664.249808
611.414585	2628.961731
611.763616	2593.673654
612.112594	2591.153077
612.461518	2712.140769
612.810389	2651.646923
613.159207	2659.208654
613.507971	2621.400000
613.856682	2651.646923
614.205340	2636.523462
614.553945	2691.976154
614.902496	2608.797115
615.250994	2626.441154
615.599439	2686.935000
615.947830	2649.126346
616.296169	2616.358846
616.644454	2608.797115
616.992686	2644.085192
617.340864	2608.797115
617.688990	2608.797115
618.037063	2573.509038
618.385082	2654.167500
618.733048	2631.482308
619.080961	2623.920577
619.428821	2649.126346
619.776628	2525.618077
620.124382	2611.317692
620.472083	2636.523462
620.819731	2621.400000
621.167326	2588.632500
621.514868	2639.044038
621.862357	2656.688077
622.209793	2618.879423
622.557176	2601.235385
622.904506	2639.044038
623.251783	2654.167500
623.599007	2598.714808
623.946179	2568.467885
624.293297	2707.099615
624.640363	2583.591346
624.987376	2646.605769
625.334336	2679.373269
625.681243	2558.385577
626.028097	2573.509038
626.374899	2651.646923
626.721647	2639.044038
627.068343	2634.002885
627.414987	2603.755962
627.761577	2606.276538
628.108115	2485.288846
628.454600	2563.426731
628.801032	2601.235385
629.147412	2717.181923
629.493739	2593.673654
629.840014	2598.714808
630.186236	2681.893846
630.532405	2646.605769
630.878521	2664.249808
631.224585	2631.482308
631.570597	2598.714808
631.916556	2601.235385
632.262462	2553.344423
632.608316	2576.029615
632.954117	2656.688077
633.299866	2593.673654
633.645562	2621.400000
633.991206	2581.070769
634.336797	2568.467885
634.682336	2588.632500
635.027823	2646.605769
635.373257	2697.017308
635.718639	2631.482308
636.063968	2628.961731
636.409245	2694.496731
636.754470	2548.303269
637.099642	2739.867115
637.444762	2591.153077
637.789829	2583.591346
638.134845	2651.646923
638.479808	2634.002885
638.824719	2608.797115
639.169577	2686.935000
639.514383	2626.441154
639.859137	2606.276538
640.203839	2626.441154
640.548489	2553.344423
640.893086	2558.385577
641.237632	2563.426731
641.582125	2533.179808
641.926566	2654.167500
642.270955	2712.140769
642.615292	2613.838269
642.959576	2586.111923
643.303809	2661.729231
643.647990	2586.111923
643.992118	2611.317692
644.336195	2621.400000
644.680219	2578.550192
645.024192	2697.017308
645.368112	2634.002885
645.711981	2570.988462
646.055797	2565.947308
646.399562	2654.167500
646.743274	2623.920577
647.086935	2651.646923
647.430544	2656.688077
647.774101	2618.879423
648.117606	2661.729231
648.461059	2596.194231
648.804460	2641.564615
649.147810	2659.208654
649.491108	2674.332115
649.834354	2686.935000
650.177548	2628.961731
650.520690	2581.070769
650.863781	2659.208654
651.206820	2591.153077
651.549807	2684.414423
651.892742	2628.961731
652.235626	2576.029615
652.578458	2613.838269
652.921238	2676.852692
653.263967	2591.153077
653.606644	2628.961731
653.949269	2588.632500
654.291843	2666.770385
654.634365	2613.838269
654.976836	2681.893846
655.319255	2654.167500
655.661622	2659.208654
656.003938	2679.373269
656.346203	2621.400000
656.688416	2560.906154
657.030577	2651.646923
657.372687	2583.591346
657.714746	2699.537885
658.056753	2606.276538
658.398708	2555.865000
658.740612	2661.729231
659.082465	2626.441154
659.424266	2679.373269
659.766016	2623.920577
660.107715	2689.455577
660.449362	2656.688077
660.790958	2654.167500
661.132503	2623.920577
661.473996	2555.865000
661.815438	2593.673654
662.156829	2593.673654
662.498168	2661.729231
662.839456	2641.564615
663.180693	2674.332115
663.521879	2641.564615
663.863013	2656.688077
664.204097	2661.729231
664.545129	2661.729231
664.886110	2676.852692
665.227040	2631.482308
665.567918	2583.591346
665.908746	2671.811538
666.249522	2570.988462
666.590248	2639.044038
666.930922	2676.852692
667.271545	2636.523462
667.612118	2676.852692
667.952639	2596.194231
668.293109	2628.961731
668.633528	2644.085192
668.973896	2628.961731
669.314213	2679.373269
669.654480	2598.714808
669.994695	2623.920577
670.334859	2576.029615
670.674973	2608.797115
671.015035	2608.797115
671.355047	2523.097500
671.695008	2636.523462
672.034918	2679.373269
672.374777	2588.632500
672.714585	2659.208654
673.054342	2616.358846
673.394049	2634.002885
673.733705	2598.714808
674.073310	2603.755962
674.412864	2563.426731
674.752368	2553.344423
675.091820	2545.782692
675.431223	2639.044038
675.770574	2636.523462
676.109875	2681.893846
676.449125	2555.865000
676.788324	2628.961731
677.127473	2634.002885
677.466571	2533.179808
677.805619	2646.605769
678.144616	2618.879423
678.483562	2623.920577
678.822458	2621.400000
679.161303	2616.358846
679.500098	2588.632500
679.838842	2593.673654
680.177535	2596.194231
680.516179	2646.605769
680.854771	2513.015192
681.193314	2659.208654
681.531805	2641.564615
681.870247	2598.714808
682.208638	2573.509038
682.546978	2651.646923
682.885268	2644.085192
683.223508	2631.482308
683.561697	2583.591346
683.899836	2656.688077
684.237925	2646.605769
684.575963	2676.852692
684.913951	2631.482308
685.251889	2606.276538
685.589776	2634.002885
685.927614	2628.961731
686.265401	2603.755962
686.603137	2596.194231
686.940824	2543.262115
687.278460	2646.605769
687.616046	2608.797115
687.953582	2626.441154
688.291068	2608.797115
688.628504	2636.523462
688.965889	2654.167500
689.303224	2603.755962
689.640510	2644.085192
689.977745	2669.290962
690.314930	2593.673654
690.652065	2646.605769
690.989150	2646.605769
691.326185	2510.494615
691.663170	2613.838269
692.000105	2691.976154
692.336990	2563.426731
692.673825	2639.044038
693.010610	2702.058462
693.347345	2631.482308
693.684030	2661.729231
694.020665	2581.070769
694.357251	2654.167500
694.693786	2581.070769
695.030272	2666.770385
695.366707	2581.070769
695.703093	2596.194231
696.039429	2586.111923
696.375716	2540.741538
696.711952	2573.509038
697.048139	2591.153077
697.384276	2634.002885
697.720363	2689.455577
698.056400	2570.988462
698.392388	2606.276538
698.728326	2636.523462
699.064214	2631.482308
699.400053	2634.002885
699.735842	2686.935000
700.071581	2644.085192
700.407270	2679.373269
700.742910	2606.276538
701.078501	2671.811538
701.414042	2649.126346
701.749533	2626.441154
702.084974	2598.714808
702.420366	2623.920577
702.755709	2596.194231
703.091002	2603.755962
703.426246	2659.208654
703.761440	2639.044038
704.096584	2570.988462
704.431679	2523.097500
704.766725	2666.770385
705.101721	2553.344423
705.436668	2639.044038
705.771565	2641.564615
706.106413	2565.947308
706.441212	2689.455577
706.775961	2671.811538
707.110661	2659.208654
707.445311	2616.358846
707.779913	2623.920577
708.114465	2639.044038
708.448967	2616.358846
708.783421	2608.797115
709.117825	2659.208654
709.452180	2611.317692
709.786485	2623.920577
710.120742	2669.290962
710.454949	2644.085192
710.789107	2674.332115
711.123216	2535.700385
711.457275	2596.194231
711.791286	2644.085192
712.125247	2525.618077
712.459159	2767.593462
712.793023	2654.167500
713.126837	2583.591346
713.460602	2540.741538
713.794318	2568.467885
714.127985	2639.044038
714.461602	2586.111923
714.795171	2616.358846
715.128691	2596.194231
715.462162	2628.961731
715.795584	2608.797115
716.128957	2644.085192
716.462281	2558.385577
716.795556	2664.249808
717.128782	2563.426731
717.461960	2639.044038
717.795088	2697.017308
718.128167	2608.797115
718.461198	2525.618077
718.794180	2611.317692
719.127113	2618.879423
719.459997	2538.220962
719.792833	2568.467885
720.125619	2618.879423
720.458357	2621.400000
720.791046	2583.591346
721.123686	2593.673654
721.456278	2674.332115
721.788821	2654.167500
722.121315	2555.865000
722.453761	2596.194231
722.786158	2646.605769
723.118506	2656.688077
723.450805	2591.153077
723.783056	2608.797115
724.115259	2603.755962
724.447412	2719.702500
724.779518	2608.797115
725.111574	2581.070769
725.443582	2654.167500
725.775542	2646.605769
726.107453	2533.179808
726.439315	2598.714808
726.771129	2676.852692
727.102895	2611.317692
727.434612	2618.879423
727.766281	2621.400000
728.097901	2543.262115
728.429473	2623.920577
728.760996	2636.523462
729.092471	2628.961731
729.423897	2631.482308
729.755276	2601.235385
730.086606	2661.729231
730.417887	2598.714808
730.749120	2603.755962
731.080305	2636.523462
731.411442	2581.070769
731.742530	2691.976154
732.073570	2659.208654
732.404562	2727.264231
732.735506	2623.920577
733.066401	2586.111923
733.397249	2646.605769
733.728048	2613.838269
734.058798	2649.126346
734.389501	2525.618077
734.720156	2598.714808
735.050762	2583.591346
735.381320	2565.947308
735.711831	2634.002885
736.042293	2654.167500
736.372707	2613.838269
736.703073	2616.358846
737.033391	2593.673654
737.363661	2560.906154
737.693883	2651.646923
738.024056	2656.688077
738.354182	2492.850577
738.684260	2570.988462
739.014290	2626.441154
739.344272	2565.947308
739.674207	2634.002885
740.004093	2646.605769
740.333931	2555.865000
740.663722	2568.467885
740.993464	2588.632500
741.323159	2626.441154
741.652806	2608.797115
741.982405	2654.167500
742.311956	2593.673654
742.641460	2639.044038
742.970915	2583.591346
743.300323	2608.797115
743.629683	2581.070769
743.958996	2570.988462
744.288260	2588.632500
744.617477	2636.523462
744.946647	2623.920577
745.275768	2661.729231
745.604842	2576.029615
745.933869	2628.961731
746.262847	2608.797115
746.591778	2611.317692
746.920662	2626.441154
747.249498	2618.879423
747.578286	2568.467885
747.907027	2563.426731
748.235720	2656.688077
748.564365	2608.797115
748.892963	2558.385577
749.221514	2573.509038
749.550017	2631.482308
749.878473	2649.126346
750.206881	2618.879423
750.535242	2634.002885
750.863555	2631.482308
751.191821	2616.358846
751.520039	2608.797115
751.848210	2634.002885
752.176334	2535.700385
752.504411	2581.070769
752.832440	2639.044038
753.160421	2644.085192
753.488356	2661.729231
753.816243	2593.673654
754.144082	2596.194231
754.471875	2689.455577
754.799620	2560.906154
755.127318	2480.247692
755.454969	2646.605769
755.782572	2719.702500
756.110129	2613.838269
756.437638	2631.482308
756.765100	2641.564615
757.092515	2628.961731
757.419882	2644.085192
757.747203	2636.523462
758.074477	2631.482308
758.401703	2636.523462
758.728882	2634.002885
759.056014	2616.358846
759.383099	2628.961731
759.710138	2581.070769
760.037129	2634.002885
760.364073	2621.400000
760.690970	2588.632500
761.017820	2553.344423
761.344623	2570.988462
761.671379	2520.576923
761.998088	2606.276538
762.324751	2603.755962
762.651366	2606.276538
762.977935	2621.400000
763.304456	2616.358846
763.630931	2623.920577
763.957359	2601.235385
764.283740	2654.167500
764.610074	2636.523462
764.936362	2543.262115
765.262602	2611.317692
765.588796	2651.646923
765.914943	2621.400000
766.241044	2533.179808
766.567097	2676.852692
766.893104	2535.700385
767.219064	2581.070769
767.544978	2591.153077
767.870845	2631.482308
768.196665	2608.797115
768.522438	2618.879423
768.848165	2570.988462
769.173846	2702.058462
769.499479	2656.688077
769.825066	2634.002885
770.150607	2553.344423
770.476101	2591.153077
770.801548	2570.988462
771.126949	2608.797115
771.452303	2570.988462
771.777611	2611.317692
772.102872	2586.111923
772.428087	2565.947308
772.753256	2523.097500
773.078378	2606.276538
773.403453	2596.194231
773.728482	2583.591346
774.053465	2553.344423
774.378401	2636.523462
774.703291	2583.591346
775.028135	2613.838269
775.352932	2641.564615
775.677683	2631.482308
776.002388	2649.126346
776.327046	2631.482308
776.651658	2565.947308
776.976224	2636.523462
777.300743	2606.276538
777.625216	2613.838269
777.949643	2576.029615
778.274024	2563.426731
778.598359	2659.208654
778.922647	2649.126346
779.246889	2606.276538
779.571086	2563.426731
779.895236	2576.029615
780.219339	2628.961731
780.543397	2548.303269
780.867409	2558.385577
781.191374	2601.235385
781.515294	2618.879423
781.839167	2608.797115
782.162995	2618.879423
782.486776	2573.509038
782.810511	2535.700385
783.134201	2573.509038
783.457844	2548.303269
783.781441	2714.661346
784.104993	2586.111923
784.428498	2623.920577
784.751958	2540.741538
785.075372	2639.044038
785.398739	2560.906154
785.722061	2583.591346
786.045337	2576.029615
786.368568	2591.153077
786.691752	2613.838269
787.014891	2686.935000
787.337983	2596.194231
787.661030	2644.085192
787.984031	2545.782692
788.306987	2601.235385
788.629897	2538.220962
788.952760	2578.550192
789.275579	2702.058462
789.598351	2593.673654
789.921078	2676.852692
790.243759	2654.167500
790.566395	2563.426731
790.888984	2661.729231
791.211529	2540.741538
791.534027	2603.755962
791.856480	2626.441154
792.178888	2646.605769
792.501249	2626.441154
792.823566	2616.358846
793.145836	2515.535769
793.468062	2588.632500
793.790241	2669.290962
794.112375	2588.632500
794.434464	2533.179808
794.756507	2618.879423
795.078505	2679.373269
795.400457	2664.249808
795.722364	2644.085192
796.044226	2626.441154
796.366042	2608.797115
796.687812	2623.920577
797.009538	2596.194231
797.331218	2596.194231
797.652852	2649.126346
797.974442	2644.085192
798.295986	2596.194231
798.617484	2578.550192
798.938938	2654.167500
799.260346	2654.167500
799.581709	2550.823846
799.903026	2628.961731
800.224299	2649.126346
800.545526	2576.029615
800.866708	2616.358846
801.187845	2666.770385
801.508936	2623.920577
801.829983	2598.714808
802.150984	2628.961731
802.471940	2618.879423
802.792851	2593.673654
803.113717	2646.605769
803.434538	2593.673654
803.755314	2689.455577
804.076045	2578.550192
804.396731	2586.111923
804.717372	2634.002885
805.037967	2611.317692
805.358518	2538.220962
805.679024	2649.126346
805.999485	2598.714808
806.319901	2581.070769
806.640272	2581.070769
806.960598	2543.262115
807.280879	2623.920577
807.601115	2603.755962
807.921306	2606.276538
808.241453	2545.782692
808.561554	2611.317692
808.881611	2596.194231
809.201623	2606.276538
809.521590	2593.673654
809.841513	2563.426731
810.161390	2606.276538
810.481223	2654.167500
810.801011	2644.085192
811.120755	2555.865000
811.440453	2641.564615
811.760107	2623.920577
812.079716	2671.811538
812.399281	2666.770385
812.718801	2593.673654
813.038276	2641.564615
813.357707	2601.235385
813.677093	2601.235385
813.996434	2613.838269
814.315731	2646.605769
814.634983	2606.276538
814.954191	2591.153077
815.273354	2540.741538
815.592473	2535.700385
815.911547	2679.373269
816.230577	2608.797115
816.549562	2616.358846
816.868502	2621.400000
817.187399	2608.797115
817.506250	2659.208654
817.825058	2588.632500
818.143821	2608.797115
818.462539	2596.194231
818.781213	2578.550192
819.099843	2603.755962
819.418429	2603.755962
819.736970	2558.385577
820.055466	2568.467885
820.373919	2613.838269
820.692327	2616.358846
821.010691	2596.194231
821.329011	2623.920577
821.647286	2613.838269
821.965517	2707.099615
822.283704	2734.825962
822.601847	2618.879423
822.919945	2601.235385
823.237999	2671.811538
823.556010	2669.290962
823.873976	2722.223077
824.191897	2639.044038
824.509775	2697.017308
824.827609	2611.317692
825.145398	2689.455577
825.463144	2565.947308
825.780845	2598.714808
826.098502	2694.496731
826.416116	2712.140769
826.733685	2679.373269
827.051210	2603.755962
827.368692	2689.455577
827.686129	2606.276538
828.003522	2606.276538
828.320872	2598.714808
828.638177	2581.070769
828.955439	2628.961731
829.272656	2568.467885
829.589830	2543.262115
829.906960	2654.167500
830.224046	2576.029615
830.541088	2628.961731
830.858086	2548.303269
831.175041	2621.400000
831.491952	2656.688077
831.808819	2669.290962
832.125642	2608.797115
832.442421	2628.961731
832.759157	2601.235385
833.075849	2634.002885
833.392497	2623.920577
833.709101	2628.961731
834.025662	2608.797115
834.342179	2631.482308
834.658653	2616.358846
834.975083	2611.317692
835.291469	2689.455577
835.607811	2634.002885
835.924110	2616.358846
836.240366	2628.961731
836.556578	2636.523462
836.872746	2613.838269
837.188871	2606.276538
837.504952	2654.167500
837.820990	2603.755962
838.136984	2613.838269
838.452935	2586.111923
838.768842	2598.714808
839.084706	2530.659231
839.400526	2636.523462
839.716303	2581.070769
840.032037	2634.002885
840.347727	2603.755962
840.663373	2661.729231
840.978977	2664.249808
841.294537	2565.947308
841.610054	2576.029615
841.925527	2591.153077
842.240957	2631.482308
842.556344	2671.811538
842.871687	2613.838269
843.186987	2578.550192
843.502244	2661.729231
843.817458	2540.741538
844.132629	2606.276538
844.447756	2581.070769
844.762840	2578.550192
845.077881	2601.235385
845.392879	2570.988462
845.707833	2553.344423
846.022745	2596.194231
846.337613	2548.303269
846.652438	2681.893846
846.967221	2505.453462
847.281960	2601.235385
847.596656	2628.961731
847.911309	2598.714808
848.225919	2570.988462
848.540485	2533.179808
848.855009	2535.700385
849.169490	2613.838269
849.483928	2583.591346
849.798323	2656.688077
850.112675	2520.576923
850.426984	2639.044038
850.741251	2636.523462
851.055474	2646.605769
851.369654	2588.632500
851.683792	2631.482308
851.997887	2603.755962
852.311938	2568.467885
852.625947	2593.673654
852.939914	2714.661346
853.253837	2570.988462
853.567718	2626.441154
853.881555	2699.537885
854.195350	2621.400000
854.509103	2540.741538
854.822812	2656.688077
855.136479	2669.290962
855.450103	2583.591346
855.763685	2586.111923
856.077224	2656.688077
856.390720	2628.961731
856.704173	2588.632500
857.017584	2646.605769
857.330953	2583.591346
857.644278	2598.714808
857.957561	2603.755962
858.270802	2518.056346
858.584000	2573.509038
858.897155	2611.317692
859.210268	2578.550192
859.523339	2576.029615
859.836367	2518.056346
860.149352	2651.646923
860.462295	2601.235385
860.775195	2623.920577
861.088054	2598.714808
861.400869	2634.002885
861.713642	2545.782692
862.026373	2591.153077
862.339062	2555.865000
862.651708	2558.385577
862.964312	2535.700385
863.276873	2623.920577
863.589392	2565.947308
863.901869	2588.632500
864.214303	2623.920577
864.526696	2649.126346
864.839045	2611.317692
865.151353	2664.249808
865.463619	2694.496731
865.775842	2535.700385
866.088023	2659.208654
866.400162	2611.317692
866.712258	2621.400000
867.024313	2712.140769
867.336325	2644.085192
867.648296	2613.838269
867.960224	2550.823846
868.272110	2616.358846
868.583954	2601.235385
868.895755	2570.988462
869.207515	2540.741538
869.519233	2616.358846
869.830909	2634.002885
870.142542	2550.823846
870.454134	2535.700385
870.765684	2606.276538
871.077191	2699.537885
871.388657	2606.276538
871.700081	2641.564615
872.011463	2578.550192
872.322803	2623.920577
872.634101	2613.838269
872.945357	2634.002885
873.256571	2717.181923
873.567744	2644.085192
873.878874	2581.070769
874.189963	2525.618077
874.501010	2596.194231
874.812015	2649.126346
875.122979	2560.906154
875.433900	2636.523462
875.744780	2699.537885
876.055618	2492.850577
876.366415	2593.673654
876.677169	2555.865000
876.987882	2649.126346
877.298554	2598.714808
877.609183	2581.070769
877.919771	2621.400000
878.230317	2598.714808
878.540822	2644.085192
878.851285	2588.632500
879.161707	2570.988462
879.472087	2626.441154
879.782425	2513.015192
880.092722	2641.564615
880.402977	2659.208654
880.713191	2656.688077
881.023363	2659.208654
881.333494	2621.400000
881.643583	2681.893846
881.953631	2644.085192
882.263637	2649.126346
882.573602	2709.620192
882.883526	2676.852692
883.193408	2631.482308
883.503248	2717.181923
883.813048	2674.332115
884.122806	2583.591346
884.432522	2644.085192
884.742197	2601.235385
885.051831	2649.126346
885.361424	2596.194231
885.670975	2621.400000
885.980485	2621.400000
886.289954	2560.906154
886.599382	2583.591346
886.908768	2649.126346
887.218113	2586.111923
887.527417	2591.153077
887.836680	2520.576923
888.145901	2611.317692
888.455082	2613.838269
888.764221	2593.673654
889.073319	2631.482308
889.382376	2621.400000
889.691392	2591.153077
890.000366	2631.482308
890.309300	2616.358846
890.618193	2631.482308
890.927044	2596.194231
891.235855	2601.235385
891.544625	2505.453462
891.853353	2523.097500
892.162041	2520.576923
892.470687	2649.126346
892.779293	2611.317692
893.087858	2563.426731
893.396381	2586.111923
893.704864	2550.823846
894.013306	2593.673654
894.321707	2596.194231
894.630068	2581.070769
894.938387	2623.920577
895.246665	2565.947308
895.554903	2656.688077
895.863100	2568.467885
896.171256	2565.947308
896.479371	2606.276538
896.787446	2467.644808
897.095480	2613.838269
897.403473	2618.879423
897.711425	2654.167500
898.019336	2613.838269
898.327207	2644.085192
898.635038	2601.235385
898.942827	2598.714808
899.250576	2505.453462
899.558284	2616.358846
899.865952	2636.523462
900.173579	2555.865000
900.481165	2608.797115
900.788711	2558.385577
901.096216	2578.550192
901.403681	2548.303269
901.711105	2639.044038
902.018489	2639.044038
902.325832	2573.509038
902.633135	2553.344423
902.940397	2649.126346
903.247619	2568.467885
903.554800	2578.550192
903.861941	2651.646923
904.169041	2717.181923
904.476101	2543.262115
904.783121	2649.126346
905.090100	2593.673654
905.397039	2626.441154
905.703938	2563.426731
906.010796	2540.741538
906.317614	2603.755962
906.624391	2555.865000
906.931129	2548.303269
907.237826	2545.782692
907.544483	2616.358846
907.851099	2596.194231
908.157675	2578.550192
908.464211	2598.714808
908.770707	2639.044038
909.077163	2573.509038
909.383578	2583.591346
909.689954	2628.961731
909.996289	2603.755962
910.302584	2563.426731
910.608839	2560.906154
910.915054	2545.782692
911.221229	2634.002885
911.527363	2581.070769
911.833458	2540.741538
912.139513	2611.317692
912.445527	2573.509038
912.751502	2626.441154
913.057436	2722.223077
913.363331	2651.646923
913.669186	2540.741538
913.975000	2591.153077
914.280775	2548.303269
914.586510	2636.523462
914.892205	2555.865000
915.197859	2646.605769
915.503475	2606.276538
915.809050	2623.920577
916.114585	2513.015192
916.420081	2548.303269
916.725536	2608.797115
917.030952	2598.714808
917.336328	2520.576923
917.641665	2651.646923
917.946961	2608.797115
918.252218	2608.797115
918.557435	2613.838269
918.862612	2545.782692
919.167750	2596.194231
919.472848	2593.673654
919.777906	2588.632500
920.082925	2596.194231
920.387904	2593.673654
920.692843	2649.126346
920.997743	2570.988462
921.302603	2533.179808
921.607423	2563.426731
921.912204	2656.688077
922.216946	2598.714808
922.521647	2560.906154
922.826310	2671.811538
923.130932	2616.358846
923.435516	2613.838269
923.740059	2492.850577
924.044564	2560.906154
924.349028	2621.400000
924.653454	2578.550192
924.957840	2581.070769
925.262186	2535.700385
925.566493	2565.947308
925.870761	2596.194231
926.174989	2558.385577
926.479178	2606.276538
926.783328	2608.797115
927.087438	2578.550192
927.391509	2578.550192
927.695541	2603.755962
927.999533	2608.797115
928.303486	2573.509038
928.607400	2634.002885
928.911275	2523.097500
929.215110	2565.947308
929.518906	2573.509038
929.822663	2535.700385
930.126381	2596.194231
930.430060	2636.523462
930.733699	2513.015192
931.037299	2565.947308
931.340861	2634.002885
931.644383	2598.714808
931.947866	2533.179808
932.251309	2525.618077
932.554714	2704.579038
932.858080	2505.453462
933.161407	2679.373269
933.464694	2616.358846
933.767943	2568.467885
934.071153	2636.523462
934.374323	2573.509038
934.677455	2639.044038
934.980548	2593.673654
935.283602	2558.385577
935.586617	2603.755962
935.889593	2560.906154
936.192530	2598.714808
936.495428	2591.153077
936.798287	2669.290962
937.101108	2611.317692
937.403890	2611.317692
937.706632	2598.714808
938.009336	2631.482308
938.312002	2623.920577
938.614628	2651.646923
938.917216	2631.482308
939.219765	2684.414423
939.522275	2570.988462
939.824747	2515.535769
940.127179	2570.988462
940.429573	2545.782692
940.731929	2576.029615
941.034246	2631.482308
941.336524	2568.467885
941.638763	2581.070769
941.940964	2573.509038
942.243126	2583.591346
942.545250	2535.700385
942.847335	2588.632500
943.149381	2555.865000
943.451389	2591.153077
943.753359	2581.070769
944.055290	2578.550192
944.357182	2689.455577
944.659036	2639.044038
944.960851	2606.276538
945.262628	2530.659231
945.564367	2568.467885
945.866067	2588.632500
946.167729	2518.056346
946.469352	2563.426731
946.770937	2576.029615
947.072484	2573.509038
947.373992	2649.126346
947.675462	2628.961731
947.976893	2626.441154
948.278286	2603.755962
948.579641	2565.947308
948.880958	2593.673654
949.182236	2623.920577
949.483476	2583.591346
949.784678	2581.070769
950.085841	2533.179808
950.386967	2601.235385
950.688054	2535.700385
950.989103	2631.482308
951.290114	2550.823846
951.591087	2505.453462
951.892021	2581.070769
952.192917	2618.879423
952.493776	2596.194231
952.794596	2570.988462
953.095378	2603.755962
953.396122	2565.947308
953.696828	2553.344423
953.997496	2654.167500
954.298126	2596.194231
954.598718	2591.153077
954.899272	2644.085192
955.199788	2676.852692
955.500266	2621.400000
955.800706	2568.467885
956.101108	2540.741538
956.401472	2555.865000
956.701798	2548.303269
957.002087	2666.770385
957.302337	2523.097500
957.602550	2676.852692
957.902724	2639.044038
958.202861	2528.138654
958.502960	2538.220962
958.803022	2581.070769
959.103045	2659.208654
959.403031	2507.974038
959.702979	2543.262115
960.002889	2507.974038
960.302762	2565.947308
960.602596	2618.879423
960.902393	2639.044038
961.202153	2525.618077
961.501875	2628.961731
961.801559	2578.550192
962.101205	2487.809423
962.400814	2623.920577
962.700385	2553.344423
962.999918	2553.344423
963.299414	2608.797115
963.598873	2634.002885
963.898293	2641.564615
964.197677	2515.535769
964.497022	2576.029615
964.796331	2613.838269
965.095601	2646.605769
965.394835	2591.153077
965.694030	2608.797115
965.993189	2608.797115
966.292309	2646.605769
966.591393	2639.044038
966.890439	2616.358846
967.189447	2603.755962
967.488419	2649.126346
967.787353	2618.879423
968.086249	2649.126346
968.385108	2518.056346
968.683930	2505.453462
968.982714	2603.755962
969.281462	2623.920577
969.580172	2513.015192
969.878844	2684.414423
970.177480	2588.632500
970.476078	2606.276538
970.774639	2586.111923
971.073162	2651.646923
971.371649	2576.029615
971.670098	2538.220962
971.968510	2563.426731
972.266885	2613.838269
972.565223	2586.111923
972.863524	2623.920577
973.161788	2649.126346
973.460014	2606.276538
973.758204	2581.070769
974.056356	2568.467885
974.354471	2596.194231
974.652550	2553.344423
974.950591	2628.961731
975.248595	2646.605769
975.546563	2634.002885
975.844493	2573.509038
976.142386	2621.400000
976.440243	2679.373269
976.738062	2553.344423
977.035845	2560.906154
977.333590	2651.646923
977.631299	2570.988462
977.928971	2618.879423
978.226606	2606.276538
978.524204	2545.782692
978.821765	2581.070769
979.119290	2616.358846
979.416777	2518.056346
979.714228	2623.920577
980.011642	2608.797115
980.309020	2616.358846
980.606360	2639.044038
980.903664	2568.467885
981.200931	2545.782692
981.498162	2528.138654
981.795356	2598.714808
982.092513	2487.809423
982.389633	2513.015192
982.686717	2513.015192
982.983764	2563.426731
983.280775	2487.809423
983.577749	2578.550192
983.874686	2631.482308
984.171587	2596.194231
984.468451	2591.153077
984.765279	2573.509038
985.062070	2603.755962
985.358824	2570.988462
985.655543	2628.961731
985.952224	2565.947308
986.248869	2525.618077
986.545478	2606.276538
986.842050	2545.782692
987.138586	2533.179808
987.435086	2598.714808
987.731549	2538.220962
988.027975	2618.879423
988.324366	2618.879423
988.620719	2656.688077
988.917037	2573.509038
989.213318	2573.509038
989.509563	2563.426731
989.805772	2543.262115
990.101944	2583.591346
990.398080	2626.441154
990.694180	2565.947308
990.990244	2591.153077
991.286271	2535.700385
991.582262	2611.317692
991.878217	2608.797115
992.174136	2654.167500
992.470019	2581.070769
992.765865	2573.509038
993.061676	2555.865000
993.357450	2659.208654
993.653188	2601.235385
993.948890	2525.618077
994.244556	2586.111923
994.540186	2634.002885
994.835780	2578.550192
995.131337	2535.700385
995.426859	2593.673654
995.722345	2674.332115
996.017795	2621.400000
996.313208	2487.809423
996.608586	2608.797115
996.903928	2510.494615
997.199234	2540.741538
997.494504	2545.782692
997.789738	2608.797115
998.084936	2593.673654
998.380099	2591.153077
998.675225	2611.317692
998.970316	2608.797115
999.265371	2623.920577
999.560390	2601.235385
999.855373	2550.823846
1000.150320	2636.523462
1000.445232	2578.550192
1000.740108	2656.688077
1001.034948	2535.700385
1001.329752	2535.700385
1001.624521	2558.385577
1001.919254	2558.385577
1002.213951	2613.838269
1002.508613	2553.344423
1002.803239	2563.426731
1003.097829	2563.426731
1003.392384	2639.044038
1003.686903	2611.317692
1003.981386	2606.276538
1004.275834	2641.564615
1004.570246	2555.865000
1004.864623	2644.085192
1005.158964	2540.741538
1005.453270	2623.920577
1005.747540	2545.782692
1006.041775	2568.467885
1006.335974	2631.482308
1006.630138	2540.741538
1006.924266	2631.482308
1007.218359	2523.097500
1007.512416	2578.550192
1007.806438	2586.111923
1008.100425	2555.865000
1008.394376	2606.276538
1008.688292	2661.729231
1008.982172	2634.002885
1009.276017	2563.426731
1009.569827	2628.961731
1009.863602	2593.673654
1010.157341	2535.700385
1010.451045	2550.823846
1010.744714	2681.893846
1011.038347	2654.167500
1011.331945	2641.564615
1011.625508	2538.220962
1011.919036	2621.400000
1012.212528	2621.400000
1012.505986	2671.811538
1012.799408	2596.194231
1013.092795	2513.015192
1013.386147	2520.576923
1013.679464	2626.441154
1013.972745	2510.494615
1014.265992	2533.179808
1014.559204	2651.646923
1014.852380	2596.194231
1015.145521	2603.755962
1015.438628	2560.906154
1015.731699	2540.741538
1016.024736	2581.070769
1016.317737	2639.044038
1016.610703	2550.823846
1016.903635	2601.235385
1017.196531	2636.523462
1017.489393	2581.070769
1017.782219	2628.961731
1018.075011	2621.400000
1018.367768	2555.865000
1018.660490	2568.467885
1018.953177	2568.467885
1019.245829	2568.467885
