Dividing Wavelength (nm)	Counts (n)	Blue Motor Position (mm): 0.000000	Red Motor Position (mm): 7.200000	
326.493990	2142.490385
326.888308	2142.490385
327.282561	2142.490385
327.676750	2039.146731
328.070874	2056.790769
328.464933	2034.105577
328.858929	2076.955385
329.252859	2031.585000
329.646726	2092.078846
330.040528	2172.737308
330.434265	2079.475962
330.827938	2081.996538
331.221547	2195.422500
331.615091	2114.764038
332.008571	2139.969808
332.401986	2213.066538
332.795338	2180.299038
333.188625	2291.204423
333.581847	2321.451346
333.975006	2278.601538
334.368100	2351.698269
334.761129	2273.560385
335.154095	2334.054231
335.546996	2318.930769
335.939833	2273.560385
336.332606	2339.095385
336.725315	2427.315577
337.117960	2351.698269
337.510540	2404.630385
337.903056	2472.685962
338.295508	2485.288846
338.687896	2432.356731
339.080220	2429.836154
339.472480	2457.562500
339.864676	2465.124231
340.256807	2492.850577
340.648875	2470.165385
341.040879	2485.288846
341.432818	2442.439038
341.824694	2427.315577
342.216506	2480.247692
342.608253	2444.959615
342.999937	2487.809423
343.391557	2460.083077
343.783113	2462.603654
344.174605	2465.124231
344.566033	2507.974038
344.957397	2543.262115
345.348697	2429.836154
345.739934	2450.000769
346.131106	2442.439038
346.522215	2442.439038
346.913260	2490.330000
347.304241	2490.330000
347.695159	2384.465769
348.086012	2414.712692
348.476802	2450.000769
348.867528	2495.371154
349.258191	2409.671538
349.648789	2376.904038
350.039324	2477.727115
350.429796	2409.671538
350.820203	2341.615962
351.210548	2359.260000
351.600828	2518.056346
351.991045	2447.480192
352.381198	2419.753846
352.771288	2475.206538
353.161314	2560.906154
353.551276	2386.986346
353.941175	2482.768269
354.331010	2470.165385
354.720782	2497.891731
355.110490	2434.877308
355.500135	2497.891731
355.889717	2515.535769
356.279235	2439.918462
356.668689	2452.521346
357.058080	2497.891731
357.447408	2538.220962
357.836672	2432.356731
358.225873	2389.506923
358.615010	2444.959615
359.004084	2427.315577
359.393095	2482.768269
359.782043	2409.671538
360.170927	2460.083077
360.559748	2432.356731
360.948505	2457.562500
361.337199	2394.548077
361.725830	2490.330000
362.114398	2439.918462
362.502903	2399.589231
362.891344	2528.138654
363.279722	2467.644808
363.668037	2470.165385
364.056289	2389.506923
364.444478	2434.877308
364.832603	2402.109808
365.220665	2472.685962
365.608665	2444.959615
365.996601	2439.918462
366.384474	2467.644808
366.772284	2560.906154
367.160031	2495.371154
367.547715	2502.932885
367.935336	2434.877308
368.322893	2492.850577
368.710388	2450.000769
369.097820	2518.056346
369.485189	2318.930769
369.872495	2482.768269
370.259738	2535.700385
370.646918	2429.836154
371.034035	2513.015192
371.421090	2460.083077
371.808081	2480.247692
372.195010	2457.562500
372.581875	2399.589231
372.968678	2545.782692
373.355418	2465.124231
373.742096	2515.535769
374.128710	2407.150962
374.515262	2525.618077
374.901751	2462.603654
375.288177	2341.615962
375.674540	2371.862885
376.060841	2492.850577
376.447079	2392.027500
376.833254	2450.000769
377.219367	2374.383462
377.605417	2364.301154
377.991404	2444.959615
378.377329	2495.371154
378.763191	2465.124231
379.148991	2528.138654
379.534727	2457.562500
379.920402	2472.685962
380.306013	2467.644808
380.691563	2402.109808
381.077049	2427.315577
381.462474	2452.521346
381.847835	2444.959615
382.233134	2442.439038
382.618371	2505.453462
383.003545	2477.727115
383.388657	2470.165385
383.773706	2442.439038
384.158693	2399.589231
384.543618	2437.397885
384.928480	2487.809423
385.313280	2394.548077
385.698017	2500.412308
386.082692	2429.836154
386.467305	2543.262115
386.851856	2437.397885
387.236344	2487.809423
387.620770	2465.124231
388.005133	2465.124231
388.389435	2530.659231
388.773674	2457.562500
389.157851	2513.015192
389.541965	2513.015192
389.926018	2492.850577
390.310008	2470.165385
390.693936	2422.274423
391.077802	2510.494615
391.461606	2414.712692
391.845348	2414.712692
392.229027	2389.506923
392.612645	2520.576923
392.996200	2460.083077
393.379694	2422.274423
393.763125	2543.262115
394.146494	2490.330000
394.529801	2480.247692
394.913047	2540.741538
395.296230	2570.988462
395.679351	2480.247692
396.062410	2429.836154
396.445408	2515.535769
396.828343	2460.083077
397.211217	2535.700385
397.594028	2369.342308
397.976778	2414.712692
398.359466	2442.439038
398.742092	2444.959615
399.124656	2467.644808
399.507158	2495.371154
399.889598	2432.356731
400.271977	2389.506923
400.654294	2467.644808
401.036549	2412.192115
401.418742	2492.850577
401.800874	2626.441154
402.182944	2495.371154
402.564952	2538.220962
402.946898	2565.947308
403.328783	2535.700385
403.710606	2477.727115
404.092367	2457.562500
404.474067	2507.974038
404.855705	2472.685962
405.237282	2437.397885
405.618797	2472.685962
406.000250	2472.685962
406.381642	2513.015192
406.762972	2450.000769
407.144240	2392.027500
407.525447	2455.041923
407.906593	2429.836154
408.287677	2490.330000
408.668700	2369.342308
409.049661	2434.877308
409.430560	2457.562500
409.811399	2495.371154
410.192176	2455.041923
410.572891	2439.918462
410.953545	2502.932885
411.334138	2608.797115
411.714669	2538.220962
412.095139	2568.467885
412.475547	2475.206538
412.855894	2525.618077
413.236180	2452.521346
413.616405	2487.809423
413.996568	2513.015192
414.376670	2356.739423
414.756711	2573.509038
415.136691	2424.795000
415.516609	2447.480192
415.896466	2450.000769
416.276262	2518.056346
416.655997	2505.453462
417.035670	2442.439038
417.415283	2402.109808
417.794834	2490.330000
418.174324	2482.768269
418.553753	2558.385577
418.933121	2490.330000
419.312428	2540.741538
419.691674	2465.124231
420.070859	2570.988462
420.449983	2432.356731
420.829045	2424.795000
421.208047	2465.124231
421.586988	2573.509038
421.965867	2455.041923
422.344686	2399.589231
422.723444	2482.768269
423.102141	2412.192115
423.480777	2560.906154
423.859352	2538.220962
424.237866	2465.124231
424.616319	2424.795000
424.994712	2485.288846
425.373044	2515.535769
425.751314	2502.932885
426.129524	2543.262115
426.507673	2417.233269
426.885762	2533.179808
427.263789	2507.974038
427.641756	2475.206538
428.019662	2535.700385
428.397508	2548.303269
428.775292	2444.959615
429.153016	2507.974038
429.530679	2482.768269
429.908282	2467.644808
430.285824	2538.220962
430.663305	2452.521346
431.040726	2518.056346
431.418086	2510.494615
431.795385	2568.467885
432.172624	2533.179808
432.549802	2439.918462
432.926920	2402.109808
433.303977	2455.041923
433.680974	2497.891731
434.057910	2480.247692
434.434786	2419.753846
434.811601	2485.288846
435.188355	2477.727115
435.565050	2422.274423
435.941683	2495.371154
436.318257	2490.330000
436.694770	2477.727115
437.071222	2538.220962
437.447614	2414.712692
437.823946	2371.862885
438.200218	2555.865000
438.576429	2568.467885
438.952580	2518.056346
439.328670	2497.891731
439.704700	2500.412308
440.080670	2513.015192
440.456580	2462.603654
440.832429	2487.809423
441.208218	2452.521346
441.583947	2550.823846
441.959616	2510.494615
442.335224	2525.618077
442.710773	2502.932885
443.086261	2465.124231
443.461689	2409.671538
443.837057	2444.959615
444.212365	2497.891731
444.587612	2419.753846
444.962800	2543.262115
445.337927	2444.959615
445.712995	2553.344423
446.088002	2452.521346
446.462949	2485.288846
446.837837	2475.206538
447.212664	2482.768269
447.587431	2485.288846
447.962139	2490.330000
448.336786	2492.850577
448.711374	2361.780577
449.085901	2500.412308
449.460369	2497.891731
449.834776	2485.288846
450.209124	2500.412308
450.583412	2510.494615
450.957640	2455.041923
451.331808	2452.521346
451.705917	2513.015192
452.079965	2581.070769
452.453954	2505.453462
452.827883	2457.562500
453.201752	2490.330000
453.575562	2475.206538
453.949311	2465.124231
454.323001	2477.727115
454.696632	2518.056346
455.070202	2500.412308
455.443713	2598.714808
455.817164	2467.644808
456.190556	2492.850577
456.563888	2407.150962
456.937160	2480.247692
457.310373	2558.385577
457.683526	2502.932885
458.056619	2490.330000
458.429653	2497.891731
458.802628	2460.083077
459.175542	2487.809423
459.548398	2535.700385
459.921194	2455.041923
460.293930	2472.685962
460.666607	2470.165385
461.039224	2492.850577
461.411782	2507.974038
461.784280	2467.644808
462.156719	2495.371154
462.529099	2429.836154
462.901419	2465.124231
463.273680	2553.344423
463.645882	2467.644808
464.018024	2467.644808
464.390106	2525.618077
464.762130	2417.233269
465.134094	2480.247692
465.505999	2482.768269
465.877845	2533.179808
466.249631	2457.562500
466.621358	2497.891731
466.993026	2535.700385
467.364634	2490.330000
467.736184	2515.535769
468.107674	2442.439038
468.479105	2492.850577
468.850477	2492.850577
469.221790	2510.494615
469.593043	2543.262115
469.964238	2530.659231
470.335373	2510.494615
470.706449	2550.823846
471.077467	2495.371154
471.448425	2540.741538
471.819324	2500.412308
472.190164	2495.371154
472.560945	2480.247692
472.931667	2538.220962
473.302330	2560.906154
473.672934	2540.741538
474.043479	2442.439038
474.413965	2470.165385
474.784393	2402.109808
475.154761	2520.576923
475.525070	2490.330000
475.895321	2515.535769
476.265513	2490.330000
476.635645	2515.535769
477.005719	2429.836154
477.375734	2505.453462
477.745691	2477.727115
478.115588	2485.288846
478.485427	2467.644808
478.855207	2525.618077
479.224928	2442.439038
479.594591	2578.550192
479.964194	2568.467885
480.333739	2548.303269
480.703226	2447.480192
481.072653	2500.412308
481.442022	2432.356731
481.811333	2467.644808
482.180584	2472.685962
482.549777	2507.974038
482.918912	2596.194231
483.287988	2475.206538
483.657005	2518.056346
484.025964	2379.424615
484.394864	2346.657115
484.763706	2502.932885
485.132489	2533.179808
485.501213	2523.097500
485.869879	2606.276538
486.238487	2502.932885
486.607036	2616.358846
486.975527	2565.947308
487.343959	2490.330000
487.712333	2518.056346
488.080648	2535.700385
488.448905	2472.685962
488.817104	2467.644808
489.185244	2530.659231
489.553326	2543.262115
489.921350	2447.480192
490.289315	2444.959615
490.657222	2442.439038
491.025070	2394.548077
491.392861	2480.247692
491.760593	2558.385577
492.128267	2462.603654
492.495883	2545.782692
492.863440	2502.932885
493.230939	2495.371154
493.598380	2442.439038
493.965763	2520.576923
494.333088	2417.233269
494.700354	2480.247692
495.067563	2497.891731
495.434713	2616.358846
495.801805	2586.111923
496.168839	2427.315577
496.535815	2444.959615
496.902733	2507.974038
497.269593	2442.439038
497.636395	2477.727115
498.003139	2568.467885
498.369825	2482.768269
498.736453	2477.727115
499.103023	2475.206538
499.469535	2502.932885
499.835989	2543.262115
500.202385	2450.000769
500.568723	2482.768269
500.935003	2472.685962
501.301226	2500.412308
501.667390	2520.576923
502.033497	2475.206538
502.399546	2475.206538
502.765537	2414.712692
503.131470	2460.083077
503.497345	2424.795000
503.863163	2513.015192
504.228923	2518.056346
504.594625	2528.138654
504.960269	2434.877308
505.325856	2492.850577
505.691385	2455.041923
506.056856	2507.974038
506.422270	2467.644808
506.787625	2518.056346
507.152924	2505.453462
507.518164	2528.138654
507.883347	2502.932885
508.248472	2472.685962
508.613540	2487.809423
508.978550	2447.480192
509.343503	2477.727115
509.708398	2495.371154
510.073236	2480.247692
510.438016	2482.768269
510.802738	2482.768269
511.167403	2462.603654
511.532010	2558.385577
511.896561	2439.918462
512.261053	2470.165385
512.625488	2515.535769
512.989866	2500.412308
513.354186	2553.344423
513.718449	2424.795000
514.082655	2525.618077
514.446803	2472.685962
514.810894	2475.206538
515.174927	2505.453462
515.538904	2528.138654
515.902822	2492.850577
516.266684	2480.247692
516.630488	2437.397885
516.994235	2543.262115
517.357925	2563.426731
517.721558	2444.959615
518.085133	2550.823846
518.448651	2452.521346
518.812112	2450.000769
519.175516	2434.877308
519.538863	2533.179808
519.902152	2535.700385
520.265385	2444.959615
520.628560	2576.029615
520.991678	2608.797115
521.354739	2485.288846
521.717743	2578.550192
522.080690	2472.685962
522.443580	2497.891731
522.806413	2477.727115
523.169189	2518.056346
523.531908	2502.932885
523.894569	2439.918462
524.257174	2563.426731
524.619722	2457.562500
524.982213	2437.397885
525.344647	2495.371154
525.707025	2475.206538
526.069345	2535.700385
526.431608	2507.974038
526.793815	2492.850577
527.155964	2482.768269
527.518057	2487.809423
527.880093	2523.097500
528.242072	2518.056346
528.603995	2490.330000
528.965860	2525.618077
529.327669	2528.138654
529.689421	2455.041923
530.051117	2523.097500
530.412755	2515.535769
530.774337	2447.480192
531.135862	2513.015192
531.497331	2533.179808
531.858743	2470.165385
532.220098	2462.603654
532.581396	2502.932885
532.942638	2520.576923
533.303824	2450.000769
533.664953	2434.877308
534.026025	2565.947308
534.387040	2495.371154
534.747999	2540.741538
535.108902	2419.753846
535.469748	2457.562500
535.830537	2477.727115
536.191270	2553.344423
536.551947	2581.070769
536.912567	2510.494615
537.273131	2497.891731
537.633638	2472.685962
537.994089	2540.741538
538.354483	2525.618077
538.714821	2455.041923
539.075103	2407.150962
539.435328	2419.753846
539.795497	2480.247692
540.155609	2518.056346
540.515665	2497.891731
540.875665	2528.138654
541.235609	2444.959615
541.595496	2460.083077
541.955328	2452.521346
542.315102	2513.015192
542.674821	2482.768269
543.034483	2492.850577
543.394090	2555.865000
543.753640	2530.659231
544.113134	2535.700385
544.472571	2500.412308
544.831953	2470.165385
545.191278	2492.850577
545.550548	2475.206538
545.909761	2528.138654
546.268918	2444.959615
546.628019	2530.659231
546.987064	2439.918462
547.346053	2412.192115
547.704986	2482.768269
548.063863	2457.562500
548.422684	2480.247692
548.781449	2510.494615
549.140158	2444.959615
549.498811	2490.330000
549.857408	2442.439038
550.215949	2490.330000
550.574434	2565.947308
550.932864	2568.467885
551.291237	2510.494615
551.649555	2525.618077
552.007817	2429.836154
552.366022	2523.097500
552.724173	2538.220962
553.082267	2560.906154
553.440305	2543.262115
553.798288	2480.247692
554.156215	2419.753846
554.514086	2523.097500
554.871902	2460.083077
555.229661	2530.659231
555.587365	2535.700385
555.945014	2550.823846
556.302606	2525.618077
556.660143	2465.124231
557.017625	2596.194231
557.375050	2477.727115
557.732421	2485.288846
558.089735	2472.685962
558.446994	2432.356731
558.804197	2472.685962
559.161345	2427.315577
559.518437	2467.644808
559.875474	2510.494615
560.232455	2525.618077
560.589381	2485.288846
560.946251	2477.727115
561.303065	2467.644808
561.659825	2581.070769
562.016528	2477.727115
562.373177	2507.974038
562.729770	2477.727115
563.086307	2528.138654
563.442789	2530.659231
563.799216	2528.138654
564.155587	2412.192115
564.511904	2588.632500
564.868164	2482.768269
565.224370	2545.782692
565.580520	2507.974038
565.936615	2520.576923
566.292654	2482.768269
566.648638	2591.153077
567.004567	2573.509038
567.360441	2543.262115
567.716260	2495.371154
568.072023	2465.124231
568.427732	2565.947308
568.783385	2490.330000
569.138982	2475.206538
569.494525	2472.685962
569.850013	2588.632500
570.205445	2457.562500
570.560823	2520.576923
570.916145	2538.220962
571.271412	2439.918462
571.626625	2507.974038
571.981782	2502.932885
572.336884	2530.659231
572.691931	2502.932885
573.046923	2550.823846
573.401860	2497.891731
573.756743	2394.548077
574.111570	2480.247692
574.466342	2490.330000
574.821059	2424.795000
575.175722	2588.632500
575.530330	2442.439038
575.884882	2439.918462
576.239380	2419.753846
576.593823	2513.015192
576.948211	2487.809423
577.302544	2540.741538
577.656823	2520.576923
578.011047	2485.288846
578.365216	2475.206538
578.719330	2487.809423
579.073389	2419.753846
579.427394	2591.153077
579.781344	2482.768269
580.135239	2467.644808
580.489080	2482.768269
580.842866	2515.535769
581.196597	2540.741538
581.550273	2460.083077
581.903895	2507.974038
582.257463	2500.412308
582.610975	2548.303269
582.964434	2540.741538
583.317837	2485.288846
583.671186	2563.426731
584.024481	2500.412308
584.377721	2477.727115
584.730906	2510.494615
585.084037	2528.138654
585.437113	2485.288846
585.790135	2495.371154
586.143103	2492.850577
586.496016	2500.412308
586.848874	2422.274423
587.201679	2513.015192
587.554428	2432.356731
587.907124	2510.494615
588.259765	2505.453462
588.612352	2570.988462
588.964884	2490.330000
589.317362	2414.712692
589.669786	2535.700385
590.022155	2457.562500
590.374470	2399.589231
590.726731	2409.671538
591.078937	2452.521346
591.431090	2482.768269
591.783188	2477.727115
592.135232	2535.700385
592.487222	2465.124231
592.839157	2480.247692
593.191038	2424.795000
593.542866	2523.097500
593.894639	2513.015192
594.246358	2482.768269
594.598022	2530.659231
594.949633	2497.891731
595.301190	2515.535769
595.652692	2424.795000
596.004141	2450.000769
596.355535	2555.865000
596.706876	2528.138654
597.058162	2477.727115
597.409395	2513.015192
597.760573	2500.412308
598.111698	2442.439038
598.462768	2462.603654
598.813785	2402.109808
599.164748	2555.865000
599.515657	2520.576923
599.866511	2460.083077
600.217312	2510.494615
600.568060	2560.906154
600.918753	2447.480192
601.269392	2439.918462
601.619978	2384.465769
601.970510	2500.412308
602.320988	2565.947308
602.671412	2492.850577
603.021783	2611.317692
603.372100	2543.262115
603.722363	2490.330000
604.072572	2507.974038
604.422728	2515.535769
604.772830	2570.988462
605.122878	2490.330000
605.472872	2439.918462
605.822813	2563.426731
606.172701	2487.809423
606.522534	2515.535769
606.872314	2419.753846
607.222041	2565.947308
607.571714	2545.782692
607.921333	2442.439038
608.270899	2618.879423
608.620411	2490.330000
608.969870	2528.138654
609.319276	2513.015192
609.668627	2520.576923
610.017926	2472.685962
610.367171	2500.412308
610.716362	2447.480192
611.065500	2490.330000
611.414585	2505.453462
611.763616	2530.659231
612.112594	2409.671538
612.461518	2497.891731
612.810389	2450.000769
613.159207	2472.685962
613.507971	2485.288846
613.856682	2460.083077
614.205340	2492.850577
614.553945	2515.535769
614.902496	2475.206538
615.250994	2457.562500
615.599439	2565.947308
615.947830	2465.124231
616.296169	2492.850577
616.644454	2492.850577
616.992686	2472.685962
617.340864	2417.233269
617.688990	2513.015192
618.037063	2465.124231
618.385082	2550.823846
618.733048	2555.865000
619.080961	2472.685962
619.428821	2419.753846
619.776628	2457.562500
620.124382	2535.700385
620.472083	2518.056346
620.819731	2485.288846
621.167326	2555.865000
621.514868	2497.891731
621.862357	2568.467885
622.209793	2558.385577
622.557176	2482.768269
622.904506	2462.603654
623.251783	2588.632500
623.599007	2467.644808
623.946179	2402.109808
624.293297	2439.918462
624.640363	2490.330000
624.987376	2523.097500
625.334336	2507.974038
625.681243	2409.671538
626.028097	2560.906154
626.374899	2490.330000
626.721647	2500.412308
627.068343	2497.891731
627.414987	2495.371154
627.761577	2570.988462
628.108115	2490.330000
628.454600	2535.700385
628.801032	2518.056346
629.147412	2568.467885
629.493739	2455.041923
629.840014	2434.877308
630.186236	2502.932885
630.532405	2492.850577
630.878521	2477.727115
631.224585	2442.439038
631.570597	2477.727115
631.916556	2470.165385
632.262462	2450.000769
632.608316	2528.138654
632.954117	2500.412308
633.299866	2467.644808
633.645562	2545.782692
633.991206	2550.823846
634.336797	2588.632500
634.682336	2389.506923
635.027823	2543.262115
635.373257	2507.974038
635.718639	2490.330000
636.063968	2457.562500
636.409245	2510.494615
636.754470	2490.330000
637.099642	2437.397885
637.444762	2545.782692
637.789829	2482.768269
638.134845	2500.412308
638.479808	2424.795000
638.824719	2518.056346
639.169577	2452.521346
639.514383	2510.494615
639.859137	2465.124231
640.203839	2477.727115
640.548489	2487.809423
640.893086	2439.918462
641.237632	2475.206538
641.582125	2548.303269
641.926566	2598.714808
642.270955	2513.015192
642.615292	2515.535769
642.959576	2548.303269
643.303809	2487.809423
643.647990	2513.015192
643.992118	2520.576923
644.336195	2558.385577
644.680219	2457.562500
645.024192	2533.179808
645.368112	2485.288846
645.711981	2439.918462
646.055797	2477.727115
646.399562	2472.685962
646.743274	2414.712692
647.086935	2533.179808
647.430544	2565.947308
647.774101	2482.768269
648.117606	2490.330000
648.461059	2482.768269
648.804460	2525.618077
649.147810	2477.727115
649.491108	2540.741538
649.834354	2460.083077
650.177548	2424.795000
650.520690	2497.891731
650.863781	2543.262115
651.206820	2480.247692
651.549807	2530.659231
651.892742	2467.644808
652.235626	2482.768269
652.578458	2465.124231
652.921238	2505.453462
653.263967	2500.412308
653.606644	2533.179808
653.949269	2450.000769
654.291843	2452.521346
654.634365	2452.521346
654.976836	2450.000769
655.319255	2520.576923
655.661622	2535.700385
656.003938	2480.247692
656.346203	2480.247692
656.688416	2490.330000
657.030577	2505.453462
657.372687	2412.192115
657.714746	2545.782692
658.056753	2480.247692
658.398708	2485.288846
658.740612	2502.932885
659.082465	2570.988462
659.424266	2392.027500
659.766016	2515.535769
660.107715	2563.426731
660.449362	2485.288846
660.790958	2525.618077
661.132503	2520.576923
661.473996	2543.262115
661.815438	2465.124231
662.156829	2518.056346
662.498168	2518.056346
662.839456	2586.111923
663.180693	2540.741538
663.521879	2437.397885
663.863013	2528.138654
664.204097	2462.603654
664.545129	2472.685962
664.886110	2525.618077
665.227040	2442.439038
665.567918	2623.920577
665.908746	2460.083077
666.249522	2510.494615
666.590248	2467.644808
666.930922	2490.330000
667.271545	2409.671538
667.612118	2485.288846
667.952639	2470.165385
668.293109	2538.220962
668.633528	2465.124231
668.973896	2540.741538
669.314213	2598.714808
669.654480	2560.906154
669.994695	2472.685962
670.334859	2568.467885
670.674973	2560.906154
671.015035	2477.727115
671.355047	2545.782692
671.695008	2515.535769
672.034918	2523.097500
672.374777	2555.865000
672.714585	2507.974038
673.054342	2528.138654
673.394049	2452.521346
673.733705	2555.865000
674.073310	2432.356731
674.412864	2477.727115
674.752368	2417.233269
675.091820	2535.700385
675.431223	2507.974038
675.770574	2510.494615
676.109875	2497.891731
676.449125	2518.056346
676.788324	2518.056346
677.127473	2523.097500
677.466571	2515.535769
677.805619	2538.220962
678.144616	2457.562500
678.483562	2553.344423
678.822458	2465.124231
679.161303	2462.603654
679.500098	2472.685962
679.838842	2507.974038
680.177535	2535.700385
680.516179	2462.603654
680.854771	2490.330000
681.193314	2434.877308
681.531805	2513.015192
681.870247	2523.097500
682.208638	2505.453462
682.546978	2591.153077
682.885268	2437.397885
683.223508	2490.330000
683.561697	2495.371154
683.899836	2497.891731
684.237925	2460.083077
684.575963	2472.685962
684.913951	2444.959615
685.251889	2397.068654
685.589776	2533.179808
685.927614	2470.165385
686.265401	2404.630385
686.603137	2593.673654
686.940824	2437.397885
687.278460	2505.453462
687.616046	2510.494615
687.953582	2528.138654
688.291068	2490.330000
688.628504	2528.138654
688.965889	2447.480192
689.303224	2515.535769
689.640510	2457.562500
689.977745	2505.453462
690.314930	2452.521346
690.652065	2553.344423
690.989150	2452.521346
691.326185	2477.727115
691.663170	2487.809423
692.000105	2500.412308
692.336990	2444.959615
692.673825	2570.988462
693.010610	2437.397885
693.347345	2563.426731
693.684030	2576.029615
694.020665	2528.138654
694.357251	2510.494615
694.693786	2538.220962
695.030272	2576.029615
695.366707	2497.891731
695.703093	2432.356731
696.039429	2480.247692
696.375716	2548.303269
696.711952	2502.932885
697.048139	2487.809423
697.384276	2455.041923
697.720363	2490.330000
698.056400	2442.439038
698.392388	2520.576923
698.728326	2452.521346
699.064214	2533.179808
699.400053	2424.795000
699.735842	2515.535769
700.071581	2560.906154
700.407270	2490.330000
700.742910	2520.576923
701.078501	2432.356731
701.414042	2507.974038
701.749533	2545.782692
702.084974	2525.618077
702.420366	2424.795000
702.755709	2470.165385
703.091002	2492.850577
703.426246	2523.097500
703.761440	2548.303269
704.096584	2477.727115
704.431679	2500.412308
704.766725	2444.959615
705.101721	2505.453462
705.436668	2472.685962
705.771565	2482.768269
706.106413	2485.288846
706.441212	2407.150962
706.775961	2462.603654
707.110661	2460.083077
707.445311	2515.535769
707.779913	2472.685962
708.114465	2533.179808
708.448967	2495.371154
708.783421	2540.741538
709.117825	2573.509038
709.452180	2460.083077
709.786485	2505.453462
710.120742	2482.768269
710.454949	2510.494615
710.789107	2520.576923
711.123216	2560.906154
711.457275	2563.426731
711.791286	2495.371154
712.125247	2515.535769
712.459159	2596.194231
712.793023	2465.124231
713.126837	2550.823846
713.460602	2477.727115
713.794318	2392.027500
714.127985	2507.974038
714.461602	2422.274423
714.795171	2525.618077
715.128691	2417.233269
715.462162	2505.453462
715.795584	2477.727115
716.128957	2444.959615
716.462281	2427.315577
716.795556	2553.344423
717.128782	2492.850577
717.461960	2548.303269
717.795088	2457.562500
718.128167	2482.768269
718.461198	2515.535769
718.794180	2586.111923
719.127113	2492.850577
719.459997	2482.768269
719.792833	2450.000769
720.125619	2467.644808
720.458357	2432.356731
720.791046	2535.700385
721.123686	2500.412308
721.456278	2560.906154
721.788821	2553.344423
722.121315	2490.330000
722.453761	2487.809423
722.786158	2560.906154
723.118506	2545.782692
723.450805	2495.371154
723.783056	2555.865000
724.115259	2442.439038
724.447412	2510.494615
724.779518	2558.385577
725.111574	2502.932885
725.443582	2548.303269
725.775542	2555.865000
726.107453	2565.947308
726.439315	2467.644808
726.771129	2480.247692
727.102895	2543.262115
727.434612	2432.356731
727.766281	2598.714808
728.097901	2392.027500
728.429473	2399.589231
728.760996	2495.371154
729.092471	2399.589231
729.423897	2528.138654
729.755276	2490.330000
730.086606	2505.453462
730.417887	2392.027500
730.749120	2505.453462
731.080305	2462.603654
731.411442	2510.494615
731.742530	2573.509038
732.073570	2414.712692
732.404562	2558.385577
732.735506	2520.576923
733.066401	2475.206538
733.397249	2490.330000
733.728048	2497.891731
734.058798	2462.603654
734.389501	2530.659231
734.720156	2523.097500
735.050762	2510.494615
735.381320	2558.385577
735.711831	2505.453462
736.042293	2545.782692
736.372707	2414.712692
736.703073	2419.753846
737.033391	2533.179808
737.363661	2452.521346
737.693883	2472.685962
738.024056	2513.015192
738.354182	2480.247692
738.684260	2495.371154
739.014290	2460.083077
739.344272	2490.330000
739.674207	2510.494615
740.004093	2495.371154
740.333931	2518.056346
740.663722	2570.988462
740.993464	2510.494615
741.323159	2520.576923
741.652806	2457.562500
741.982405	2502.932885
742.311956	2525.618077
742.641460	2520.576923
742.970915	2510.494615
743.300323	2513.015192
743.629683	2465.124231
743.958996	2472.685962
744.288260	2540.741538
744.617477	2460.083077
744.946647	2465.124231
745.275768	2538.220962
745.604842	2404.630385
745.933869	2550.823846
746.262847	2515.535769
746.591778	2507.974038
746.920662	2482.768269
747.249498	2513.015192
747.578286	2480.247692
747.907027	2497.891731
748.235720	2422.274423
748.564365	2540.741538
748.892963	2429.836154
749.221514	2515.535769
749.550017	2432.356731
749.878473	2500.412308
750.206881	2535.700385
750.535242	2570.988462
750.863555	2533.179808
751.191821	2515.535769
751.520039	2505.453462
751.848210	2523.097500
752.176334	2460.083077
752.504411	2520.576923
752.832440	2462.603654
753.160421	2523.097500
753.488356	2444.959615
753.816243	2404.630385
754.144082	2495.371154
754.471875	2500.412308
754.799620	2450.000769
755.127318	2513.015192
755.454969	2538.220962
755.782572	2437.397885
756.110129	2500.412308
756.437638	2530.659231
756.765100	2424.795000
757.092515	2548.303269
757.419882	2467.644808
757.747203	2565.947308
758.074477	2444.959615
758.401703	2518.056346
758.728882	2452.521346
759.056014	2497.891731
759.383099	2442.439038
759.710138	2533.179808
760.037129	2397.068654
760.364073	2505.453462
760.690970	2502.932885
761.017820	2520.576923
761.344623	2419.753846
761.671379	2492.850577
761.998088	2583.591346
762.324751	2429.836154
762.651366	2419.753846
762.977935	2570.988462
763.304456	2475.206538
763.630931	2550.823846
763.957359	2475.206538
764.283740	2510.494615
764.610074	2399.589231
764.936362	2477.727115
765.262602	2444.959615
765.588796	2507.974038
765.914943	2460.083077
766.241044	2545.782692
766.567097	2452.521346
766.893104	2528.138654
767.219064	2447.480192
767.544978	2439.918462
767.870845	2487.809423
768.196665	2500.412308
768.522438	2462.603654
768.848165	2518.056346
769.173846	2465.124231
769.499479	2538.220962
769.825066	2424.795000
770.150607	2475.206538
770.476101	2543.262115
770.801548	2538.220962
771.126949	2502.932885
771.452303	2472.685962
771.777611	2507.974038
772.102872	2424.795000
772.428087	2543.262115
772.753256	2510.494615
773.078378	2520.576923
773.403453	2447.480192
773.728482	2502.932885
774.053465	2460.083077
774.378401	2424.795000
774.703291	2495.371154
775.028135	2538.220962
775.352932	2500.412308
775.677683	2475.206538
776.002388	2487.809423
776.327046	2492.850577
776.651658	2543.262115
776.976224	2505.453462
777.300743	2497.891731
777.625216	2523.097500
777.949643	2576.029615
778.274024	2429.836154
778.598359	2477.727115
778.922647	2407.150962
779.246889	2500.412308
779.571086	2467.644808
779.895236	2429.836154
780.219339	2513.015192
780.543397	2472.685962
780.867409	2535.700385
781.191374	2578.550192
781.515294	2444.959615
781.839167	2470.165385
782.162995	2530.659231
782.486776	2533.179808
782.810511	2487.809423
783.134201	2528.138654
783.457844	2475.206538
783.781441	2611.317692
784.104993	2525.618077
784.428498	2472.685962
784.751958	2467.644808
785.075372	2588.632500
785.398739	2520.576923
785.722061	2543.262115
786.045337	2515.535769
786.368568	2507.974038
786.691752	2588.632500
787.014891	2490.330000
787.337983	2576.029615
787.661030	2492.850577
787.984031	2502.932885
788.306987	2482.768269
788.629897	2490.330000
788.952760	2422.274423
789.275579	2460.083077
789.598351	2560.906154
789.921078	2490.330000
790.243759	2490.330000
790.566395	2540.741538
790.888984	2490.330000
791.211529	2535.700385
791.534027	2500.412308
791.856480	2409.671538
792.178888	2525.618077
792.501249	2434.877308
792.823566	2513.015192
793.145836	2424.795000
793.468062	2439.918462
793.790241	2492.850577
794.112375	2482.768269
794.434464	2465.124231
794.756507	2462.603654
795.078505	2505.453462
795.400457	2560.906154
795.722364	2515.535769
796.044226	2578.550192
796.366042	2535.700385
796.687812	2467.644808
797.009538	2596.194231
797.331218	2548.303269
797.652852	2457.562500
797.974442	2467.644808
798.295986	2492.850577
798.617484	2437.397885
798.938938	2497.891731
799.260346	2497.891731
799.581709	2462.603654
799.903026	2495.371154
800.224299	2558.385577
800.545526	2513.015192
800.866708	2588.632500
801.187845	2540.741538
801.508936	2513.015192
801.829983	2437.397885
802.150984	2520.576923
802.471940	2442.439038
802.792851	2399.589231
803.113717	2485.288846
803.434538	2573.509038
803.755314	2485.288846
804.076045	2485.288846
804.396731	2565.947308
804.717372	2497.891731
805.037967	2545.782692
805.358518	2523.097500
805.679024	2417.233269
805.999485	2437.397885
806.319901	2462.603654
806.640272	2462.603654
806.960598	2515.535769
807.280879	2477.727115
807.601115	2477.727115
807.921306	2616.358846
808.241453	2470.165385
808.561554	2477.727115
808.881611	2487.809423
809.201623	2538.220962
809.521590	2528.138654
809.841513	2480.247692
810.161390	2513.015192
810.481223	2457.562500
810.801011	2452.521346
811.120755	2608.797115
811.440453	2510.494615
811.760107	2495.371154
812.079716	2467.644808
812.399281	2419.753846
812.718801	2487.809423
813.038276	2495.371154
813.357707	2457.562500
813.677093	2422.274423
813.996434	2525.618077
814.315731	2563.426731
814.634983	2472.685962
814.954191	2497.891731
815.273354	2530.659231
815.592473	2437.397885
815.911547	2535.700385
816.230577	2540.741538
816.549562	2558.385577
816.868502	2460.083077
817.187399	2563.426731
817.506250	2518.056346
817.825058	2505.453462
818.143821	2502.932885
818.462539	2520.576923
818.781213	2611.317692
819.099843	2548.303269
819.418429	2578.550192
819.736970	2616.358846
820.055466	2394.548077
820.373919	2450.000769
820.692327	2513.015192
821.010691	2578.550192
821.329011	2452.521346
821.647286	2467.644808
821.965517	2576.029615
822.283704	2434.877308
822.601847	2502.932885
822.919945	2455.041923
823.237999	2528.138654
823.556010	2518.056346
823.873976	2452.521346
824.191897	2485.288846
824.509775	2558.385577
824.827609	2543.262115
825.145398	2497.891731
825.463144	2510.494615
825.780845	2543.262115
826.098502	2593.673654
826.416116	2439.918462
826.733685	2432.356731
827.051210	2515.535769
827.368692	2409.671538
827.686129	2540.741538
828.003522	2434.877308
828.320872	2545.782692
828.638177	2502.932885
828.955439	2616.358846
829.272656	2480.247692
829.589830	2513.015192
829.906960	2497.891731
830.224046	2475.206538
830.541088	2553.344423
830.858086	2450.000769
831.175041	2495.371154
831.491952	2518.056346
831.808819	2437.397885
832.125642	2465.124231
832.442421	2490.330000
832.759157	2528.138654
833.075849	2502.932885
833.392497	2518.056346
833.709101	2528.138654
834.025662	2470.165385
834.342179	2538.220962
834.658653	2505.453462
834.975083	2497.891731
835.291469	2472.685962
835.607811	2475.206538
835.924110	2497.891731
836.240366	2492.850577
836.556578	2427.315577
836.872746	2485.288846
837.188871	2392.027500
837.504952	2417.233269
837.820990	2520.576923
838.136984	2518.056346
838.452935	2543.262115
838.768842	2480.247692
839.084706	2528.138654
839.400526	2510.494615
839.716303	2427.315577
840.032037	2500.412308
840.347727	2530.659231
840.663373	2497.891731
840.978977	2485.288846
841.294537	2548.303269
841.610054	2465.124231
841.925527	2510.494615
842.240957	2502.932885
842.556344	2507.974038
842.871687	2507.974038
843.186987	2457.562500
843.502244	2535.700385
843.817458	2525.618077
844.132629	2457.562500
844.447756	2538.220962
844.762840	2533.179808
845.077881	2533.179808
845.392879	2442.439038
845.707833	2497.891731
846.022745	2548.303269
846.337613	2465.124231
846.652438	2500.412308
846.967221	2540.741538
847.281960	2578.550192
847.596656	2507.974038
847.911309	2513.015192
848.225919	2510.494615
848.540485	2505.453462
848.855009	2513.015192
849.169490	2432.356731
849.483928	2485.288846
849.798323	2520.576923
850.112675	2482.768269
850.426984	2414.712692
850.741251	2515.535769
851.055474	2507.974038
851.369654	2606.276538
851.683792	2510.494615
851.997887	2523.097500
852.311938	2513.015192
852.625947	2452.521346
852.939914	2482.768269
853.253837	2540.741538
853.567718	2490.330000
853.881555	2490.330000
854.195350	2485.288846
854.509103	2520.576923
854.822812	2525.618077
855.136479	2520.576923
855.450103	2495.371154
855.763685	2487.809423
856.077224	2394.548077
856.390720	2568.467885
856.704173	2505.453462
857.017584	2487.809423
857.330953	2487.809423
857.644278	2462.603654
857.957561	2533.179808
858.270802	2427.315577
858.584000	2523.097500
858.897155	2452.521346
859.210268	2540.741538
859.523339	2444.959615
859.836367	2417.233269
860.149352	2455.041923
860.462295	2455.041923
860.775195	2545.782692
861.088054	2513.015192
861.400869	2528.138654
861.713642	2513.015192
862.026373	2513.015192
862.339062	2482.768269
862.651708	2394.548077
862.964312	2563.426731
863.276873	2545.782692
863.589392	2455.041923
863.901869	2576.029615
864.214303	2497.891731
864.526696	2490.330000
864.839045	2492.850577
865.151353	2467.644808
865.463619	2457.562500
865.775842	2528.138654
866.088023	2520.576923
866.400162	2480.247692
866.712258	2452.521346
867.024313	2472.685962
867.336325	2528.138654
867.648296	2555.865000
867.960224	2450.000769
868.272110	2525.618077
868.583954	2490.330000
868.895755	2417.233269
869.207515	2462.603654
869.519233	2530.659231
869.830909	2457.562500
870.142542	2550.823846
870.454134	2538.220962
870.765684	2550.823846
871.077191	2515.535769
871.388657	2523.097500
871.700081	2470.165385
872.011463	2417.233269
872.322803	2530.659231
872.634101	2472.685962
872.945357	2470.165385
873.256571	2510.494615
873.567744	2523.097500
873.878874	2535.700385
874.189963	2530.659231
874.501010	2490.330000
874.812015	2424.795000
875.122979	2475.206538
875.433900	2452.521346
875.744780	2530.659231
876.055618	2510.494615
876.366415	2518.056346
876.677169	2437.397885
876.987882	2545.782692
877.298554	2470.165385
877.609183	2450.000769
877.919771	2513.015192
878.230317	2472.685962
878.540822	2538.220962
878.851285	2505.453462
879.161707	2485.288846
879.472087	2525.618077
879.782425	2409.671538
880.092722	2507.974038
880.402977	2538.220962
880.713191	2472.685962
881.023363	2397.068654
881.333494	2555.865000
881.643583	2507.974038
881.953631	2513.015192
882.263637	2424.795000
882.573602	2533.179808
882.883526	2523.097500
883.193408	2442.439038
883.503248	2409.671538
883.813048	2563.426731
884.122806	2570.988462
884.432522	2460.083077
884.742197	2389.506923
885.051831	2535.700385
885.361424	2570.988462
885.670975	2470.165385
885.980485	2490.330000
886.289954	2475.206538
886.599382	2593.673654
886.908768	2455.041923
887.218113	2515.535769
887.527417	2465.124231
887.836680	2487.809423
888.145901	2545.782692
888.455082	2442.439038
888.764221	2573.509038
889.073319	2507.974038
889.382376	2452.521346
889.691392	2487.809423
890.000366	2429.836154
890.309300	2545.782692
890.618193	2467.644808
890.927044	2555.865000
891.235855	2578.550192
891.544625	2515.535769
891.853353	2422.274423
892.162041	2437.397885
892.470687	2477.727115
892.779293	2361.780577
893.087858	2482.768269
893.396381	2535.700385
893.704864	2492.850577
894.013306	2507.974038
894.321707	2490.330000
894.630068	2444.959615
894.938387	2437.397885
895.246665	2490.330000
895.554903	2533.179808
895.863100	2434.877308
896.171256	2407.150962
896.479371	2402.109808
896.787446	2510.494615
897.095480	2510.494615
897.403473	2497.891731
897.711425	2543.262115
898.019336	2475.206538
898.327207	2434.877308
898.635038	2470.165385
898.942827	2497.891731
899.250576	2606.276538
899.558284	2578.550192
899.865952	2412.192115
900.173579	2465.124231
900.481165	2528.138654
900.788711	2492.850577
901.096216	2482.768269
901.403681	2359.260000
901.711105	2386.986346
902.018489	2507.974038
902.325832	2570.988462
902.633135	2495.371154
902.940397	2510.494615
903.247619	2558.385577
903.554800	2472.685962
903.861941	2399.589231
904.169041	2452.521346
904.476101	2424.795000
904.783121	2462.603654
905.090100	2485.288846
905.397039	2555.865000
905.703938	2485.288846
906.010796	2528.138654
906.317614	2470.165385
906.624391	2482.768269
906.931129	2437.397885
907.237826	2507.974038
907.544483	2467.644808
907.851099	2510.494615
908.157675	2460.083077
908.464211	2523.097500
908.770707	2392.027500
909.077163	2497.891731
909.383578	2444.959615
909.689954	2510.494615
909.996289	2470.165385
910.302584	2359.260000
910.608839	2467.644808
910.915054	2442.439038
911.221229	2520.576923
911.527363	2465.124231
911.833458	2520.576923
912.139513	2588.632500
912.445527	2520.576923
912.751502	2444.959615
913.057436	2492.850577
913.363331	2540.741538
913.669186	2518.056346
913.975000	2530.659231
914.280775	2492.850577
914.586510	2510.494615
914.892205	2540.741538
915.197859	2412.192115
915.503475	2505.453462
915.809050	2550.823846
916.114585	2389.506923
916.420081	2515.535769
916.725536	2540.741538
917.030952	2412.192115
917.336328	2480.247692
917.641665	2535.700385
917.946961	2477.727115
918.252218	2495.371154
918.557435	2485.288846
918.862612	2570.988462
919.167750	2492.850577
919.472848	2472.685962
919.777906	2462.603654
920.082925	2487.809423
920.387904	2485.288846
920.692843	2525.618077
920.997743	2424.795000
921.302603	2500.412308
921.607423	2457.562500
921.912204	2538.220962
922.216946	2462.603654
922.521647	2447.480192
922.826310	2535.700385
923.130932	2528.138654
923.435516	2487.809423
923.740059	2545.782692
924.044564	2513.015192
924.349028	2472.685962
924.653454	2462.603654
924.957840	2492.850577
925.262186	2457.562500
925.566493	2520.576923
925.870761	2450.000769
926.174989	2520.576923
926.479178	2505.453462
926.783328	2492.850577
927.087438	2439.918462
927.391509	2429.836154
927.695541	2424.795000
927.999533	2472.685962
928.303486	2485.288846
928.607400	2565.947308
928.911275	2545.782692
929.215110	2518.056346
929.518906	2545.782692
929.822663	2482.768269
930.126381	2437.397885
930.430060	2437.397885
930.733699	2492.850577
931.037299	2472.685962
931.340861	2419.753846
931.644383	2407.150962
931.947866	2543.262115
932.251309	2555.865000
932.554714	2404.630385
932.858080	2500.412308
933.161407	2472.685962
933.464694	2545.782692
933.767943	2538.220962
934.071153	2482.768269
934.374323	2540.741538
934.677455	2414.712692
934.980548	2533.179808
935.283602	2507.974038
935.586617	2500.412308
935.889593	2475.206538
936.192530	2538.220962
936.495428	2520.576923
936.798287	2528.138654
937.101108	2505.453462
937.403890	2427.315577
937.706632	2442.439038
938.009336	2470.165385
938.312002	2462.603654
938.614628	2457.562500
938.917216	2422.274423
939.219765	2525.618077
939.522275	2424.795000
939.824747	2490.330000
940.127179	2568.467885
940.429573	2460.083077
940.731929	2518.056346
941.034246	2543.262115
941.336524	2525.618077
941.638763	2437.397885
941.940964	2480.247692
942.243126	2412.192115
942.545250	2530.659231
942.847335	2467.644808
943.149381	2507.974038
943.451389	2495.371154
943.753359	2455.041923
944.055290	2510.494615
944.357182	2513.015192
944.659036	2523.097500
944.960851	2472.685962
945.262628	2482.768269
945.564367	2495.371154
945.866067	2550.823846
946.167729	2545.782692
946.469352	2444.959615
946.770937	2414.712692
947.072484	2492.850577
947.373992	2429.836154
947.675462	2452.521346
947.976893	2402.109808
948.278286	2497.891731
948.579641	2485.288846
948.880958	2359.260000
949.182236	2530.659231
949.483476	2429.836154
949.784678	2502.932885
950.085841	2513.015192
950.386967	2525.618077
950.688054	2570.988462
950.989103	2450.000769
951.290114	2460.083077
951.591087	2434.877308
951.892021	2497.891731
952.192917	2500.412308
952.493776	2455.041923
952.794596	2500.412308
953.095378	2518.056346
953.396122	2462.603654
953.696828	2470.165385
953.997496	2523.097500
954.298126	2530.659231
954.598718	2447.480192
954.899272	2520.576923
955.199788	2450.000769
955.500266	2515.535769
955.800706	2480.247692
956.101108	2502.932885
956.401472	2505.453462
956.701798	2475.206538
957.002087	2523.097500
957.302337	2465.124231
957.602550	2555.865000
957.902724	2573.509038
958.202861	2442.439038
958.502960	2389.506923
958.803022	2497.891731
959.103045	2558.385577
959.403031	2429.836154
959.702979	2490.330000
960.002889	2500.412308
960.302762	2437.397885
960.602596	2502.932885
960.902393	2434.877308
961.202153	2540.741538
961.501875	2515.535769
961.801559	2518.056346
962.101205	2555.865000
962.400814	2518.056346
962.700385	2555.865000
962.999918	2507.974038
963.299414	2452.521346
963.598873	2467.644808
963.898293	2497.891731
964.197677	2457.562500
964.497022	2528.138654
964.796331	2460.083077
965.095601	2502.932885
965.394835	2573.509038
965.694030	2492.850577
965.993189	2538.220962
966.292309	2460.083077
966.591393	2470.165385
966.890439	2470.165385
967.189447	2535.700385
967.488419	2502.932885
967.787353	2460.083077
968.086249	2470.165385
968.385108	2495.371154
968.683930	2422.274423
968.982714	2424.795000
969.281462	2505.453462
969.580172	2485.288846
969.878844	2422.274423
970.177480	2485.288846
970.476078	2548.303269
970.774639	2492.850577
971.073162	2548.303269
971.371649	2520.576923
971.670098	2412.192115
971.968510	2492.850577
972.266885	2545.782692
972.565223	2513.015192
972.863524	2505.453462
973.161788	2485.288846
973.460014	2500.412308
973.758204	2482.768269
974.056356	2414.712692
974.354471	2578.550192
974.652550	2583.591346
974.950591	2500.412308
975.248595	2434.877308
975.546563	2523.097500
975.844493	2477.727115
976.142386	2510.494615
976.440243	2490.330000
976.738062	2558.385577
977.035845	2495.371154
977.333590	2487.809423
977.631299	2465.124231
977.928971	2439.918462
978.226606	2457.562500
978.524204	2563.426731
978.821765	2482.768269
979.119290	2467.644808
979.416777	2439.918462
979.714228	2538.220962
980.011642	2424.795000
980.309020	2510.494615
980.606360	2477.727115
980.903664	2530.659231
981.200931	2477.727115
981.498162	2502.932885
981.795356	2475.206538
982.092513	2447.480192
982.389633	2540.741538
982.686717	2442.439038
982.983764	2495.371154
983.280775	2477.727115
983.577749	2502.932885
983.874686	2429.836154
984.171587	2545.782692
984.468451	2412.192115
984.765279	2578.550192
985.062070	2460.083077
985.358824	2444.959615
985.655543	2538.220962
985.952224	2444.959615
986.248869	2452.521346
986.545478	2465.124231
986.842050	2578.550192
987.138586	2467.644808
987.435086	2412.192115
987.731549	2510.494615
988.027975	2553.344423
988.324366	2432.356731
988.620719	2467.644808
988.917037	2414.712692
989.213318	2500.412308
989.509563	2455.041923
989.805772	2560.906154
990.101944	2447.480192
990.398080	2482.768269
990.694180	2434.877308
990.990244	2548.303269
991.286271	2520.576923
991.582262	2502.932885
991.878217	2460.083077
992.174136	2528.138654
992.470019	2472.685962
992.765865	2460.083077
993.061676	2515.535769
993.357450	2576.029615
993.653188	2563.426731
993.948890	2490.330000
994.244556	2480.247692
994.540186	2482.768269
994.835780	2457.562500
995.131337	2500.412308
995.426859	2560.906154
995.722345	2475.206538
996.017795	2485.288846
996.313208	2482.768269
996.608586	2500.412308
996.903928	2409.671538
997.199234	2442.439038
997.494504	2487.809423
997.789738	2485.288846
998.084936	2419.753846
998.380099	2490.330000
998.675225	2500.412308
998.970316	2417.233269
999.265371	2497.891731
999.560390	2485.288846
999.855373	2500.412308
1000.150320	2475.206538
1000.445232	2492.850577
1000.740108	2472.685962
1001.034948	2507.974038
1001.329752	2560.906154
1001.624521	2447.480192
1001.919254	2505.453462
1002.213951	2535.700385
1002.508613	2533.179808
1002.803239	2485.288846
1003.097829	2523.097500
1003.392384	2462.603654
1003.686903	2417.233269
1003.981386	2500.412308
1004.275834	2371.862885
1004.570246	2565.947308
1004.864623	2520.576923
1005.158964	2482.768269
1005.453270	2540.741538
1005.747540	2560.906154
1006.041775	2492.850577
1006.335974	2429.836154
1006.630138	2555.865000
1006.924266	2480.247692
1007.218359	2495.371154
1007.512416	2475.206538
1007.806438	2545.782692
1008.100425	2432.356731
1008.394376	2535.700385
1008.688292	2523.097500
1008.982172	2533.179808
1009.276017	2487.809423
1009.569827	2510.494615
1009.863602	2487.809423
1010.157341	2555.865000
1010.451045	2525.618077
1010.744714	2487.809423
1011.038347	2485.288846
1011.331945	2417.233269
1011.625508	2558.385577
1011.919036	2492.850577
1012.212528	2457.562500
1012.505986	2477.727115
1012.799408	2518.056346
1013.092795	2472.685962
1013.386147	2444.959615
1013.679464	2523.097500
1013.972745	2477.727115
1014.265992	2482.768269
1014.559204	2450.000769
1014.852380	2497.891731
1015.145521	2480.247692
1015.438628	2548.303269
1015.731699	2505.453462
1016.024736	2525.618077
1016.317737	2432.356731
1016.610703	2444.959615
1016.903635	2472.685962
1017.196531	2447.480192
1017.489393	2457.562500
1017.782219	2374.383462
1018.075011	2477.727115
1018.367768	2409.671538
1018.660490	2457.562500
1018.953177	2457.562500
1019.245829	2457.562500
