Dividing Wavelength (nm)	Counts (n)	Blue Motor Position (mm): 0.000000	Red Motor Position (mm): 0.000000	
326.493990	2092.078846
326.888308	2092.078846
327.282561	2092.078846
327.676750	2112.243462
328.070874	2112.243462
328.464933	1978.652885
328.858929	2099.640577
329.252859	2134.928654
329.646726	2074.434808
330.040528	2165.175577
330.434265	2076.955385
330.827938	2147.531538
331.221547	2114.764038
331.615091	2160.134423
332.008571	2230.710577
332.401986	2162.655000
332.795338	2228.190000
333.188625	2225.669423
333.581847	2233.231154
333.975006	2268.519231
334.368100	2205.504808
334.761129	2359.260000
335.154095	2286.163269
335.546996	2271.039808
335.939833	2379.424615
336.332606	2407.150962
336.725315	2364.301154
337.117960	2371.862885
337.510540	2369.342308
337.903056	2465.124231
338.295508	2402.109808
338.687896	2412.192115
339.080220	2450.000769
339.472480	2510.494615
339.864676	2437.397885
340.256807	2434.877308
340.648875	2444.959615
341.040879	2434.877308
341.432818	2505.453462
341.824694	2482.768269
342.216506	2427.315577
342.608253	2407.150962
342.999937	2497.891731
343.391557	2442.439038
343.783113	2581.070769
344.174605	2563.426731
344.566033	2457.562500
344.957397	2386.986346
345.348697	2510.494615
345.739934	2455.041923
346.131106	2560.906154
346.522215	2437.397885
346.913260	2447.480192
347.304241	2465.124231
347.695159	2513.015192
348.086012	2424.795000
348.476802	2462.603654
348.867528	2462.603654
349.258191	2402.109808
349.648789	2434.877308
350.039324	2457.562500
350.429796	2409.671538
350.820203	2394.548077
351.210548	2424.795000
351.600828	2412.192115
351.991045	2351.698269
352.381198	2369.342308
352.771288	2462.603654
353.161314	2422.274423
353.551276	2490.330000
353.941175	2455.041923
354.331010	2455.041923
354.720782	2419.753846
355.110490	2460.083077
355.500135	2404.630385
355.889717	2422.274423
356.279235	2442.439038
356.668689	2485.288846
357.058080	2540.741538
357.447408	2397.068654
357.836672	2389.506923
358.225873	2399.589231
358.615010	2371.862885
359.004084	2444.959615
359.393095	2447.480192
359.782043	2455.041923
360.170927	2465.124231
360.559748	2409.671538
360.948505	2482.768269
361.337199	2507.974038
361.725830	2507.974038
362.114398	2447.480192
362.502903	2460.083077
362.891344	2450.000769
363.279722	2407.150962
363.668037	2422.274423
364.056289	2427.315577
364.444478	2414.712692
364.832603	2465.124231
365.220665	2356.739423
365.608665	2424.795000
365.996601	2472.685962
366.384474	2533.179808
366.772284	2417.233269
367.160031	2452.521346
367.547715	2482.768269
367.935336	2500.412308
368.322893	2419.753846
368.710388	2447.480192
369.097820	2480.247692
369.485189	2389.506923
369.872495	2444.959615
370.259738	2480.247692
370.646918	2442.439038
371.034035	2490.330000
371.421090	2429.836154
371.808081	2386.986346
372.195010	2465.124231
372.581875	2409.671538
372.968678	2404.630385
373.355418	2480.247692
373.742096	2427.315577
374.128710	2497.891731
374.515262	2480.247692
374.901751	2412.192115
375.288177	2404.630385
375.674540	2518.056346
376.060841	2437.397885
376.447079	2480.247692
376.833254	2394.548077
377.219367	2422.274423
377.605417	2467.644808
377.991404	2518.056346
378.377329	2475.206538
378.763191	2467.644808
379.148991	2505.453462
379.534727	2492.850577
379.920402	2528.138654
380.306013	2432.356731
380.691563	2472.685962
381.077049	2447.480192
381.462474	2465.124231
381.847835	2452.521346
382.233134	2389.506923
382.618371	2465.124231
383.003545	2447.480192
383.388657	2452.521346
383.773706	2434.877308
384.158693	2460.083077
384.543618	2402.109808
384.928480	2492.850577
385.313280	2404.630385
385.698017	2492.850577
386.082692	2409.671538
386.467305	2424.795000
386.851856	2500.412308
387.236344	2407.150962
387.620770	2545.782692
388.005133	2460.083077
388.389435	2518.056346
388.773674	2419.753846
389.157851	2437.397885
389.541965	2477.727115
389.926018	2540.741538
390.310008	2467.644808
390.693936	2540.741538
391.077802	2427.315577
391.461606	2452.521346
391.845348	2434.877308
392.229027	2477.727115
392.612645	2480.247692
392.996200	2558.385577
393.379694	2510.494615
393.763125	2502.932885
394.146494	2477.727115
394.529801	2434.877308
394.913047	2467.644808
395.296230	2455.041923
395.679351	2490.330000
396.062410	2417.233269
396.445408	2507.974038
396.828343	2437.397885
397.211217	2381.945192
397.594028	2540.741538
397.976778	2437.397885
398.359466	2397.068654
398.742092	2548.303269
399.124656	2429.836154
399.507158	2490.330000
399.889598	2432.356731
400.271977	2482.768269
400.654294	2437.397885
401.036549	2455.041923
401.418742	2555.865000
401.800874	2450.000769
402.182944	2515.535769
402.564952	2467.644808
402.946898	2502.932885
403.328783	2482.768269
403.710606	2414.712692
404.092367	2533.179808
404.474067	2457.562500
404.855705	2505.453462
405.237282	2470.165385
405.618797	2523.097500
406.000250	2470.165385
406.381642	2518.056346
406.762972	2523.097500
407.144240	2409.671538
407.525447	2500.412308
407.906593	2439.918462
408.287677	2482.768269
408.668700	2465.124231
409.049661	2450.000769
409.430560	2490.330000
409.811399	2480.247692
410.192176	2399.589231
410.572891	2518.056346
410.953545	2505.453462
411.334138	2475.206538
411.714669	2460.083077
412.095139	2505.453462
412.475547	2487.809423
412.855894	2523.097500
413.236180	2447.480192
413.616405	2394.548077
413.996568	2563.426731
414.376670	2422.274423
414.756711	2520.576923
415.136691	2467.644808
415.516609	2437.397885
415.896466	2450.000769
416.276262	2505.453462
416.655997	2465.124231
417.035670	2502.932885
417.415283	2477.727115
417.794834	2485.288846
418.174324	2472.685962
418.553753	2457.562500
418.933121	2439.918462
419.312428	2523.097500
419.691674	2462.603654
420.070859	2540.741538
420.449983	2467.644808
420.829045	2515.535769
421.208047	2414.712692
421.586988	2434.877308
421.965867	2475.206538
422.344686	2427.315577
422.723444	2442.439038
423.102141	2523.097500
423.480777	2452.521346
423.859352	2523.097500
424.237866	2578.550192
424.616319	2545.782692
424.994712	2505.453462
425.373044	2424.795000
425.751314	2434.877308
426.129524	2487.809423
426.507673	2427.315577
426.885762	2477.727115
427.263789	2392.027500
427.641756	2538.220962
428.019662	2513.015192
428.397508	2507.974038
428.775292	2563.426731
429.153016	2560.906154
429.530679	2462.603654
429.908282	2485.288846
430.285824	2538.220962
430.663305	2576.029615
431.040726	2520.576923
431.418086	2429.836154
431.795385	2452.521346
432.172624	2467.644808
432.549802	2442.439038
432.926920	2429.836154
433.303977	2550.823846
433.680974	2455.041923
434.057910	2497.891731
434.434786	2475.206538
434.811601	2424.795000
435.188355	2465.124231
435.565050	2442.439038
435.941683	2457.562500
436.318257	2513.015192
436.694770	2392.027500
437.071222	2482.768269
437.447614	2505.453462
437.823946	2381.945192
438.200218	2530.659231
438.576429	2490.330000
438.952580	2510.494615
439.328670	2482.768269
439.704700	2460.083077
440.080670	2490.330000
440.456580	2470.165385
440.832429	2555.865000
441.208218	2475.206538
441.583947	2560.906154
441.959616	2510.494615
442.335224	2409.671538
442.710773	2472.685962
443.086261	2528.138654
443.461689	2535.700385
443.837057	2450.000769
444.212365	2515.535769
444.587612	2510.494615
444.962800	2457.562500
445.337927	2583.591346
445.712995	2540.741538
446.088002	2518.056346
446.462949	2455.041923
446.837837	2533.179808
447.212664	2505.453462
447.587431	2444.959615
447.962139	2497.891731
448.336786	2477.727115
448.711374	2545.782692
449.085901	2432.356731
449.460369	2502.932885
449.834776	2397.068654
450.209124	2462.603654
450.583412	2472.685962
450.957640	2455.041923
451.331808	2439.918462
451.705917	2482.768269
452.079965	2424.795000
452.453954	2434.877308
452.827883	2432.356731
453.201752	2500.412308
453.575562	2439.918462
453.949311	2538.220962
454.323001	2477.727115
454.696632	2591.153077
455.070202	2515.535769
455.443713	2394.548077
455.817164	2467.644808
456.190556	2502.932885
456.563888	2475.206538
456.937160	2477.727115
457.310373	2543.262115
457.683526	2492.850577
458.056619	2485.288846
458.429653	2528.138654
458.802628	2467.644808
459.175542	2505.453462
459.548398	2495.371154
459.921194	2518.056346
460.293930	2538.220962
460.666607	2482.768269
461.039224	2497.891731
461.411782	2543.262115
461.784280	2533.179808
462.156719	2452.521346
462.529099	2429.836154
462.901419	2467.644808
463.273680	2455.041923
463.645882	2414.712692
464.018024	2530.659231
464.390106	2520.576923
464.762130	2477.727115
465.134094	2528.138654
465.505999	2487.809423
465.877845	2480.247692
466.249631	2404.630385
466.621358	2432.356731
466.993026	2472.685962
467.364634	2477.727115
467.736184	2535.700385
468.107674	2578.550192
468.479105	2424.795000
468.850477	2490.330000
469.221790	2487.809423
469.593043	2563.426731
469.964238	2497.891731
470.335373	2482.768269
470.706449	2444.959615
471.077467	2462.603654
471.448425	2490.330000
471.819324	2482.768269
472.190164	2480.247692
472.560945	2472.685962
472.931667	2495.371154
473.302330	2601.235385
473.672934	2510.494615
474.043479	2510.494615
474.413965	2555.865000
474.784393	2543.262115
475.154761	2465.124231
475.525070	2455.041923
475.895321	2490.330000
476.265513	2432.356731
476.635645	2495.371154
477.005719	2492.850577
477.375734	2487.809423
477.745691	2439.918462
478.115588	2520.576923
478.485427	2502.932885
478.855207	2601.235385
479.224928	2502.932885
479.594591	2485.288846
479.964194	2510.494615
480.333739	2565.947308
480.703226	2495.371154
481.072653	2399.589231
481.442022	2477.727115
481.811333	2495.371154
482.180584	2492.850577
482.549777	2492.850577
482.918912	2515.535769
483.287988	2523.097500
483.657005	2447.480192
484.025964	2495.371154
484.394864	2510.494615
484.763706	2558.385577
485.132489	2424.795000
485.501213	2513.015192
485.869879	2492.850577
486.238487	2475.206538
486.607036	2482.768269
486.975527	2548.303269
487.343959	2545.782692
487.712333	2540.741538
488.080648	2437.397885
488.448905	2500.412308
488.817104	2477.727115
489.185244	2548.303269
489.553326	2505.453462
489.921350	2457.562500
490.289315	2444.959615
490.657222	2513.015192
491.025070	2457.562500
491.392861	2447.480192
491.760593	2472.685962
492.128267	2497.891731
492.495883	2495.371154
492.863440	2457.562500
493.230939	2497.891731
493.598380	2606.276538
493.965763	2412.192115
494.333088	2467.644808
494.700354	2538.220962
495.067563	2533.179808
495.434713	2558.385577
495.801805	2606.276538
496.168839	2427.315577
496.535815	2482.768269
496.902733	2500.412308
497.269593	2507.974038
497.636395	2492.850577
498.003139	2568.467885
498.369825	2424.795000
498.736453	2500.412308
499.103023	2477.727115
499.469535	2565.947308
499.835989	2477.727115
500.202385	2538.220962
500.568723	2576.029615
500.935003	2462.603654
501.301226	2427.315577
501.667390	2447.480192
502.033497	2452.521346
502.399546	2487.809423
502.765537	2475.206538
503.131470	2578.550192
503.497345	2538.220962
503.863163	2525.618077
504.228923	2492.850577
504.594625	2543.262115
504.960269	2492.850577
505.325856	2457.562500
505.691385	2467.644808
506.056856	2429.836154
506.422270	2475.206538
506.787625	2515.535769
507.152924	2437.397885
507.518164	2497.891731
507.883347	2490.330000
508.248472	2538.220962
508.613540	2477.727115
508.978550	2432.356731
509.343503	2467.644808
509.708398	2485.288846
510.073236	2558.385577
510.438016	2507.974038
510.802738	2444.959615
511.167403	2482.768269
511.532010	2447.480192
511.896561	2588.632500
512.261053	2482.768269
512.625488	2492.850577
512.989866	2500.412308
513.354186	2502.932885
513.718449	2533.179808
514.082655	2555.865000
514.446803	2455.041923
514.810894	2545.782692
515.174927	2439.918462
515.538904	2455.041923
515.902822	2482.768269
516.266684	2528.138654
516.630488	2538.220962
516.994235	2535.700385
517.357925	2528.138654
517.721558	2525.618077
518.085133	2442.439038
518.448651	2447.480192
518.812112	2518.056346
519.175516	2492.850577
519.538863	2538.220962
519.902152	2455.041923
520.265385	2467.644808
520.628560	2472.685962
520.991678	2480.247692
521.354739	2497.891731
521.717743	2477.727115
522.080690	2482.768269
522.443580	2500.412308
522.806413	2429.836154
523.169189	2492.850577
523.531908	2538.220962
523.894569	2460.083077
524.257174	2480.247692
524.619722	2555.865000
524.982213	2470.165385
525.344647	2487.809423
525.707025	2535.700385
526.069345	2379.424615
526.431608	2578.550192
526.793815	2444.959615
527.155964	2417.233269
527.518057	2598.714808
527.880093	2515.535769
528.242072	2563.426731
528.603995	2533.179808
528.965860	2513.015192
529.327669	2507.974038
529.689421	2462.603654
530.051117	2525.618077
530.412755	2530.659231
530.774337	2439.918462
531.135862	2497.891731
531.497331	2500.412308
531.858743	2417.233269
532.220098	2394.548077
532.581396	2485.288846
532.942638	2558.385577
533.303824	2460.083077
533.664953	2588.632500
534.026025	2497.891731
534.387040	2528.138654
534.747999	2528.138654
535.108902	2480.247692
535.469748	2548.303269
535.830537	2457.562500
536.191270	2482.768269
536.551947	2553.344423
536.912567	2510.494615
537.273131	2502.932885
537.633638	2437.397885
537.994089	2550.823846
538.354483	2520.576923
538.714821	2475.206538
539.075103	2555.865000
539.435328	2457.562500
539.795497	2480.247692
540.155609	2555.865000
540.515665	2482.768269
540.875665	2487.809423
541.235609	2502.932885
541.595496	2485.288846
541.955328	2477.727115
542.315102	2530.659231
542.674821	2507.974038
543.034483	2470.165385
543.394090	2477.727115
543.753640	2447.480192
544.113134	2495.371154
544.472571	2452.521346
544.831953	2480.247692
545.191278	2477.727115
545.550548	2452.521346
545.909761	2487.809423
546.268918	2485.288846
546.628019	2586.111923
546.987064	2502.932885
547.346053	2581.070769
547.704986	2462.603654
548.063863	2457.562500
548.422684	2412.192115
548.781449	2611.317692
549.140158	2460.083077
549.498811	2550.823846
549.857408	2477.727115
550.215949	2495.371154
550.574434	2394.548077
550.932864	2450.000769
551.291237	2510.494615
551.649555	2417.233269
552.007817	2533.179808
552.366022	2553.344423
552.724173	2450.000769
553.082267	2455.041923
553.440305	2457.562500
553.798288	2540.741538
554.156215	2465.124231
554.514086	2450.000769
554.871902	2452.521346
555.229661	2523.097500
555.587365	2460.083077
555.945014	2533.179808
556.302606	2495.371154
556.660143	2505.453462
557.017625	2460.083077
557.375050	2495.371154
557.732421	2550.823846
558.089735	2482.768269
558.446994	2482.768269
558.804197	2520.576923
559.161345	2543.262115
559.518437	2465.124231
559.875474	2404.630385
560.232455	2515.535769
560.589381	2510.494615
560.946251	2470.165385
561.303065	2523.097500
561.659825	2477.727115
562.016528	2538.220962
562.373177	2500.412308
562.729770	2565.947308
563.086307	2601.235385
563.442789	2457.562500
563.799216	2568.467885
564.155587	2409.671538
564.511904	2523.097500
564.868164	2455.041923
565.224370	2528.138654
565.580520	2402.109808
565.936615	2495.371154
566.292654	2510.494615
566.648638	2437.397885
567.004567	2447.480192
567.360441	2450.000769
567.716260	2452.521346
568.072023	2520.576923
568.427732	2563.426731
568.783385	2523.097500
569.138982	2520.576923
569.494525	2460.083077
569.850013	2510.494615
570.205445	2495.371154
570.560823	2555.865000
570.916145	2520.576923
571.271412	2530.659231
571.626625	2636.523462
571.981782	2578.550192
572.336884	2412.192115
572.691931	2495.371154
573.046923	2409.671538
573.401860	2477.727115
573.756743	2548.303269
574.111570	2490.330000
574.466342	2432.356731
574.821059	2535.700385
575.175722	2528.138654
575.530330	2492.850577
575.884882	2460.083077
576.239380	2475.206538
576.593823	2467.644808
576.948211	2507.974038
577.302544	2465.124231
577.656823	2465.124231
578.011047	2482.768269
578.365216	2472.685962
578.719330	2548.303269
579.073389	2553.344423
579.427394	2538.220962
579.781344	2520.576923
580.135239	2414.712692
580.489080	2437.397885
580.842866	2510.494615
581.196597	2452.521346
581.550273	2525.618077
581.903895	2518.056346
582.257463	2422.274423
582.610975	2525.618077
582.964434	2490.330000
583.317837	2518.056346
583.671186	2442.439038
584.024481	2495.371154
584.377721	2462.603654
584.730906	2470.165385
585.084037	2568.467885
585.437113	2565.947308
585.790135	2523.097500
586.143103	2480.247692
586.496016	2576.029615
586.848874	2437.397885
587.201679	2452.521346
587.554428	2480.247692
587.907124	2460.083077
588.259765	2477.727115
588.612352	2477.727115
588.964884	2570.988462
589.317362	2586.111923
589.669786	2480.247692
590.022155	2437.397885
590.374470	2497.891731
590.726731	2570.988462
591.078937	2603.755962
591.431090	2550.823846
591.783188	2573.509038
592.135232	2422.274423
592.487222	2565.947308
592.839157	2565.947308
593.191038	2520.576923
593.542866	2596.194231
593.894639	2540.741538
594.246358	2528.138654
594.598022	2513.015192
594.949633	2515.535769
595.301190	2502.932885
595.652692	2540.741538
596.004141	2543.262115
596.355535	2500.412308
596.706876	2477.727115
597.058162	2525.618077
597.409395	2540.741538
597.760573	2490.330000
598.111698	2455.041923
598.462768	2477.727115
598.813785	2513.015192
599.164748	2450.000769
599.515657	2515.535769
599.866511	2467.644808
600.217312	2472.685962
600.568060	2480.247692
600.918753	2586.111923
601.269392	2538.220962
601.619978	2583.591346
601.970510	2540.741538
602.320988	2500.412308
602.671412	2513.015192
603.021783	2502.932885
603.372100	2515.535769
603.722363	2510.494615
604.072572	2555.865000
604.422728	2591.153077
604.772830	2439.918462
605.122878	2507.974038
605.472872	2530.659231
605.822813	2518.056346
606.172701	2510.494615
606.522534	2434.877308
606.872314	2452.521346
607.222041	2444.959615
607.571714	2502.932885
607.921333	2525.618077
608.270899	2543.262115
608.620411	2434.877308
608.969870	2533.179808
609.319276	2424.795000
609.668627	2583.591346
610.017926	2570.988462
610.367171	2568.467885
610.716362	2545.782692
611.065500	2513.015192
611.414585	2364.301154
611.763616	2439.918462
612.112594	2492.850577
612.461518	2528.138654
612.810389	2364.301154
613.159207	2407.150962
613.507971	2530.659231
613.856682	2450.000769
614.205340	2563.426731
614.553945	2422.274423
614.902496	2462.603654
615.250994	2480.247692
615.599439	2520.576923
615.947830	2470.165385
616.296169	2540.741538
616.644454	2470.165385
616.992686	2550.823846
617.340864	2439.918462
617.688990	2465.124231
618.037063	2535.700385
618.385082	2470.165385
618.733048	2465.124231
619.080961	2565.947308
619.428821	2523.097500
619.776628	2477.727115
620.124382	2434.877308
620.472083	2553.344423
620.819731	2472.685962
621.167326	2510.494615
621.514868	2452.521346
621.862357	2513.015192
622.209793	2414.712692
622.557176	2525.618077
622.904506	2586.111923
623.251783	2465.124231
623.599007	2576.029615
623.946179	2528.138654
624.293297	2477.727115
624.640363	2477.727115
624.987376	2518.056346
625.334336	2442.439038
625.681243	2462.603654
626.028097	2538.220962
626.374899	2457.562500
626.721647	2528.138654
627.068343	2475.206538
627.414987	2545.782692
627.761577	2487.809423
628.108115	2467.644808
628.454600	2442.439038
628.801032	2462.603654
629.147412	2497.891731
629.493739	2518.056346
629.840014	2492.850577
630.186236	2520.576923
630.532405	2500.412308
630.878521	2477.727115
631.224585	2528.138654
631.570597	2515.535769
631.916556	2515.535769
632.262462	2565.947308
632.608316	2518.056346
632.954117	2513.015192
633.299866	2452.521346
633.645562	2497.891731
633.991206	2432.356731
634.336797	2523.097500
634.682336	2485.288846
635.027823	2505.453462
635.373257	2568.467885
635.718639	2525.618077
636.063968	2500.412308
636.409245	2422.274423
636.754470	2558.385577
637.099642	2583.591346
637.444762	2447.480192
637.789829	2460.083077
638.134845	2520.576923
638.479808	2482.768269
638.824719	2530.659231
639.169577	2472.685962
639.514383	2515.535769
639.859137	2515.535769
640.203839	2565.947308
640.548489	2520.576923
640.893086	2510.494615
641.237632	2528.138654
641.582125	2548.303269
641.926566	2608.797115
642.270955	2555.865000
642.615292	2500.412308
642.959576	2553.344423
643.303809	2618.879423
643.647990	2482.768269
643.992118	2452.521346
644.336195	2424.795000
644.680219	2505.453462
645.024192	2422.274423
645.368112	2500.412308
645.711981	2485.288846
646.055797	2543.262115
646.399562	2417.233269
646.743274	2565.947308
647.086935	2490.330000
647.430544	2472.685962
647.774101	2550.823846
648.117606	2502.932885
648.461059	2593.673654
648.804460	2475.206538
649.147810	2460.083077
649.491108	2581.070769
649.834354	2555.865000
650.177548	2409.671538
650.520690	2492.850577
650.863781	2475.206538
651.206820	2515.535769
651.549807	2407.150962
651.892742	2525.618077
652.235626	2510.494615
652.578458	2487.809423
652.921238	2513.015192
653.263967	2477.727115
653.606644	2487.809423
653.949269	2500.412308
654.291843	2497.891731
654.634365	2565.947308
654.976836	2422.274423
655.319255	2583.591346
655.661622	2525.618077
656.003938	2477.727115
656.346203	2472.685962
656.688416	2505.453462
657.030577	2606.276538
657.372687	2407.150962
657.714746	2487.809423
658.056753	2465.124231
658.398708	2437.397885
658.740612	2513.015192
659.082465	2402.109808
659.424266	2497.891731
659.766016	2432.356731
660.107715	2487.809423
660.449362	2439.918462
660.790958	2500.412308
661.132503	2467.644808
661.473996	2505.453462
661.815438	2487.809423
662.156829	2515.535769
662.498168	2455.041923
662.839456	2553.344423
663.180693	2528.138654
663.521879	2442.439038
663.863013	2528.138654
664.204097	2548.303269
664.545129	2465.124231
664.886110	2523.097500
665.227040	2475.206538
665.567918	2568.467885
665.908746	2487.809423
666.249522	2472.685962
666.590248	2510.494615
666.930922	2497.891731
667.271545	2497.891731
667.612118	2472.685962
667.952639	2480.247692
668.293109	2495.371154
668.633528	2407.150962
668.973896	2472.685962
669.314213	2389.506923
669.654480	2455.041923
669.994695	2507.974038
670.334859	2492.850577
670.674973	2485.288846
671.015035	2520.576923
671.355047	2533.179808
671.695008	2507.974038
672.034918	2540.741538
672.374777	2563.426731
672.714585	2576.029615
673.054342	2455.041923
673.394049	2513.015192
673.733705	2419.753846
674.073310	2530.659231
674.412864	2558.385577
674.752368	2563.426731
675.091820	2545.782692
675.431223	2470.165385
675.770574	2505.453462
676.109875	2452.521346
676.449125	2505.453462
676.788324	2573.509038
677.127473	2444.959615
677.466571	2402.109808
677.805619	2505.453462
678.144616	2568.467885
678.483562	2429.836154
678.822458	2457.562500
679.161303	2475.206538
679.500098	2407.150962
679.838842	2507.974038
680.177535	2525.618077
680.516179	2452.521346
680.854771	2487.809423
681.193314	2533.179808
681.531805	2492.850577
681.870247	2452.521346
682.208638	2485.288846
682.546978	2402.109808
682.885268	2510.494615
683.223508	2490.330000
683.561697	2510.494615
683.899836	2513.015192
684.237925	2510.494615
684.575963	2490.330000
684.913951	2570.988462
685.251889	2450.000769
685.589776	2545.782692
685.927614	2495.371154
686.265401	2555.865000
686.603137	2505.453462
686.940824	2470.165385
687.278460	2538.220962
687.616046	2457.562500
687.953582	2533.179808
688.291068	2437.397885
688.628504	2500.412308
688.965889	2618.879423
689.303224	2452.521346
689.640510	2450.000769
689.977745	2457.562500
690.314930	2485.288846
690.652065	2482.768269
690.989150	2495.371154
691.326185	2404.630385
691.663170	2467.644808
692.000105	2497.891731
692.336990	2495.371154
692.673825	2467.644808
693.010610	2361.780577
693.347345	2442.439038
693.684030	2422.274423
694.020665	2437.397885
694.357251	2513.015192
694.693786	2505.453462
695.030272	2505.453462
695.366707	2434.877308
695.703093	2487.809423
696.039429	2460.083077
696.375716	2523.097500
696.711952	2381.945192
697.048139	2538.220962
697.384276	2477.727115
697.720363	2570.988462
698.056400	2515.535769
698.392388	2384.465769
698.728326	2568.467885
699.064214	2452.521346
699.400053	2535.700385
699.735842	2538.220962
700.071581	2558.385577
700.407270	2422.274423
700.742910	2550.823846
701.078501	2583.591346
701.414042	2533.179808
701.749533	2538.220962
702.084974	2450.000769
702.420366	2505.453462
702.755709	2530.659231
703.091002	2465.124231
703.426246	2523.097500
703.761440	2490.330000
704.096584	2513.015192
704.431679	2470.165385
704.766725	2523.097500
705.101721	2505.453462
705.436668	2434.877308
705.771565	2565.947308
706.106413	2510.494615
706.441212	2490.330000
706.775961	2467.644808
707.110661	2538.220962
707.445311	2513.015192
707.779913	2500.412308
708.114465	2591.153077
708.448967	2623.920577
708.783421	2457.562500
709.117825	2389.506923
709.452180	2465.124231
709.786485	2510.494615
710.120742	2500.412308
710.454949	2533.179808
710.789107	2450.000769
711.123216	2497.891731
711.457275	2439.918462
711.791286	2475.206538
712.125247	2505.453462
712.459159	2500.412308
712.793023	2543.262115
713.126837	2429.836154
713.460602	2583.591346
713.794318	2502.932885
714.127985	2475.206538
714.461602	2460.083077
714.795171	2535.700385
715.128691	2500.412308
715.462162	2550.823846
715.795584	2618.879423
716.128957	2550.823846
716.462281	2538.220962
716.795556	2450.000769
717.128782	2480.247692
717.461960	2558.385577
717.795088	2550.823846
718.128167	2457.562500
718.461198	2550.823846
718.794180	2525.618077
719.127113	2492.850577
719.459997	2485.288846
719.792833	2467.644808
720.125619	2530.659231
720.458357	2523.097500
720.791046	2535.700385
721.123686	2528.138654
721.456278	2492.850577
721.788821	2495.371154
722.121315	2520.576923
722.453761	2492.850577
722.786158	2507.974038
723.118506	2465.124231
723.450805	2518.056346
723.783056	2490.330000
724.115259	2510.494615
724.447412	2518.056346
724.779518	2447.480192
725.111574	2457.562500
725.443582	2470.165385
725.775542	2570.988462
726.107453	2432.356731
726.439315	2533.179808
726.771129	2442.439038
727.102895	2535.700385
727.434612	2515.535769
727.766281	2510.494615
728.097901	2495.371154
728.429473	2520.576923
728.760996	2447.480192
729.092471	2548.303269
729.423897	2581.070769
729.755276	2457.562500
730.086606	2465.124231
730.417887	2442.439038
730.749120	2482.768269
731.080305	2450.000769
731.411442	2492.850577
731.742530	2507.974038
732.073570	2439.918462
732.404562	2450.000769
732.735506	2399.589231
733.066401	2490.330000
733.397249	2402.109808
733.728048	2495.371154
734.058798	2505.453462
734.389501	2520.576923
734.720156	2429.836154
735.050762	2555.865000
735.381320	2548.303269
735.711831	2462.603654
736.042293	2480.247692
736.372707	2505.453462
736.703073	2578.550192
737.033391	2497.891731
737.363661	2515.535769
737.693883	2485.288846
738.024056	2543.262115
738.354182	2502.932885
738.684260	2507.974038
739.014290	2543.262115
739.344272	2507.974038
739.674207	2465.124231
740.004093	2429.836154
740.333931	2447.480192
740.663722	2515.535769
740.993464	2452.521346
741.323159	2492.850577
741.652806	2465.124231
741.982405	2513.015192
742.311956	2487.809423
742.641460	2560.906154
742.970915	2455.041923
743.300323	2452.521346
743.629683	2505.453462
743.958996	2492.850577
744.288260	2540.741538
744.617477	2477.727115
744.946647	2434.877308
745.275768	2482.768269
745.604842	2530.659231
745.933869	2495.371154
746.262847	2558.385577
746.591778	2482.768269
746.920662	2424.795000
747.249498	2515.535769
747.578286	2548.303269
747.907027	2538.220962
748.235720	2515.535769
748.564365	2422.274423
748.892963	2497.891731
749.221514	2487.809423
749.550017	2472.685962
749.878473	2502.932885
750.206881	2530.659231
750.535242	2422.274423
750.863555	2492.850577
751.191821	2450.000769
751.520039	2404.630385
751.848210	2515.535769
752.176334	2470.165385
752.504411	2485.288846
752.832440	2419.753846
753.160421	2447.480192
753.488356	2513.015192
753.816243	2535.700385
754.144082	2467.644808
754.471875	2485.288846
754.799620	2482.768269
755.127318	2455.041923
755.454969	2538.220962
755.782572	2462.603654
756.110129	2538.220962
756.437638	2495.371154
756.765100	2548.303269
757.092515	2502.932885
757.419882	2470.165385
757.747203	2467.644808
758.074477	2538.220962
758.401703	2376.904038
758.728882	2560.906154
759.056014	2450.000769
759.383099	2487.809423
759.710138	2437.397885
760.037129	2472.685962
760.364073	2429.836154
760.690970	2439.918462
761.017820	2432.356731
761.344623	2487.809423
761.671379	2550.823846
761.998088	2480.247692
762.324751	2485.288846
762.651366	2515.535769
762.977935	2437.397885
763.304456	2505.453462
763.630931	2444.959615
763.957359	2513.015192
764.283740	2492.850577
764.610074	2583.591346
764.936362	2457.562500
765.262602	2482.768269
765.588796	2490.330000
765.914943	2530.659231
766.241044	2439.918462
766.567097	2507.974038
766.893104	2470.165385
767.219064	2465.124231
767.544978	2510.494615
767.870845	2520.576923
768.196665	2457.562500
768.522438	2510.494615
768.848165	2578.550192
769.173846	2475.206538
769.499479	2555.865000
769.825066	2513.015192
770.150607	2520.576923
770.476101	2497.891731
770.801548	2497.891731
771.126949	2442.439038
771.452303	2470.165385
771.777611	2439.918462
772.102872	2523.097500
772.428087	2487.809423
772.753256	2404.630385
773.078378	2490.330000
773.403453	2465.124231
773.728482	2490.330000
774.053465	2538.220962
774.378401	2462.603654
774.703291	2500.412308
775.028135	2548.303269
775.352932	2515.535769
775.677683	2507.974038
776.002388	2490.330000
776.327046	2535.700385
776.651658	2482.768269
776.976224	2513.015192
777.300743	2543.262115
777.625216	2495.371154
777.949643	2472.685962
778.274024	2475.206538
778.598359	2490.330000
778.922647	2450.000769
779.246889	2578.550192
779.571086	2510.494615
779.895236	2402.109808
780.219339	2515.535769
780.543397	2475.206538
780.867409	2603.755962
781.191374	2591.153077
781.515294	2439.918462
781.839167	2487.809423
782.162995	2518.056346
782.486776	2450.000769
782.810511	2540.741538
783.134201	2500.412308
783.457844	2467.644808
783.781441	2553.344423
784.104993	2434.877308
784.428498	2510.494615
784.751958	2439.918462
785.075372	2477.727115
785.398739	2601.235385
785.722061	2492.850577
786.045337	2515.535769
786.368568	2545.782692
786.691752	2558.385577
787.014891	2465.124231
787.337983	2485.288846
787.661030	2583.591346
787.984031	2518.056346
788.306987	2513.015192
788.629897	2573.509038
788.952760	2462.603654
789.275579	2490.330000
789.598351	2497.891731
789.921078	2520.576923
790.243759	2520.576923
790.566395	2439.918462
790.888984	2535.700385
791.211529	2432.356731
791.534027	2550.823846
791.856480	2475.206538
792.178888	2475.206538
792.501249	2528.138654
792.823566	2576.029615
793.145836	2424.795000
793.468062	2482.768269
793.790241	2492.850577
794.112375	2447.480192
794.434464	2487.809423
794.756507	2381.945192
795.078505	2434.877308
795.400457	2490.330000
795.722364	2507.974038
796.044226	2492.850577
796.366042	2465.124231
796.687812	2533.179808
797.009538	2576.029615
797.331218	2467.644808
797.652852	2520.576923
797.974442	2432.356731
798.295986	2485.288846
798.617484	2467.644808
798.938938	2477.727115
799.260346	2490.330000
799.581709	2520.576923
799.903026	2457.562500
800.224299	2538.220962
800.545526	2533.179808
800.866708	2540.741538
801.187845	2525.618077
801.508936	2402.109808
801.829983	2417.233269
802.150984	2455.041923
802.471940	2490.330000
802.792851	2543.262115
803.113717	2520.576923
803.434538	2422.274423
803.755314	2462.603654
804.076045	2460.083077
804.396731	2475.206538
804.717372	2565.947308
805.037967	2500.412308
805.358518	2495.371154
805.679024	2419.753846
805.999485	2513.015192
806.319901	2472.685962
806.640272	2611.317692
806.960598	2447.480192
807.280879	2480.247692
807.601115	2505.453462
807.921306	2500.412308
808.241453	2555.865000
808.561554	2578.550192
808.881611	2450.000769
809.201623	2518.056346
809.521590	2576.029615
809.841513	2523.097500
810.161390	2482.768269
810.481223	2606.276538
810.801011	2518.056346
811.120755	2528.138654
811.440453	2460.083077
811.760107	2480.247692
812.079716	2507.974038
812.399281	2497.891731
812.718801	2513.015192
813.038276	2424.795000
813.357707	2490.330000
813.677093	2558.385577
813.996434	2472.685962
814.315731	2505.453462
814.634983	2634.002885
814.954191	2490.330000
815.273354	2482.768269
815.592473	2444.959615
815.911547	2437.397885
816.230577	2505.453462
816.549562	2455.041923
816.868502	2495.371154
817.187399	2523.097500
817.506250	2538.220962
817.825058	2472.685962
818.143821	2422.274423
818.462539	2502.932885
818.781213	2419.753846
819.099843	2507.974038
819.418429	2439.918462
819.736970	2515.535769
820.055466	2586.111923
820.373919	2520.576923
820.692327	2442.439038
821.010691	2429.836154
821.329011	2472.685962
821.647286	2472.685962
821.965517	2535.700385
822.283704	2429.836154
822.601847	2409.671538
822.919945	2480.247692
823.237999	2480.247692
823.556010	2507.974038
823.873976	2455.041923
824.191897	2540.741538
824.509775	2444.959615
824.827609	2500.412308
825.145398	2447.480192
825.463144	2553.344423
825.780845	2565.947308
826.098502	2412.192115
826.416116	2485.288846
826.733685	2422.274423
827.051210	2545.782692
827.368692	2507.974038
827.686129	2490.330000
828.003522	2502.932885
828.320872	2545.782692
828.638177	2578.550192
828.955439	2462.603654
829.272656	2535.700385
829.589830	2505.453462
829.906960	2502.932885
830.224046	2477.727115
830.541088	2439.918462
830.858086	2543.262115
831.175041	2467.644808
831.491952	2465.124231
831.808819	2523.097500
832.125642	2490.330000
832.442421	2570.988462
832.759157	2472.685962
833.075849	2462.603654
833.392497	2540.741538
833.709101	2470.165385
834.025662	2581.070769
834.342179	2495.371154
834.658653	2475.206538
834.975083	2490.330000
835.291469	2465.124231
835.607811	2460.083077
835.924110	2477.727115
836.240366	2558.385577
836.556578	2505.453462
836.872746	2538.220962
837.188871	2434.877308
837.504952	2553.344423
837.820990	2457.562500
838.136984	2538.220962
838.452935	2472.685962
838.768842	2497.891731
839.084706	2530.659231
839.400526	2533.179808
839.716303	2457.562500
840.032037	2465.124231
840.347727	2518.056346
840.663373	2485.288846
840.978977	2475.206538
841.294537	2452.521346
841.610054	2472.685962
841.925527	2538.220962
842.240957	2528.138654
842.556344	2432.356731
842.871687	2540.741538
843.186987	2475.206538
843.502244	2523.097500
843.817458	2487.809423
844.132629	2515.535769
844.447756	2500.412308
844.762840	2538.220962
845.077881	2485.288846
845.392879	2548.303269
845.707833	2528.138654
846.022745	2460.083077
846.337613	2568.467885
846.652438	2437.397885
846.967221	2482.768269
847.281960	2573.509038
847.596656	2475.206538
847.911309	2447.480192
848.225919	2472.685962
848.540485	2470.165385
848.855009	2444.959615
849.169490	2482.768269
849.483928	2447.480192
849.798323	2439.918462
850.112675	2424.795000
850.426984	2427.315577
850.741251	2450.000769
851.055474	2477.727115
851.369654	2495.371154
851.683792	2518.056346
851.997887	2447.480192
852.311938	2520.576923
852.625947	2518.056346
852.939914	2502.932885
853.253837	2568.467885
853.567718	2528.138654
853.881555	2495.371154
854.195350	2422.274423
854.509103	2465.124231
854.822812	2452.521346
855.136479	2437.397885
855.450103	2452.521346
855.763685	2535.700385
856.077224	2477.727115
856.390720	2540.741538
856.704173	2482.768269
857.017584	2500.412308
857.330953	2477.727115
857.644278	2558.385577
857.957561	2455.041923
858.270802	2444.959615
858.584000	2470.165385
858.897155	2518.056346
859.210268	2523.097500
859.523339	2417.233269
859.836367	2563.426731
860.149352	2520.576923
860.462295	2507.974038
860.775195	2500.412308
861.088054	2563.426731
861.400869	2455.041923
861.713642	2500.412308
862.026373	2482.768269
862.339062	2429.836154
862.651708	2611.317692
862.964312	2467.644808
863.276873	2495.371154
863.589392	2419.753846
863.901869	2510.494615
864.214303	2409.671538
864.526696	2462.603654
864.839045	2523.097500
865.151353	2455.041923
865.463619	2520.576923
865.775842	2505.453462
866.088023	2470.165385
866.400162	2409.671538
866.712258	2543.262115
867.024313	2465.124231
867.336325	2558.385577
867.648296	2404.630385
867.960224	2444.959615
868.272110	2424.795000
868.583954	2528.138654
868.895755	2507.974038
869.207515	2492.850577
869.519233	2558.385577
869.830909	2502.932885
870.142542	2492.850577
870.454134	2477.727115
870.765684	2500.412308
871.077191	2502.932885
871.388657	2535.700385
871.700081	2525.618077
872.011463	2492.850577
872.322803	2535.700385
872.634101	2550.823846
872.945357	2573.509038
873.256571	2497.891731
873.567744	2450.000769
873.878874	2482.768269
874.189963	2439.918462
874.501010	2530.659231
874.812015	2427.315577
875.122979	2555.865000
875.433900	2465.124231
875.744780	2475.206538
876.055618	2470.165385
876.366415	2477.727115
876.677169	2442.439038
876.987882	2548.303269
877.298554	2457.562500
877.609183	2495.371154
877.919771	2507.974038
878.230317	2485.288846
878.540822	2492.850577
878.851285	2487.809423
879.161707	2507.974038
879.472087	2462.603654
879.782425	2568.467885
880.092722	2495.371154
880.402977	2477.727115
880.713191	2538.220962
881.023363	2480.247692
881.333494	2467.644808
881.643583	2553.344423
881.953631	2462.603654
882.263637	2472.685962
882.573602	2555.865000
882.883526	2533.179808
883.193408	2535.700385
883.503248	2470.165385
883.813048	2450.000769
884.122806	2518.056346
884.432522	2490.330000
884.742197	2477.727115
885.051831	2475.206538
885.361424	2500.412308
885.670975	2497.891731
885.980485	2465.124231
886.289954	2427.315577
886.599382	2538.220962
886.908768	2485.288846
887.218113	2482.768269
887.527417	2417.233269
887.836680	2543.262115
888.145901	2528.138654
888.455082	2492.850577
888.764221	2465.124231
889.073319	2492.850577
889.382376	2500.412308
889.691392	2417.233269
890.000366	2480.247692
890.309300	2563.426731
890.618193	2384.465769
890.927044	2535.700385
891.235855	2497.891731
891.544625	2450.000769
891.853353	2495.371154
892.162041	2507.974038
892.470687	2427.315577
892.779293	2487.809423
893.087858	2439.918462
893.396381	2467.644808
893.704864	2558.385577
894.013306	2533.179808
894.321707	2356.739423
894.630068	2480.247692
894.938387	2543.262115
895.246665	2563.426731
895.554903	2409.671538
895.863100	2513.015192
896.171256	2475.206538
896.479371	2485.288846
896.787446	2545.782692
897.095480	2505.453462
897.403473	2444.959615
897.711425	2442.439038
898.019336	2513.015192
898.327207	2502.932885
898.635038	2457.562500
898.942827	2528.138654
899.250576	2500.412308
899.558284	2535.700385
899.865952	2329.013077
900.173579	2538.220962
900.481165	2467.644808
900.788711	2374.383462
901.096216	2548.303269
901.403681	2480.247692
901.711105	2578.550192
902.018489	2492.850577
902.325832	2497.891731
902.633135	2477.727115
902.940397	2450.000769
903.247619	2513.015192
903.554800	2460.083077
903.861941	2518.056346
904.169041	2477.727115
904.476101	2570.988462
904.783121	2570.988462
905.090100	2460.083077
905.397039	2502.932885
905.703938	2482.768269
906.010796	2414.712692
906.317614	2475.206538
906.624391	2470.165385
906.931129	2500.412308
907.237826	2485.288846
907.544483	2502.932885
907.851099	2477.727115
908.157675	2490.330000
908.464211	2485.288846
908.770707	2502.932885
909.077163	2500.412308
909.383578	2417.233269
909.689954	2475.206538
909.996289	2442.439038
910.302584	2460.083077
910.608839	2470.165385
910.915054	2452.521346
911.221229	2467.644808
911.527363	2480.247692
911.833458	2419.753846
912.139513	2535.700385
912.445527	2465.124231
912.751502	2502.932885
913.057436	2550.823846
913.363331	2485.288846
913.669186	2513.015192
913.975000	2487.809423
914.280775	2495.371154
914.586510	2510.494615
914.892205	2513.015192
915.197859	2540.741538
915.503475	2452.521346
915.809050	2578.550192
916.114585	2515.535769
916.420081	2520.576923
916.725536	2495.371154
917.030952	2490.330000
917.336328	2482.768269
917.641665	2578.550192
917.946961	2510.494615
918.252218	2568.467885
918.557435	2525.618077
918.862612	2414.712692
919.167750	2543.262115
919.472848	2495.371154
919.777906	2472.685962
920.082925	2548.303269
920.387904	2477.727115
920.692843	2550.823846
920.997743	2518.056346
921.302603	2475.206538
921.607423	2533.179808
921.912204	2452.521346
922.216946	2485.288846
922.521647	2513.015192
922.826310	2533.179808
923.130932	2404.630385
923.435516	2475.206538
923.740059	2432.356731
924.044564	2495.371154
924.349028	2465.124231
924.653454	2487.809423
924.957840	2482.768269
925.262186	2505.453462
925.566493	2553.344423
925.870761	2543.262115
926.174989	2437.397885
926.479178	2510.494615
926.783328	2502.932885
927.087438	2586.111923
927.391509	2505.453462
927.695541	2507.974038
927.999533	2475.206538
928.303486	2455.041923
928.607400	2492.850577
928.911275	2497.891731
929.215110	2568.467885
929.518906	2588.632500
929.822663	2518.056346
930.126381	2389.506923
930.430060	2467.644808
930.733699	2437.397885
931.037299	2507.974038
931.340861	2553.344423
931.644383	2439.918462
931.947866	2487.809423
932.251309	2513.015192
932.554714	2477.727115
932.858080	2404.630385
933.161407	2434.877308
933.464694	2538.220962
933.767943	2465.124231
934.071153	2543.262115
934.374323	2553.344423
934.677455	2457.562500
934.980548	2538.220962
935.283602	2513.015192
935.586617	2515.535769
935.889593	2505.453462
936.192530	2452.521346
936.495428	2518.056346
936.798287	2460.083077
937.101108	2507.974038
937.403890	2497.891731
937.706632	2450.000769
938.009336	2482.768269
938.312002	2460.083077
938.614628	2457.562500
938.917216	2477.727115
939.219765	2550.823846
939.522275	2545.782692
939.824747	2530.659231
940.127179	2497.891731
940.429573	2487.809423
940.731929	2470.165385
941.034246	2442.439038
941.336524	2525.618077
941.638763	2502.932885
941.940964	2487.809423
942.243126	2535.700385
942.545250	2465.124231
942.847335	2437.397885
943.149381	2404.630385
943.451389	2523.097500
943.753359	2482.768269
944.055290	2528.138654
944.357182	2507.974038
944.659036	2412.192115
944.960851	2460.083077
945.262628	2520.576923
945.564367	2402.109808
945.866067	2497.891731
946.167729	2455.041923
946.469352	2490.330000
946.770937	2450.000769
947.072484	2475.206538
947.373992	2467.644808
947.675462	2482.768269
947.976893	2465.124231
948.278286	2495.371154
948.579641	2412.192115
948.880958	2457.562500
949.182236	2450.000769
949.483476	2437.397885
949.784678	2548.303269
950.085841	2460.083077
950.386967	2482.768269
950.688054	2485.288846
950.989103	2513.015192
951.290114	2487.809423
951.591087	2540.741538
951.892021	2480.247692
952.192917	2477.727115
952.493776	2560.906154
952.794596	2442.439038
953.095378	2555.865000
953.396122	2480.247692
953.696828	2457.562500
953.997496	2510.494615
954.298126	2424.795000
954.598718	2518.056346
954.899272	2465.124231
955.199788	2598.714808
955.500266	2465.124231
955.800706	2563.426731
956.101108	2533.179808
956.401472	2417.233269
956.701798	2477.727115
957.002087	2502.932885
957.302337	2545.782692
957.602550	2505.453462
957.902724	2462.603654
958.202861	2452.521346
958.502960	2414.712692
958.803022	2487.809423
959.103045	2437.397885
959.403031	2505.453462
959.702979	2555.865000
960.002889	2417.233269
960.302762	2533.179808
960.602596	2452.521346
960.902393	2462.603654
961.202153	2507.974038
961.501875	2462.603654
961.801559	2495.371154
962.101205	2475.206538
962.400814	2470.165385
962.700385	2392.027500
962.999918	2485.288846
963.299414	2452.521346
963.598873	2528.138654
963.898293	2434.877308
964.197677	2455.041923
964.497022	2427.315577
964.796331	2500.412308
965.095601	2497.891731
965.394835	2533.179808
965.694030	2502.932885
965.993189	2477.727115
966.292309	2545.782692
966.591393	2497.891731
966.890439	2460.083077
967.189447	2409.671538
967.488419	2432.356731
967.787353	2472.685962
968.086249	2487.809423
968.385108	2520.576923
968.683930	2505.453462
968.982714	2525.618077
969.281462	2429.836154
969.580172	2487.809423
969.878844	2525.618077
970.177480	2523.097500
970.476078	2497.891731
970.774639	2419.753846
971.073162	2487.809423
971.371649	2513.015192
971.670098	2475.206538
971.968510	2482.768269
972.266885	2465.124231
972.565223	2457.562500
972.863524	2429.836154
973.161788	2452.521346
973.460014	2540.741538
973.758204	2513.015192
974.056356	2533.179808
974.354471	2414.712692
974.652550	2399.589231
974.950591	2455.041923
975.248595	2550.823846
975.546563	2505.453462
975.844493	2427.315577
976.142386	2535.700385
976.440243	2588.632500
976.738062	2485.288846
977.035845	2538.220962
977.333590	2462.603654
977.631299	2472.685962
977.928971	2482.768269
978.226606	2543.262115
978.524204	2472.685962
978.821765	2550.823846
979.119290	2485.288846
979.416777	2424.795000
979.714228	2439.918462
980.011642	2490.330000
980.309020	2475.206538
980.606360	2427.315577
980.903664	2513.015192
981.200931	2465.124231
981.498162	2460.083077
981.795356	2452.521346
982.092513	2533.179808
982.389633	2444.959615
982.686717	2593.673654
982.983764	2434.877308
983.280775	2545.782692
983.577749	2485.288846
983.874686	2492.850577
984.171587	2490.330000
984.468451	2492.850577
984.765279	2518.056346
985.062070	2467.644808
985.358824	2434.877308
985.655543	2439.918462
985.952224	2540.741538
986.248869	2407.150962
986.545478	2412.192115
986.842050	2528.138654
987.138586	2419.753846
987.435086	2495.371154
987.731549	2447.480192
988.027975	2500.412308
988.324366	2447.480192
988.620719	2480.247692
988.917037	2533.179808
989.213318	2477.727115
989.509563	2581.070769
989.805772	2487.809423
990.101944	2500.412308
990.398080	2429.836154
990.694180	2442.439038
990.990244	2470.165385
991.286271	2523.097500
991.582262	2480.247692
991.878217	2530.659231
992.174136	2500.412308
992.470019	2530.659231
992.765865	2545.782692
993.061676	2475.206538
993.357450	2480.247692
993.653188	2500.412308
993.948890	2510.494615
994.244556	2477.727115
994.540186	2427.315577
994.835780	2515.535769
995.131337	2439.918462
995.426859	2495.371154
995.722345	2487.809423
996.017795	2507.974038
996.313208	2492.850577
996.608586	2500.412308
996.903928	2497.891731
997.199234	2553.344423
997.494504	2518.056346
997.789738	2485.288846
998.084936	2465.124231
998.380099	2497.891731
998.675225	2495.371154
998.970316	2497.891731
999.265371	2513.015192
999.560390	2381.945192
999.855373	2578.550192
1000.150320	2553.344423
1000.445232	2442.439038
1000.740108	2490.330000
1001.034948	2500.412308
1001.329752	2573.509038
1001.624521	2500.412308
1001.919254	2495.371154
1002.213951	2555.865000
1002.508613	2500.412308
1002.803239	2510.494615
1003.097829	2550.823846
1003.392384	2507.974038
1003.686903	2487.809423
1003.981386	2460.083077
1004.275834	2475.206538
1004.570246	2490.330000
1004.864623	2558.385577
1005.158964	2427.315577
1005.453270	2414.712692
1005.747540	2462.603654
1006.041775	2450.000769
1006.335974	2407.150962
1006.630138	2417.233269
1006.924266	2487.809423
1007.218359	2429.836154
1007.512416	2535.700385
1007.806438	2497.891731
1008.100425	2437.397885
1008.394376	2422.274423
1008.688292	2460.083077
1008.982172	2518.056346
1009.276017	2523.097500
1009.569827	2563.426731
1009.863602	2450.000769
1010.157341	2490.330000
1010.451045	2417.233269
1010.744714	2485.288846
1011.038347	2520.576923
1011.331945	2460.083077
1011.625508	2414.712692
1011.919036	2502.932885
1012.212528	2462.603654
1012.505986	2510.494615
1012.799408	2495.371154
1013.092795	2523.097500
1013.386147	2581.070769
1013.679464	2510.494615
1013.972745	2455.041923
1014.265992	2497.891731
1014.559204	2530.659231
1014.852380	2450.000769
1015.145521	2470.165385
1015.438628	2518.056346
1015.731699	2477.727115
1016.024736	2444.959615
1016.317737	2460.083077
1016.610703	2515.535769
1016.903635	2462.603654
1017.196531	2442.439038
1017.489393	2487.809423
1017.782219	2581.070769
1018.075011	2457.562500
1018.367768	2485.288846
1018.660490	2525.618077
1018.953177	2525.618077
1019.245829	2525.618077
