Dividing Wavelength (nm)	Counts (n)	Blue Motor Position (mm): 0.000000	Red Motor Position (mm): 3.300000	
326.493990	2152.572692
326.888308	2152.572692
327.282561	2152.572692
327.676750	2142.490385
328.070874	2094.599423
328.464933	2114.764038
328.858929	2066.873077
329.252859	2079.475962
329.646726	2099.640577
330.040528	2129.887500
330.434265	2185.340192
330.827938	2142.490385
331.221547	2087.037692
331.615091	2081.996538
332.008571	2142.490385
332.401986	2175.257885
332.795338	2215.587115
333.188625	2218.107692
333.581847	2271.039808
333.975006	2336.574808
334.368100	2336.574808
334.761129	2281.122115
335.154095	2364.301154
335.546996	2334.054231
335.939833	2336.574808
336.332606	2336.574808
336.725315	2308.848462
337.117960	2356.739423
337.510540	2361.780577
337.903056	2432.356731
338.295508	2462.603654
338.687896	2475.206538
339.080220	2492.850577
339.472480	2470.165385
339.864676	2434.877308
340.256807	2596.194231
340.648875	2477.727115
341.040879	2399.589231
341.432818	2434.877308
341.824694	2533.179808
342.216506	2422.274423
342.608253	2497.891731
342.999937	2460.083077
343.391557	2518.056346
343.783113	2475.206538
344.174605	2505.453462
344.566033	2412.192115
344.957397	2505.453462
345.348697	2502.932885
345.739934	2487.809423
346.131106	2482.768269
346.522215	2444.959615
346.913260	2523.097500
347.304241	2480.247692
347.695159	2417.233269
348.086012	2465.124231
348.476802	2487.809423
348.867528	2470.165385
349.258191	2500.412308
349.648789	2472.685962
350.039324	2386.986346
350.429796	2492.850577
350.820203	2465.124231
351.210548	2455.041923
351.600828	2515.535769
351.991045	2432.356731
352.381198	2455.041923
352.771288	2381.945192
353.161314	2442.439038
353.551276	2417.233269
353.941175	2500.412308
354.331010	2513.015192
354.720782	2429.836154
355.110490	2450.000769
355.500135	2462.603654
355.889717	2444.959615
356.279235	2414.712692
356.668689	2429.836154
357.058080	2450.000769
357.447408	2480.247692
357.836672	2492.850577
358.225873	2412.192115
358.615010	2460.083077
359.004084	2414.712692
359.393095	2429.836154
359.782043	2455.041923
360.170927	2429.836154
360.559748	2359.260000
360.948505	2518.056346
361.337199	2359.260000
361.725830	2447.480192
362.114398	2394.548077
362.502903	2495.371154
362.891344	2437.397885
363.279722	2450.000769
363.668037	2487.809423
364.056289	2518.056346
364.444478	2432.356731
364.832603	2462.603654
365.220665	2535.700385
365.608665	2412.192115
365.996601	2533.179808
366.384474	2424.795000
366.772284	2475.206538
367.160031	2397.068654
367.547715	2450.000769
367.935336	2455.041923
368.322893	2452.521346
368.710388	2432.356731
369.097820	2437.397885
369.485189	2444.959615
369.872495	2397.068654
370.259738	2460.083077
370.646918	2424.795000
371.034035	2442.439038
371.421090	2497.891731
371.808081	2381.945192
372.195010	2495.371154
372.581875	2386.986346
372.968678	2465.124231
373.355418	2472.685962
373.742096	2465.124231
374.128710	2407.150962
374.515262	2467.644808
374.901751	2467.644808
375.288177	2460.083077
375.674540	2472.685962
376.060841	2482.768269
376.447079	2487.809423
376.833254	2472.685962
377.219367	2515.535769
377.605417	2475.206538
377.991404	2530.659231
378.377329	2482.768269
378.763191	2510.494615
379.148991	2518.056346
379.534727	2462.603654
379.920402	2450.000769
380.306013	2540.741538
380.691563	2480.247692
381.077049	2447.480192
381.462474	2490.330000
381.847835	2429.836154
382.233134	2465.124231
382.618371	2465.124231
383.003545	2452.521346
383.388657	2495.371154
383.773706	2480.247692
384.158693	2533.179808
384.543618	2462.603654
384.928480	2470.165385
385.313280	2487.809423
385.698017	2470.165385
386.082692	2455.041923
386.467305	2515.535769
386.851856	2409.671538
387.236344	2492.850577
387.620770	2439.918462
388.005133	2467.644808
388.389435	2538.220962
388.773674	2429.836154
389.157851	2475.206538
389.541965	2450.000769
389.926018	2487.809423
390.310008	2487.809423
390.693936	2434.877308
391.077802	2432.356731
391.461606	2515.535769
391.845348	2386.986346
392.229027	2452.521346
392.612645	2507.974038
392.996200	2470.165385
393.379694	2407.150962
393.763125	2563.426731
394.146494	2455.041923
394.529801	2472.685962
394.913047	2414.712692
395.296230	2427.315577
395.679351	2450.000769
396.062410	2482.768269
396.445408	2490.330000
396.828343	2482.768269
397.211217	2407.150962
397.594028	2424.795000
397.976778	2550.823846
398.359466	2419.753846
398.742092	2535.700385
399.124656	2442.439038
399.507158	2472.685962
399.889598	2505.453462
400.271977	2374.383462
400.654294	2528.138654
401.036549	2465.124231
401.418742	2470.165385
401.800874	2502.932885
402.182944	2502.932885
402.564952	2462.603654
402.946898	2482.768269
403.328783	2520.576923
403.710606	2424.795000
404.092367	2424.795000
404.474067	2530.659231
404.855705	2470.165385
405.237282	2565.947308
405.618797	2442.439038
406.000250	2502.932885
406.381642	2465.124231
406.762972	2540.741538
407.144240	2528.138654
407.525447	2444.959615
407.906593	2475.206538
408.287677	2457.562500
408.668700	2480.247692
409.049661	2442.439038
409.430560	2447.480192
409.811399	2593.673654
410.192176	2482.768269
410.572891	2480.247692
410.953545	2455.041923
411.334138	2447.480192
411.714669	2455.041923
412.095139	2450.000769
412.475547	2530.659231
412.855894	2437.397885
413.236180	2593.673654
413.616405	2397.068654
413.996568	2565.947308
414.376670	2485.288846
414.756711	2487.809423
415.136691	2485.288846
415.516609	2422.274423
415.896466	2558.385577
416.276262	2502.932885
416.655997	2558.385577
417.035670	2462.603654
417.415283	2510.494615
417.794834	2386.986346
418.174324	2505.453462
418.553753	2427.315577
418.933121	2510.494615
419.312428	2419.753846
419.691674	2432.356731
420.070859	2432.356731
420.449983	2432.356731
420.829045	2490.330000
421.208047	2475.206538
421.586988	2455.041923
421.965867	2460.083077
422.344686	2515.535769
422.723444	2500.412308
423.102141	2528.138654
423.480777	2477.727115
423.859352	2550.823846
424.237866	2467.644808
424.616319	2560.906154
424.994712	2513.015192
425.373044	2593.673654
425.751314	2475.206538
426.129524	2487.809423
426.507673	2409.671538
426.885762	2450.000769
427.263789	2439.918462
427.641756	2492.850577
428.019662	2402.109808
428.397508	2475.206538
428.775292	2444.959615
429.153016	2475.206538
429.530679	2460.083077
429.908282	2490.330000
430.285824	2477.727115
430.663305	2507.974038
431.040726	2523.097500
431.418086	2480.247692
431.795385	2515.535769
432.172624	2407.150962
432.549802	2477.727115
432.926920	2560.906154
433.303977	2505.453462
433.680974	2502.932885
434.057910	2442.439038
434.434786	2502.932885
434.811601	2525.618077
435.188355	2523.097500
435.565050	2490.330000
435.941683	2475.206538
436.318257	2465.124231
436.694770	2462.603654
437.071222	2470.165385
437.447614	2470.165385
437.823946	2523.097500
438.200218	2452.521346
438.576429	2424.795000
438.952580	2540.741538
439.328670	2414.712692
439.704700	2419.753846
440.080670	2465.124231
440.456580	2513.015192
440.832429	2470.165385
441.208218	2452.521346
441.583947	2465.124231
441.959616	2613.838269
442.335224	2515.535769
442.710773	2480.247692
443.086261	2581.070769
443.461689	2598.714808
443.837057	2505.453462
444.212365	2477.727115
444.587612	2520.576923
444.962800	2515.535769
445.337927	2513.015192
445.712995	2533.179808
446.088002	2427.315577
446.462949	2525.618077
446.837837	2472.685962
447.212664	2475.206538
447.587431	2470.165385
447.962139	2533.179808
448.336786	2452.521346
448.711374	2530.659231
449.085901	2538.220962
449.460369	2439.918462
449.834776	2470.165385
450.209124	2495.371154
450.583412	2560.906154
450.957640	2563.426731
451.331808	2505.453462
451.705917	2485.288846
452.079965	2432.356731
452.453954	2550.823846
452.827883	2460.083077
453.201752	2457.562500
453.575562	2432.356731
453.949311	2495.371154
454.323001	2444.959615
454.696632	2480.247692
455.070202	2487.809423
455.443713	2565.947308
455.817164	2492.850577
456.190556	2528.138654
456.563888	2560.906154
456.937160	2487.809423
457.310373	2502.932885
457.683526	2465.124231
458.056619	2528.138654
458.429653	2444.959615
458.802628	2477.727115
459.175542	2505.453462
459.548398	2477.727115
459.921194	2533.179808
460.293930	2487.809423
460.666607	2462.603654
461.039224	2513.015192
461.411782	2482.768269
461.784280	2535.700385
462.156719	2533.179808
462.529099	2495.371154
462.901419	2525.618077
463.273680	2465.124231
463.645882	2598.714808
464.018024	2404.630385
464.390106	2548.303269
464.762130	2381.945192
465.134094	2533.179808
465.505999	2533.179808
465.877845	2513.015192
466.249631	2457.562500
466.621358	2500.412308
466.993026	2535.700385
467.364634	2444.959615
467.736184	2505.453462
468.107674	2412.192115
468.479105	2434.877308
468.850477	2412.192115
469.221790	2487.809423
469.593043	2533.179808
469.964238	2470.165385
470.335373	2437.397885
470.706449	2419.753846
471.077467	2497.891731
471.448425	2439.918462
471.819324	2586.111923
472.190164	2386.986346
472.560945	2505.453462
472.931667	2462.603654
473.302330	2419.753846
473.672934	2553.344423
474.043479	2558.385577
474.413965	2482.768269
474.784393	2475.206538
475.154761	2500.412308
475.525070	2505.453462
475.895321	2502.932885
476.265513	2570.988462
476.635645	2538.220962
477.005719	2359.260000
477.375734	2543.262115
477.745691	2480.247692
478.115588	2515.535769
478.485427	2507.974038
478.855207	2394.548077
479.224928	2480.247692
479.594591	2490.330000
479.964194	2563.426731
480.333739	2467.644808
480.703226	2513.015192
481.072653	2520.576923
481.442022	2450.000769
481.811333	2450.000769
482.180584	2402.109808
482.549777	2555.865000
482.918912	2470.165385
483.287988	2480.247692
483.657005	2530.659231
484.025964	2480.247692
484.394864	2437.397885
484.763706	2515.535769
485.132489	2444.959615
485.501213	2505.453462
485.869879	2429.836154
486.238487	2472.685962
486.607036	2402.109808
486.975527	2523.097500
487.343959	2523.097500
487.712333	2550.823846
488.080648	2389.506923
488.448905	2500.412308
488.817104	2444.959615
489.185244	2475.206538
489.553326	2490.330000
489.921350	2495.371154
490.289315	2495.371154
490.657222	2482.768269
491.025070	2528.138654
491.392861	2414.712692
491.760593	2523.097500
492.128267	2437.397885
492.495883	2510.494615
492.863440	2502.932885
493.230939	2513.015192
493.598380	2475.206538
493.965763	2502.932885
494.333088	2560.906154
494.700354	2429.836154
495.067563	2505.453462
495.434713	2507.974038
495.801805	2535.700385
496.168839	2465.124231
496.535815	2465.124231
496.902733	2462.603654
497.269593	2472.685962
497.636395	2417.233269
498.003139	2487.809423
498.369825	2447.480192
498.736453	2485.288846
499.103023	2485.288846
499.469535	2497.891731
499.835989	2457.562500
500.202385	2507.974038
500.568723	2523.097500
500.935003	2467.644808
501.301226	2472.685962
501.667390	2462.603654
502.033497	2497.891731
502.399546	2404.630385
502.765537	2482.768269
503.131470	2510.494615
503.497345	2450.000769
503.863163	2492.850577
504.228923	2518.056346
504.594625	2475.206538
504.960269	2470.165385
505.325856	2460.083077
505.691385	2495.371154
506.056856	2492.850577
506.422270	2492.850577
506.787625	2475.206538
507.152924	2535.700385
507.518164	2487.809423
507.883347	2525.618077
508.248472	2475.206538
508.613540	2543.262115
508.978550	2477.727115
509.343503	2502.932885
509.708398	2518.056346
510.073236	2558.385577
510.438016	2480.247692
510.802738	2467.644808
511.167403	2520.576923
511.532010	2472.685962
511.896561	2558.385577
512.261053	2429.836154
512.625488	2502.932885
512.989866	2525.618077
513.354186	2480.247692
513.718449	2538.220962
514.082655	2545.782692
514.446803	2444.959615
514.810894	2487.809423
515.174927	2540.741538
515.538904	2472.685962
515.902822	2487.809423
516.266684	2518.056346
516.630488	2492.850577
516.994235	2475.206538
517.357925	2470.165385
517.721558	2452.521346
518.085133	2437.397885
518.448651	2444.959615
518.812112	2528.138654
519.175516	2510.494615
519.538863	2505.453462
519.902152	2497.891731
520.265385	2518.056346
520.628560	2477.727115
520.991678	2555.865000
521.354739	2528.138654
521.717743	2442.439038
522.080690	2548.303269
522.443580	2502.932885
522.806413	2467.644808
523.169189	2563.426731
523.531908	2480.247692
523.894569	2518.056346
524.257174	2480.247692
524.619722	2548.303269
524.982213	2565.947308
525.344647	2450.000769
525.707025	2457.562500
526.069345	2465.124231
526.431608	2492.850577
526.793815	2513.015192
527.155964	2540.741538
527.518057	2457.562500
527.880093	2548.303269
528.242072	2389.506923
528.603995	2495.371154
528.965860	2525.618077
529.327669	2467.644808
529.689421	2462.603654
530.051117	2515.535769
530.412755	2563.426731
530.774337	2452.521346
531.135862	2462.603654
531.497331	2434.877308
531.858743	2548.303269
532.220098	2455.041923
532.581396	2510.494615
532.942638	2424.795000
533.303824	2477.727115
533.664953	2437.397885
534.026025	2497.891731
534.387040	2455.041923
534.747999	2482.768269
535.108902	2462.603654
535.469748	2492.850577
535.830537	2472.685962
536.191270	2538.220962
536.551947	2465.124231
536.912567	2475.206538
537.273131	2439.918462
537.633638	2500.412308
537.994089	2538.220962
538.354483	2573.509038
538.714821	2528.138654
539.075103	2510.494615
539.435328	2581.070769
539.795497	2462.603654
540.155609	2450.000769
540.515665	2442.439038
540.875665	2515.535769
541.235609	2596.194231
541.595496	2560.906154
541.955328	2525.618077
542.315102	2475.206538
542.674821	2432.356731
543.034483	2553.344423
543.394090	2409.671538
543.753640	2437.397885
544.113134	2482.768269
544.472571	2429.836154
544.831953	2581.070769
545.191278	2581.070769
545.550548	2513.015192
545.909761	2404.630385
546.268918	2545.782692
546.628019	2450.000769
546.987064	2530.659231
547.346053	2475.206538
547.704986	2533.179808
548.063863	2608.797115
548.422684	2576.029615
548.781449	2550.823846
549.140158	2482.768269
549.498811	2576.029615
549.857408	2427.315577
550.215949	2487.809423
550.574434	2555.865000
550.932864	2409.671538
551.291237	2543.262115
551.649555	2502.932885
552.007817	2497.891731
552.366022	2497.891731
552.724173	2520.576923
553.082267	2505.453462
553.440305	2505.453462
553.798288	2533.179808
554.156215	2492.850577
554.514086	2495.371154
554.871902	2523.097500
555.229661	2548.303269
555.587365	2404.630385
555.945014	2570.988462
556.302606	2497.891731
556.660143	2444.959615
557.017625	2523.097500
557.375050	2477.727115
557.732421	2560.906154
558.089735	2462.603654
558.446994	2447.480192
558.804197	2530.659231
559.161345	2513.015192
559.518437	2520.576923
559.875474	2439.918462
560.232455	2533.179808
560.589381	2565.947308
560.946251	2525.618077
561.303065	2444.959615
561.659825	2444.959615
562.016528	2540.741538
562.373177	2487.809423
562.729770	2497.891731
563.086307	2462.603654
563.442789	2548.303269
563.799216	2475.206538
564.155587	2457.562500
564.511904	2437.397885
564.868164	2515.535769
565.224370	2538.220962
565.580520	2482.768269
565.936615	2457.562500
566.292654	2558.385577
566.648638	2407.150962
567.004567	2437.397885
567.360441	2429.836154
567.716260	2487.809423
568.072023	2538.220962
568.427732	2482.768269
568.783385	2432.356731
569.138982	2399.589231
569.494525	2477.727115
569.850013	2482.768269
570.205445	2525.618077
570.560823	2525.618077
570.916145	2485.288846
571.271412	2528.138654
571.626625	2535.700385
571.981782	2472.685962
572.336884	2548.303269
572.691931	2558.385577
573.046923	2507.974038
573.401860	2563.426731
573.756743	2555.865000
574.111570	2397.068654
574.466342	2492.850577
574.821059	2467.644808
575.175722	2480.247692
575.530330	2467.644808
575.884882	2497.891731
576.239380	2455.041923
576.593823	2543.262115
576.948211	2540.741538
577.302544	2482.768269
577.656823	2447.480192
578.011047	2543.262115
578.365216	2515.535769
578.719330	2500.412308
579.073389	2545.782692
579.427394	2558.385577
579.781344	2530.659231
580.135239	2397.068654
580.489080	2495.371154
580.842866	2492.850577
581.196597	2452.521346
581.550273	2565.947308
581.903895	2477.727115
582.257463	2467.644808
582.610975	2565.947308
582.964434	2490.330000
583.317837	2502.932885
583.671186	2538.220962
584.024481	2573.509038
584.377721	2533.179808
584.730906	2470.165385
585.084037	2490.330000
585.437113	2533.179808
585.790135	2475.206538
586.143103	2480.247692
586.496016	2520.576923
586.848874	2540.741538
587.201679	2475.206538
587.554428	2588.632500
587.907124	2535.700385
588.259765	2475.206538
588.612352	2495.371154
588.964884	2472.685962
589.317362	2477.727115
589.669786	2442.439038
590.022155	2472.685962
590.374470	2518.056346
590.726731	2520.576923
591.078937	2371.862885
591.431090	2495.371154
591.783188	2515.535769
592.135232	2467.644808
592.487222	2520.576923
592.839157	2515.535769
593.191038	2497.891731
593.542866	2482.768269
593.894639	2558.385577
594.246358	2586.111923
594.598022	2533.179808
594.949633	2543.262115
595.301190	2500.412308
595.652692	2492.850577
596.004141	2417.233269
596.355535	2495.371154
596.706876	2500.412308
597.058162	2495.371154
597.409395	2510.494615
597.760573	2538.220962
598.111698	2437.397885
598.462768	2576.029615
598.813785	2518.056346
599.164748	2545.782692
599.515657	2523.097500
599.866511	2513.015192
600.217312	2563.426731
600.568060	2427.315577
600.918753	2497.891731
601.269392	2545.782692
601.619978	2424.795000
601.970510	2455.041923
602.320988	2457.562500
602.671412	2573.509038
603.021783	2452.521346
603.372100	2528.138654
603.722363	2502.932885
604.072572	2533.179808
604.422728	2485.288846
604.772830	2555.865000
605.122878	2482.768269
605.472872	2540.741538
605.822813	2495.371154
606.172701	2583.591346
606.522534	2427.315577
606.872314	2565.947308
607.222041	2510.494615
607.571714	2553.344423
607.921333	2490.330000
608.270899	2442.439038
608.620411	2472.685962
608.969870	2520.576923
609.319276	2495.371154
609.668627	2505.453462
610.017926	2475.206538
610.367171	2480.247692
610.716362	2510.494615
611.065500	2487.809423
611.414585	2588.632500
611.763616	2467.644808
612.112594	2545.782692
612.461518	2450.000769
612.810389	2407.150962
613.159207	2482.768269
613.507971	2437.397885
613.856682	2538.220962
614.205340	2520.576923
614.553945	2457.562500
614.902496	2515.535769
615.250994	2523.097500
615.599439	2442.439038
615.947830	2505.453462
616.296169	2528.138654
616.644454	2487.809423
616.992686	2560.906154
617.340864	2480.247692
617.688990	2502.932885
618.037063	2462.603654
618.385082	2513.015192
618.733048	2434.877308
619.080961	2500.412308
619.428821	2439.918462
619.776628	2505.453462
620.124382	2560.906154
620.472083	2467.644808
620.819731	2510.494615
621.167326	2460.083077
621.514868	2507.974038
621.862357	2535.700385
622.209793	2457.562500
622.557176	2545.782692
622.904506	2505.453462
623.251783	2573.509038
623.599007	2457.562500
623.946179	2553.344423
624.293297	2432.356731
624.640363	2533.179808
624.987376	2490.330000
625.334336	2482.768269
625.681243	2434.877308
626.028097	2515.535769
626.374899	2550.823846
626.721647	2424.795000
627.068343	2495.371154
627.414987	2507.974038
627.761577	2437.397885
628.108115	2470.165385
628.454600	2543.262115
628.801032	2447.480192
629.147412	2437.397885
629.493739	2492.850577
629.840014	2510.494615
630.186236	2596.194231
630.532405	2518.056346
630.878521	2523.097500
631.224585	2505.453462
631.570597	2480.247692
631.916556	2467.644808
632.262462	2543.262115
632.608316	2505.453462
632.954117	2548.303269
633.299866	2560.906154
633.645562	2533.179808
633.991206	2495.371154
634.336797	2497.891731
634.682336	2497.891731
635.027823	2500.412308
635.373257	2434.877308
635.718639	2482.768269
636.063968	2513.015192
636.409245	2487.809423
636.754470	2550.823846
637.099642	2457.562500
637.444762	2450.000769
637.789829	2434.877308
638.134845	2482.768269
638.479808	2505.453462
638.824719	2397.068654
639.169577	2490.330000
639.514383	2442.439038
639.859137	2490.330000
640.203839	2492.850577
640.548489	2437.397885
640.893086	2485.288846
641.237632	2520.576923
641.582125	2505.453462
641.926566	2550.823846
642.270955	2513.015192
642.615292	2523.097500
642.959576	2475.206538
643.303809	2523.097500
643.647990	2525.618077
643.992118	2535.700385
644.336195	2525.618077
644.680219	2452.521346
645.024192	2540.741538
645.368112	2452.521346
645.711981	2502.932885
646.055797	2523.097500
646.399562	2515.535769
646.743274	2565.947308
647.086935	2450.000769
647.430544	2490.330000
647.774101	2535.700385
648.117606	2452.521346
648.461059	2523.097500
648.804460	2444.959615
649.147810	2535.700385
649.491108	2513.015192
649.834354	2515.535769
650.177548	2530.659231
650.520690	2412.192115
650.863781	2558.385577
651.206820	2591.153077
651.549807	2467.644808
651.892742	2570.988462
652.235626	2450.000769
652.578458	2472.685962
652.921238	2490.330000
653.263967	2588.632500
653.606644	2495.371154
653.949269	2540.741538
654.291843	2439.918462
654.634365	2525.618077
654.976836	2452.521346
655.319255	2467.644808
655.661622	2495.371154
656.003938	2485.288846
656.346203	2447.480192
656.688416	2570.988462
657.030577	2477.727115
657.372687	2487.809423
657.714746	2573.509038
658.056753	2477.727115
658.398708	2444.959615
658.740612	2507.974038
659.082465	2482.768269
659.424266	2540.741538
659.766016	2528.138654
660.107715	2432.356731
660.449362	2497.891731
660.790958	2530.659231
661.132503	2540.741538
661.473996	2427.315577
661.815438	2530.659231
662.156829	2467.644808
662.498168	2505.453462
662.839456	2419.753846
663.180693	2528.138654
663.521879	2480.247692
663.863013	2538.220962
664.204097	2432.356731
664.545129	2455.041923
664.886110	2477.727115
665.227040	2586.111923
665.567918	2487.809423
665.908746	2545.782692
666.249522	2402.109808
666.590248	2482.768269
666.930922	2442.439038
667.271545	2447.480192
667.612118	2507.974038
667.952639	2611.317692
668.293109	2530.659231
668.633528	2495.371154
668.973896	2477.727115
669.314213	2487.809423
669.654480	2530.659231
669.994695	2485.288846
670.334859	2518.056346
670.674973	2457.562500
671.015035	2492.850577
671.355047	2470.165385
671.695008	2563.426731
672.034918	2553.344423
672.374777	2548.303269
672.714585	2520.576923
673.054342	2495.371154
673.394049	2545.782692
673.733705	2581.070769
674.073310	2422.274423
674.412864	2520.576923
674.752368	2502.932885
675.091820	2482.768269
675.431223	2485.288846
675.770574	2460.083077
676.109875	2576.029615
676.449125	2500.412308
676.788324	2520.576923
677.127473	2492.850577
677.466571	2495.371154
677.805619	2427.315577
678.144616	2540.741538
678.483562	2641.564615
678.822458	2510.494615
679.161303	2462.603654
679.500098	2487.809423
679.838842	2530.659231
680.177535	2465.124231
680.516179	2540.741538
680.854771	2465.124231
681.193314	2538.220962
681.531805	2470.165385
681.870247	2502.932885
682.208638	2505.453462
682.546978	2558.385577
682.885268	2543.262115
683.223508	2465.124231
683.561697	2450.000769
683.899836	2482.768269
684.237925	2497.891731
684.575963	2530.659231
684.913951	2523.097500
685.251889	2520.576923
685.589776	2515.535769
685.927614	2442.439038
686.265401	2510.494615
686.603137	2444.959615
686.940824	2510.494615
687.278460	2507.974038
687.616046	2520.576923
687.953582	2520.576923
688.291068	2472.685962
688.628504	2535.700385
688.965889	2457.562500
689.303224	2470.165385
689.640510	2525.618077
689.977745	2560.906154
690.314930	2467.644808
690.652065	2588.632500
690.989150	2439.918462
691.326185	2568.467885
691.663170	2535.700385
692.000105	2417.233269
692.336990	2538.220962
692.673825	2480.247692
693.010610	2563.426731
693.347345	2467.644808
693.684030	2538.220962
694.020665	2507.974038
694.357251	2545.782692
694.693786	2530.659231
695.030272	2472.685962
695.366707	2447.480192
695.703093	2543.262115
696.039429	2482.768269
696.375716	2530.659231
696.711952	2535.700385
697.048139	2548.303269
697.384276	2470.165385
697.720363	2480.247692
698.056400	2475.206538
698.392388	2528.138654
698.728326	2417.233269
699.064214	2495.371154
699.400053	2490.330000
699.735842	2487.809423
700.071581	2513.015192
700.407270	2472.685962
700.742910	2558.385577
701.078501	2470.165385
701.414042	2573.509038
701.749533	2475.206538
702.084974	2560.906154
702.420366	2502.932885
702.755709	2545.782692
703.091002	2495.371154
703.426246	2578.550192
703.761440	2520.576923
704.096584	2460.083077
704.431679	2482.768269
704.766725	2568.467885
705.101721	2442.439038
705.436668	2495.371154
705.771565	2490.330000
706.106413	2550.823846
706.441212	2457.562500
706.775961	2550.823846
707.110661	2507.974038
707.445311	2470.165385
707.779913	2485.288846
708.114465	2528.138654
708.448967	2455.041923
708.783421	2497.891731
709.117825	2444.959615
709.452180	2477.727115
709.786485	2477.727115
710.120742	2497.891731
710.454949	2583.591346
710.789107	2502.932885
711.123216	2502.932885
711.457275	2472.685962
711.791286	2553.344423
712.125247	2530.659231
712.459159	2576.029615
712.793023	2570.988462
713.126837	2389.506923
713.460602	2495.371154
713.794318	2465.124231
714.127985	2518.056346
714.461602	2500.412308
714.795171	2500.412308
715.128691	2543.262115
715.462162	2457.562500
715.795584	2422.274423
716.128957	2475.206538
716.462281	2505.453462
716.795556	2444.959615
717.128782	2507.974038
717.461960	2545.782692
717.795088	2462.603654
718.128167	2502.932885
718.461198	2452.521346
718.794180	2518.056346
719.127113	2457.562500
719.459997	2525.618077
719.792833	2570.988462
720.125619	2404.630385
720.458357	2487.809423
720.791046	2528.138654
721.123686	2664.249808
721.456278	2560.906154
721.788821	2472.685962
722.121315	2502.932885
722.453761	2462.603654
722.786158	2480.247692
723.118506	2465.124231
723.450805	2520.576923
723.783056	2455.041923
724.115259	2399.589231
724.447412	2515.535769
724.779518	2497.891731
725.111574	2480.247692
725.443582	2452.521346
725.775542	2520.576923
726.107453	2543.262115
726.439315	2553.344423
726.771129	2500.412308
727.102895	2500.412308
727.434612	2515.535769
727.766281	2495.371154
728.097901	2480.247692
728.429473	2510.494615
728.760996	2470.165385
729.092471	2502.932885
729.423897	2518.056346
729.755276	2414.712692
730.086606	2485.288846
730.417887	2490.330000
730.749120	2485.288846
731.080305	2513.015192
731.411442	2462.603654
731.742530	2492.850577
732.073570	2455.041923
732.404562	2518.056346
732.735506	2510.494615
733.066401	2520.576923
733.397249	2535.700385
733.728048	2528.138654
734.058798	2457.562500
734.389501	2465.124231
734.720156	2510.494615
735.050762	2452.521346
735.381320	2518.056346
735.711831	2452.521346
736.042293	2492.850577
736.372707	2455.041923
736.703073	2661.729231
737.033391	2482.768269
737.363661	2480.247692
737.693883	2500.412308
738.024056	2568.467885
738.354182	2500.412308
738.684260	2535.700385
739.014290	2520.576923
739.344272	2500.412308
739.674207	2543.262115
740.004093	2465.124231
740.333931	2452.521346
740.663722	2465.124231
740.993464	2510.494615
741.323159	2439.918462
741.652806	2407.150962
741.982405	2520.576923
742.311956	2543.262115
742.641460	2515.535769
742.970915	2485.288846
743.300323	2437.397885
743.629683	2444.959615
743.958996	2485.288846
744.288260	2497.891731
744.617477	2502.932885
744.946647	2477.727115
745.275768	2502.932885
745.604842	2487.809423
745.933869	2533.179808
746.262847	2490.330000
746.591778	2538.220962
746.920662	2480.247692
747.249498	2543.262115
747.578286	2475.206538
747.907027	2530.659231
748.235720	2412.192115
748.564365	2444.959615
748.892963	2455.041923
749.221514	2467.644808
749.550017	2434.877308
749.878473	2495.371154
750.206881	2573.509038
750.535242	2482.768269
750.863555	2528.138654
751.191821	2437.397885
751.520039	2518.056346
751.848210	2550.823846
752.176334	2485.288846
752.504411	2533.179808
752.832440	2472.685962
753.160421	2492.850577
753.488356	2515.535769
753.816243	2518.056346
754.144082	2455.041923
754.471875	2565.947308
754.799620	2505.453462
755.127318	2467.644808
755.454969	2477.727115
755.782572	2457.562500
756.110129	2502.932885
756.437638	2462.603654
756.765100	2497.891731
757.092515	2528.138654
757.419882	2452.521346
757.747203	2520.576923
758.074477	2535.700385
758.401703	2482.768269
758.728882	2543.262115
759.056014	2460.083077
759.383099	2515.535769
759.710138	2482.768269
760.037129	2555.865000
760.364073	2480.247692
760.690970	2560.906154
761.017820	2412.192115
761.344623	2550.823846
761.671379	2568.467885
761.998088	2404.630385
762.324751	2444.959615
762.651366	2465.124231
762.977935	2455.041923
763.304456	2462.603654
763.630931	2502.932885
763.957359	2497.891731
764.283740	2533.179808
764.610074	2558.385577
764.936362	2500.412308
765.262602	2475.206538
765.588796	2548.303269
765.914943	2444.959615
766.241044	2502.932885
766.567097	2439.918462
766.893104	2457.562500
767.219064	2583.591346
767.544978	2533.179808
767.870845	2485.288846
768.196665	2439.918462
768.522438	2538.220962
768.848165	2419.753846
769.173846	2560.906154
769.499479	2502.932885
769.825066	2455.041923
770.150607	2477.727115
770.476101	2460.083077
770.801548	2530.659231
771.126949	2444.959615
771.452303	2497.891731
771.777611	2492.850577
772.102872	2581.070769
772.428087	2480.247692
772.753256	2447.480192
773.078378	2523.097500
773.403453	2490.330000
773.728482	2490.330000
774.053465	2525.618077
774.378401	2497.891731
774.703291	2586.111923
775.028135	2485.288846
775.352932	2515.535769
775.677683	2452.521346
776.002388	2523.097500
776.327046	2437.397885
776.651658	2563.426731
776.976224	2452.521346
777.300743	2470.165385
777.625216	2515.535769
777.949643	2523.097500
778.274024	2485.288846
778.598359	2439.918462
778.922647	2495.371154
779.246889	2472.685962
779.571086	2490.330000
779.895236	2583.591346
780.219339	2444.959615
780.543397	2497.891731
780.867409	2470.165385
781.191374	2480.247692
781.515294	2480.247692
781.839167	2452.521346
782.162995	2548.303269
782.486776	2505.453462
782.810511	2500.412308
783.134201	2510.494615
783.457844	2465.124231
783.781441	2528.138654
784.104993	2417.233269
784.428498	2510.494615
784.751958	2439.918462
785.075372	2497.891731
785.398739	2462.603654
785.722061	2462.603654
786.045337	2450.000769
786.368568	2480.247692
786.691752	2366.821731
787.014891	2520.576923
787.337983	2470.165385
787.661030	2520.576923
787.984031	2495.371154
788.306987	2543.262115
788.629897	2450.000769
788.952760	2394.548077
789.275579	2450.000769
789.598351	2563.426731
789.921078	2465.124231
790.243759	2500.412308
790.566395	2437.397885
790.888984	2530.659231
791.211529	2560.906154
791.534027	2452.521346
791.856480	2520.576923
792.178888	2477.727115
792.501249	2485.288846
792.823566	2515.535769
793.145836	2480.247692
793.468062	2434.877308
793.790241	2432.356731
794.112375	2558.385577
794.434464	2497.891731
794.756507	2570.988462
795.078505	2472.685962
795.400457	2565.947308
795.722364	2467.644808
796.044226	2507.974038
796.366042	2455.041923
796.687812	2455.041923
797.009538	2507.974038
797.331218	2477.727115
797.652852	2482.768269
797.974442	2472.685962
798.295986	2507.974038
798.617484	2482.768269
798.938938	2477.727115
799.260346	2530.659231
799.581709	2560.906154
799.903026	2452.521346
800.224299	2530.659231
800.545526	2548.303269
800.866708	2419.753846
801.187845	2540.741538
801.508936	2505.453462
801.829983	2475.206538
802.150984	2462.603654
802.471940	2515.535769
802.792851	2570.988462
803.113717	2492.850577
803.434538	2457.562500
803.755314	2465.124231
804.076045	2528.138654
804.396731	2485.288846
804.717372	2439.918462
805.037967	2472.685962
805.358518	2518.056346
805.679024	2528.138654
805.999485	2492.850577
806.319901	2409.671538
806.640272	2515.535769
806.960598	2432.356731
807.280879	2457.562500
807.601115	2490.330000
807.921306	2565.947308
808.241453	2457.562500
808.561554	2545.782692
808.881611	2442.439038
809.201623	2495.371154
809.521590	2588.632500
809.841513	2452.521346
810.161390	2457.562500
810.481223	2535.700385
810.801011	2543.262115
811.120755	2482.768269
811.440453	2535.700385
811.760107	2462.603654
812.079716	2432.356731
812.399281	2475.206538
812.718801	2379.424615
813.038276	2447.480192
813.357707	2439.918462
813.677093	2364.301154
813.996434	2467.644808
814.315731	2560.906154
814.634983	2523.097500
814.954191	2399.589231
815.273354	2538.220962
815.592473	2442.439038
815.911547	2510.494615
816.230577	2465.124231
816.549562	2475.206538
816.868502	2497.891731
817.187399	2495.371154
817.506250	2555.865000
817.825058	2497.891731
818.143821	2573.509038
818.462539	2518.056346
818.781213	2528.138654
819.099843	2528.138654
819.418429	2518.056346
819.736970	2475.206538
820.055466	2502.932885
820.373919	2513.015192
820.692327	2492.850577
821.010691	2487.809423
821.329011	2578.550192
821.647286	2570.988462
821.965517	2399.589231
822.283704	2460.083077
822.601847	2467.644808
822.919945	2477.727115
823.237999	2434.877308
823.556010	2520.576923
823.873976	2470.165385
824.191897	2528.138654
824.509775	2538.220962
824.827609	2518.056346
825.145398	2530.659231
825.463144	2434.877308
825.780845	2548.303269
826.098502	2462.603654
826.416116	2467.644808
826.733685	2475.206538
827.051210	2533.179808
827.368692	2462.603654
827.686129	2611.317692
828.003522	2502.932885
828.320872	2492.850577
828.638177	2444.959615
828.955439	2450.000769
829.272656	2460.083077
829.589830	2570.988462
829.906960	2439.918462
830.224046	2513.015192
830.541088	2450.000769
830.858086	2520.576923
831.175041	2555.865000
831.491952	2530.659231
831.808819	2480.247692
832.125642	2480.247692
832.442421	2475.206538
832.759157	2397.068654
833.075849	2495.371154
833.392497	2505.453462
833.709101	2525.618077
834.025662	2417.233269
834.342179	2513.015192
834.658653	2533.179808
834.975083	2538.220962
835.291469	2507.974038
835.607811	2492.850577
835.924110	2475.206538
836.240366	2535.700385
836.556578	2442.439038
836.872746	2457.562500
837.188871	2596.194231
837.504952	2487.809423
837.820990	2477.727115
838.136984	2530.659231
838.452935	2497.891731
838.768842	2558.385577
839.084706	2502.932885
839.400526	2462.603654
839.716303	2510.494615
840.032037	2492.850577
840.347727	2518.056346
840.663373	2565.947308
840.978977	2525.618077
841.294537	2510.494615
841.610054	2500.412308
841.925527	2497.891731
842.240957	2482.768269
842.556344	2578.550192
842.871687	2515.535769
843.186987	2414.712692
843.502244	2558.385577
843.817458	2525.618077
844.132629	2417.233269
844.447756	2543.262115
844.762840	2578.550192
845.077881	2462.603654
845.392879	2518.056346
845.707833	2417.233269
846.022745	2485.288846
846.337613	2412.192115
846.652438	2429.836154
846.967221	2497.891731
847.281960	2563.426731
847.596656	2543.262115
847.911309	2530.659231
848.225919	2581.070769
848.540485	2482.768269
848.855009	2505.453462
849.169490	2465.124231
849.483928	2490.330000
849.798323	2485.288846
850.112675	2460.083077
850.426984	2467.644808
850.741251	2497.891731
851.055474	2495.371154
851.369654	2543.262115
851.683792	2414.712692
851.997887	2543.262115
852.311938	2492.850577
852.625947	2588.632500
852.939914	2500.412308
853.253837	2432.356731
853.567718	2570.988462
853.881555	2525.618077
854.195350	2467.644808
854.509103	2515.535769
854.822812	2480.247692
855.136479	2404.630385
855.450103	2507.974038
855.763685	2543.262115
856.077224	2523.097500
856.390720	2535.700385
856.704173	2497.891731
857.017584	2492.850577
857.330953	2490.330000
857.644278	2535.700385
857.957561	2502.932885
858.270802	2523.097500
858.584000	2444.959615
858.897155	2530.659231
859.210268	2477.727115
859.523339	2495.371154
859.836367	2475.206538
860.149352	2518.056346
860.462295	2500.412308
860.775195	2482.768269
861.088054	2452.521346
861.400869	2523.097500
861.713642	2462.603654
862.026373	2505.453462
862.339062	2535.700385
862.651708	2465.124231
862.964312	2460.083077
863.276873	2475.206538
863.589392	2482.768269
863.901869	2558.385577
864.214303	2472.685962
864.526696	2545.782692
864.839045	2528.138654
865.151353	2434.877308
865.463619	2528.138654
865.775842	2475.206538
866.088023	2482.768269
866.400162	2447.480192
866.712258	2462.603654
867.024313	2497.891731
867.336325	2553.344423
867.648296	2490.330000
867.960224	2452.521346
868.272110	2485.288846
868.583954	2457.562500
868.895755	2470.165385
869.207515	2419.753846
869.519233	2480.247692
869.830909	2513.015192
870.142542	2568.467885
870.454134	2460.083077
870.765684	2530.659231
871.077191	2460.083077
871.388657	2530.659231
871.700081	2518.056346
872.011463	2480.247692
872.322803	2455.041923
872.634101	2555.865000
872.945357	2490.330000
873.256571	2497.891731
873.567744	2540.741538
873.878874	2502.932885
874.189963	2523.097500
874.501010	2505.453462
874.812015	2523.097500
875.122979	2530.659231
875.433900	2500.412308
875.744780	2475.206538
876.055618	2563.426731
876.366415	2520.576923
876.677169	2515.535769
876.987882	2419.753846
877.298554	2598.714808
877.609183	2505.453462
877.919771	2470.165385
878.230317	2578.550192
878.540822	2429.836154
878.851285	2477.727115
879.161707	2462.603654
879.472087	2505.453462
879.782425	2568.467885
880.092722	2434.877308
880.402977	2563.426731
880.713191	2495.371154
881.023363	2492.850577
881.333494	2422.274423
881.643583	2588.632500
881.953631	2586.111923
882.263637	2472.685962
882.573602	2510.494615
882.883526	2525.618077
883.193408	2497.891731
883.503248	2427.315577
883.813048	2505.453462
884.122806	2581.070769
884.432522	2477.727115
884.742197	2487.809423
885.051831	2538.220962
885.361424	2472.685962
885.670975	2520.576923
885.980485	2472.685962
886.289954	2482.768269
886.599382	2558.385577
886.908768	2510.494615
887.218113	2550.823846
887.527417	2485.288846
887.836680	2470.165385
888.145901	2528.138654
888.455082	2525.618077
888.764221	2540.741538
889.073319	2427.315577
889.382376	2490.330000
889.691392	2528.138654
890.000366	2482.768269
890.309300	2540.741538
890.618193	2437.397885
890.927044	2480.247692
891.235855	2447.480192
891.544625	2444.959615
891.853353	2439.918462
892.162041	2492.850577
892.470687	2550.823846
892.779293	2472.685962
893.087858	2518.056346
893.396381	2429.836154
893.704864	2515.535769
894.013306	2404.630385
894.321707	2515.535769
894.630068	2497.891731
894.938387	2490.330000
895.246665	2467.644808
895.554903	2497.891731
895.863100	2518.056346
896.171256	2482.768269
896.479371	2510.494615
896.787446	2502.932885
897.095480	2528.138654
897.403473	2467.644808
897.711425	2434.877308
898.019336	2460.083077
898.327207	2505.453462
898.635038	2477.727115
898.942827	2553.344423
899.250576	2452.521346
899.558284	2495.371154
899.865952	2563.426731
900.173579	2497.891731
900.481165	2490.330000
900.788711	2394.548077
901.096216	2472.685962
901.403681	2495.371154
901.711105	2563.426731
902.018489	2515.535769
902.325832	2518.056346
902.633135	2450.000769
902.940397	2361.780577
903.247619	2470.165385
903.554800	2492.850577
903.861941	2613.838269
904.169041	2500.412308
904.476101	2480.247692
904.783121	2510.494615
905.090100	2545.782692
905.397039	2465.124231
905.703938	2525.618077
906.010796	2419.753846
906.317614	2495.371154
906.624391	2447.480192
906.931129	2523.097500
907.237826	2462.603654
907.544483	2470.165385
907.851099	2472.685962
908.157675	2472.685962
908.464211	2439.918462
908.770707	2429.836154
909.077163	2535.700385
909.383578	2565.947308
909.689954	2470.165385
909.996289	2470.165385
910.302584	2455.041923
910.608839	2518.056346
910.915054	2497.891731
911.221229	2505.453462
911.527363	2515.535769
911.833458	2472.685962
912.139513	2442.439038
912.445527	2593.673654
912.751502	2553.344423
913.057436	2467.644808
913.363331	2465.124231
913.669186	2505.453462
913.975000	2520.576923
914.280775	2429.836154
914.586510	2538.220962
914.892205	2548.303269
915.197859	2568.467885
915.503475	2515.535769
915.809050	2510.494615
916.114585	2492.850577
916.420081	2518.056346
916.725536	2452.521346
917.030952	2518.056346
917.336328	2540.741538
917.641665	2540.741538
917.946961	2507.974038
918.252218	2434.877308
918.557435	2452.521346
918.862612	2480.247692
919.167750	2439.918462
919.472848	2417.233269
919.777906	2472.685962
920.082925	2560.906154
920.387904	2480.247692
920.692843	2429.836154
920.997743	2402.109808
921.302603	2475.206538
921.607423	2480.247692
921.912204	2530.659231
922.216946	2545.782692
922.521647	2429.836154
922.826310	2472.685962
923.130932	2394.548077
923.435516	2555.865000
923.740059	2533.179808
924.044564	2490.330000
924.349028	2414.712692
924.653454	2507.974038
924.957840	2563.426731
925.262186	2495.371154
925.566493	2490.330000
925.870761	2533.179808
926.174989	2422.274423
926.479178	2505.453462
926.783328	2578.550192
927.087438	2520.576923
927.391509	2444.959615
927.695541	2545.782692
927.999533	2402.109808
928.303486	2518.056346
928.607400	2495.371154
928.911275	2507.974038
929.215110	2548.303269
929.518906	2475.206538
929.822663	2487.809423
930.126381	2452.521346
930.430060	2538.220962
930.733699	2603.755962
931.037299	2407.150962
931.340861	2523.097500
931.644383	2495.371154
931.947866	2548.303269
932.251309	2460.083077
932.554714	2407.150962
932.858080	2500.412308
933.161407	2573.509038
933.464694	2533.179808
933.767943	2525.618077
934.071153	2497.891731
934.374323	2424.795000
934.677455	2485.288846
934.980548	2444.959615
935.283602	2528.138654
935.586617	2513.015192
935.889593	2507.974038
936.192530	2487.809423
936.495428	2558.385577
936.798287	2502.932885
937.101108	2495.371154
937.403890	2513.015192
937.706632	2553.344423
938.009336	2462.603654
938.312002	2460.083077
938.614628	2447.480192
938.917216	2485.288846
939.219765	2555.865000
939.522275	2520.576923
939.824747	2505.453462
940.127179	2452.521346
940.429573	2482.768269
940.731929	2533.179808
941.034246	2480.247692
941.336524	2507.974038
941.638763	2434.877308
941.940964	2535.700385
942.243126	2611.317692
942.545250	2515.535769
942.847335	2477.727115
943.149381	2442.439038
943.451389	2513.015192
943.753359	2495.371154
944.055290	2553.344423
944.357182	2477.727115
944.659036	2540.741538
944.960851	2485.288846
945.262628	2553.344423
945.564367	2540.741538
945.866067	2502.932885
946.167729	2560.906154
946.469352	2477.727115
946.770937	2490.330000
947.072484	2414.712692
947.373992	2470.165385
947.675462	2465.124231
947.976893	2603.755962
948.278286	2450.000769
948.579641	2513.015192
948.880958	2460.083077
949.182236	2538.220962
949.483476	2495.371154
949.784678	2424.795000
950.085841	2450.000769
950.386967	2535.700385
950.688054	2507.974038
950.989103	2482.768269
951.290114	2513.015192
951.591087	2570.988462
951.892021	2482.768269
952.192917	2518.056346
952.493776	2470.165385
952.794596	2394.548077
953.095378	2429.836154
953.396122	2485.288846
953.696828	2523.097500
953.997496	2450.000769
954.298126	2553.344423
954.598718	2460.083077
954.899272	2467.644808
955.199788	2480.247692
955.500266	2525.618077
955.800706	2490.330000
956.101108	2470.165385
956.401472	2563.426731
956.701798	2439.918462
957.002087	2518.056346
957.302337	2465.124231
957.602550	2475.206538
957.902724	2460.083077
958.202861	2450.000769
958.502960	2487.809423
958.803022	2492.850577
959.103045	2518.056346
959.403031	2429.836154
959.702979	2570.988462
960.002889	2482.768269
960.302762	2409.671538
960.602596	2477.727115
960.902393	2460.083077
961.202153	2424.795000
961.501875	2510.494615
961.801559	2485.288846
962.101205	2533.179808
962.400814	2530.659231
962.700385	2528.138654
962.999918	2480.247692
963.299414	2507.974038
963.598873	2530.659231
963.898293	2560.906154
964.197677	2462.603654
964.497022	2470.165385
964.796331	2533.179808
965.095601	2515.535769
965.394835	2525.618077
965.694030	2500.412308
965.993189	2550.823846
966.292309	2475.206538
966.591393	2432.356731
966.890439	2477.727115
967.189447	2520.576923
967.488419	2485.288846
967.787353	2472.685962
968.086249	2399.589231
968.385108	2502.932885
968.683930	2490.330000
968.982714	2487.809423
969.281462	2515.535769
969.580172	2444.959615
969.878844	2480.247692
970.177480	2480.247692
970.476078	2507.974038
970.774639	2513.015192
971.073162	2528.138654
971.371649	2515.535769
971.670098	2439.918462
971.968510	2492.850577
972.266885	2515.535769
972.565223	2472.685962
972.863524	2467.644808
973.161788	2515.535769
973.460014	2581.070769
973.758204	2553.344423
974.056356	2530.659231
974.354471	2432.356731
974.652550	2477.727115
974.950591	2500.412308
975.248595	2414.712692
975.546563	2470.165385
975.844493	2470.165385
976.142386	2543.262115
976.440243	2530.659231
976.738062	2502.932885
977.035845	2455.041923
977.333590	2465.124231
977.631299	2530.659231
977.928971	2475.206538
978.226606	2505.453462
978.524204	2573.509038
978.821765	2497.891731
979.119290	2475.206538
979.416777	2482.768269
979.714228	2457.562500
980.011642	2475.206538
980.309020	2492.850577
980.606360	2523.097500
980.903664	2444.959615
981.200931	2513.015192
981.498162	2487.809423
981.795356	2480.247692
982.092513	2540.741538
982.389633	2528.138654
982.686717	2530.659231
982.983764	2518.056346
983.280775	2475.206538
983.577749	2439.918462
983.874686	2482.768269
984.171587	2475.206538
984.468451	2477.727115
984.765279	2507.974038
985.062070	2525.618077
985.358824	2565.947308
985.655543	2487.809423
985.952224	2487.809423
986.248869	2487.809423
986.545478	2366.821731
986.842050	2437.397885
987.138586	2513.015192
987.435086	2507.974038
987.731549	2507.974038
988.027975	2593.673654
988.324366	2472.685962
988.620719	2545.782692
988.917037	2507.974038
989.213318	2467.644808
989.509563	2510.494615
989.805772	2465.124231
990.101944	2507.974038
990.398080	2392.027500
990.694180	2568.467885
990.990244	2490.330000
991.286271	2502.932885
991.582262	2497.891731
991.878217	2535.700385
992.174136	2507.974038
992.470019	2424.795000
992.765865	2404.630385
993.061676	2568.467885
993.357450	2447.480192
993.653188	2492.850577
993.948890	2477.727115
994.244556	2467.644808
994.540186	2497.891731
994.835780	2472.685962
995.131337	2475.206538
995.426859	2482.768269
995.722345	2492.850577
996.017795	2533.179808
996.313208	2455.041923
996.608586	2548.303269
996.903928	2455.041923
997.199234	2434.877308
997.494504	2460.083077
997.789738	2487.809423
998.084936	2437.397885
998.380099	2422.274423
998.675225	2513.015192
998.970316	2475.206538
999.265371	2487.809423
999.560390	2558.385577
999.855373	2434.877308
1000.150320	2530.659231
1000.445232	2477.727115
1000.740108	2497.891731
1001.034948	2472.685962
1001.329752	2523.097500
1001.624521	2525.618077
1001.919254	2482.768269
1002.213951	2497.891731
1002.508613	2490.330000
1002.803239	2540.741538
1003.097829	2523.097500
1003.392384	2500.412308
1003.686903	2507.974038
1003.981386	2490.330000
1004.275834	2434.877308
1004.570246	2515.535769
1004.864623	2485.288846
1005.158964	2523.097500
1005.453270	2404.630385
1005.747540	2543.262115
1006.041775	2472.685962
1006.335974	2427.315577
1006.630138	2460.083077
1006.924266	2497.891731
1007.218359	2495.371154
1007.512416	2555.865000
1007.806438	2523.097500
1008.100425	2525.618077
1008.394376	2457.562500
1008.688292	2462.603654
1008.982172	2452.521346
1009.276017	2545.782692
1009.569827	2482.768269
1009.863602	2487.809423
1010.157341	2480.247692
1010.451045	2515.535769
1010.744714	2492.850577
1011.038347	2485.288846
1011.331945	2422.274423
1011.625508	2480.247692
1011.919036	2427.315577
1012.212528	2480.247692
1012.505986	2578.550192
1012.799408	2505.453462
1013.092795	2465.124231
1013.386147	2462.603654
1013.679464	2565.947308
1013.972745	2523.097500
1014.265992	2502.932885
1014.559204	2528.138654
1014.852380	2495.371154
1015.145521	2477.727115
1015.438628	2439.918462
1015.731699	2444.959615
1016.024736	2507.974038
1016.317737	2523.097500
1016.610703	2492.850577
1016.903635	2500.412308
1017.196531	2402.109808
1017.489393	2432.356731
1017.782219	2439.918462
1018.075011	2424.795000
1018.367768	2434.877308
1018.660490	2495.371154
1018.953177	2495.371154
1019.245829	2495.371154
