Dividing Wavelength (nm)	Counts (n)	Blue Motor Position (mm): 0.000000	Red Motor Position (mm): 0.000000	
326.493990	2152.572692
326.888308	2152.572692
327.282561	2152.572692
327.676750	2124.846346
328.070874	2076.955385
328.464933	2210.545962
328.858929	2117.284615
329.252859	2160.134423
329.646726	2134.928654
330.040528	2187.860769
330.434265	2127.366923
330.827938	2157.613846
331.221547	2218.107692
331.615091	2260.957500
332.008571	2273.560385
332.401986	2263.478077
332.795338	2278.601538
333.188625	2278.601538
333.581847	2369.342308
333.975006	2386.986346
334.368100	2392.027500
334.761129	2444.959615
335.154095	2424.795000
335.546996	2500.412308
335.939833	2452.521346
336.332606	2505.453462
336.725315	2457.562500
337.117960	2533.179808
337.510540	2460.083077
337.903056	2434.877308
338.295508	2502.932885
338.687896	2588.632500
339.080220	2565.947308
339.472480	2651.646923
339.864676	2588.632500
340.256807	2555.865000
340.648875	2563.426731
341.040879	2573.509038
341.432818	2576.029615
341.824694	2563.426731
342.216506	2573.509038
342.608253	2661.729231
342.999937	2626.441154
343.391557	2593.673654
343.783113	2606.276538
344.174605	2565.947308
344.566033	2641.564615
344.957397	2558.385577
345.348697	2460.083077
345.739934	2598.714808
346.131106	2593.673654
346.522215	2596.194231
346.913260	2528.138654
347.304241	2581.070769
347.695159	2467.644808
348.086012	2576.029615
348.476802	2568.467885
348.867528	2558.385577
349.258191	2535.700385
349.648789	2492.850577
350.039324	2588.632500
350.429796	2507.974038
350.820203	2548.303269
351.210548	2553.344423
351.600828	2570.988462
351.991045	2568.467885
352.381198	2492.850577
352.771288	2568.467885
353.161314	2555.865000
353.551276	2515.535769
353.941175	2593.673654
354.331010	2520.576923
354.720782	2583.591346
355.110490	2523.097500
355.500135	2528.138654
355.889717	2555.865000
356.279235	2535.700385
356.668689	2616.358846
357.058080	2540.741538
357.447408	2548.303269
357.836672	2608.797115
358.225873	2523.097500
358.615010	2487.809423
359.004084	2576.029615
359.393095	2573.509038
359.782043	2482.768269
360.170927	2530.659231
360.559748	2598.714808
360.948505	2528.138654
361.337199	2520.576923
361.725830	2525.618077
362.114398	2560.906154
362.502903	2543.262115
362.891344	2573.509038
363.279722	2540.741538
363.668037	2568.467885
364.056289	2500.412308
364.444478	2530.659231
364.832603	2631.482308
365.220665	2586.111923
365.608665	2502.932885
365.996601	2525.618077
366.384474	2525.618077
366.772284	2565.947308
367.160031	2518.056346
367.547715	2565.947308
367.935336	2507.974038
368.322893	2533.179808
368.710388	2513.015192
369.097820	2593.673654
369.485189	2583.591346
369.872495	2568.467885
370.259738	2586.111923
370.646918	2641.564615
371.034035	2576.029615
371.421090	2540.741538
371.808081	2457.562500
372.195010	2533.179808
372.581875	2505.453462
372.968678	2568.467885
373.355418	2591.153077
373.742096	2573.509038
374.128710	2596.194231
374.515262	2603.755962
374.901751	2649.126346
375.288177	2591.153077
375.674540	2505.453462
376.060841	2528.138654
376.447079	2565.947308
376.833254	2573.509038
377.219367	2601.235385
377.605417	2603.755962
377.991404	2568.467885
378.377329	2563.426731
378.763191	2581.070769
379.148991	2545.782692
379.534727	2535.700385
379.920402	2644.085192
380.306013	2530.659231
380.691563	2631.482308
381.077049	2523.097500
381.462474	2507.974038
381.847835	2626.441154
382.233134	2581.070769
382.618371	2586.111923
383.003545	2525.618077
383.388657	2613.838269
383.773706	2573.509038
384.158693	2570.988462
384.543618	2588.632500
384.928480	2603.755962
385.313280	2550.823846
385.698017	2520.576923
386.082692	2651.646923
386.467305	2573.509038
386.851856	2606.276538
387.236344	2535.700385
387.620770	2525.618077
388.005133	2560.906154
388.389435	2565.947308
388.773674	2563.426731
389.157851	2543.262115
389.541965	2618.879423
389.926018	2560.906154
390.310008	2533.179808
390.693936	2606.276538
391.077802	2555.865000
391.461606	2628.961731
391.845348	2565.947308
392.229027	2641.564615
392.612645	2593.673654
392.996200	2533.179808
393.379694	2548.303269
393.763125	2598.714808
394.146494	2601.235385
394.529801	2576.029615
394.913047	2586.111923
395.296230	2462.603654
395.679351	2654.167500
396.062410	2540.741538
396.445408	2644.085192
396.828343	2538.220962
397.211217	2661.729231
397.594028	2636.523462
397.976778	2495.371154
398.359466	2596.194231
398.742092	2497.891731
399.124656	2576.029615
399.507158	2603.755962
399.889598	2623.920577
400.271977	2568.467885
400.654294	2573.509038
401.036549	2613.838269
401.418742	2641.564615
401.800874	2570.988462
402.182944	2543.262115
402.564952	2535.700385
402.946898	2636.523462
403.328783	2626.441154
403.710606	2586.111923
404.092367	2671.811538
404.474067	2563.426731
404.855705	2528.138654
405.237282	2623.920577
405.618797	2649.126346
406.000250	2591.153077
406.381642	2576.029615
406.762972	2583.591346
407.144240	2505.453462
407.525447	2518.056346
407.906593	2570.988462
408.287677	2613.838269
408.668700	2576.029615
409.049661	2568.467885
409.430560	2598.714808
409.811399	2581.070769
410.192176	2636.523462
410.572891	2639.044038
410.953545	2664.249808
411.334138	2533.179808
411.714669	2611.317692
412.095139	2628.961731
412.475547	2644.085192
412.855894	2550.823846
413.236180	2616.358846
413.616405	2565.947308
413.996568	2543.262115
414.376670	2530.659231
414.756711	2570.988462
415.136691	2583.591346
415.516609	2583.591346
415.896466	2555.865000
416.276262	2576.029615
416.655997	2621.400000
417.035670	2616.358846
417.415283	2651.646923
417.794834	2533.179808
418.174324	2644.085192
418.553753	2606.276538
418.933121	2608.797115
419.312428	2586.111923
419.691674	2540.741538
420.070859	2641.564615
420.449983	2644.085192
420.829045	2548.303269
421.208047	2608.797115
421.586988	2586.111923
421.965867	2671.811538
422.344686	2636.523462
422.723444	2583.591346
423.102141	2634.002885
423.480777	2548.303269
423.859352	2586.111923
424.237866	2623.920577
424.616319	2641.564615
424.994712	2555.865000
425.373044	2568.467885
425.751314	2603.755962
426.129524	2545.782692
426.507673	2581.070769
426.885762	2603.755962
427.263789	2674.332115
427.641756	2530.659231
428.019662	2583.591346
428.397508	2550.823846
428.775292	2601.235385
429.153016	2631.482308
429.530679	2621.400000
429.908282	2601.235385
430.285824	2540.741538
430.663305	2475.206538
431.040726	2560.906154
431.418086	2586.111923
431.795385	2717.181923
432.172624	2631.482308
432.549802	2618.879423
432.926920	2661.729231
433.303977	2598.714808
433.680974	2533.179808
434.057910	2525.618077
434.434786	2588.632500
434.811601	2601.235385
435.188355	2598.714808
435.565050	2712.140769
435.941683	2639.044038
436.318257	2628.961731
436.694770	2606.276538
437.071222	2669.290962
437.447614	2626.441154
437.823946	2689.455577
438.200218	2578.550192
438.576429	2598.714808
438.952580	2684.414423
439.328670	2689.455577
439.704700	2734.825962
440.080670	2628.961731
440.456580	2749.949423
440.832429	2737.346538
441.208218	2623.920577
441.583947	2732.305385
441.959616	2744.908269
442.335224	2795.319808
442.710773	2739.867115
443.086261	2818.005000
443.461689	2737.346538
443.837057	2782.716923
444.212365	2812.963846
444.587612	2961.677885
444.962800	2865.895962
445.337927	2881.019423
445.712995	2938.992692
446.088002	3009.568846
446.462949	3022.171731
446.837837	3039.815769
447.212664	3067.542115
447.587431	3122.994808
447.962139	3370.011346
448.336786	3531.328269
448.711374	3617.027885
449.085901	3407.820000
449.460369	3511.163654
449.834776	3518.725385
450.209124	3649.795385
450.583412	3939.661731
450.957640	4163.993077
451.331808	4063.170000
451.705917	3901.853077
452.079965	3801.030000
452.453954	4015.279038
452.827883	4037.964231
453.201752	4279.939615
453.575562	4254.733846
453.949311	4411.009615
454.323001	4587.450000
454.696632	4715.999423
455.070202	4867.234038
455.443713	5121.812308
455.817164	5230.197115
456.190556	5323.458462
456.563888	5633.489423
456.937160	5613.324808
457.310373	5570.475000
457.683526	5653.654038
458.056619	5686.421538
458.429653	6016.617115
458.802628	5860.341346
459.175542	6177.934038
459.548398	6601.390962
459.921194	6785.393077
460.293930	7266.823269
460.666607	7748.253462
461.039224	8380.918269
461.411782	8703.552115
461.784280	8706.072692
462.156719	8990.897885
462.529099	8834.622115
462.901419	8932.924615
463.273680	8675.825769
463.645882	8789.251731
464.018024	8990.897885
464.390106	9174.900000
464.762130	9860.496923
465.134094	10614.149423
465.505999	12363.429808
465.877845	14576.496346
466.249631	16202.268462
466.621358	15935.087308
466.993026	15206.640577
467.364634	15224.284615
467.736184	14364.767885
468.107674	14231.177308
468.479105	14616.825577
468.850477	14090.025000
469.221790	14342.082692
469.593043	14299.232885
469.964238	13699.335577
470.335373	13724.541346
470.706449	14616.825577
471.077467	14551.290577
471.448425	16832.412692
471.819324	20227.629808
472.190164	20557.825385
472.560945	17918.781346
472.931667	16272.844615
473.302330	16310.653269
473.672934	16267.803462
474.043479	16776.960000
474.413965	16494.655385
474.784393	16494.655385
475.154761	17273.513654
475.525070	17157.567115
475.895321	17195.375769
476.265513	17996.919231
476.635645	18853.915385
477.005719	18485.911154
477.375734	18700.160192
477.745691	19189.152115
478.115588	19605.047308
478.485427	20850.212308
478.855207	22143.268269
479.224928	24149.647500
479.594591	25588.896923
479.964194	24956.232115
480.333739	25291.468846
480.703226	25457.826923
481.072653	25523.361923
481.442022	26375.316923
481.811333	26859.267692
482.180584	26423.207885
482.549777	26072.847692
482.918912	25621.664423
483.287988	25745.172692
483.657005	25518.320769
484.025964	25208.289808
484.394864	25190.645769
484.763706	24449.596154
485.132489	24346.252500
485.501213	24217.703077
485.869879	24313.485000
486.238487	24386.581731
486.607036	24177.373846
486.975527	24084.112500
487.343959	23975.727692
487.712333	23579.997115
488.080648	23247.280962
488.448905	24147.126923
488.817104	23610.244038
489.185244	24449.596154
489.553326	23948.001346
489.921350	25152.837115
490.289315	27146.613462
490.657222	28399.340192
491.025070	28487.560385
491.392861	27912.868846
491.760593	26634.936346
492.128267	25767.857885
492.495883	24820.120962
492.863440	24043.783269
493.230939	23343.062885
493.598380	22576.807500
493.965763	21669.399808
494.333088	21321.560192
494.700354	21271.148654
495.067563	20693.936538
495.434713	20547.743077
495.801805	20376.343846
496.168839	20031.024808
496.535815	19899.954808
496.902733	19466.415577
497.269593	19186.631538
497.636395	19272.331154
498.003139	18629.584038
498.369825	18392.649808
498.736453	18463.225962
499.103023	18092.701154
499.469535	17883.493269
499.835989	17308.801731
500.202385	17477.680385
500.568723	17013.894231
500.935003	17026.497115
501.301226	16396.352885
501.667390	16729.069038
502.033497	16718.986731
502.399546	16144.295192
502.765537	15720.838269
503.131470	15536.836154
503.497345	15304.943077
503.863163	15002.473846
504.228923	15168.831923
504.594625	14831.074615
504.960269	14326.959231
505.325856	14357.206154
505.691385	13817.802692
506.056856	13810.240962
506.422270	13878.296538
506.787625	12945.683077
507.152924	13243.111154
507.518164	12857.462885
507.883347	12464.252885
508.248472	12146.660192
508.613540	12214.715769
508.978550	11975.260962
509.343503	11816.464615
509.708398	11695.476923
510.073236	11254.375962
510.438016	10926.700962
510.802738	10846.042500
511.167403	10813.275000
511.532010	10510.805769
511.896561	10299.077308
512.261053	10417.544423
512.625488	9938.634808
512.989866	9857.976346
513.354186	9429.478269
513.718449	9258.079038
514.082655	9255.558462
514.446803	8764.045962
514.810894	8975.774423
515.174927	8685.908077
515.538904	8408.644615
515.902822	8333.027308
516.266684	8171.710385
516.630488	8096.093077
516.994235	7685.239038
517.357925	7591.977692
517.721558	7574.333654
518.085133	7342.440577
518.448651	7259.261538
518.812112	6946.710000
519.175516	7097.944615
519.538863	6689.611154
519.902152	6608.952692
520.265385	6533.335385
520.628560	6346.812692
520.991678	6185.495769
521.354739	6248.510192
521.717743	6112.399038
522.080690	5867.903077
522.443580	5855.300192
522.806413	5784.724038
523.169189	5729.271346
523.531908	5469.651923
523.894569	5303.293846
524.257174	5391.514038
524.619722	5250.361731
524.982213	5041.153846
525.344647	4942.851346
525.707025	4854.631154
526.069345	4836.987115
526.431608	4615.176346
526.793815	4612.655769
527.155964	4562.244231
527.518057	4468.982885
527.880093	4388.324423
528.242072	4413.530192
528.603995	4252.213269
528.965860	4232.048654
529.327669	4143.828462
529.689421	4022.840769
530.051117	3964.867500
530.412755	3828.756346
530.774337	4005.196731
531.135862	3866.565000
531.497331	3765.741923
531.858743	3760.700769
532.220098	3743.056731
532.581396	3675.001154
532.942638	3506.122500
533.303824	3581.739808
533.664953	3503.601923
534.026025	3508.643077
534.387040	3480.916731
534.747999	3364.970192
535.108902	3372.531923
535.469748	3279.270577
535.830537	3306.996923
536.191270	3281.791154
536.551947	3228.859038
536.912567	3128.035962
537.273131	3276.750000
537.633638	3065.021538
537.994089	3148.200577
538.354483	3115.433077
538.714821	3120.474231
539.075103	3155.762308
539.435328	3080.145000
539.795497	3090.227308
540.155609	3075.103846
540.515665	3002.007115
540.875665	2944.033846
541.235609	3022.171731
541.595496	2951.595577
541.955328	2974.280769
542.315102	2901.184038
542.674821	2888.581154
543.034483	2845.731346
543.394090	2901.184038
543.753640	2873.457692
544.113134	2870.937115
544.472571	2800.360962
544.831953	2838.169615
545.191278	2815.484423
545.550548	2787.758077
545.909761	2800.360962
546.268918	2760.031731
546.628019	2805.402115
546.987064	2777.675769
547.346053	2694.496731
547.704986	2790.278654
548.063863	2770.114038
548.422684	2848.251923
548.781449	2785.237500
549.140158	2772.634615
549.498811	2699.537885
549.857408	2719.702500
550.215949	2699.537885
550.574434	2697.017308
550.932864	2767.593462
551.291237	2749.949423
551.649555	2704.579038
552.007817	2815.484423
552.366022	2699.537885
552.724173	2724.743654
553.082267	2664.249808
553.440305	2757.511154
553.798288	2697.017308
554.156215	2795.319808
554.514086	2722.223077
554.871902	2666.770385
555.229661	2654.167500
555.587365	2734.825962
555.945014	2727.264231
556.302606	2671.811538
556.660143	2724.743654
557.017625	2601.235385
557.375050	2656.688077
557.732421	2775.155192
558.089735	2691.976154
558.446994	2707.099615
558.804197	2717.181923
559.161345	2669.290962
559.518437	2691.976154
559.875474	2681.893846
560.232455	2709.620192
560.589381	2689.455577
560.946251	2649.126346
561.303065	2666.770385
561.659825	2681.893846
562.016528	2558.385577
562.373177	2704.579038
562.729770	2679.373269
563.086307	2659.208654
563.442789	2666.770385
563.799216	2669.290962
564.155587	2555.865000
564.511904	2608.797115
564.868164	2634.002885
565.224370	2593.673654
565.580520	2608.797115
565.936615	2709.620192
566.292654	2649.126346
566.648638	2560.906154
567.004567	2681.893846
567.360441	2634.002885
567.716260	2734.825962
568.072023	2659.208654
568.427732	2611.317692
568.783385	2581.070769
569.138982	2606.276538
569.494525	2641.564615
569.850013	2608.797115
570.205445	2691.976154
570.560823	2702.058462
570.916145	2649.126346
571.271412	2641.564615
571.626625	2618.879423
571.981782	2656.688077
572.336884	2676.852692
572.691931	2664.249808
573.046923	2702.058462
573.401860	2709.620192
573.756743	2674.332115
574.111570	2644.085192
574.466342	2641.564615
574.821059	2702.058462
575.175722	2583.591346
575.530330	2697.017308
575.884882	2621.400000
576.239380	2656.688077
576.593823	2616.358846
576.948211	2676.852692
577.302544	2628.961731
577.656823	2651.646923
578.011047	2644.085192
578.365216	2719.702500
578.719330	2628.961731
579.073389	2588.632500
579.427394	2550.823846
579.781344	2686.935000
580.135239	2623.920577
580.489080	2634.002885
580.842866	2684.414423
581.196597	2616.358846
581.550273	2598.714808
581.903895	2697.017308
582.257463	2611.317692
582.610975	2606.276538
582.964434	2628.961731
583.317837	2674.332115
583.671186	2598.714808
584.024481	2691.976154
584.377721	2568.467885
584.730906	2654.167500
585.084037	2596.194231
585.437113	2613.838269
585.790135	2621.400000
586.143103	2618.879423
586.496016	2691.976154
586.848874	2603.755962
587.201679	2702.058462
587.554428	2636.523462
587.907124	2714.661346
588.259765	2636.523462
588.612352	2601.235385
588.964884	2601.235385
589.317362	2634.002885
589.669786	2702.058462
590.022155	2644.085192
590.374470	2596.194231
590.726731	2606.276538
591.078937	2666.770385
591.431090	2646.605769
591.783188	2661.729231
592.135232	2553.344423
592.487222	2694.496731
592.839157	2613.838269
593.191038	2644.085192
593.542866	2586.111923
593.894639	2676.852692
594.246358	2646.605769
594.598022	2616.358846
594.949633	2681.893846
595.301190	2664.249808
595.652692	2588.632500
596.004141	2603.755962
596.355535	2634.002885
596.706876	2707.099615
597.058162	2560.906154
597.409395	2649.126346
597.760573	2697.017308
598.111698	2671.811538
598.462768	2623.920577
598.813785	2601.235385
599.164748	2578.550192
599.515657	2644.085192
599.866511	2661.729231
600.217312	2671.811538
600.568060	2596.194231
600.918753	2679.373269
601.269392	2641.564615
601.619978	2611.317692
601.970510	2651.646923
602.320988	2558.385577
602.671412	2634.002885
603.021783	2611.317692
603.372100	2697.017308
603.722363	2626.441154
604.072572	2578.550192
604.422728	2616.358846
604.772830	2565.947308
605.122878	2613.838269
605.472872	2639.044038
605.822813	2669.290962
606.172701	2593.673654
606.522534	2573.509038
606.872314	2621.400000
607.222041	2588.632500
607.571714	2618.879423
607.921333	2651.646923
608.270899	2671.811538
608.620411	2661.729231
608.969870	2598.714808
609.319276	2583.591346
609.668627	2641.564615
610.017926	2681.893846
610.367171	2636.523462
610.716362	2608.797115
611.065500	2616.358846
611.414585	2651.646923
611.763616	2611.317692
612.112594	2709.620192
612.461518	2669.290962
612.810389	2664.249808
613.159207	2676.852692
613.507971	2616.358846
613.856682	2659.208654
614.205340	2664.249808
614.553945	2661.729231
614.902496	2654.167500
615.250994	2563.426731
615.599439	2608.797115
615.947830	2540.741538
616.296169	2641.564615
616.644454	2661.729231
616.992686	2616.358846
617.340864	2659.208654
617.688990	2581.070769
618.037063	2601.235385
618.385082	2601.235385
618.733048	2644.085192
619.080961	2623.920577
619.428821	2581.070769
619.776628	2616.358846
620.124382	2631.482308
620.472083	2606.276538
620.819731	2626.441154
621.167326	2606.276538
621.514868	2593.673654
621.862357	2601.235385
622.209793	2623.920577
622.557176	2613.838269
622.904506	2528.138654
623.251783	2611.317692
623.599007	2676.852692
623.946179	2616.358846
624.293297	2591.153077
624.640363	2533.179808
624.987376	2631.482308
625.334336	2558.385577
625.681243	2644.085192
626.028097	2570.988462
626.374899	2697.017308
626.721647	2646.605769
627.068343	2588.632500
627.414987	2530.659231
627.761577	2686.935000
628.108115	2593.673654
628.454600	2578.550192
628.801032	2654.167500
629.147412	2631.482308
629.493739	2654.167500
629.840014	2631.482308
630.186236	2628.961731
630.532405	2591.153077
630.878521	2666.770385
631.224585	2702.058462
631.570597	2626.441154
631.916556	2608.797115
632.262462	2651.646923
632.608316	2634.002885
632.954117	2651.646923
633.299866	2618.879423
633.645562	2598.714808
633.991206	2636.523462
634.336797	2560.906154
634.682336	2550.823846
635.027823	2634.002885
635.373257	2588.632500
635.718639	2634.002885
636.063968	2691.976154
636.409245	2641.564615
636.754470	2666.770385
637.099642	2623.920577
637.444762	2606.276538
637.789829	2601.235385
638.134845	2646.605769
638.479808	2603.755962
638.824719	2631.482308
639.169577	2623.920577
639.514383	2656.688077
639.859137	2659.208654
640.203839	2591.153077
640.548489	2641.564615
640.893086	2570.988462
641.237632	2543.262115
641.582125	2664.249808
641.926566	2671.811538
642.270955	2500.412308
642.615292	2530.659231
642.959576	2601.235385
643.303809	2646.605769
643.647990	2606.276538
643.992118	2611.317692
644.336195	2631.482308
644.680219	2485.288846
645.024192	2634.002885
645.368112	2734.825962
645.711981	2591.153077
646.055797	2671.811538
646.399562	2528.138654
646.743274	2581.070769
647.086935	2671.811538
647.430544	2621.400000
647.774101	2656.688077
648.117606	2623.920577
648.461059	2570.988462
648.804460	2586.111923
649.147810	2636.523462
649.491108	2659.208654
649.834354	2616.358846
650.177548	2646.605769
650.520690	2669.290962
650.863781	2573.509038
651.206820	2613.838269
651.549807	2628.961731
651.892742	2583.591346
652.235626	2518.056346
652.578458	2586.111923
652.921238	2596.194231
653.263967	2623.920577
653.606644	2545.782692
653.949269	2603.755962
654.291843	2669.290962
654.634365	2639.044038
654.976836	2581.070769
655.319255	2613.838269
655.661622	2666.770385
656.003938	2659.208654
656.346203	2639.044038
656.688416	2621.400000
657.030577	2621.400000
657.372687	2588.632500
657.714746	2669.290962
658.056753	2649.126346
658.398708	2641.564615
658.740612	2611.317692
659.082465	2588.632500
659.424266	2618.879423
659.766016	2644.085192
660.107715	2707.099615
660.449362	2681.893846
660.790958	2704.579038
661.132503	2709.620192
661.473996	2621.400000
661.815438	2603.755962
662.156829	2666.770385
662.498168	2636.523462
662.839456	2603.755962
663.180693	2656.688077
663.521879	2581.070769
663.863013	2623.920577
664.204097	2634.002885
664.545129	2651.646923
664.886110	2608.797115
665.227040	2651.646923
665.567918	2621.400000
665.908746	2550.823846
666.249522	2601.235385
666.590248	2659.208654
666.930922	2641.564615
667.271545	2555.865000
667.612118	2576.029615
667.952639	2591.153077
668.293109	2639.044038
668.633528	2666.770385
668.973896	2679.373269
669.314213	2558.385577
669.654480	2616.358846
669.994695	2654.167500
670.334859	2598.714808
670.674973	2558.385577
671.015035	2613.838269
671.355047	2598.714808
671.695008	2651.646923
672.034918	2679.373269
672.374777	2623.920577
672.714585	2545.782692
673.054342	2628.961731
673.394049	2591.153077
673.733705	2598.714808
674.073310	2681.893846
674.412864	2659.208654
674.752368	2644.085192
675.091820	2646.605769
675.431223	2568.467885
675.770574	2555.865000
676.109875	2598.714808
676.449125	2601.235385
676.788324	2679.373269
677.127473	2639.044038
677.466571	2664.249808
677.805619	2628.961731
678.144616	2646.605769
678.483562	2588.632500
678.822458	2679.373269
679.161303	2601.235385
679.500098	2664.249808
679.838842	2684.414423
680.177535	2593.673654
680.516179	2679.373269
680.854771	2606.276538
681.193314	2646.605769
681.531805	2651.646923
681.870247	2591.153077
682.208638	2623.920577
682.546978	2593.673654
682.885268	2588.632500
683.223508	2631.482308
683.561697	2636.523462
683.899836	2631.482308
684.237925	2596.194231
684.575963	2598.714808
684.913951	2676.852692
685.251889	2639.044038
685.589776	2606.276538
685.927614	2623.920577
686.265401	2518.056346
686.603137	2593.673654
686.940824	2634.002885
687.278460	2603.755962
687.616046	2616.358846
687.953582	2634.002885
688.291068	2681.893846
688.628504	2601.235385
688.965889	2661.729231
689.303224	2593.673654
689.640510	2621.400000
689.977745	2565.947308
690.314930	2691.976154
690.652065	2586.111923
690.989150	2641.564615
691.326185	2651.646923
691.663170	2634.002885
692.000105	2626.441154
692.336990	2603.755962
692.673825	2666.770385
693.010610	2626.441154
693.347345	2611.317692
693.684030	2598.714808
694.020665	2651.646923
694.357251	2659.208654
694.693786	2623.920577
695.030272	2601.235385
695.366707	2659.208654
695.703093	2656.688077
696.039429	2563.426731
696.375716	2515.535769
696.711952	2636.523462
697.048139	2608.797115
697.384276	2623.920577
697.720363	2596.194231
698.056400	2543.262115
698.392388	2634.002885
698.728326	2558.385577
699.064214	2681.893846
699.400053	2644.085192
699.735842	2686.935000
700.071581	2641.564615
700.407270	2588.632500
700.742910	2596.194231
701.078501	2535.700385
701.414042	2634.002885
701.749533	2661.729231
702.084974	2613.838269
702.420366	2679.373269
702.755709	2618.879423
703.091002	2681.893846
703.426246	2646.605769
703.761440	2646.605769
704.096584	2598.714808
704.431679	2603.755962
704.766725	2641.564615
705.101721	2659.208654
705.436668	2674.332115
705.771565	2628.961731
706.106413	2616.358846
706.441212	2535.700385
706.775961	2578.550192
707.110661	2586.111923
707.445311	2507.974038
707.779913	2583.591346
708.114465	2568.467885
708.448967	2613.838269
708.783421	2664.249808
709.117825	2603.755962
709.452180	2611.317692
709.786485	2603.755962
710.120742	2581.070769
710.454949	2565.947308
710.789107	2555.865000
711.123216	2646.605769
711.457275	2631.482308
711.791286	2641.564615
712.125247	2694.496731
712.459159	2598.714808
712.793023	2639.044038
713.126837	2681.893846
713.460602	2616.358846
713.794318	2621.400000
714.127985	2628.961731
714.461602	2578.550192
714.795171	2646.605769
715.128691	2704.579038
715.462162	2646.605769
715.795584	2664.249808
716.128957	2618.879423
716.462281	2593.673654
716.795556	2626.441154
717.128782	2608.797115
717.461960	2576.029615
717.795088	2593.673654
718.128167	2560.906154
718.461198	2704.579038
718.794180	2664.249808
719.127113	2623.920577
719.459997	2520.576923
719.792833	2661.729231
720.125619	2621.400000
720.458357	2586.111923
720.791046	2535.700385
721.123686	2621.400000
721.456278	2661.729231
721.788821	2616.358846
722.121315	2583.591346
722.453761	2593.673654
722.786158	2717.181923
723.118506	2661.729231
723.450805	2613.838269
723.783056	2631.482308
724.115259	2631.482308
724.447412	2639.044038
724.779518	2570.988462
725.111574	2581.070769
725.443582	2681.893846
725.775542	2671.811538
726.107453	2578.550192
726.439315	2656.688077
726.771129	2656.688077
727.102895	2586.111923
727.434612	2626.441154
727.766281	2553.344423
728.097901	2573.509038
728.429473	2558.385577
728.760996	2634.002885
729.092471	2608.797115
729.423897	2555.865000
729.755276	2596.194231
730.086606	2568.467885
730.417887	2646.605769
730.749120	2649.126346
731.080305	2694.496731
731.411442	2628.961731
731.742530	2573.509038
732.073570	2689.455577
732.404562	2628.961731
732.735506	2661.729231
733.066401	2639.044038
733.397249	2591.153077
733.728048	2634.002885
734.058798	2634.002885
734.389501	2606.276538
734.720156	2598.714808
735.050762	2631.482308
735.381320	2671.811538
735.711831	2606.276538
736.042293	2639.044038
736.372707	2573.509038
736.703073	2626.441154
737.033391	2641.564615
737.363661	2618.879423
737.693883	2679.373269
738.024056	2606.276538
738.354182	2563.426731
738.684260	2626.441154
739.014290	2613.838269
739.344272	2644.085192
739.674207	2618.879423
740.004093	2606.276538
740.333931	2669.290962
740.663722	2631.482308
740.993464	2626.441154
741.323159	2623.920577
741.652806	2644.085192
741.982405	2654.167500
742.311956	2576.029615
742.641460	2654.167500
742.970915	2626.441154
743.300323	2581.070769
743.629683	2707.099615
743.958996	2649.126346
744.288260	2661.729231
744.617477	2623.920577
744.946647	2586.111923
745.275768	2573.509038
745.604842	2684.414423
745.933869	2636.523462
746.262847	2611.317692
746.591778	2649.126346
746.920662	2636.523462
747.249498	2591.153077
747.578286	2603.755962
747.907027	2601.235385
748.235720	2608.797115
748.564365	2613.838269
748.892963	2596.194231
749.221514	2550.823846
749.550017	2591.153077
749.878473	2598.714808
750.206881	2651.646923
750.535242	2634.002885
750.863555	2581.070769
751.191821	2626.441154
751.520039	2639.044038
751.848210	2681.893846
752.176334	2555.865000
752.504411	2565.947308
752.832440	2618.879423
753.160421	2578.550192
753.488356	2626.441154
753.816243	2644.085192
754.144082	2578.550192
754.471875	2618.879423
754.799620	2583.591346
755.127318	2603.755962
755.454969	2570.988462
755.782572	2639.044038
756.110129	2654.167500
756.437638	2621.400000
756.765100	2616.358846
757.092515	2616.358846
757.419882	2598.714808
757.747203	2656.688077
758.074477	2641.564615
758.401703	2623.920577
758.728882	2603.755962
759.056014	2679.373269
759.383099	2628.961731
759.710138	2606.276538
760.037129	2621.400000
760.364073	2616.358846
760.690970	2608.797115
761.017820	2623.920577
761.344623	2598.714808
761.671379	2586.111923
761.998088	2618.879423
762.324751	2634.002885
762.651366	2651.646923
762.977935	2623.920577
763.304456	2679.373269
763.630931	2669.290962
763.957359	2686.935000
764.283740	2691.976154
764.610074	2641.564615
764.936362	2618.879423
765.262602	2593.673654
765.588796	2543.262115
765.914943	2621.400000
766.241044	2591.153077
766.567097	2573.509038
766.893104	2641.564615
767.219064	2591.153077
767.544978	2646.605769
767.870845	2576.029615
768.196665	2737.346538
768.522438	2676.852692
768.848165	2565.947308
769.173846	2674.332115
769.499479	2603.755962
769.825066	2644.085192
770.150607	2613.838269
770.476101	2613.838269
770.801548	2581.070769
771.126949	2560.906154
771.452303	2611.317692
771.777611	2651.646923
772.102872	2565.947308
772.428087	2565.947308
772.753256	2616.358846
773.078378	2621.400000
773.403453	2596.194231
773.728482	2618.879423
774.053465	2568.467885
774.378401	2719.702500
774.703291	2621.400000
775.028135	2664.249808
775.352932	2583.591346
775.677683	2659.208654
776.002388	2729.784808
776.327046	2570.988462
776.651658	2621.400000
776.976224	2621.400000
777.300743	2588.632500
777.625216	2628.961731
777.949643	2626.441154
778.274024	2586.111923
778.598359	2697.017308
778.922647	2538.220962
779.246889	2603.755962
779.571086	2613.838269
779.895236	2553.344423
780.219339	2583.591346
780.543397	2598.714808
780.867409	2606.276538
781.191374	2591.153077
781.515294	2606.276538
781.839167	2631.482308
782.162995	2603.755962
782.486776	2563.426731
782.810511	2560.906154
783.134201	2613.838269
783.457844	2616.358846
783.781441	2621.400000
784.104993	2540.741538
784.428498	2651.646923
784.751958	2621.400000
785.075372	2593.673654
785.398739	2576.029615
785.722061	2596.194231
786.045337	2686.935000
786.368568	2591.153077
786.691752	2520.576923
787.014891	2573.509038
787.337983	2568.467885
787.661030	2674.332115
787.984031	2550.823846
788.306987	2656.688077
788.629897	2606.276538
788.952760	2593.673654
789.275579	2636.523462
789.598351	2611.317692
789.921078	2709.620192
790.243759	2598.714808
790.566395	2581.070769
790.888984	2538.220962
791.211529	2535.700385
791.534027	2593.673654
791.856480	2518.056346
792.178888	2646.605769
792.501249	2654.167500
792.823566	2623.920577
793.145836	2641.564615
793.468062	2613.838269
793.790241	2573.509038
794.112375	2671.811538
794.434464	2601.235385
794.756507	2525.618077
795.078505	2636.523462
795.400457	2606.276538
795.722364	2591.153077
796.044226	2555.865000
796.366042	2538.220962
796.687812	2613.838269
797.009538	2543.262115
797.331218	2596.194231
797.652852	2649.126346
797.974442	2598.714808
798.295986	2636.523462
798.617484	2545.782692
798.938938	2739.867115
799.260346	2528.138654
799.581709	2568.467885
799.903026	2613.838269
800.224299	2613.838269
800.545526	2608.797115
800.866708	2679.373269
801.187845	2578.550192
801.508936	2616.358846
801.829983	2621.400000
802.150984	2644.085192
802.471940	2603.755962
802.792851	2644.085192
803.113717	2699.537885
803.434538	2555.865000
803.755314	2717.181923
804.076045	2651.646923
804.396731	2646.605769
804.717372	2553.344423
805.037967	2613.838269
805.358518	2558.385577
805.679024	2576.029615
805.999485	2639.044038
806.319901	2565.947308
806.640272	2606.276538
806.960598	2654.167500
807.280879	2603.755962
807.601115	2588.632500
807.921306	2623.920577
808.241453	2593.673654
808.561554	2586.111923
808.881611	2671.811538
809.201623	2654.167500
809.521590	2550.823846
809.841513	2616.358846
810.161390	2674.332115
810.481223	2641.564615
810.801011	2611.317692
811.120755	2601.235385
811.440453	2588.632500
811.760107	2621.400000
812.079716	2555.865000
812.399281	2565.947308
812.718801	2520.576923
813.038276	2654.167500
813.357707	2596.194231
813.677093	2598.714808
813.996434	2634.002885
814.315731	2621.400000
814.634983	2555.865000
814.954191	2679.373269
815.273354	2578.550192
815.592473	2586.111923
815.911547	2586.111923
816.230577	2578.550192
816.549562	2553.344423
816.868502	2563.426731
817.187399	2669.290962
817.506250	2568.467885
817.825058	2644.085192
818.143821	2606.276538
818.462539	2550.823846
818.781213	2659.208654
819.099843	2583.591346
819.418429	2666.770385
819.736970	2497.891731
820.055466	2540.741538
820.373919	2568.467885
820.692327	2520.576923
821.010691	2659.208654
821.329011	2563.426731
821.647286	2616.358846
821.965517	2704.579038
822.283704	2702.058462
822.601847	2649.126346
822.919945	2686.935000
823.237999	2608.797115
823.556010	2651.646923
823.873976	2621.400000
824.191897	2659.208654
824.509775	2644.085192
824.827609	2598.714808
825.145398	2636.523462
825.463144	2581.070769
825.780845	2613.838269
826.098502	2661.729231
826.416116	2664.249808
826.733685	2669.290962
827.051210	2666.770385
827.368692	2676.852692
827.686129	2671.811538
828.003522	2611.317692
828.320872	2644.085192
828.638177	2623.920577
828.955439	2533.179808
829.272656	2565.947308
829.589830	2636.523462
829.906960	2550.823846
830.224046	2601.235385
830.541088	2601.235385
830.858086	2583.591346
831.175041	2588.632500
831.491952	2606.276538
831.808819	2621.400000
832.125642	2646.605769
832.442421	2586.111923
832.759157	2603.755962
833.075849	2654.167500
833.392497	2676.852692
833.709101	2654.167500
834.025662	2543.262115
834.342179	2631.482308
834.658653	2631.482308
834.975083	2674.332115
835.291469	2631.482308
835.607811	2656.688077
835.924110	2565.947308
836.240366	2601.235385
836.556578	2601.235385
836.872746	2555.865000
837.188871	2623.920577
837.504952	2492.850577
837.820990	2535.700385
838.136984	2601.235385
838.452935	2664.249808
838.768842	2576.029615
839.084706	2555.865000
839.400526	2608.797115
839.716303	2606.276538
840.032037	2651.646923
840.347727	2598.714808
840.663373	2588.632500
840.978977	2578.550192
841.294537	2583.591346
841.610054	2576.029615
841.925527	2538.220962
842.240957	2608.797115
842.556344	2634.002885
842.871687	2601.235385
843.186987	2598.714808
843.502244	2613.838269
843.817458	2639.044038
844.132629	2636.523462
844.447756	2636.523462
844.762840	2598.714808
845.077881	2515.535769
845.392879	2659.208654
845.707833	2578.550192
846.022745	2573.509038
846.337613	2533.179808
846.652438	2628.961731
846.967221	2603.755962
847.281960	2628.961731
847.596656	2606.276538
847.911309	2591.153077
848.225919	2623.920577
848.540485	2545.782692
848.855009	2588.632500
849.169490	2714.661346
849.483928	2641.564615
849.798323	2581.070769
850.112675	2578.550192
850.426984	2649.126346
850.741251	2601.235385
851.055474	2626.441154
851.369654	2651.646923
851.683792	2618.879423
851.997887	2639.044038
852.311938	2626.441154
852.625947	2649.126346
852.939914	2591.153077
853.253837	2502.932885
853.567718	2598.714808
853.881555	2518.056346
854.195350	2623.920577
854.509103	2555.865000
854.822812	2636.523462
855.136479	2553.344423
855.450103	2588.632500
855.763685	2621.400000
856.077224	2628.961731
856.390720	2553.344423
856.704173	2651.646923
857.017584	2553.344423
857.330953	2641.564615
857.644278	2649.126346
857.957561	2666.770385
858.270802	2601.235385
858.584000	2520.576923
858.897155	2626.441154
859.210268	2563.426731
859.523339	2659.208654
859.836367	2601.235385
860.149352	2691.976154
860.462295	2639.044038
860.775195	2570.988462
861.088054	2588.632500
861.400869	2576.029615
861.713642	2555.865000
862.026373	2628.961731
862.339062	2616.358846
862.651708	2603.755962
862.964312	2583.591346
863.276873	2553.344423
863.589392	2558.385577
863.901869	2634.002885
864.214303	2636.523462
864.526696	2651.646923
864.839045	2581.070769
865.151353	2598.714808
865.463619	2631.482308
865.775842	2598.714808
866.088023	2636.523462
866.400162	2570.988462
866.712258	2593.673654
867.024313	2596.194231
867.336325	2628.961731
867.648296	2689.455577
867.960224	2621.400000
868.272110	2586.111923
868.583954	2573.509038
868.895755	2568.467885
869.207515	2669.290962
869.519233	2550.823846
869.830909	2492.850577
870.142542	2510.494615
870.454134	2613.838269
870.765684	2558.385577
871.077191	2621.400000
871.388657	2560.906154
871.700081	2626.441154
872.011463	2565.947308
872.322803	2538.220962
872.634101	2570.988462
872.945357	2535.700385
873.256571	2659.208654
873.567744	2573.509038
873.878874	2578.550192
874.189963	2601.235385
874.501010	2513.015192
874.812015	2603.755962
875.122979	2626.441154
875.433900	2623.920577
875.744780	2631.482308
876.055618	2565.947308
876.366415	2525.618077
876.677169	2593.673654
876.987882	2651.646923
877.298554	2636.523462
877.609183	2644.085192
877.919771	2538.220962
878.230317	2646.605769
878.540822	2596.194231
878.851285	2563.426731
879.161707	2651.646923
879.472087	2603.755962
879.782425	2588.632500
880.092722	2669.290962
880.402977	2626.441154
880.713191	2626.441154
881.023363	2591.153077
881.333494	2689.455577
881.643583	2664.249808
881.953631	2714.661346
882.263637	2649.126346
882.573602	2565.947308
882.883526	2608.797115
883.193408	2550.823846
883.503248	2586.111923
883.813048	2644.085192
884.122806	2608.797115
884.432522	2639.044038
884.742197	2611.317692
885.051831	2618.879423
885.361424	2570.988462
885.670975	2613.838269
885.980485	2573.509038
886.289954	2621.400000
886.599382	2543.262115
886.908768	2641.564615
887.218113	2560.906154
887.527417	2656.688077
887.836680	2591.153077
888.145901	2586.111923
888.455082	2540.741538
888.764221	2596.194231
889.073319	2588.632500
889.382376	2601.235385
889.691392	2603.755962
890.000366	2621.400000
890.309300	2639.044038
890.618193	2674.332115
890.927044	2480.247692
891.235855	2606.276538
891.544625	2666.770385
891.853353	2598.714808
892.162041	2560.906154
892.470687	2676.852692
892.779293	2513.015192
893.087858	2598.714808
893.396381	2628.961731
893.704864	2616.358846
894.013306	2578.550192
894.321707	2601.235385
894.630068	2598.714808
894.938387	2674.332115
895.246665	2583.591346
895.554903	2694.496731
895.863100	2626.441154
896.171256	2568.467885
896.479371	2530.659231
896.787446	2641.564615
897.095480	2611.317692
897.403473	2608.797115
897.711425	2628.961731
898.019336	2545.782692
898.327207	2641.564615
898.635038	2530.659231
898.942827	2644.085192
899.250576	2538.220962
899.558284	2573.509038
899.865952	2530.659231
900.173579	2606.276538
900.481165	2570.988462
900.788711	2639.044038
901.096216	2621.400000
901.403681	2606.276538
901.711105	2684.414423
902.018489	2646.605769
902.325832	2563.426731
902.633135	2591.153077
902.940397	2593.673654
903.247619	2505.453462
903.554800	2603.755962
903.861941	2581.070769
904.169041	2570.988462
904.476101	2631.482308
904.783121	2563.426731
905.090100	2601.235385
905.397039	2611.317692
905.703938	2550.823846
906.010796	2601.235385
906.317614	2555.865000
906.624391	2676.852692
906.931129	2485.288846
907.237826	2596.194231
907.544483	2601.235385
907.851099	2563.426731
908.157675	2593.673654
908.464211	2583.591346
908.770707	2543.262115
909.077163	2621.400000
909.383578	2535.700385
909.689954	2651.646923
909.996289	2530.659231
910.302584	2586.111923
910.608839	2636.523462
910.915054	2563.426731
911.221229	2596.194231
911.527363	2666.770385
911.833458	2558.385577
912.139513	2618.879423
912.445527	2525.618077
912.751502	2628.961731
913.057436	2533.179808
913.363331	2563.426731
913.669186	2563.426731
913.975000	2649.126346
914.280775	2613.838269
914.586510	2601.235385
914.892205	2641.564615
915.197859	2535.700385
915.503475	2669.290962
915.809050	2596.194231
916.114585	2631.482308
916.420081	2666.770385
916.725536	2548.303269
917.030952	2608.797115
917.336328	2593.673654
917.641665	2606.276538
917.946961	2548.303269
918.252218	2568.467885
918.557435	2634.002885
918.862612	2576.029615
919.167750	2588.632500
919.472848	2608.797115
919.777906	2573.509038
920.082925	2601.235385
920.387904	2533.179808
920.692843	2613.838269
920.997743	2618.879423
921.302603	2626.441154
921.607423	2631.482308
921.912204	2591.153077
922.216946	2641.564615
922.521647	2583.591346
922.826310	2634.002885
923.130932	2596.194231
923.435516	2606.276538
923.740059	2641.564615
924.044564	2540.741538
924.349028	2525.618077
924.653454	2598.714808
924.957840	2573.509038
925.262186	2591.153077
925.566493	2636.523462
925.870761	2578.550192
926.174989	2573.509038
926.479178	2671.811538
926.783328	2601.235385
927.087438	2543.262115
927.391509	2598.714808
927.695541	2570.988462
927.999533	2601.235385
928.303486	2515.535769
928.607400	2631.482308
928.911275	2583.591346
929.215110	2535.700385
929.518906	2586.111923
929.822663	2553.344423
930.126381	2601.235385
930.430060	2606.276538
930.733699	2623.920577
931.037299	2679.373269
931.340861	2631.482308
931.644383	2596.194231
931.947866	2613.838269
932.251309	2555.865000
932.554714	2543.262115
932.858080	2616.358846
933.161407	2553.344423
933.464694	2560.906154
933.767943	2608.797115
934.071153	2631.482308
934.374323	2578.550192
934.677455	2616.358846
934.980548	2565.947308
935.283602	2558.385577
935.586617	2586.111923
935.889593	2628.961731
936.192530	2533.179808
936.495428	2548.303269
936.798287	2613.838269
937.101108	2578.550192
937.403890	2649.126346
937.706632	2601.235385
938.009336	2654.167500
938.312002	2611.317692
938.614628	2553.344423
938.917216	2644.085192
939.219765	2621.400000
939.522275	2530.659231
939.824747	2591.153077
940.127179	2616.358846
940.429573	2606.276538
940.731929	2596.194231
941.034246	2560.906154
941.336524	2676.852692
941.638763	2644.085192
941.940964	2507.974038
942.243126	2538.220962
942.545250	2586.111923
942.847335	2573.509038
943.149381	2636.523462
943.451389	2513.015192
943.753359	2543.262115
944.055290	2608.797115
944.357182	2586.111923
944.659036	2623.920577
944.960851	2581.070769
945.262628	2606.276538
945.564367	2659.208654
945.866067	2639.044038
946.167729	2596.194231
946.469352	2606.276538
946.770937	2654.167500
947.072484	2654.167500
947.373992	2553.344423
947.675462	2623.920577
947.976893	2578.550192
948.278286	2591.153077
948.579641	2500.412308
948.880958	2626.441154
949.182236	2641.564615
949.483476	2563.426731
949.784678	2596.194231
950.085841	2681.893846
950.386967	2608.797115
950.688054	2565.947308
950.989103	2581.070769
951.290114	2639.044038
951.591087	2621.400000
951.892021	2628.961731
952.192917	2563.426731
952.493776	2621.400000
952.794596	2588.632500
953.095378	2626.441154
953.396122	2573.509038
953.696828	2641.564615
953.997496	2581.070769
954.298126	2639.044038
954.598718	2603.755962
954.899272	2596.194231
955.199788	2616.358846
955.500266	2596.194231
955.800706	2598.714808
956.101108	2576.029615
956.401472	2538.220962
956.701798	2598.714808
957.002087	2613.838269
957.302337	2578.550192
957.602550	2568.467885
957.902724	2568.467885
958.202861	2573.509038
958.502960	2591.153077
958.803022	2613.838269
959.103045	2639.044038
959.403031	2649.126346
959.702979	2510.494615
960.002889	2596.194231
960.302762	2591.153077
960.602596	2482.768269
960.902393	2472.685962
961.202153	2525.618077
961.501875	2623.920577
961.801559	2586.111923
962.101205	2671.811538
962.400814	2616.358846
962.700385	2618.879423
962.999918	2505.453462
963.299414	2558.385577
963.598873	2550.823846
963.898293	2548.303269
964.197677	2578.550192
964.497022	2583.591346
964.796331	2634.002885
965.095601	2591.153077
965.394835	2583.591346
965.694030	2553.344423
965.993189	2702.058462
966.292309	2606.276538
966.591393	2586.111923
966.890439	2591.153077
967.189447	2565.947308
967.488419	2611.317692
967.787353	2553.344423
968.086249	2598.714808
968.385108	2611.317692
968.683930	2644.085192
968.982714	2601.235385
969.281462	2535.700385
969.580172	2583.591346
969.878844	2444.959615
970.177480	2611.317692
970.476078	2545.782692
970.774639	2568.467885
971.073162	2576.029615
971.371649	2563.426731
971.670098	2570.988462
971.968510	2628.961731
972.266885	2588.632500
972.565223	2608.797115
972.863524	2681.893846
973.161788	2570.988462
973.460014	2487.809423
973.758204	2608.797115
974.056356	2533.179808
974.354471	2535.700385
974.652550	2576.029615
974.950591	2649.126346
975.248595	2689.455577
975.546563	2520.576923
975.844493	2563.426731
976.142386	2588.632500
976.440243	2613.838269
976.738062	2563.426731
977.035845	2611.317692
977.333590	2606.276538
977.631299	2543.262115
977.928971	2591.153077
978.226606	2671.811538
978.524204	2626.441154
978.821765	2452.521346
979.119290	2601.235385
979.416777	2570.988462
979.714228	2550.823846
980.011642	2618.879423
980.309020	2550.823846
980.606360	2626.441154
980.903664	2555.865000
981.200931	2666.770385
981.498162	2593.673654
981.795356	2586.111923
982.092513	2664.249808
982.389633	2583.591346
982.686717	2649.126346
982.983764	2515.535769
983.280775	2639.044038
983.577749	2570.988462
983.874686	2631.482308
984.171587	2618.879423
984.468451	2558.385577
984.765279	2654.167500
985.062070	2641.564615
985.358824	2545.782692
985.655543	2608.797115
985.952224	2593.673654
986.248869	2596.194231
986.545478	2591.153077
986.842050	2497.891731
987.138586	2553.344423
987.435086	2616.358846
987.731549	2593.673654
988.027975	2601.235385
988.324366	2558.385577
988.620719	2550.823846
988.917037	2507.974038
989.213318	2636.523462
989.509563	2560.906154
989.805772	2563.426731
990.101944	2591.153077
990.398080	2573.509038
990.694180	2558.385577
990.990244	2540.741538
991.286271	2616.358846
991.582262	2591.153077
991.878217	2535.700385
992.174136	2613.838269
992.470019	2666.770385
992.765865	2608.797115
993.061676	2550.823846
993.357450	2593.673654
993.653188	2611.317692
993.948890	2613.838269
994.244556	2573.509038
994.540186	2475.206538
994.835780	2626.441154
995.131337	2525.618077
995.426859	2550.823846
995.722345	2596.194231
996.017795	2588.632500
996.313208	2583.591346
996.608586	2553.344423
996.903928	2616.358846
997.199234	2573.509038
997.494504	2628.961731
997.789738	2621.400000
998.084936	2510.494615
998.380099	2482.768269
998.675225	2611.317692
998.970316	2462.603654
999.265371	2626.441154
999.560390	2686.935000
999.855373	2611.317692
1000.150320	2601.235385
1000.445232	2565.947308
1000.740108	2598.714808
1001.034948	2533.179808
1001.329752	2651.646923
1001.624521	2611.317692
1001.919254	2664.249808
1002.213951	2558.385577
1002.508613	2535.700385
1002.803239	2555.865000
1003.097829	2550.823846
1003.392384	2576.029615
1003.686903	2598.714808
1003.981386	2623.920577
1004.275834	2563.426731
1004.570246	2586.111923
1004.864623	2603.755962
1005.158964	2528.138654
1005.453270	2586.111923
1005.747540	2601.235385
1006.041775	2674.332115
1006.335974	2596.194231
1006.630138	2644.085192
1006.924266	2608.797115
1007.218359	2570.988462
1007.512416	2525.618077
1007.806438	2543.262115
1008.100425	2570.988462
1008.394376	2578.550192
1008.688292	2631.482308
1008.982172	2634.002885
1009.276017	2591.153077
1009.569827	2500.412308
1009.863602	2608.797115
1010.157341	2666.770385
1010.451045	2646.605769
1010.744714	2631.482308
1011.038347	2515.535769
1011.331945	2608.797115
1011.625508	2634.002885
1011.919036	2628.961731
1012.212528	2596.194231
1012.505986	2523.097500
1012.799408	2618.879423
1013.092795	2586.111923
1013.386147	2563.426731
1013.679464	2644.085192
1013.972745	2530.659231
1014.265992	2533.179808
1014.559204	2528.138654
1014.852380	2515.535769
1015.145521	2606.276538
1015.438628	2646.605769
1015.731699	2550.823846
1016.024736	2518.056346
1016.317737	2603.755962
1016.610703	2634.002885
1016.903635	2654.167500
1017.196531	2631.482308
1017.489393	2598.714808
1017.782219	2596.194231
1018.075011	2606.276538
1018.367768	2636.523462
1018.660490	2555.865000
1018.953177	2555.865000
1019.245829	2555.865000
