Dividing Wavelength (nm)	Counts (n)	Blue Motor Position (mm): 0.000000	Red Motor Position (mm): 8.600000	
326.493990	2076.955385
326.888308	2076.955385
327.282561	2076.955385
327.676750	2147.531538
328.070874	2074.434808
328.464933	2076.955385
328.858929	2114.764038
329.252859	2094.599423
329.646726	2152.572692
330.040528	2104.681731
330.434265	1991.255769
330.827938	2124.846346
331.221547	2175.257885
331.615091	2195.422500
332.008571	2160.134423
332.401986	2210.545962
332.795338	2230.710577
333.188625	2185.340192
333.581847	2195.422500
333.975006	2323.971923
334.368100	2273.560385
334.761129	2354.218846
335.154095	2331.533654
335.546996	2371.862885
335.939833	2356.739423
336.332606	2407.150962
336.725315	2346.657115
337.117960	2359.260000
337.510540	2379.424615
337.903056	2417.233269
338.295508	2523.097500
338.687896	2397.068654
339.080220	2555.865000
339.472480	2434.877308
339.864676	2467.644808
340.256807	2444.959615
340.648875	2492.850577
341.040879	2573.509038
341.432818	2402.109808
341.824694	2422.274423
342.216506	2462.603654
342.608253	2510.494615
342.999937	2455.041923
343.391557	2414.712692
343.783113	2460.083077
344.174605	2399.589231
344.566033	2465.124231
344.957397	2593.673654
345.348697	2472.685962
345.739934	2550.823846
346.131106	2460.083077
346.522215	2447.480192
346.913260	2515.535769
347.304241	2490.330000
347.695159	2495.371154
348.086012	2439.918462
348.476802	2477.727115
348.867528	2376.904038
349.258191	2540.741538
349.648789	2432.356731
350.039324	2560.906154
350.429796	2397.068654
350.820203	2497.891731
351.210548	2525.618077
351.600828	2500.412308
351.991045	2409.671538
352.381198	2497.891731
352.771288	2432.356731
353.161314	2497.891731
353.551276	2404.630385
353.941175	2394.548077
354.331010	2452.521346
354.720782	2515.535769
355.110490	2432.356731
355.500135	2553.344423
355.889717	2366.821731
356.279235	2424.795000
356.668689	2482.768269
357.058080	2429.836154
357.447408	2515.535769
357.836672	2376.904038
358.225873	2472.685962
358.615010	2409.671538
359.004084	2480.247692
359.393095	2442.439038
359.782043	2462.603654
360.170927	2389.506923
360.559748	2399.589231
360.948505	2515.535769
361.337199	2555.865000
361.725830	2399.589231
362.114398	2424.795000
362.502903	2389.506923
362.891344	2543.262115
363.279722	2477.727115
363.668037	2399.589231
364.056289	2487.809423
364.444478	2424.795000
364.832603	2480.247692
365.220665	2477.727115
365.608665	2450.000769
365.996601	2497.891731
366.384474	2513.015192
366.772284	2465.124231
367.160031	2502.932885
367.547715	2429.836154
367.935336	2407.150962
368.322893	2414.712692
368.710388	2417.233269
369.097820	2465.124231
369.485189	2389.506923
369.872495	2412.192115
370.259738	2437.397885
370.646918	2518.056346
371.034035	2452.521346
371.421090	2374.383462
371.808081	2485.288846
372.195010	2507.974038
372.581875	2462.603654
372.968678	2374.383462
373.355418	2518.056346
373.742096	2417.233269
374.128710	2472.685962
374.515262	2429.836154
374.901751	2462.603654
375.288177	2442.439038
375.674540	2492.850577
376.060841	2444.959615
376.447079	2555.865000
376.833254	2369.342308
377.219367	2389.506923
377.605417	2475.206538
377.991404	2442.439038
378.377329	2523.097500
378.763191	2465.124231
379.148991	2540.741538
379.534727	2467.644808
379.920402	2495.371154
380.306013	2424.795000
380.691563	2452.521346
381.077049	2470.165385
381.462474	2427.315577
381.847835	2417.233269
382.233134	2462.603654
382.618371	2429.836154
383.003545	2490.330000
383.388657	2452.521346
383.773706	2497.891731
384.158693	2465.124231
384.543618	2450.000769
384.928480	2460.083077
385.313280	2515.535769
385.698017	2462.603654
386.082692	2427.315577
386.467305	2455.041923
386.851856	2505.453462
387.236344	2427.315577
387.620770	2475.206538
388.005133	2472.685962
388.389435	2427.315577
388.773674	2472.685962
389.157851	2402.109808
389.541965	2442.439038
389.926018	2434.877308
390.310008	2432.356731
390.693936	2475.206538
391.077802	2510.494615
391.461606	2399.589231
391.845348	2417.233269
392.229027	2500.412308
392.612645	2533.179808
392.996200	2505.453462
393.379694	2470.165385
393.763125	2427.315577
394.146494	2475.206538
394.529801	2419.753846
394.913047	2477.727115
395.296230	2439.918462
395.679351	2507.974038
396.062410	2467.644808
396.445408	2409.671538
396.828343	2497.891731
397.211217	2460.083077
397.594028	2487.809423
397.976778	2482.768269
398.359466	2419.753846
398.742092	2447.480192
399.124656	2510.494615
399.507158	2442.439038
399.889598	2485.288846
400.271977	2455.041923
400.654294	2447.480192
401.036549	2485.288846
401.418742	2465.124231
401.800874	2427.315577
402.182944	2502.932885
402.564952	2457.562500
402.946898	2518.056346
403.328783	2477.727115
403.710606	2452.521346
404.092367	2530.659231
404.474067	2497.891731
404.855705	2487.809423
405.237282	2598.714808
405.618797	2500.412308
406.000250	2409.671538
406.381642	2513.015192
406.762972	2427.315577
407.144240	2457.562500
407.525447	2485.288846
407.906593	2465.124231
408.287677	2465.124231
408.668700	2482.768269
409.049661	2462.603654
409.430560	2447.480192
409.811399	2467.644808
410.192176	2467.644808
410.572891	2540.741538
410.953545	2475.206538
411.334138	2477.727115
411.714669	2492.850577
412.095139	2432.356731
412.475547	2470.165385
412.855894	2447.480192
413.236180	2422.274423
413.616405	2570.988462
413.996568	2389.506923
414.376670	2520.576923
414.756711	2553.344423
415.136691	2500.412308
415.516609	2460.083077
415.896466	2460.083077
416.276262	2434.877308
416.655997	2495.371154
417.035670	2419.753846
417.415283	2470.165385
417.794834	2495.371154
418.174324	2523.097500
418.553753	2553.344423
418.933121	2439.918462
419.312428	2525.618077
419.691674	2386.986346
420.070859	2475.206538
420.449983	2450.000769
420.829045	2460.083077
421.208047	2523.097500
421.586988	2427.315577
421.965867	2497.891731
422.344686	2510.494615
422.723444	2505.453462
423.102141	2404.630385
423.480777	2518.056346
423.859352	2407.150962
424.237866	2495.371154
424.616319	2412.192115
424.994712	2452.521346
425.373044	2457.562500
425.751314	2492.850577
426.129524	2437.397885
426.507673	2424.795000
426.885762	2505.453462
427.263789	2502.932885
427.641756	2460.083077
428.019662	2442.439038
428.397508	2452.521346
428.775292	2472.685962
429.153016	2399.589231
429.530679	2379.424615
429.908282	2510.494615
430.285824	2450.000769
430.663305	2434.877308
431.040726	2535.700385
431.418086	2505.453462
431.795385	2530.659231
432.172624	2455.041923
432.549802	2437.397885
432.926920	2452.521346
433.303977	2523.097500
433.680974	2596.194231
434.057910	2538.220962
434.434786	2513.015192
434.811601	2455.041923
435.188355	2490.330000
435.565050	2392.027500
435.941683	2563.426731
436.318257	2439.918462
436.694770	2467.644808
437.071222	2444.959615
437.447614	2535.700385
437.823946	2465.124231
438.200218	2475.206538
438.576429	2457.562500
438.952580	2603.755962
439.328670	2472.685962
439.704700	2462.603654
440.080670	2492.850577
440.456580	2437.397885
440.832429	2434.877308
441.208218	2495.371154
441.583947	2500.412308
441.959616	2465.124231
442.335224	2402.109808
442.710773	2467.644808
443.086261	2518.056346
443.461689	2480.247692
443.837057	2548.303269
444.212365	2460.083077
444.587612	2507.974038
444.962800	2543.262115
445.337927	2510.494615
445.712995	2492.850577
446.088002	2404.630385
446.462949	2548.303269
446.837837	2475.206538
447.212664	2510.494615
447.587431	2439.918462
447.962139	2553.344423
448.336786	2538.220962
448.711374	2523.097500
449.085901	2419.753846
449.460369	2550.823846
449.834776	2379.424615
450.209124	2588.632500
450.583412	2429.836154
450.957640	2460.083077
451.331808	2555.865000
451.705917	2475.206538
452.079965	2528.138654
452.453954	2560.906154
452.827883	2429.836154
453.201752	2492.850577
453.575562	2568.467885
453.949311	2543.262115
454.323001	2450.000769
454.696632	2490.330000
455.070202	2490.330000
455.443713	2402.109808
455.817164	2530.659231
456.190556	2530.659231
456.563888	2550.823846
456.937160	2505.453462
457.310373	2535.700385
457.683526	2460.083077
458.056619	2545.782692
458.429653	2490.330000
458.802628	2518.056346
459.175542	2467.644808
459.548398	2475.206538
459.921194	2472.685962
460.293930	2591.153077
460.666607	2432.356731
461.039224	2533.179808
461.411782	2472.685962
461.784280	2530.659231
462.156719	2444.959615
462.529099	2586.111923
462.901419	2419.753846
463.273680	2545.782692
463.645882	2444.959615
464.018024	2497.891731
464.390106	2477.727115
464.762130	2505.453462
465.134094	2533.179808
465.505999	2442.439038
465.877845	2467.644808
466.249631	2386.986346
466.621358	2502.932885
466.993026	2500.412308
467.364634	2475.206538
467.736184	2462.603654
468.107674	2442.439038
468.479105	2480.247692
468.850477	2510.494615
469.221790	2487.809423
469.593043	2475.206538
469.964238	2444.959615
470.335373	2470.165385
470.706449	2510.494615
471.077467	2417.233269
471.448425	2528.138654
471.819324	2477.727115
472.190164	2470.165385
472.560945	2475.206538
472.931667	2457.562500
473.302330	2502.932885
473.672934	2452.521346
474.043479	2505.453462
474.413965	2432.356731
474.784393	2528.138654
475.154761	2429.836154
475.525070	2465.124231
475.895321	2558.385577
476.265513	2535.700385
476.635645	2563.426731
477.005719	2495.371154
477.375734	2553.344423
477.745691	2492.850577
478.115588	2563.426731
478.485427	2540.741538
478.855207	2422.274423
479.224928	2465.124231
479.594591	2450.000769
479.964194	2540.741538
480.333739	2560.906154
480.703226	2515.535769
481.072653	2548.303269
481.442022	2455.041923
481.811333	2530.659231
482.180584	2505.453462
482.549777	2528.138654
482.918912	2452.521346
483.287988	2573.509038
483.657005	2550.823846
484.025964	2467.644808
484.394864	2644.085192
484.763706	2450.000769
485.132489	2495.371154
485.501213	2439.918462
485.869879	2507.974038
486.238487	2500.412308
486.607036	2465.124231
486.975527	2447.480192
487.343959	2530.659231
487.712333	2467.644808
488.080648	2565.947308
488.448905	2422.274423
488.817104	2523.097500
489.185244	2500.412308
489.553326	2533.179808
489.921350	2442.439038
490.289315	2525.618077
490.657222	2505.453462
491.025070	2525.618077
491.392861	2591.153077
491.760593	2510.494615
492.128267	2513.015192
492.495883	2457.562500
492.863440	2427.315577
493.230939	2515.535769
493.598380	2505.453462
493.965763	2439.918462
494.333088	2371.862885
494.700354	2432.356731
495.067563	2457.562500
495.434713	2528.138654
495.801805	2414.712692
496.168839	2465.124231
496.535815	2515.535769
496.902733	2422.274423
497.269593	2432.356731
497.636395	2487.809423
498.003139	2487.809423
498.369825	2462.603654
498.736453	2450.000769
499.103023	2540.741538
499.469535	2482.768269
499.835989	2462.603654
500.202385	2480.247692
500.568723	2460.083077
500.935003	2530.659231
501.301226	2550.823846
501.667390	2525.618077
502.033497	2470.165385
502.399546	2490.330000
502.765537	2490.330000
503.131470	2560.906154
503.497345	2492.850577
503.863163	2470.165385
504.228923	2495.371154
504.594625	2424.795000
504.960269	2480.247692
505.325856	2510.494615
505.691385	2434.877308
506.056856	2553.344423
506.422270	2558.385577
506.787625	2490.330000
507.152924	2480.247692
507.518164	2507.974038
507.883347	2434.877308
508.248472	2437.397885
508.613540	2444.959615
508.978550	2555.865000
509.343503	2558.385577
509.708398	2402.109808
510.073236	2447.480192
510.438016	2487.809423
510.802738	2462.603654
511.167403	2518.056346
511.532010	2495.371154
511.896561	2467.644808
512.261053	2513.015192
512.625488	2490.330000
512.989866	2618.879423
513.354186	2482.768269
513.718449	2487.809423
514.082655	2535.700385
514.446803	2460.083077
514.810894	2573.509038
515.174927	2485.288846
515.538904	2518.056346
515.902822	2472.685962
516.266684	2450.000769
516.630488	2525.618077
516.994235	2497.891731
517.357925	2507.974038
517.721558	2419.753846
518.085133	2455.041923
518.448651	2558.385577
518.812112	2538.220962
519.175516	2427.315577
519.538863	2465.124231
519.902152	2442.439038
520.265385	2513.015192
520.628560	2472.685962
520.991678	2497.891731
521.354739	2558.385577
521.717743	2480.247692
522.080690	2515.535769
522.443580	2485.288846
522.806413	2462.603654
523.169189	2437.397885
523.531908	2500.412308
523.894569	2417.233269
524.257174	2442.439038
524.619722	2465.124231
524.982213	2472.685962
525.344647	2540.741538
525.707025	2482.768269
526.069345	2505.453462
526.431608	2467.644808
526.793815	2460.083077
527.155964	2576.029615
527.518057	2485.288846
527.880093	2513.015192
528.242072	2553.344423
528.603995	2520.576923
528.965860	2513.015192
529.327669	2583.591346
529.689421	2465.124231
530.051117	2485.288846
530.412755	2414.712692
530.774337	2525.618077
531.135862	2535.700385
531.497331	2462.603654
531.858743	2533.179808
532.220098	2502.932885
532.581396	2513.015192
532.942638	2573.509038
533.303824	2444.959615
533.664953	2500.412308
534.026025	2520.576923
534.387040	2490.330000
534.747999	2525.618077
535.108902	2548.303269
535.469748	2525.618077
535.830537	2475.206538
536.191270	2490.330000
536.551947	2502.932885
536.912567	2467.644808
537.273131	2417.233269
537.633638	2573.509038
537.994089	2470.165385
538.354483	2570.988462
538.714821	2507.974038
539.075103	2467.644808
539.435328	2530.659231
539.795497	2510.494615
540.155609	2460.083077
540.515665	2528.138654
540.875665	2497.891731
541.235609	2480.247692
541.595496	2465.124231
541.955328	2555.865000
542.315102	2492.850577
542.674821	2533.179808
543.034483	2520.576923
543.394090	2533.179808
543.753640	2447.480192
544.113134	2530.659231
544.472571	2500.412308
544.831953	2465.124231
545.191278	2450.000769
545.550548	2477.727115
545.909761	2470.165385
546.268918	2520.576923
546.628019	2442.439038
546.987064	2500.412308
547.346053	2497.891731
547.704986	2510.494615
548.063863	2560.906154
548.422684	2450.000769
548.781449	2500.412308
549.140158	2497.891731
549.498811	2505.453462
549.857408	2505.453462
550.215949	2495.371154
550.574434	2500.412308
550.932864	2482.768269
551.291237	2407.150962
551.649555	2523.097500
552.007817	2437.397885
552.366022	2555.865000
552.724173	2444.959615
553.082267	2457.562500
553.440305	2419.753846
553.798288	2452.521346
554.156215	2487.809423
554.514086	2472.685962
554.871902	2457.562500
555.229661	2490.330000
555.587365	2495.371154
555.945014	2407.150962
556.302606	2510.494615
556.660143	2437.397885
557.017625	2570.988462
557.375050	2482.768269
557.732421	2543.262115
558.089735	2485.288846
558.446994	2452.521346
558.804197	2520.576923
559.161345	2485.288846
559.518437	2414.712692
559.875474	2583.591346
560.232455	2475.206538
560.589381	2591.153077
560.946251	2507.974038
561.303065	2492.850577
561.659825	2450.000769
562.016528	2437.397885
562.373177	2545.782692
562.729770	2513.015192
563.086307	2560.906154
563.442789	2530.659231
563.799216	2487.809423
564.155587	2548.303269
564.511904	2586.111923
564.868164	2530.659231
565.224370	2444.959615
565.580520	2472.685962
565.936615	2452.521346
566.292654	2558.385577
566.648638	2465.124231
567.004567	2528.138654
567.360441	2460.083077
567.716260	2565.947308
568.072023	2507.974038
568.427732	2563.426731
568.783385	2482.768269
569.138982	2470.165385
569.494525	2467.644808
569.850013	2487.809423
570.205445	2540.741538
570.560823	2455.041923
570.916145	2520.576923
571.271412	2523.097500
571.626625	2543.262115
571.981782	2500.412308
572.336884	2502.932885
572.691931	2530.659231
573.046923	2515.535769
573.401860	2470.165385
573.756743	2434.877308
574.111570	2465.124231
574.466342	2520.576923
574.821059	2442.439038
575.175722	2530.659231
575.530330	2507.974038
575.884882	2437.397885
576.239380	2455.041923
576.593823	2510.494615
576.948211	2540.741538
577.302544	2482.768269
577.656823	2502.932885
578.011047	2437.397885
578.365216	2525.618077
578.719330	2470.165385
579.073389	2525.618077
579.427394	2520.576923
579.781344	2528.138654
580.135239	2386.986346
580.489080	2475.206538
580.842866	2553.344423
581.196597	2485.288846
581.550273	2492.850577
581.903895	2507.974038
582.257463	2457.562500
582.610975	2460.083077
582.964434	2492.850577
583.317837	2520.576923
583.671186	2472.685962
584.024481	2492.850577
584.377721	2500.412308
584.730906	2520.576923
585.084037	2550.823846
585.437113	2455.041923
585.790135	2601.235385
586.143103	2550.823846
586.496016	2505.453462
586.848874	2444.959615
587.201679	2472.685962
587.554428	2520.576923
587.907124	2465.124231
588.259765	2422.274423
588.612352	2482.768269
588.964884	2465.124231
589.317362	2570.988462
589.669786	2523.097500
590.022155	2535.700385
590.374470	2535.700385
590.726731	2452.521346
591.078937	2490.330000
591.431090	2455.041923
591.783188	2467.644808
592.135232	2487.809423
592.487222	2525.618077
592.839157	2515.535769
593.191038	2533.179808
593.542866	2528.138654
593.894639	2487.809423
594.246358	2558.385577
594.598022	2432.356731
594.949633	2565.947308
595.301190	2492.850577
595.652692	2568.467885
596.004141	2558.385577
596.355535	2535.700385
596.706876	2477.727115
597.058162	2424.795000
597.409395	2538.220962
597.760573	2558.385577
598.111698	2502.932885
598.462768	2427.315577
598.813785	2422.274423
599.164748	2528.138654
599.515657	2543.262115
599.866511	2490.330000
600.217312	2487.809423
600.568060	2495.371154
600.918753	2502.932885
601.269392	2475.206538
601.619978	2545.782692
601.970510	2402.109808
602.320988	2472.685962
602.671412	2545.782692
603.021783	2553.344423
603.372100	2462.603654
603.722363	2535.700385
604.072572	2399.589231
604.422728	2518.056346
604.772830	2535.700385
605.122878	2505.453462
605.472872	2437.397885
605.822813	2550.823846
606.172701	2538.220962
606.522534	2523.097500
606.872314	2462.603654
607.222041	2553.344423
607.571714	2424.795000
607.921333	2497.891731
608.270899	2550.823846
608.620411	2495.371154
608.969870	2505.453462
609.319276	2518.056346
609.668627	2558.385577
610.017926	2460.083077
610.367171	2477.727115
610.716362	2507.974038
611.065500	2568.467885
611.414585	2507.974038
611.763616	2465.124231
612.112594	2502.932885
612.461518	2507.974038
612.810389	2452.521346
613.159207	2497.891731
613.507971	2533.179808
613.856682	2434.877308
614.205340	2543.262115
614.553945	2424.795000
614.902496	2553.344423
615.250994	2480.247692
615.599439	2513.015192
615.947830	2414.712692
616.296169	2497.891731
616.644454	2515.535769
616.992686	2611.317692
617.340864	2495.371154
617.688990	2502.932885
618.037063	2528.138654
618.385082	2477.727115
618.733048	2490.330000
619.080961	2548.303269
619.428821	2505.453462
619.776628	2563.426731
620.124382	2588.632500
620.472083	2530.659231
620.819731	2432.356731
621.167326	2533.179808
621.514868	2550.823846
621.862357	2502.932885
622.209793	2510.494615
622.557176	2530.659231
622.904506	2485.288846
623.251783	2450.000769
623.599007	2550.823846
623.946179	2581.070769
624.293297	2490.330000
624.640363	2462.603654
624.987376	2434.877308
625.334336	2570.988462
625.681243	2591.153077
626.028097	2465.124231
626.374899	2434.877308
626.721647	2497.891731
627.068343	2515.535769
627.414987	2424.795000
627.761577	2457.562500
628.108115	2472.685962
628.454600	2437.397885
628.801032	2492.850577
629.147412	2507.974038
629.493739	2518.056346
629.840014	2525.618077
630.186236	2477.727115
630.532405	2510.494615
630.878521	2558.385577
631.224585	2457.562500
631.570597	2492.850577
631.916556	2568.467885
632.262462	2485.288846
632.608316	2472.685962
632.954117	2477.727115
633.299866	2465.124231
633.645562	2568.467885
633.991206	2452.521346
634.336797	2450.000769
634.682336	2507.974038
635.027823	2447.480192
635.373257	2528.138654
635.718639	2379.424615
636.063968	2495.371154
636.409245	2462.603654
636.754470	2543.262115
637.099642	2548.303269
637.444762	2560.906154
637.789829	2457.562500
638.134845	2510.494615
638.479808	2495.371154
638.824719	2507.974038
639.169577	2444.959615
639.514383	2528.138654
639.859137	2586.111923
640.203839	2467.644808
640.548489	2477.727115
640.893086	2427.315577
641.237632	2523.097500
641.582125	2442.439038
641.926566	2502.932885
642.270955	2427.315577
642.615292	2523.097500
642.959576	2550.823846
643.303809	2480.247692
643.647990	2535.700385
643.992118	2482.768269
644.336195	2485.288846
644.680219	2535.700385
645.024192	2535.700385
645.368112	2402.109808
645.711981	2550.823846
646.055797	2492.850577
646.399562	2497.891731
646.743274	2482.768269
647.086935	2475.206538
647.430544	2384.465769
647.774101	2465.124231
648.117606	2497.891731
648.461059	2465.124231
648.804460	2482.768269
649.147810	2462.603654
649.491108	2472.685962
649.834354	2553.344423
650.177548	2558.385577
650.520690	2535.700385
650.863781	2490.330000
651.206820	2460.083077
651.549807	2485.288846
651.892742	2422.274423
652.235626	2457.562500
652.578458	2510.494615
652.921238	2581.070769
653.263967	2573.509038
653.606644	2480.247692
653.949269	2623.920577
654.291843	2596.194231
654.634365	2510.494615
654.976836	2485.288846
655.319255	2439.918462
655.661622	2475.206538
656.003938	2518.056346
656.346203	2490.330000
656.688416	2452.521346
657.030577	2490.330000
657.372687	2497.891731
657.714746	2492.850577
658.056753	2520.576923
658.398708	2495.371154
658.740612	2570.988462
659.082465	2528.138654
659.424266	2515.535769
659.766016	2520.576923
660.107715	2523.097500
660.449362	2555.865000
660.790958	2502.932885
661.132503	2487.809423
661.473996	2444.959615
661.815438	2520.576923
662.156829	2386.986346
662.498168	2520.576923
662.839456	2513.015192
663.180693	2492.850577
663.521879	2455.041923
663.863013	2558.385577
664.204097	2429.836154
664.545129	2520.576923
664.886110	2450.000769
665.227040	2497.891731
665.567918	2497.891731
665.908746	2485.288846
666.249522	2475.206538
666.590248	2550.823846
666.930922	2507.974038
667.271545	2518.056346
667.612118	2422.274423
667.952639	2397.068654
668.293109	2565.947308
668.633528	2492.850577
668.973896	2558.385577
669.314213	2465.124231
669.654480	2497.891731
669.994695	2472.685962
670.334859	2495.371154
670.674973	2442.439038
671.015035	2502.932885
671.355047	2502.932885
671.695008	2455.041923
672.034918	2462.603654
672.374777	2480.247692
672.714585	2480.247692
673.054342	2530.659231
673.394049	2573.509038
673.733705	2485.288846
674.073310	2500.412308
674.412864	2434.877308
674.752368	2565.947308
675.091820	2525.618077
675.431223	2497.891731
675.770574	2475.206538
676.109875	2538.220962
676.449125	2427.315577
676.788324	2366.821731
677.127473	2482.768269
677.466571	2452.521346
677.805619	2588.632500
678.144616	2583.591346
678.483562	2568.467885
678.822458	2560.906154
679.161303	2570.988462
679.500098	2427.315577
679.838842	2515.535769
680.177535	2452.521346
680.516179	2475.206538
680.854771	2505.453462
681.193314	2492.850577
681.531805	2487.809423
681.870247	2460.083077
682.208638	2518.056346
682.546978	2543.262115
682.885268	2465.124231
683.223508	2487.809423
683.561697	2444.959615
683.899836	2437.397885
684.237925	2434.877308
684.575963	2543.262115
684.913951	2452.521346
685.251889	2467.644808
685.589776	2497.891731
685.927614	2533.179808
686.265401	2520.576923
686.603137	2465.124231
686.940824	2507.974038
687.278460	2563.426731
687.616046	2465.124231
687.953582	2455.041923
688.291068	2568.467885
688.628504	2457.562500
688.965889	2525.618077
689.303224	2502.932885
689.640510	2492.850577
689.977745	2452.521346
690.314930	2563.426731
690.652065	2528.138654
690.989150	2570.988462
691.326185	2455.041923
691.663170	2455.041923
692.000105	2419.753846
692.336990	2462.603654
692.673825	2465.124231
693.010610	2472.685962
693.347345	2507.974038
693.684030	2480.247692
694.020665	2475.206538
694.357251	2553.344423
694.693786	2465.124231
695.030272	2427.315577
695.366707	2475.206538
695.703093	2462.603654
696.039429	2495.371154
696.375716	2487.809423
696.711952	2482.768269
697.048139	2402.109808
697.384276	2450.000769
697.720363	2447.480192
698.056400	2482.768269
698.392388	2374.383462
698.728326	2520.576923
699.064214	2515.535769
699.400053	2447.480192
699.735842	2480.247692
700.071581	2457.562500
700.407270	2515.535769
700.742910	2573.509038
701.078501	2543.262115
701.414042	2490.330000
701.749533	2442.439038
702.084974	2563.426731
702.420366	2444.959615
702.755709	2560.906154
703.091002	2500.412308
703.426246	2576.029615
703.761440	2444.959615
704.096584	2497.891731
704.431679	2460.083077
704.766725	2510.494615
705.101721	2462.603654
705.436668	2528.138654
705.771565	2492.850577
706.106413	2560.906154
706.441212	2470.165385
706.775961	2485.288846
707.110661	2467.644808
707.445311	2515.535769
707.779913	2505.453462
708.114465	2535.700385
708.448967	2392.027500
708.783421	2462.603654
709.117825	2477.727115
709.452180	2417.233269
709.786485	2523.097500
710.120742	2444.959615
710.454949	2505.453462
710.789107	2447.480192
711.123216	2472.685962
711.457275	2480.247692
711.791286	2361.780577
712.125247	2432.356731
712.459159	2492.850577
712.793023	2550.823846
713.126837	2495.371154
713.460602	2485.288846
713.794318	2480.247692
714.127985	2450.000769
714.461602	2480.247692
714.795171	2492.850577
715.128691	2507.974038
715.462162	2505.453462
715.795584	2520.576923
716.128957	2490.330000
716.462281	2535.700385
716.795556	2432.356731
717.128782	2497.891731
717.461960	2465.124231
717.795088	2485.288846
718.128167	2533.179808
718.461198	2570.988462
718.794180	2442.439038
719.127113	2492.850577
719.459997	2497.891731
719.792833	2505.453462
720.125619	2545.782692
720.458357	2419.753846
720.791046	2500.412308
721.123686	2467.644808
721.456278	2371.862885
721.788821	2553.344423
722.121315	2465.124231
722.453761	2419.753846
722.786158	2502.932885
723.118506	2505.453462
723.450805	2591.153077
723.783056	2497.891731
724.115259	2465.124231
724.447412	2439.918462
724.779518	2507.974038
725.111574	2470.165385
725.443582	2533.179808
725.775542	2452.521346
726.107453	2480.247692
726.439315	2457.562500
726.771129	2490.330000
727.102895	2419.753846
727.434612	2450.000769
727.766281	2450.000769
728.097901	2523.097500
728.429473	2535.700385
728.760996	2505.453462
729.092471	2465.124231
729.423897	2465.124231
729.755276	2535.700385
730.086606	2497.891731
730.417887	2497.891731
730.749120	2497.891731
731.080305	2472.685962
731.411442	2558.385577
731.742530	2518.056346
732.073570	2487.809423
732.404562	2452.521346
732.735506	2495.371154
733.066401	2402.109808
733.397249	2507.974038
733.728048	2462.603654
734.058798	2404.630385
734.389501	2487.809423
734.720156	2460.083077
735.050762	2477.727115
735.381320	2505.453462
735.711831	2472.685962
736.042293	2452.521346
736.372707	2409.671538
736.703073	2487.809423
737.033391	2497.891731
737.363661	2465.124231
737.693883	2485.288846
738.024056	2444.959615
738.354182	2452.521346
738.684260	2487.809423
739.014290	2427.315577
739.344272	2563.426731
739.674207	2533.179808
740.004093	2515.535769
740.333931	2492.850577
740.663722	2513.015192
740.993464	2409.671538
741.323159	2399.589231
741.652806	2487.809423
741.982405	2525.618077
742.311956	2565.947308
742.641460	2545.782692
742.970915	2505.453462
743.300323	2482.768269
743.629683	2513.015192
743.958996	2523.097500
744.288260	2583.591346
744.617477	2513.015192
744.946647	2545.782692
745.275768	2414.712692
745.604842	2450.000769
745.933869	2404.630385
746.262847	2525.618077
746.591778	2467.644808
746.920662	2543.262115
747.249498	2475.206538
747.578286	2528.138654
747.907027	2427.315577
748.235720	2533.179808
748.564365	2414.712692
748.892963	2513.015192
749.221514	2472.685962
749.550017	2492.850577
749.878473	2444.959615
750.206881	2487.809423
750.535242	2510.494615
750.863555	2540.741538
751.191821	2419.753846
751.520039	2487.809423
751.848210	2467.644808
752.176334	2490.330000
752.504411	2530.659231
752.832440	2505.453462
753.160421	2467.644808
753.488356	2457.562500
753.816243	2419.753846
754.144082	2500.412308
754.471875	2507.974038
754.799620	2507.974038
755.127318	2513.015192
755.454969	2510.494615
755.782572	2485.288846
756.110129	2492.850577
756.437638	2457.562500
756.765100	2490.330000
757.092515	2530.659231
757.419882	2442.439038
757.747203	2495.371154
758.074477	2543.262115
758.401703	2490.330000
758.728882	2611.317692
759.056014	2500.412308
759.383099	2558.385577
759.710138	2500.412308
760.037129	2475.206538
760.364073	2581.070769
760.690970	2540.741538
761.017820	2533.179808
761.344623	2480.247692
761.671379	2427.315577
761.998088	2510.494615
762.324751	2515.535769
762.651366	2480.247692
762.977935	2475.206538
763.304456	2538.220962
763.630931	2510.494615
763.957359	2543.262115
764.283740	2455.041923
764.610074	2452.521346
764.936362	2513.015192
765.262602	2434.877308
765.588796	2465.124231
765.914943	2533.179808
766.241044	2565.947308
766.567097	2389.506923
766.893104	2538.220962
767.219064	2392.027500
767.544978	2510.494615
767.870845	2487.809423
768.196665	2460.083077
768.522438	2457.562500
768.848165	2560.906154
769.173846	2434.877308
769.499479	2482.768269
769.825066	2450.000769
770.150607	2513.015192
770.476101	2434.877308
770.801548	2518.056346
771.126949	2439.918462
771.452303	2495.371154
771.777611	2475.206538
772.102872	2467.644808
772.428087	2487.809423
772.753256	2510.494615
773.078378	2497.891731
773.403453	2497.891731
773.728482	2462.603654
774.053465	2482.768269
774.378401	2500.412308
774.703291	2477.727115
775.028135	2467.644808
775.352932	2596.194231
775.677683	2500.412308
776.002388	2500.412308
776.327046	2603.755962
776.651658	2472.685962
776.976224	2427.315577
777.300743	2510.494615
777.625216	2470.165385
777.949643	2510.494615
778.274024	2475.206538
778.598359	2538.220962
778.922647	2505.453462
779.246889	2530.659231
779.571086	2515.535769
779.895236	2573.509038
780.219339	2528.138654
780.543397	2447.480192
780.867409	2525.618077
781.191374	2523.097500
781.515294	2520.576923
781.839167	2432.356731
782.162995	2442.439038
782.486776	2392.027500
782.810511	2480.247692
783.134201	2419.753846
783.457844	2560.906154
783.781441	2414.712692
784.104993	2540.741538
784.428498	2535.700385
784.751958	2444.959615
785.075372	2520.576923
785.398739	2472.685962
785.722061	2419.753846
786.045337	2513.015192
786.368568	2553.344423
786.691752	2455.041923
787.014891	2439.918462
787.337983	2490.330000
787.661030	2444.959615
787.984031	2500.412308
788.306987	2472.685962
788.629897	2480.247692
788.952760	2520.576923
789.275579	2447.480192
789.598351	2485.288846
789.921078	2535.700385
790.243759	2475.206538
790.566395	2485.288846
790.888984	2492.850577
791.211529	2548.303269
791.534027	2563.426731
791.856480	2477.727115
792.178888	2386.986346
792.501249	2480.247692
792.823566	2513.015192
793.145836	2444.959615
793.468062	2487.809423
793.790241	2482.768269
794.112375	2565.947308
794.434464	2565.947308
794.756507	2538.220962
795.078505	2427.315577
795.400457	2586.111923
795.722364	2482.768269
796.044226	2437.397885
796.366042	2502.932885
796.687812	2462.603654
797.009538	2533.179808
797.331218	2475.206538
797.652852	2528.138654
797.974442	2460.083077
798.295986	2475.206538
798.617484	2429.836154
798.938938	2462.603654
799.260346	2447.480192
799.581709	2394.548077
799.903026	2472.685962
800.224299	2434.877308
800.545526	2540.741538
800.866708	2457.562500
801.187845	2467.644808
801.508936	2515.535769
801.829983	2402.109808
802.150984	2515.535769
802.471940	2538.220962
802.792851	2492.850577
803.113717	2467.644808
803.434538	2399.589231
803.755314	2578.550192
804.076045	2392.027500
804.396731	2510.494615
804.717372	2452.521346
805.037967	2495.371154
805.358518	2457.562500
805.679024	2520.576923
805.999485	2505.453462
806.319901	2465.124231
806.640272	2563.426731
806.960598	2487.809423
807.280879	2545.782692
807.601115	2361.780577
807.921306	2502.932885
808.241453	2515.535769
808.561554	2462.603654
808.881611	2492.850577
809.201623	2495.371154
809.521590	2535.700385
809.841513	2397.068654
810.161390	2505.453462
810.481223	2621.400000
810.801011	2492.850577
811.120755	2513.015192
811.440453	2518.056346
811.760107	2452.521346
812.079716	2530.659231
812.399281	2460.083077
812.718801	2485.288846
813.038276	2497.891731
813.357707	2485.288846
813.677093	2505.453462
813.996434	2586.111923
814.315731	2477.727115
814.634983	2447.480192
814.954191	2523.097500
815.273354	2417.233269
815.592473	2548.303269
815.911547	2538.220962
816.230577	2477.727115
816.549562	2500.412308
816.868502	2502.932885
817.187399	2538.220962
817.506250	2422.274423
817.825058	2452.521346
818.143821	2520.576923
818.462539	2490.330000
818.781213	2447.480192
819.099843	2505.453462
819.418429	2520.576923
819.736970	2570.988462
820.055466	2641.564615
820.373919	2482.768269
820.692327	2497.891731
821.010691	2455.041923
821.329011	2414.712692
821.647286	2535.700385
821.965517	2439.918462
822.283704	2518.056346
822.601847	2447.480192
822.919945	2492.850577
823.237999	2518.056346
823.556010	2510.494615
823.873976	2533.179808
824.191897	2507.974038
824.509775	2455.041923
824.827609	2497.891731
825.145398	2530.659231
825.463144	2485.288846
825.780845	2482.768269
826.098502	2513.015192
826.416116	2588.632500
826.733685	2510.494615
827.051210	2543.262115
827.368692	2495.371154
827.686129	2470.165385
828.003522	2462.603654
828.320872	2460.083077
828.638177	2475.206538
828.955439	2402.109808
829.272656	2535.700385
829.589830	2475.206538
829.906960	2424.795000
830.224046	2497.891731
830.541088	2510.494615
830.858086	2558.385577
831.175041	2507.974038
831.491952	2482.768269
831.808819	2452.521346
832.125642	2450.000769
832.442421	2417.233269
832.759157	2492.850577
833.075849	2455.041923
833.392497	2495.371154
833.709101	2485.288846
834.025662	2639.044038
834.342179	2495.371154
834.658653	2588.632500
834.975083	2487.809423
835.291469	2502.932885
835.607811	2533.179808
835.924110	2608.797115
836.240366	2452.521346
836.556578	2518.056346
836.872746	2450.000769
837.188871	2444.959615
837.504952	2492.850577
837.820990	2535.700385
838.136984	2417.233269
838.452935	2485.288846
838.768842	2432.356731
839.084706	2500.412308
839.400526	2402.109808
839.716303	2497.891731
840.032037	2472.685962
840.347727	2545.782692
840.663373	2460.083077
840.978977	2434.877308
841.294537	2447.480192
841.610054	2465.124231
841.925527	2568.467885
842.240957	2520.576923
842.556344	2422.274423
842.871687	2518.056346
843.186987	2598.714808
843.502244	2523.097500
843.817458	2490.330000
844.132629	2460.083077
844.447756	2432.356731
844.762840	2543.262115
845.077881	2495.371154
845.392879	2560.906154
845.707833	2500.412308
846.022745	2550.823846
846.337613	2450.000769
846.652438	2472.685962
846.967221	2424.795000
847.281960	2500.412308
847.596656	2510.494615
847.911309	2460.083077
848.225919	2444.959615
848.540485	2502.932885
848.855009	2495.371154
849.169490	2490.330000
849.483928	2500.412308
849.798323	2538.220962
850.112675	2450.000769
850.426984	2467.644808
850.741251	2560.906154
851.055474	2460.083077
851.369654	2568.467885
851.683792	2505.453462
851.997887	2553.344423
852.311938	2535.700385
852.625947	2444.959615
852.939914	2442.439038
853.253837	2518.056346
853.567718	2465.124231
853.881555	2472.685962
854.195350	2487.809423
854.509103	2505.453462
854.822812	2492.850577
855.136479	2603.755962
855.450103	2465.124231
855.763685	2452.521346
856.077224	2412.192115
856.390720	2485.288846
856.704173	2434.877308
857.017584	2507.974038
857.330953	2450.000769
857.644278	2520.576923
857.957561	2487.809423
858.270802	2397.068654
858.584000	2563.426731
858.897155	2525.618077
859.210268	2495.371154
859.523339	2397.068654
859.836367	2497.891731
860.149352	2455.041923
860.462295	2457.562500
860.775195	2507.974038
861.088054	2568.467885
861.400869	2417.233269
861.713642	2447.480192
862.026373	2523.097500
862.339062	2427.315577
862.651708	2518.056346
862.964312	2437.397885
863.276873	2467.644808
863.589392	2439.918462
863.901869	2462.603654
864.214303	2402.109808
864.526696	2523.097500
864.839045	2497.891731
865.151353	2480.247692
865.463619	2515.535769
865.775842	2515.535769
866.088023	2475.206538
866.400162	2482.768269
866.712258	2525.618077
867.024313	2598.714808
867.336325	2477.727115
867.648296	2507.974038
867.960224	2485.288846
868.272110	2427.315577
868.583954	2518.056346
868.895755	2502.932885
869.207515	2457.562500
869.519233	2397.068654
869.830909	2422.274423
870.142542	2507.974038
870.454134	2450.000769
870.765684	2462.603654
871.077191	2553.344423
871.388657	2475.206538
871.700081	2513.015192
872.011463	2495.371154
872.322803	2540.741538
872.634101	2475.206538
872.945357	2492.850577
873.256571	2500.412308
873.567744	2507.974038
873.878874	2505.453462
874.189963	2523.097500
874.501010	2434.877308
874.812015	2434.877308
875.122979	2447.480192
875.433900	2598.714808
875.744780	2500.412308
876.055618	2427.315577
876.366415	2467.644808
876.677169	2548.303269
876.987882	2447.480192
877.298554	2429.836154
877.609183	2467.644808
877.919771	2452.521346
878.230317	2533.179808
878.540822	2457.562500
878.851285	2520.576923
879.161707	2462.603654
879.472087	2450.000769
879.782425	2429.836154
880.092722	2507.974038
880.402977	2535.700385
880.713191	2520.576923
881.023363	2525.618077
881.333494	2485.288846
881.643583	2528.138654
881.953631	2502.932885
882.263637	2515.535769
882.573602	2533.179808
882.883526	2487.809423
883.193408	2447.480192
883.503248	2500.412308
883.813048	2538.220962
884.122806	2480.247692
884.432522	2427.315577
884.742197	2533.179808
885.051831	2525.618077
885.361424	2467.644808
885.670975	2475.206538
885.980485	2497.891731
886.289954	2379.424615
886.599382	2417.233269
886.908768	2492.850577
887.218113	2523.097500
887.527417	2497.891731
887.836680	2465.124231
888.145901	2447.480192
888.455082	2520.576923
888.764221	2560.906154
889.073319	2477.727115
889.382376	2492.850577
889.691392	2523.097500
890.000366	2565.947308
890.309300	2465.124231
890.618193	2538.220962
890.927044	2450.000769
891.235855	2510.494615
891.544625	2482.768269
891.853353	2502.932885
892.162041	2437.397885
892.470687	2530.659231
892.779293	2515.535769
893.087858	2510.494615
893.396381	2444.959615
893.704864	2462.603654
894.013306	2414.712692
894.321707	2548.303269
894.630068	2409.671538
894.938387	2533.179808
895.246665	2419.753846
895.554903	2422.274423
895.863100	2507.974038
896.171256	2434.877308
896.479371	2555.865000
896.787446	2444.959615
897.095480	2460.083077
897.403473	2482.768269
897.711425	2442.439038
898.019336	2563.426731
898.327207	2553.344423
898.635038	2515.535769
898.942827	2470.165385
899.250576	2515.535769
899.558284	2480.247692
899.865952	2460.083077
900.173579	2502.932885
900.481165	2409.671538
900.788711	2543.262115
901.096216	2475.206538
901.403681	2495.371154
901.711105	2429.836154
902.018489	2510.494615
902.325832	2535.700385
902.633135	2523.097500
902.940397	2442.439038
903.247619	2520.576923
903.554800	2525.618077
903.861941	2482.768269
904.169041	2490.330000
904.476101	2409.671538
904.783121	2555.865000
905.090100	2467.644808
905.397039	2520.576923
905.703938	2576.029615
906.010796	2490.330000
906.317614	2492.850577
906.624391	2487.809423
906.931129	2490.330000
907.237826	2457.562500
907.544483	2515.535769
907.851099	2510.494615
908.157675	2533.179808
908.464211	2475.206538
908.770707	2513.015192
909.077163	2427.315577
909.383578	2465.124231
909.689954	2515.535769
909.996289	2543.262115
910.302584	2500.412308
910.608839	2578.550192
910.915054	2487.809423
911.221229	2553.344423
911.527363	2439.918462
911.833458	2520.576923
912.139513	2477.727115
912.445527	2528.138654
912.751502	2490.330000
913.057436	2465.124231
913.363331	2475.206538
913.669186	2427.315577
913.975000	2502.932885
914.280775	2475.206538
914.586510	2437.397885
914.892205	2472.685962
915.197859	2497.891731
915.503475	2434.877308
915.809050	2492.850577
916.114585	2477.727115
916.420081	2480.247692
916.725536	2583.591346
917.030952	2412.192115
917.336328	2555.865000
917.641665	2422.274423
917.946961	2505.453462
918.252218	2490.330000
918.557435	2490.330000
918.862612	2523.097500
919.167750	2540.741538
919.472848	2417.233269
919.777906	2535.700385
920.082925	2444.959615
920.387904	2540.741538
920.692843	2510.494615
920.997743	2477.727115
921.302603	2386.986346
921.607423	2548.303269
921.912204	2606.276538
922.216946	2535.700385
922.521647	2437.397885
922.826310	2407.150962
923.130932	2543.262115
923.435516	2386.986346
923.740059	2492.850577
924.044564	2593.673654
924.349028	2487.809423
924.653454	2389.506923
924.957840	2492.850577
925.262186	2555.865000
925.566493	2460.083077
925.870761	2487.809423
926.174989	2450.000769
926.479178	2510.494615
926.783328	2482.768269
927.087438	2510.494615
927.391509	2412.192115
927.695541	2555.865000
927.999533	2409.671538
928.303486	2490.330000
928.607400	2444.959615
928.911275	2535.700385
929.215110	2467.644808
929.518906	2535.700385
929.822663	2450.000769
930.126381	2386.986346
930.430060	2462.603654
930.733699	2477.727115
931.037299	2477.727115
931.340861	2485.288846
931.644383	2457.562500
931.947866	2515.535769
932.251309	2548.303269
932.554714	2472.685962
932.858080	2543.262115
933.161407	2477.727115
933.464694	2492.850577
933.767943	2467.644808
934.071153	2515.535769
934.374323	2470.165385
934.677455	2467.644808
934.980548	2394.548077
935.283602	2447.480192
935.586617	2442.439038
935.889593	2490.330000
936.192530	2437.397885
936.495428	2462.603654
936.798287	2467.644808
937.101108	2450.000769
937.403890	2480.247692
937.706632	2467.644808
938.009336	2500.412308
938.312002	2538.220962
938.614628	2555.865000
938.917216	2505.453462
939.219765	2502.932885
939.522275	2480.247692
939.824747	2518.056346
940.127179	2538.220962
940.429573	2442.439038
940.731929	2444.959615
941.034246	2465.124231
941.336524	2568.467885
941.638763	2518.056346
941.940964	2530.659231
942.243126	2543.262115
942.545250	2462.603654
942.847335	2437.397885
943.149381	2467.644808
943.451389	2530.659231
943.753359	2460.083077
944.055290	2505.453462
944.357182	2447.480192
944.659036	2457.562500
944.960851	2581.070769
945.262628	2475.206538
945.564367	2482.768269
945.866067	2482.768269
946.167729	2553.344423
946.469352	2485.288846
946.770937	2573.509038
947.072484	2545.782692
947.373992	2465.124231
947.675462	2465.124231
947.976893	2513.015192
948.278286	2485.288846
948.579641	2563.426731
948.880958	2472.685962
949.182236	2513.015192
949.483476	2450.000769
949.784678	2492.850577
950.085841	2424.795000
950.386967	2500.412308
950.688054	2485.288846
950.989103	2450.000769
951.290114	2510.494615
951.591087	2452.521346
951.892021	2485.288846
952.192917	2482.768269
952.493776	2444.959615
952.794596	2520.576923
953.095378	2530.659231
953.396122	2538.220962
953.696828	2490.330000
953.997496	2457.562500
954.298126	2470.165385
954.598718	2460.083077
954.899272	2487.809423
955.199788	2389.506923
955.500266	2497.891731
955.800706	2480.247692
956.101108	2505.453462
956.401472	2407.150962
956.701798	2399.589231
957.002087	2376.904038
957.302337	2500.412308
957.602550	2452.521346
957.902724	2538.220962
958.202861	2429.836154
958.502960	2472.685962
958.803022	2424.795000
959.103045	2460.083077
959.403031	2442.439038
959.702979	2505.453462
960.002889	2485.288846
960.302762	2507.974038
960.602596	2470.165385
960.902393	2480.247692
961.202153	2427.315577
961.501875	2417.233269
961.801559	2487.809423
962.101205	2490.330000
962.400814	2520.576923
962.700385	2472.685962
962.999918	2507.974038
963.299414	2487.809423
963.598873	2465.124231
963.898293	2520.576923
964.197677	2465.124231
964.497022	2538.220962
964.796331	2548.303269
965.095601	2487.809423
965.394835	2475.206538
965.694030	2568.467885
965.993189	2467.644808
966.292309	2467.644808
966.591393	2462.603654
966.890439	2472.685962
967.189447	2482.768269
967.488419	2442.439038
967.787353	2417.233269
968.086249	2470.165385
968.385108	2429.836154
968.683930	2429.836154
968.982714	2480.247692
969.281462	2513.015192
969.580172	2460.083077
969.878844	2450.000769
970.177480	2439.918462
970.476078	2429.836154
970.774639	2535.700385
971.073162	2394.548077
971.371649	2540.741538
971.670098	2515.535769
971.968510	2475.206538
972.266885	2528.138654
972.565223	2447.480192
972.863524	2374.383462
973.161788	2492.850577
973.460014	2402.109808
973.758204	2523.097500
974.056356	2457.562500
974.354471	2482.768269
974.652550	2444.959615
974.950591	2555.865000
975.248595	2570.988462
975.546563	2477.727115
975.844493	2505.453462
976.142386	2548.303269
976.440243	2457.562500
976.738062	2565.947308
977.035845	2437.397885
977.333590	2513.015192
977.631299	2502.932885
977.928971	2437.397885
978.226606	2467.644808
978.524204	2457.562500
978.821765	2500.412308
979.119290	2505.453462
979.416777	2538.220962
979.714228	2513.015192
980.011642	2492.850577
980.309020	2530.659231
980.606360	2422.274423
980.903664	2497.891731
981.200931	2470.165385
981.498162	2485.288846
981.795356	2444.959615
982.092513	2495.371154
982.389633	2477.727115
982.686717	2560.906154
982.983764	2477.727115
983.280775	2487.809423
983.577749	2457.562500
983.874686	2563.426731
984.171587	2530.659231
984.468451	2407.150962
984.765279	2553.344423
985.062070	2462.603654
985.358824	2480.247692
985.655543	2505.453462
985.952224	2417.233269
986.248869	2505.453462
986.545478	2500.412308
986.842050	2470.165385
987.138586	2477.727115
987.435086	2603.755962
987.731549	2467.644808
988.027975	2560.906154
988.324366	2465.124231
988.620719	2482.768269
988.917037	2485.288846
989.213318	2482.768269
989.509563	2576.029615
989.805772	2538.220962
990.101944	2540.741538
990.398080	2523.097500
990.694180	2470.165385
990.990244	2447.480192
991.286271	2447.480192
991.582262	2444.959615
991.878217	2500.412308
992.174136	2500.412308
992.470019	2492.850577
992.765865	2462.603654
993.061676	2533.179808
993.357450	2419.753846
993.653188	2394.548077
993.948890	2525.618077
994.244556	2429.836154
994.540186	2470.165385
994.835780	2490.330000
995.131337	2462.603654
995.426859	2513.015192
995.722345	2631.482308
996.017795	2510.494615
996.313208	2475.206538
996.608586	2485.288846
996.903928	2399.589231
997.199234	2550.823846
997.494504	2450.000769
997.789738	2482.768269
998.084936	2563.426731
998.380099	2429.836154
998.675225	2570.988462
998.970316	2510.494615
999.265371	2455.041923
999.560390	2475.206538
999.855373	2444.959615
1000.150320	2560.906154
1000.445232	2470.165385
1000.740108	2417.233269
1001.034948	2502.932885
1001.329752	2583.591346
1001.624521	2434.877308
1001.919254	2485.288846
1002.213951	2467.644808
1002.508613	2505.453462
1002.803239	2500.412308
1003.097829	2472.685962
1003.392384	2457.562500
1003.686903	2553.344423
1003.981386	2482.768269
1004.275834	2424.795000
1004.570246	2475.206538
1004.864623	2487.809423
1005.158964	2444.959615
1005.453270	2444.959615
1005.747540	2422.274423
1006.041775	2492.850577
1006.335974	2392.027500
1006.630138	2442.439038
1006.924266	2371.862885
1007.218359	2495.371154
1007.512416	2465.124231
1007.806438	2475.206538
1008.100425	2424.795000
1008.394376	2470.165385
1008.688292	2492.850577
1008.982172	2447.480192
1009.276017	2502.932885
1009.569827	2452.521346
1009.863602	2475.206538
1010.157341	2495.371154
1010.451045	2528.138654
1010.744714	2485.288846
1011.038347	2490.330000
1011.331945	2502.932885
1011.625508	2538.220962
1011.919036	2477.727115
1012.212528	2492.850577
1012.505986	2480.247692
1012.799408	2470.165385
1013.092795	2467.644808
1013.386147	2487.809423
1013.679464	2560.906154
1013.972745	2450.000769
1014.265992	2470.165385
1014.559204	2487.809423
1014.852380	2573.509038
1015.145521	2450.000769
1015.438628	2465.124231
1015.731699	2586.111923
1016.024736	2477.727115
1016.317737	2555.865000
1016.610703	2439.918462
1016.903635	2492.850577
1017.196531	2507.974038
1017.489393	2482.768269
1017.782219	2442.439038
1018.075011	2505.453462
1018.367768	2419.753846
1018.660490	2497.891731
1018.953177	2497.891731
1019.245829	2497.891731
