Dividing Wavelength (nm)	Counts (n)	Blue Motor Position (mm): 0.000000	Red Motor Position (mm): 1.700000	
326.493990	2132.408077
326.888308	2132.408077
327.282561	2132.408077
327.676750	2013.940962
328.070874	2051.749615
328.464933	2109.722885
328.858929	2150.052115
329.252859	2071.914231
329.646726	2039.146731
330.040528	2104.681731
330.434265	2127.366923
330.827938	2147.531538
331.221547	2099.640577
331.615091	2192.901923
332.008571	2210.545962
332.401986	2167.696154
332.795338	2243.313462
333.188625	2258.436923
333.581847	2225.669423
333.975006	2278.601538
334.368100	2278.601538
334.761129	2281.122115
335.154095	2278.601538
335.546996	2326.492500
335.939833	2344.136538
336.332606	2394.548077
336.725315	2414.712692
337.117960	2344.136538
337.510540	2432.356731
337.903056	2497.891731
338.295508	2447.480192
338.687896	2452.521346
339.080220	2472.685962
339.472480	2455.041923
339.864676	2381.945192
340.256807	2513.015192
340.648875	2505.453462
341.040879	2475.206538
341.432818	2447.480192
341.824694	2414.712692
342.216506	2460.083077
342.608253	2492.850577
342.999937	2477.727115
343.391557	2462.603654
343.783113	2397.068654
344.174605	2460.083077
344.566033	2450.000769
344.957397	2613.838269
345.348697	2444.959615
345.739934	2407.150962
346.131106	2450.000769
346.522215	2515.535769
346.913260	2455.041923
347.304241	2507.974038
347.695159	2502.932885
348.086012	2394.548077
348.476802	2518.056346
348.867528	2487.809423
349.258191	2437.397885
349.648789	2480.247692
350.039324	2563.426731
350.429796	2366.821731
350.820203	2422.274423
351.210548	2412.192115
351.600828	2394.548077
351.991045	2394.548077
352.381198	2392.027500
352.771288	2429.836154
353.161314	2434.877308
353.551276	2513.015192
353.941175	2442.439038
354.331010	2460.083077
354.720782	2495.371154
355.110490	2427.315577
355.500135	2354.218846
355.889717	2460.083077
356.279235	2450.000769
356.668689	2346.657115
357.058080	2477.727115
357.447408	2492.850577
357.836672	2465.124231
358.225873	2460.083077
358.615010	2462.603654
359.004084	2407.150962
359.393095	2323.971923
359.782043	2427.315577
360.170927	2455.041923
360.559748	2520.576923
360.948505	2507.974038
361.337199	2402.109808
361.725830	2427.315577
362.114398	2507.974038
362.502903	2414.712692
362.891344	2492.850577
363.279722	2500.412308
363.668037	2381.945192
364.056289	2442.439038
364.444478	2523.097500
364.832603	2480.247692
365.220665	2495.371154
365.608665	2379.424615
365.996601	2465.124231
366.384474	2455.041923
366.772284	2409.671538
367.160031	2507.974038
367.547715	2434.877308
367.935336	2482.768269
368.322893	2442.439038
368.710388	2475.206538
369.097820	2442.439038
369.485189	2417.233269
369.872495	2429.836154
370.259738	2460.083077
370.646918	2407.150962
371.034035	2450.000769
371.421090	2452.521346
371.808081	2470.165385
372.195010	2409.671538
372.581875	2386.986346
372.968678	2485.288846
373.355418	2495.371154
373.742096	2399.589231
374.128710	2475.206538
374.515262	2472.685962
374.901751	2376.904038
375.288177	2386.986346
375.674540	2505.453462
376.060841	2437.397885
376.447079	2414.712692
376.833254	2412.192115
377.219367	2487.809423
377.605417	2477.727115
377.991404	2392.027500
378.377329	2392.027500
378.763191	2455.041923
379.148991	2487.809423
379.534727	2376.904038
379.920402	2535.700385
380.306013	2490.330000
380.691563	2477.727115
381.077049	2402.109808
381.462474	2361.780577
381.847835	2482.768269
382.233134	2540.741538
382.618371	2397.068654
383.003545	2470.165385
383.388657	2470.165385
383.773706	2434.877308
384.158693	2450.000769
384.543618	2467.644808
384.928480	2465.124231
385.313280	2409.671538
385.698017	2437.397885
386.082692	2455.041923
386.467305	2437.397885
386.851856	2482.768269
387.236344	2465.124231
387.620770	2402.109808
388.005133	2523.097500
388.389435	2538.220962
388.773674	2510.494615
389.157851	2518.056346
389.541965	2520.576923
389.926018	2414.712692
390.310008	2563.426731
390.693936	2414.712692
391.077802	2472.685962
391.461606	2495.371154
391.845348	2528.138654
392.229027	2404.630385
392.612645	2386.986346
392.996200	2450.000769
393.379694	2558.385577
393.763125	2467.644808
394.146494	2538.220962
394.529801	2457.562500
394.913047	2530.659231
395.296230	2422.274423
395.679351	2457.562500
396.062410	2533.179808
396.445408	2447.480192
396.828343	2465.124231
397.211217	2455.041923
397.594028	2502.932885
397.976778	2490.330000
398.359466	2442.439038
398.742092	2523.097500
399.124656	2412.192115
399.507158	2470.165385
399.889598	2450.000769
400.271977	2444.959615
400.654294	2470.165385
401.036549	2455.041923
401.418742	2460.083077
401.800874	2525.618077
402.182944	2346.657115
402.564952	2450.000769
402.946898	2386.986346
403.328783	2480.247692
403.710606	2482.768269
404.092367	2487.809423
404.474067	2515.535769
404.855705	2502.932885
405.237282	2465.124231
405.618797	2369.342308
406.000250	2502.932885
406.381642	2553.344423
406.762972	2530.659231
407.144240	2447.480192
407.525447	2515.535769
407.906593	2485.288846
408.287677	2505.453462
408.668700	2439.918462
409.049661	2548.303269
409.430560	2533.179808
409.811399	2533.179808
410.192176	2412.192115
410.572891	2505.453462
410.953545	2487.809423
411.334138	2455.041923
411.714669	2480.247692
412.095139	2525.618077
412.475547	2487.809423
412.855894	2513.015192
413.236180	2487.809423
413.616405	2505.453462
413.996568	2472.685962
414.376670	2467.644808
414.756711	2510.494615
415.136691	2457.562500
415.516609	2422.274423
415.896466	2429.836154
416.276262	2412.192115
416.655997	2444.959615
417.035670	2553.344423
417.415283	2444.959615
417.794834	2429.836154
418.174324	2404.630385
418.553753	2442.439038
418.933121	2520.576923
419.312428	2533.179808
419.691674	2490.330000
420.070859	2513.015192
420.449983	2465.124231
420.829045	2455.041923
421.208047	2495.371154
421.586988	2444.959615
421.965867	2465.124231
422.344686	2457.562500
422.723444	2538.220962
423.102141	2462.603654
423.480777	2523.097500
423.859352	2462.603654
424.237866	2507.974038
424.616319	2482.768269
424.994712	2450.000769
425.373044	2455.041923
425.751314	2439.918462
426.129524	2482.768269
426.507673	2480.247692
426.885762	2439.918462
427.263789	2507.974038
427.641756	2480.247692
428.019662	2424.795000
428.397508	2475.206538
428.775292	2460.083077
429.153016	2422.274423
429.530679	2550.823846
429.908282	2427.315577
430.285824	2507.974038
430.663305	2444.959615
431.040726	2515.535769
431.418086	2500.412308
431.795385	2513.015192
432.172624	2492.850577
432.549802	2402.109808
432.926920	2447.480192
433.303977	2545.782692
433.680974	2434.877308
434.057910	2515.535769
434.434786	2404.630385
434.811601	2583.591346
435.188355	2497.891731
435.565050	2533.179808
435.941683	2407.150962
436.318257	2492.850577
436.694770	2485.288846
437.071222	2467.644808
437.447614	2429.836154
437.823946	2543.262115
438.200218	2399.589231
438.576429	2492.850577
438.952580	2482.768269
439.328670	2505.453462
439.704700	2530.659231
440.080670	2540.741538
440.456580	2470.165385
440.832429	2475.206538
441.208218	2513.015192
441.583947	2460.083077
441.959616	2450.000769
442.335224	2545.782692
442.710773	2507.974038
443.086261	2460.083077
443.461689	2434.877308
443.837057	2591.153077
444.212365	2432.356731
444.587612	2482.768269
444.962800	2460.083077
445.337927	2477.727115
445.712995	2505.453462
446.088002	2530.659231
446.462949	2490.330000
446.837837	2495.371154
447.212664	2558.385577
447.587431	2432.356731
447.962139	2394.548077
448.336786	2404.630385
448.711374	2452.521346
449.085901	2553.344423
449.460369	2465.124231
449.834776	2507.974038
450.209124	2442.439038
450.583412	2500.412308
450.957640	2429.836154
451.331808	2467.644808
451.705917	2507.974038
452.079965	2540.741538
452.453954	2434.877308
452.827883	2550.823846
453.201752	2447.480192
453.575562	2482.768269
453.949311	2500.412308
454.323001	2477.727115
454.696632	2439.918462
455.070202	2538.220962
455.443713	2500.412308
455.817164	2596.194231
456.190556	2477.727115
456.563888	2525.618077
456.937160	2407.150962
457.310373	2399.589231
457.683526	2548.303269
458.056619	2472.685962
458.429653	2497.891731
458.802628	2472.685962
459.175542	2510.494615
459.548398	2492.850577
459.921194	2540.741538
460.293930	2437.397885
460.666607	2434.877308
461.039224	2460.083077
461.411782	2470.165385
461.784280	2500.412308
462.156719	2558.385577
462.529099	2497.891731
462.901419	2515.535769
463.273680	2490.330000
463.645882	2470.165385
464.018024	2513.015192
464.390106	2346.657115
464.762130	2523.097500
465.134094	2475.206538
465.505999	2460.083077
465.877845	2455.041923
466.249631	2472.685962
466.621358	2500.412308
466.993026	2462.603654
467.364634	2444.959615
467.736184	2502.932885
468.107674	2424.795000
468.479105	2581.070769
468.850477	2510.494615
469.221790	2528.138654
469.593043	2490.330000
469.964238	2563.426731
470.335373	2480.247692
470.706449	2470.165385
471.077467	2392.027500
471.448425	2540.741538
471.819324	2470.165385
472.190164	2570.988462
472.560945	2510.494615
472.931667	2465.124231
473.302330	2510.494615
473.672934	2550.823846
474.043479	2500.412308
474.413965	2439.918462
474.784393	2457.562500
475.154761	2450.000769
475.525070	2510.494615
475.895321	2515.535769
476.265513	2570.988462
476.635645	2513.015192
477.005719	2495.371154
477.375734	2465.124231
477.745691	2548.303269
478.115588	2475.206538
478.485427	2500.412308
478.855207	2497.891731
479.224928	2477.727115
479.594591	2497.891731
479.964194	2518.056346
480.333739	2455.041923
480.703226	2507.974038
481.072653	2523.097500
481.442022	2538.220962
481.811333	2497.891731
482.180584	2432.356731
482.549777	2467.644808
482.918912	2500.412308
483.287988	2447.480192
483.657005	2497.891731
484.025964	2525.618077
484.394864	2497.891731
484.763706	2485.288846
485.132489	2528.138654
485.501213	2492.850577
485.869879	2482.768269
486.238487	2457.562500
486.607036	2533.179808
486.975527	2518.056346
487.343959	2495.371154
487.712333	2439.918462
488.080648	2427.315577
488.448905	2525.618077
488.817104	2548.303269
489.185244	2513.015192
489.553326	2374.383462
489.921350	2457.562500
490.289315	2457.562500
490.657222	2588.632500
491.025070	2439.918462
491.392861	2472.685962
491.760593	2447.480192
492.128267	2492.850577
492.495883	2447.480192
492.863440	2535.700385
493.230939	2525.618077
493.598380	2553.344423
493.965763	2409.671538
494.333088	2598.714808
494.700354	2427.315577
495.067563	2502.932885
495.434713	2465.124231
495.801805	2475.206538
496.168839	2467.644808
496.535815	2528.138654
496.902733	2460.083077
497.269593	2402.109808
497.636395	2548.303269
498.003139	2487.809423
498.369825	2513.015192
498.736453	2515.535769
499.103023	2560.906154
499.469535	2442.439038
499.835989	2467.644808
500.202385	2545.782692
500.568723	2513.015192
500.935003	2475.206538
501.301226	2510.494615
501.667390	2442.439038
502.033497	2513.015192
502.399546	2455.041923
502.765537	2442.439038
503.131470	2424.795000
503.497345	2515.535769
503.863163	2545.782692
504.228923	2442.439038
504.594625	2545.782692
504.960269	2513.015192
505.325856	2543.262115
505.691385	2538.220962
506.056856	2409.671538
506.422270	2507.974038
506.787625	2505.453462
507.152924	2470.165385
507.518164	2497.891731
507.883347	2455.041923
508.248472	2472.685962
508.613540	2457.562500
508.978550	2414.712692
509.343503	2513.015192
509.708398	2497.891731
510.073236	2460.083077
510.438016	2502.932885
510.802738	2518.056346
511.167403	2520.576923
511.532010	2497.891731
511.896561	2419.753846
512.261053	2591.153077
512.625488	2518.056346
512.989866	2480.247692
513.354186	2467.644808
513.718449	2515.535769
514.082655	2525.618077
514.446803	2452.521346
514.810894	2465.124231
515.174927	2497.891731
515.538904	2497.891731
515.902822	2447.480192
516.266684	2465.124231
516.630488	2588.632500
516.994235	2518.056346
517.357925	2467.644808
517.721558	2558.385577
518.085133	2533.179808
518.448651	2477.727115
518.812112	2497.891731
519.175516	2487.809423
519.538863	2513.015192
519.902152	2470.165385
520.265385	2497.891731
520.628560	2558.385577
520.991678	2528.138654
521.354739	2450.000769
521.717743	2384.465769
522.080690	2573.509038
522.443580	2482.768269
522.806413	2487.809423
523.169189	2515.535769
523.531908	2523.097500
523.894569	2535.700385
524.257174	2434.877308
524.619722	2528.138654
524.982213	2447.480192
525.344647	2535.700385
525.707025	2538.220962
526.069345	2533.179808
526.431608	2457.562500
526.793815	2518.056346
527.155964	2502.932885
527.518057	2432.356731
527.880093	2480.247692
528.242072	2497.891731
528.603995	2573.509038
528.965860	2510.494615
529.327669	2500.412308
529.689421	2485.288846
530.051117	2442.439038
530.412755	2505.453462
530.774337	2384.465769
531.135862	2540.741538
531.497331	2487.809423
531.858743	2535.700385
532.220098	2518.056346
532.581396	2502.932885
532.942638	2455.041923
533.303824	2487.809423
533.664953	2548.303269
534.026025	2462.603654
534.387040	2485.288846
534.747999	2518.056346
535.108902	2427.315577
535.469748	2442.439038
535.830537	2520.576923
536.191270	2502.932885
536.551947	2447.480192
536.912567	2437.397885
537.273131	2530.659231
537.633638	2621.400000
537.994089	2495.371154
538.354483	2452.521346
538.714821	2558.385577
539.075103	2485.288846
539.435328	2495.371154
539.795497	2507.974038
540.155609	2530.659231
540.515665	2432.356731
540.875665	2457.562500
541.235609	2538.220962
541.595496	2462.603654
541.955328	2510.494615
542.315102	2424.795000
542.674821	2497.891731
543.034483	2492.850577
543.394090	2510.494615
543.753640	2470.165385
544.113134	2502.932885
544.472571	2492.850577
544.831953	2490.330000
545.191278	2475.206538
545.550548	2439.918462
545.909761	2485.288846
546.268918	2455.041923
546.628019	2470.165385
546.987064	2467.644808
547.346053	2520.576923
547.704986	2528.138654
548.063863	2543.262115
548.422684	2409.671538
548.781449	2528.138654
549.140158	2520.576923
549.498811	2407.150962
549.857408	2480.247692
550.215949	2525.618077
550.574434	2492.850577
550.932864	2555.865000
551.291237	2472.685962
551.649555	2490.330000
552.007817	2538.220962
552.366022	2565.947308
552.724173	2457.562500
553.082267	2581.070769
553.440305	2505.453462
553.798288	2472.685962
554.156215	2467.644808
554.514086	2538.220962
554.871902	2525.618077
555.229661	2563.426731
555.587365	2470.165385
555.945014	2523.097500
556.302606	2558.385577
556.660143	2497.891731
557.017625	2576.029615
557.375050	2470.165385
557.732421	2520.576923
558.089735	2492.850577
558.446994	2523.097500
558.804197	2533.179808
559.161345	2530.659231
559.518437	2495.371154
559.875474	2525.618077
560.232455	2470.165385
560.589381	2500.412308
560.946251	2389.506923
561.303065	2507.974038
561.659825	2502.932885
562.016528	2550.823846
562.373177	2404.630385
562.729770	2510.494615
563.086307	2432.356731
563.442789	2450.000769
563.799216	2520.576923
564.155587	2513.015192
564.511904	2520.576923
564.868164	2419.753846
565.224370	2510.494615
565.580520	2510.494615
565.936615	2450.000769
566.292654	2586.111923
566.648638	2515.535769
567.004567	2455.041923
567.360441	2560.906154
567.716260	2540.741538
568.072023	2447.480192
568.427732	2492.850577
568.783385	2462.603654
569.138982	2530.659231
569.494525	2374.383462
569.850013	2427.315577
570.205445	2485.288846
570.560823	2485.288846
570.916145	2414.712692
571.271412	2472.685962
571.626625	2548.303269
571.981782	2437.397885
572.336884	2548.303269
572.691931	2497.891731
573.046923	2545.782692
573.401860	2457.562500
573.756743	2538.220962
574.111570	2502.932885
574.466342	2533.179808
574.821059	2502.932885
575.175722	2523.097500
575.530330	2482.768269
575.884882	2444.959615
576.239380	2545.782692
576.593823	2505.453462
576.948211	2490.330000
577.302544	2470.165385
577.656823	2553.344423
578.011047	2452.521346
578.365216	2487.809423
578.719330	2465.124231
579.073389	2480.247692
579.427394	2485.288846
579.781344	2505.453462
580.135239	2533.179808
580.489080	2477.727115
580.842866	2515.535769
581.196597	2487.809423
581.550273	2578.550192
581.903895	2510.494615
582.257463	2523.097500
582.610975	2492.850577
582.964434	2518.056346
583.317837	2507.974038
583.671186	2500.412308
584.024481	2450.000769
584.377721	2480.247692
584.730906	2513.015192
585.084037	2523.097500
585.437113	2450.000769
585.790135	2505.453462
586.143103	2480.247692
586.496016	2510.494615
586.848874	2444.959615
587.201679	2475.206538
587.554428	2538.220962
587.907124	2515.535769
588.259765	2475.206538
588.612352	2548.303269
588.964884	2533.179808
589.317362	2598.714808
589.669786	2513.015192
590.022155	2432.356731
590.374470	2492.850577
590.726731	2550.823846
591.078937	2472.685962
591.431090	2505.453462
591.783188	2530.659231
592.135232	2450.000769
592.487222	2505.453462
592.839157	2434.877308
593.191038	2487.809423
593.542866	2601.235385
593.894639	2535.700385
594.246358	2447.480192
594.598022	2497.891731
594.949633	2513.015192
595.301190	2540.741538
595.652692	2477.727115
596.004141	2437.397885
596.355535	2507.974038
596.706876	2470.165385
597.058162	2515.535769
597.409395	2462.603654
597.760573	2457.562500
598.111698	2472.685962
598.462768	2505.453462
598.813785	2437.397885
599.164748	2480.247692
599.515657	2477.727115
599.866511	2525.618077
600.217312	2447.480192
600.568060	2533.179808
600.918753	2530.659231
601.269392	2452.521346
601.619978	2457.562500
601.970510	2528.138654
602.320988	2540.741538
602.671412	2500.412308
603.021783	2429.836154
603.372100	2467.644808
603.722363	2482.768269
604.072572	2460.083077
604.422728	2470.165385
604.772830	2444.959615
605.122878	2442.439038
605.472872	2470.165385
605.822813	2450.000769
606.172701	2460.083077
606.522534	2457.562500
606.872314	2424.795000
607.222041	2485.288846
607.571714	2515.535769
607.921333	2510.494615
608.270899	2502.932885
608.620411	2492.850577
608.969870	2502.932885
609.319276	2442.439038
609.668627	2470.165385
610.017926	2515.535769
610.367171	2490.330000
610.716362	2480.247692
611.065500	2530.659231
611.414585	2525.618077
611.763616	2477.727115
612.112594	2510.494615
612.461518	2480.247692
612.810389	2455.041923
613.159207	2467.644808
613.507971	2472.685962
613.856682	2434.877308
614.205340	2450.000769
614.553945	2553.344423
614.902496	2513.015192
615.250994	2576.029615
615.599439	2412.192115
615.947830	2530.659231
616.296169	2500.412308
616.644454	2525.618077
616.992686	2477.727115
617.340864	2495.371154
617.688990	2560.906154
618.037063	2465.124231
618.385082	2447.480192
618.733048	2472.685962
619.080961	2482.768269
619.428821	2550.823846
619.776628	2518.056346
620.124382	2442.439038
620.472083	2535.700385
620.819731	2460.083077
621.167326	2525.618077
621.514868	2467.644808
621.862357	2500.412308
622.209793	2487.809423
622.557176	2470.165385
622.904506	2533.179808
623.251783	2467.644808
623.599007	2495.371154
623.946179	2553.344423
624.293297	2490.330000
624.640363	2581.070769
624.987376	2482.768269
625.334336	2563.426731
625.681243	2465.124231
626.028097	2505.453462
626.374899	2535.700385
626.721647	2439.918462
627.068343	2429.836154
627.414987	2472.685962
627.761577	2487.809423
628.108115	2502.932885
628.454600	2581.070769
628.801032	2460.083077
629.147412	2465.124231
629.493739	2518.056346
629.840014	2444.959615
630.186236	2490.330000
630.532405	2616.358846
630.878521	2487.809423
631.224585	2462.603654
631.570597	2507.974038
631.916556	2500.412308
632.262462	2513.015192
632.608316	2447.480192
632.954117	2505.453462
633.299866	2442.439038
633.645562	2409.671538
633.991206	2550.823846
634.336797	2412.192115
634.682336	2452.521346
635.027823	2480.247692
635.373257	2460.083077
635.718639	2525.618077
636.063968	2545.782692
636.409245	2530.659231
636.754470	2621.400000
637.099642	2510.494615
637.444762	2513.015192
637.789829	2543.262115
638.134845	2545.782692
638.479808	2525.618077
638.824719	2495.371154
639.169577	2515.535769
639.514383	2470.165385
639.859137	2447.480192
640.203839	2507.974038
640.548489	2452.521346
640.893086	2578.550192
641.237632	2500.412308
641.582125	2492.850577
641.926566	2538.220962
642.270955	2565.947308
642.615292	2538.220962
642.959576	2465.124231
643.303809	2500.412308
643.647990	2422.274423
643.992118	2477.727115
644.336195	2492.850577
644.680219	2533.179808
645.024192	2485.288846
645.368112	2545.782692
645.711981	2553.344423
646.055797	2500.412308
646.399562	2500.412308
646.743274	2447.480192
647.086935	2502.932885
647.430544	2475.206538
647.774101	2535.700385
648.117606	2495.371154
648.461059	2487.809423
648.804460	2490.330000
649.147810	2507.974038
649.491108	2507.974038
649.834354	2583.591346
650.177548	2543.262115
650.520690	2404.630385
650.863781	2442.439038
651.206820	2442.439038
651.549807	2515.535769
651.892742	2485.288846
652.235626	2467.644808
652.578458	2515.535769
652.921238	2530.659231
653.263967	2518.056346
653.606644	2492.850577
653.949269	2472.685962
654.291843	2422.274423
654.634365	2535.700385
654.976836	2563.426731
655.319255	2586.111923
655.661622	2480.247692
656.003938	2475.206538
656.346203	2492.850577
656.688416	2495.371154
657.030577	2457.562500
657.372687	2515.535769
657.714746	2482.768269
658.056753	2485.288846
658.398708	2467.644808
658.740612	2528.138654
659.082465	2518.056346
659.424266	2480.247692
659.766016	2533.179808
660.107715	2528.138654
660.449362	2573.509038
660.790958	2497.891731
661.132503	2510.494615
661.473996	2455.041923
661.815438	2533.179808
662.156829	2510.494615
662.498168	2618.879423
662.839456	2480.247692
663.180693	2502.932885
663.521879	2530.659231
663.863013	2550.823846
664.204097	2472.685962
664.545129	2515.535769
664.886110	2520.576923
665.227040	2429.836154
665.567918	2515.535769
665.908746	2545.782692
666.249522	2482.768269
666.590248	2475.206538
666.930922	2470.165385
667.271545	2462.603654
667.612118	2427.315577
667.952639	2424.795000
668.293109	2492.850577
668.633528	2450.000769
668.973896	2550.823846
669.314213	2452.521346
669.654480	2427.315577
669.994695	2444.959615
670.334859	2505.453462
670.674973	2485.288846
671.015035	2510.494615
671.355047	2427.315577
671.695008	2528.138654
672.034918	2513.015192
672.374777	2447.480192
672.714585	2606.276538
673.054342	2518.056346
673.394049	2452.521346
673.733705	2495.371154
674.073310	2457.562500
674.412864	2523.097500
674.752368	2528.138654
675.091820	2465.124231
675.431223	2492.850577
675.770574	2518.056346
676.109875	2450.000769
676.449125	2452.521346
676.788324	2538.220962
677.127473	2460.083077
677.466571	2442.439038
677.805619	2500.412308
678.144616	2495.371154
678.483562	2502.932885
678.822458	2495.371154
679.161303	2455.041923
679.500098	2555.865000
679.838842	2477.727115
680.177535	2545.782692
680.516179	2533.179808
680.854771	2533.179808
681.193314	2497.891731
681.531805	2457.562500
681.870247	2467.644808
682.208638	2495.371154
682.546978	2424.795000
682.885268	2457.562500
683.223508	2507.974038
683.561697	2583.591346
683.899836	2548.303269
684.237925	2548.303269
684.575963	2538.220962
684.913951	2386.986346
685.251889	2540.741538
685.589776	2502.932885
685.927614	2518.056346
686.265401	2523.097500
686.603137	2518.056346
686.940824	2480.247692
687.278460	2525.618077
687.616046	2538.220962
687.953582	2460.083077
688.291068	2513.015192
688.628504	2475.206538
688.965889	2513.015192
689.303224	2543.262115
689.640510	2485.288846
689.977745	2525.618077
690.314930	2548.303269
690.652065	2475.206538
690.989150	2470.165385
691.326185	2477.727115
691.663170	2487.809423
692.000105	2472.685962
692.336990	2457.562500
692.673825	2520.576923
693.010610	2422.274423
693.347345	2487.809423
693.684030	2485.288846
694.020665	2402.109808
694.357251	2470.165385
694.693786	2460.083077
695.030272	2518.056346
695.366707	2467.644808
695.703093	2550.823846
696.039429	2475.206538
696.375716	2475.206538
696.711952	2457.562500
697.048139	2457.562500
697.384276	2540.741538
697.720363	2452.521346
698.056400	2548.303269
698.392388	2492.850577
698.728326	2457.562500
699.064214	2485.288846
699.400053	2455.041923
699.735842	2548.303269
700.071581	2530.659231
700.407270	2497.891731
700.742910	2568.467885
701.078501	2502.932885
701.414042	2497.891731
701.749533	2510.494615
702.084974	2462.603654
702.420366	2553.344423
702.755709	2439.918462
703.091002	2417.233269
703.426246	2495.371154
703.761440	2465.124231
704.096584	2520.576923
704.431679	2495.371154
704.766725	2533.179808
705.101721	2462.603654
705.436668	2538.220962
705.771565	2444.959615
706.106413	2502.932885
706.441212	2434.877308
706.775961	2570.988462
707.110661	2518.056346
707.445311	2533.179808
707.779913	2455.041923
708.114465	2507.974038
708.448967	2455.041923
708.783421	2497.891731
709.117825	2399.589231
709.452180	2497.891731
709.786485	2462.603654
710.120742	2487.809423
710.454949	2492.850577
710.789107	2429.836154
711.123216	2402.109808
711.457275	2429.836154
711.791286	2417.233269
712.125247	2520.576923
712.459159	2485.288846
712.793023	2545.782692
713.126837	2409.671538
713.460602	2538.220962
713.794318	2505.453462
714.127985	2452.521346
714.461602	2553.344423
714.795171	2460.083077
715.128691	2472.685962
715.462162	2558.385577
715.795584	2560.906154
716.128957	2485.288846
716.462281	2520.576923
716.795556	2444.959615
717.128782	2472.685962
717.461960	2520.576923
717.795088	2553.344423
718.128167	2565.947308
718.461198	2502.932885
718.794180	2535.700385
719.127113	2591.153077
719.459997	2535.700385
719.792833	2452.521346
720.125619	2515.535769
720.458357	2568.467885
720.791046	2515.535769
721.123686	2477.727115
721.456278	2576.029615
721.788821	2523.097500
722.121315	2513.015192
722.453761	2487.809423
722.786158	2452.521346
723.118506	2507.974038
723.450805	2560.906154
723.783056	2460.083077
724.115259	2513.015192
724.447412	2439.918462
724.779518	2518.056346
725.111574	2439.918462
725.443582	2520.576923
725.775542	2495.371154
726.107453	2520.576923
726.439315	2462.603654
726.771129	2581.070769
727.102895	2530.659231
727.434612	2523.097500
727.766281	2465.124231
728.097901	2490.330000
728.429473	2475.206538
728.760996	2444.959615
729.092471	2470.165385
729.423897	2442.439038
729.755276	2465.124231
730.086606	2497.891731
730.417887	2472.685962
730.749120	2510.494615
731.080305	2495.371154
731.411442	2472.685962
731.742530	2457.562500
732.073570	2510.494615
732.404562	2565.947308
732.735506	2558.385577
733.066401	2444.959615
733.397249	2507.974038
733.728048	2455.041923
734.058798	2432.356731
734.389501	2568.467885
734.720156	2497.891731
735.050762	2513.015192
735.381320	2528.138654
735.711831	2570.988462
736.042293	2457.562500
736.372707	2538.220962
736.703073	2389.506923
737.033391	2497.891731
737.363661	2500.412308
737.693883	2528.138654
738.024056	2563.426731
738.354182	2434.877308
738.684260	2487.809423
739.014290	2470.165385
739.344272	2593.673654
739.674207	2439.918462
740.004093	2538.220962
740.333931	2442.439038
740.663722	2515.535769
740.993464	2475.206538
741.323159	2570.988462
741.652806	2397.068654
741.982405	2475.206538
742.311956	2457.562500
742.641460	2518.056346
742.970915	2540.741538
743.300323	2533.179808
743.629683	2487.809423
743.958996	2447.480192
744.288260	2497.891731
744.617477	2500.412308
744.946647	2480.247692
745.275768	2553.344423
745.604842	2482.768269
745.933869	2558.385577
746.262847	2455.041923
746.591778	2550.823846
746.920662	2470.165385
747.249498	2540.741538
747.578286	2568.467885
747.907027	2573.509038
748.235720	2414.712692
748.564365	2485.288846
748.892963	2505.453462
749.221514	2477.727115
749.550017	2500.412308
749.878473	2538.220962
750.206881	2432.356731
750.535242	2482.768269
750.863555	2437.397885
751.191821	2470.165385
751.520039	2492.850577
751.848210	2510.494615
752.176334	2490.330000
752.504411	2472.685962
752.832440	2404.630385
753.160421	2500.412308
753.488356	2520.576923
753.816243	2515.535769
754.144082	2570.988462
754.471875	2502.932885
754.799620	2439.918462
755.127318	2515.535769
755.454969	2432.356731
755.782572	2465.124231
756.110129	2419.753846
756.437638	2424.795000
756.765100	2482.768269
757.092515	2515.535769
757.419882	2482.768269
757.747203	2586.111923
758.074477	2548.303269
758.401703	2555.865000
758.728882	2538.220962
759.056014	2419.753846
759.383099	2538.220962
759.710138	2507.974038
760.037129	2553.344423
760.364073	2507.974038
760.690970	2505.453462
761.017820	2427.315577
761.344623	2417.233269
761.671379	2505.453462
761.998088	2472.685962
762.324751	2482.768269
762.651366	2548.303269
762.977935	2482.768269
763.304456	2432.356731
763.630931	2530.659231
763.957359	2550.823846
764.283740	2492.850577
764.610074	2500.412308
764.936362	2560.906154
765.262602	2515.535769
765.588796	2540.741538
765.914943	2444.959615
766.241044	2439.918462
766.567097	2485.288846
766.893104	2467.644808
767.219064	2434.877308
767.544978	2487.809423
767.870845	2525.618077
768.196665	2533.179808
768.522438	2518.056346
768.848165	2507.974038
769.173846	2502.932885
769.499479	2502.932885
769.825066	2394.548077
770.150607	2487.809423
770.476101	2437.397885
770.801548	2510.494615
771.126949	2475.206538
771.452303	2477.727115
771.777611	2356.739423
772.102872	2568.467885
772.428087	2520.576923
772.753256	2507.974038
773.078378	2513.015192
773.403453	2492.850577
773.728482	2492.850577
774.053465	2525.618077
774.378401	2543.262115
774.703291	2555.865000
775.028135	2465.124231
775.352932	2470.165385
775.677683	2507.974038
776.002388	2364.301154
776.327046	2538.220962
776.651658	2553.344423
776.976224	2515.535769
777.300743	2472.685962
777.625216	2523.097500
777.949643	2543.262115
778.274024	2455.041923
778.598359	2487.809423
778.922647	2540.741538
779.246889	2535.700385
779.571086	2429.836154
779.895236	2538.220962
780.219339	2432.356731
780.543397	2545.782692
780.867409	2472.685962
781.191374	2470.165385
781.515294	2558.385577
781.839167	2510.494615
782.162995	2518.056346
782.486776	2475.206538
782.810511	2455.041923
783.134201	2487.809423
783.457844	2450.000769
783.781441	2583.591346
784.104993	2457.562500
784.428498	2513.015192
784.751958	2467.644808
785.075372	2510.494615
785.398739	2510.494615
785.722061	2452.521346
786.045337	2545.782692
786.368568	2558.385577
786.691752	2480.247692
787.014891	2530.659231
787.337983	2439.918462
787.661030	2543.262115
787.984031	2482.768269
788.306987	2505.453462
788.629897	2515.535769
788.952760	2525.618077
789.275579	2520.576923
789.598351	2545.782692
789.921078	2513.015192
790.243759	2548.303269
790.566395	2533.179808
790.888984	2540.741538
791.211529	2528.138654
791.534027	2485.288846
791.856480	2482.768269
792.178888	2510.494615
792.501249	2485.288846
792.823566	2523.097500
793.145836	2472.685962
793.468062	2540.741538
793.790241	2465.124231
794.112375	2513.015192
794.434464	2540.741538
794.756507	2465.124231
795.078505	2434.877308
795.400457	2513.015192
795.722364	2510.494615
796.044226	2540.741538
796.366042	2492.850577
796.687812	2407.150962
797.009538	2540.741538
797.331218	2490.330000
797.652852	2510.494615
797.974442	2495.371154
798.295986	2457.562500
798.617484	2570.988462
798.938938	2434.877308
799.260346	2530.659231
799.581709	2467.644808
799.903026	2417.233269
800.224299	2515.535769
800.545526	2492.850577
800.866708	2460.083077
801.187845	2578.550192
801.508936	2507.974038
801.829983	2568.467885
802.150984	2460.083077
802.471940	2535.700385
802.792851	2482.768269
803.113717	2543.262115
803.434538	2518.056346
803.755314	2480.247692
804.076045	2397.068654
804.396731	2505.453462
804.717372	2530.659231
805.037967	2412.192115
805.358518	2490.330000
805.679024	2467.644808
805.999485	2457.562500
806.319901	2591.153077
806.640272	2540.741538
806.960598	2535.700385
807.280879	2502.932885
807.601115	2523.097500
807.921306	2570.988462
808.241453	2444.959615
808.561554	2523.097500
808.881611	2570.988462
809.201623	2480.247692
809.521590	2505.453462
809.841513	2533.179808
810.161390	2525.618077
810.481223	2414.712692
810.801011	2455.041923
811.120755	2442.439038
811.440453	2485.288846
811.760107	2477.727115
812.079716	2543.262115
812.399281	2402.109808
812.718801	2540.741538
813.038276	2462.603654
813.357707	2497.891731
813.677093	2429.836154
813.996434	2535.700385
814.315731	2455.041923
814.634983	2555.865000
814.954191	2502.932885
815.273354	2500.412308
815.592473	2497.891731
815.911547	2588.632500
816.230577	2533.179808
816.549562	2550.823846
816.868502	2495.371154
817.187399	2472.685962
817.506250	2497.891731
817.825058	2530.659231
818.143821	2419.753846
818.462539	2487.809423
818.781213	2404.630385
819.099843	2528.138654
819.418429	2450.000769
819.736970	2490.330000
820.055466	2427.315577
820.373919	2543.262115
820.692327	2467.644808
821.010691	2460.083077
821.329011	2404.630385
821.647286	2523.097500
821.965517	2520.576923
822.283704	2502.932885
822.601847	2515.535769
822.919945	2543.262115
823.237999	2515.535769
823.556010	2570.988462
823.873976	2505.453462
824.191897	2578.550192
824.509775	2530.659231
824.827609	2533.179808
825.145398	2495.371154
825.463144	2528.138654
825.780845	2492.850577
826.098502	2490.330000
826.416116	2520.576923
826.733685	2502.932885
827.051210	2477.727115
827.368692	2475.206538
827.686129	2530.659231
828.003522	2439.918462
828.320872	2520.576923
828.638177	2513.015192
828.955439	2518.056346
829.272656	2429.836154
829.589830	2510.494615
829.906960	2525.618077
830.224046	2540.741538
830.541088	2492.850577
830.858086	2470.165385
831.175041	2485.288846
831.491952	2528.138654
831.808819	2591.153077
832.125642	2576.029615
832.442421	2480.247692
832.759157	2538.220962
833.075849	2513.015192
833.392497	2520.576923
833.709101	2507.974038
834.025662	2520.576923
834.342179	2492.850577
834.658653	2485.288846
834.975083	2490.330000
835.291469	2412.192115
835.607811	2424.795000
835.924110	2530.659231
836.240366	2477.727115
836.556578	2505.453462
836.872746	2475.206538
837.188871	2558.385577
837.504952	2495.371154
837.820990	2482.768269
838.136984	2412.192115
838.452935	2533.179808
838.768842	2518.056346
839.084706	2528.138654
839.400526	2520.576923
839.716303	2510.494615
840.032037	2570.988462
840.347727	2477.727115
840.663373	2528.138654
840.978977	2555.865000
841.294537	2495.371154
841.610054	2535.700385
841.925527	2407.150962
842.240957	2528.138654
842.556344	2457.562500
842.871687	2487.809423
843.186987	2533.179808
843.502244	2437.397885
843.817458	2513.015192
844.132629	2497.891731
844.447756	2558.385577
844.762840	2379.424615
845.077881	2432.356731
845.392879	2500.412308
845.707833	2502.932885
846.022745	2502.932885
846.337613	2535.700385
846.652438	2460.083077
846.967221	2560.906154
847.281960	2500.412308
847.596656	2510.494615
847.911309	2452.521346
848.225919	2545.782692
848.540485	2555.865000
848.855009	2354.218846
849.169490	2576.029615
849.483928	2444.959615
849.798323	2477.727115
850.112675	2381.945192
850.426984	2548.303269
850.741251	2402.109808
851.055474	2482.768269
851.369654	2457.562500
851.683792	2485.288846
851.997887	2573.509038
852.311938	2530.659231
852.625947	2586.111923
852.939914	2477.727115
853.253837	2492.850577
853.567718	2505.453462
853.881555	2545.782692
854.195350	2513.015192
854.509103	2397.068654
854.822812	2525.618077
855.136479	2462.603654
855.450103	2472.685962
855.763685	2530.659231
856.077224	2507.974038
856.390720	2427.315577
856.704173	2434.877308
857.017584	2470.165385
857.330953	2475.206538
857.644278	2482.768269
857.957561	2518.056346
858.270802	2407.150962
858.584000	2520.576923
858.897155	2518.056346
859.210268	2490.330000
859.523339	2487.809423
859.836367	2553.344423
860.149352	2465.124231
860.462295	2497.891731
860.775195	2444.959615
861.088054	2447.480192
861.400869	2505.453462
861.713642	2518.056346
862.026373	2487.809423
862.339062	2492.850577
862.651708	2553.344423
862.964312	2472.685962
863.276873	2472.685962
863.589392	2472.685962
863.901869	2520.576923
864.214303	2414.712692
864.526696	2480.247692
864.839045	2540.741538
865.151353	2495.371154
865.463619	2515.535769
865.775842	2568.467885
866.088023	2450.000769
866.400162	2510.494615
866.712258	2563.426731
867.024313	2442.439038
867.336325	2548.303269
867.648296	2490.330000
867.960224	2505.453462
868.272110	2455.041923
868.583954	2414.712692
868.895755	2558.385577
869.207515	2581.070769
869.519233	2583.591346
869.830909	2523.097500
870.142542	2467.644808
870.454134	2407.150962
870.765684	2515.535769
871.077191	2470.165385
871.388657	2535.700385
871.700081	2447.480192
872.011463	2507.974038
872.322803	2472.685962
872.634101	2480.247692
872.945357	2432.356731
873.256571	2523.097500
873.567744	2472.685962
873.878874	2495.371154
874.189963	2530.659231
874.501010	2495.371154
874.812015	2540.741538
875.122979	2515.535769
875.433900	2543.262115
875.744780	2465.124231
876.055618	2462.603654
876.366415	2560.906154
876.677169	2462.603654
876.987882	2510.494615
877.298554	2533.179808
877.609183	2450.000769
877.919771	2500.412308
878.230317	2444.959615
878.540822	2525.618077
878.851285	2510.494615
879.161707	2581.070769
879.472087	2429.836154
879.782425	2513.015192
880.092722	2497.891731
880.402977	2495.371154
880.713191	2550.823846
881.023363	2515.535769
881.333494	2510.494615
881.643583	2482.768269
881.953631	2412.192115
882.263637	2460.083077
882.573602	2492.850577
882.883526	2450.000769
883.193408	2555.865000
883.503248	2439.918462
883.813048	2465.124231
884.122806	2505.453462
884.432522	2495.371154
884.742197	2518.056346
885.051831	2470.165385
885.361424	2513.015192
885.670975	2528.138654
885.980485	2482.768269
886.289954	2533.179808
886.599382	2465.124231
886.908768	2500.412308
887.218113	2492.850577
887.527417	2444.959615
887.836680	2404.630385
888.145901	2513.015192
888.455082	2465.124231
888.764221	2480.247692
889.073319	2477.727115
889.382376	2518.056346
889.691392	2485.288846
890.000366	2482.768269
890.309300	2596.194231
890.618193	2502.932885
890.927044	2437.397885
891.235855	2502.932885
891.544625	2495.371154
891.853353	2462.603654
892.162041	2480.247692
892.470687	2447.480192
892.779293	2505.453462
893.087858	2538.220962
893.396381	2616.358846
893.704864	2495.371154
894.013306	2437.397885
894.321707	2417.233269
894.630068	2553.344423
894.938387	2477.727115
895.246665	2507.974038
895.554903	2543.262115
895.863100	2513.015192
896.171256	2495.371154
896.479371	2523.097500
896.787446	2482.768269
897.095480	2444.959615
897.403473	2460.083077
897.711425	2381.945192
898.019336	2480.247692
898.327207	2429.836154
898.635038	2533.179808
898.942827	2495.371154
899.250576	2424.795000
899.558284	2480.247692
899.865952	2419.753846
900.173579	2495.371154
900.481165	2528.138654
900.788711	2427.315577
901.096216	2495.371154
901.403681	2530.659231
901.711105	2538.220962
902.018489	2487.809423
902.325832	2467.644808
902.633135	2442.439038
902.940397	2525.618077
903.247619	2467.644808
903.554800	2528.138654
903.861941	2588.632500
904.169041	2434.877308
904.476101	2518.056346
904.783121	2452.521346
905.090100	2487.809423
905.397039	2497.891731
905.703938	2472.685962
906.010796	2462.603654
906.317614	2444.959615
906.624391	2442.439038
906.931129	2346.657115
907.237826	2520.576923
907.544483	2480.247692
907.851099	2507.974038
908.157675	2399.589231
908.464211	2497.891731
908.770707	2424.795000
909.077163	2480.247692
909.383578	2462.603654
909.689954	2495.371154
909.996289	2477.727115
910.302584	2472.685962
910.608839	2485.288846
910.915054	2505.453462
911.221229	2507.974038
911.527363	2482.768269
911.833458	2444.959615
912.139513	2528.138654
912.445527	2548.303269
912.751502	2432.356731
913.057436	2596.194231
913.363331	2417.233269
913.669186	2482.768269
913.975000	2543.262115
914.280775	2485.288846
914.586510	2538.220962
914.892205	2467.644808
915.197859	2520.576923
915.503475	2525.618077
915.809050	2588.632500
916.114585	2472.685962
916.420081	2518.056346
916.725536	2460.083077
917.030952	2457.562500
917.336328	2528.138654
917.641665	2434.877308
917.946961	2462.603654
918.252218	2450.000769
918.557435	2598.714808
918.862612	2477.727115
919.167750	2482.768269
919.472848	2500.412308
919.777906	2525.618077
920.082925	2548.303269
920.387904	2507.974038
920.692843	2480.247692
920.997743	2525.618077
921.302603	2523.097500
921.607423	2523.097500
921.912204	2432.356731
922.216946	2495.371154
922.521647	2487.809423
922.826310	2515.535769
923.130932	2586.111923
923.435516	2480.247692
923.740059	2533.179808
924.044564	2497.891731
924.349028	2533.179808
924.653454	2422.274423
924.957840	2409.671538
925.262186	2565.947308
925.566493	2502.932885
925.870761	2495.371154
926.174989	2550.823846
926.479178	2404.630385
926.783328	2412.192115
927.087438	2540.741538
927.391509	2513.015192
927.695541	2505.453462
927.999533	2442.439038
928.303486	2545.782692
928.607400	2470.165385
928.911275	2560.906154
929.215110	2502.932885
929.518906	2460.083077
929.822663	2447.480192
930.126381	2510.494615
930.430060	2460.083077
930.733699	2444.959615
931.037299	2505.453462
931.340861	2518.056346
931.644383	2520.576923
931.947866	2550.823846
932.251309	2528.138654
932.554714	2502.932885
932.858080	2553.344423
933.161407	2389.506923
933.464694	2570.988462
933.767943	2507.974038
934.071153	2520.576923
934.374323	2480.247692
934.677455	2505.453462
934.980548	2450.000769
935.283602	2492.850577
935.586617	2455.041923
935.889593	2570.988462
936.192530	2518.056346
936.495428	2520.576923
936.798287	2434.877308
937.101108	2477.727115
937.403890	2465.124231
937.706632	2502.932885
938.009336	2429.836154
938.312002	2533.179808
938.614628	2543.262115
938.917216	2507.974038
939.219765	2515.535769
939.522275	2465.124231
939.824747	2439.918462
940.127179	2525.618077
940.429573	2583.591346
940.731929	2538.220962
941.034246	2417.233269
941.336524	2465.124231
941.638763	2417.233269
941.940964	2505.453462
942.243126	2518.056346
942.545250	2477.727115
942.847335	2492.850577
943.149381	2371.862885
943.451389	2492.850577
943.753359	2487.809423
944.055290	2492.850577
944.357182	2510.494615
944.659036	2530.659231
944.960851	2550.823846
945.262628	2568.467885
945.564367	2510.494615
945.866067	2460.083077
946.167729	2530.659231
946.469352	2490.330000
946.770937	2437.397885
947.072484	2460.083077
947.373992	2470.165385
947.675462	2515.535769
947.976893	2490.330000
948.278286	2447.480192
948.579641	2495.371154
948.880958	2444.959615
949.182236	2528.138654
949.483476	2550.823846
949.784678	2472.685962
950.085841	2492.850577
950.386967	2502.932885
950.688054	2538.220962
950.989103	2495.371154
951.290114	2470.165385
951.591087	2475.206538
951.892021	2500.412308
952.192917	2407.150962
952.493776	2497.891731
952.794596	2490.330000
953.095378	2518.056346
953.396122	2560.906154
953.696828	2417.233269
953.997496	2518.056346
954.298126	2354.218846
954.598718	2447.480192
954.899272	2530.659231
955.199788	2507.974038
955.500266	2553.344423
955.800706	2507.974038
956.101108	2452.521346
956.401472	2419.753846
956.701798	2341.615962
957.002087	2495.371154
957.302337	2502.932885
957.602550	2520.576923
957.902724	2475.206538
958.202861	2475.206538
958.502960	2422.274423
958.803022	2480.247692
959.103045	2505.453462
959.403031	2487.809423
959.702979	2477.727115
960.002889	2581.070769
960.302762	2480.247692
960.602596	2548.303269
960.902393	2573.509038
961.202153	2507.974038
961.501875	2560.906154
961.801559	2586.111923
962.101205	2533.179808
962.400814	2480.247692
962.700385	2583.591346
962.999918	2414.712692
963.299414	2492.850577
963.598873	2500.412308
963.898293	2455.041923
964.197677	2495.371154
964.497022	2467.644808
964.796331	2460.083077
965.095601	2455.041923
965.394835	2462.603654
965.694030	2477.727115
965.993189	2513.015192
966.292309	2550.823846
966.591393	2502.932885
966.890439	2520.576923
967.189447	2457.562500
967.488419	2505.453462
967.787353	2530.659231
968.086249	2500.412308
968.385108	2419.753846
968.683930	2492.850577
968.982714	2437.397885
969.281462	2550.823846
969.580172	2510.494615
969.878844	2465.124231
970.177480	2475.206538
970.476078	2538.220962
970.774639	2500.412308
971.073162	2530.659231
971.371649	2462.603654
971.670098	2548.303269
971.968510	2513.015192
972.266885	2520.576923
972.565223	2450.000769
972.863524	2465.124231
973.161788	2422.274423
973.460014	2535.700385
973.758204	2480.247692
974.056356	2510.494615
974.354471	2518.056346
974.652550	2591.153077
974.950591	2523.097500
975.248595	2555.865000
975.546563	2460.083077
975.844493	2538.220962
976.142386	2455.041923
976.440243	2475.206538
976.738062	2432.356731
977.035845	2540.741538
977.333590	2432.356731
977.631299	2482.768269
977.928971	2502.932885
978.226606	2460.083077
978.524204	2475.206538
978.821765	2535.700385
979.119290	2510.494615
979.416777	2550.823846
979.714228	2596.194231
980.011642	2502.932885
980.309020	2563.426731
980.606360	2565.947308
980.903664	2485.288846
981.200931	2507.974038
981.498162	2565.947308
981.795356	2535.700385
982.092513	2507.974038
982.389633	2452.521346
982.686717	2497.891731
982.983764	2432.356731
983.280775	2472.685962
983.577749	2492.850577
983.874686	2470.165385
984.171587	2588.632500
984.468451	2495.371154
984.765279	2455.041923
985.062070	2460.083077
985.358824	2450.000769
985.655543	2578.550192
985.952224	2422.274423
986.248869	2457.562500
986.545478	2444.959615
986.842050	2465.124231
987.138586	2447.480192
987.435086	2530.659231
987.731549	2432.356731
988.027975	2497.891731
988.324366	2507.974038
988.620719	2457.562500
988.917037	2500.412308
989.213318	2525.618077
989.509563	2502.932885
989.805772	2487.809423
990.101944	2543.262115
990.398080	2596.194231
990.694180	2452.521346
990.990244	2591.153077
991.286271	2482.768269
991.582262	2480.247692
991.878217	2513.015192
992.174136	2434.877308
992.470019	2515.535769
992.765865	2581.070769
993.061676	2424.795000
993.357450	2480.247692
993.653188	2507.974038
993.948890	2533.179808
994.244556	2520.576923
994.540186	2487.809423
994.835780	2530.659231
995.131337	2422.274423
995.426859	2460.083077
995.722345	2434.877308
996.017795	2462.603654
996.313208	2460.083077
996.608586	2520.576923
996.903928	2581.070769
997.199234	2492.850577
997.494504	2485.288846
997.789738	2429.836154
998.084936	2495.371154
998.380099	2434.877308
998.675225	2439.918462
998.970316	2442.439038
999.265371	2465.124231
999.560390	2518.056346
999.855373	2472.685962
1000.150320	2510.494615
1000.445232	2450.000769
1000.740108	2528.138654
1001.034948	2518.056346
1001.329752	2465.124231
1001.624521	2495.371154
1001.919254	2550.823846
1002.213951	2472.685962
1002.508613	2507.974038
1002.803239	2417.233269
1003.097829	2482.768269
1003.392384	2455.041923
1003.686903	2505.453462
1003.981386	2543.262115
1004.275834	2548.303269
1004.570246	2510.494615
1004.864623	2588.632500
1005.158964	2528.138654
1005.453270	2460.083077
1005.747540	2427.315577
1006.041775	2510.494615
1006.335974	2467.644808
1006.630138	2543.262115
1006.924266	2530.659231
1007.218359	2432.356731
1007.512416	2490.330000
1007.806438	2563.426731
1008.100425	2515.535769
1008.394376	2510.494615
1008.688292	2480.247692
1008.982172	2475.206538
1009.276017	2419.753846
1009.569827	2417.233269
1009.863602	2545.782692
1010.157341	2525.618077
1010.451045	2427.315577
1010.744714	2515.535769
1011.038347	2543.262115
1011.331945	2432.356731
1011.625508	2417.233269
1011.919036	2447.480192
1012.212528	2548.303269
1012.505986	2480.247692
1012.799408	2480.247692
1013.092795	2513.015192
1013.386147	2518.056346
1013.679464	2442.439038
1013.972745	2465.124231
1014.265992	2505.453462
1014.559204	2550.823846
1014.852380	2427.315577
1015.145521	2515.535769
1015.438628	2548.303269
1015.731699	2477.727115
1016.024736	2470.165385
1016.317737	2507.974038
1016.610703	2523.097500
1016.903635	2447.480192
1017.196531	2487.809423
1017.489393	2570.988462
1017.782219	2502.932885
1018.075011	2465.124231
1018.367768	2472.685962
1018.660490	2523.097500
1018.953177	2523.097500
1019.245829	2523.097500
