Dividing Wavelength (nm)	Counts (n)	Blue Motor Position (mm): 0.000000	Red Motor Position (mm): 4.400000	
326.493990	2107.202308
326.888308	2107.202308
327.282561	2107.202308
327.676750	2097.120000
328.070874	2074.434808
328.464933	2031.585000
328.858929	2109.722885
329.252859	2074.434808
329.646726	2117.284615
330.040528	2074.434808
330.434265	2165.175577
330.827938	2142.490385
331.221547	2210.545962
331.615091	2112.243462
332.008571	2225.669423
332.401986	2195.422500
332.795338	2225.669423
333.188625	2253.395769
333.581847	2215.587115
333.975006	2255.916346
334.368100	2356.739423
334.761129	2265.998654
335.154095	2356.739423
335.546996	2371.862885
335.939833	2336.574808
336.332606	2366.821731
336.725315	2437.397885
337.117960	2346.657115
337.510540	2394.548077
337.903056	2457.562500
338.295508	2371.862885
338.687896	2452.521346
339.080220	2417.233269
339.472480	2392.027500
339.864676	2553.344423
340.256807	2475.206538
340.648875	2485.288846
341.040879	2392.027500
341.432818	2485.288846
341.824694	2535.700385
342.216506	2457.562500
342.608253	2518.056346
342.999937	2485.288846
343.391557	2477.727115
343.783113	2447.480192
344.174605	2452.521346
344.566033	2427.315577
344.957397	2487.809423
345.348697	2452.521346
345.739934	2457.562500
346.131106	2424.795000
346.522215	2507.974038
346.913260	2422.274423
347.304241	2530.659231
347.695159	2467.644808
348.086012	2386.986346
348.476802	2366.821731
348.867528	2565.947308
349.258191	2480.247692
349.648789	2417.233269
350.039324	2447.480192
350.429796	2366.821731
350.820203	2351.698269
351.210548	2434.877308
351.600828	2477.727115
351.991045	2507.974038
352.381198	2467.644808
352.771288	2429.836154
353.161314	2487.809423
353.551276	2366.821731
353.941175	2497.891731
354.331010	2447.480192
354.720782	2444.959615
355.110490	2432.356731
355.500135	2492.850577
355.889717	2381.945192
356.279235	2427.315577
356.668689	2492.850577
357.058080	2429.836154
357.447408	2434.877308
357.836672	2450.000769
358.225873	2467.644808
358.615010	2404.630385
359.004084	2510.494615
359.393095	2361.780577
359.782043	2424.795000
360.170927	2477.727115
360.559748	2462.603654
360.948505	2475.206538
361.337199	2550.823846
361.725830	2467.644808
362.114398	2507.974038
362.502903	2460.083077
362.891344	2477.727115
363.279722	2404.630385
363.668037	2462.603654
364.056289	2472.685962
364.444478	2500.412308
364.832603	2502.932885
365.220665	2518.056346
365.608665	2404.630385
365.996601	2475.206538
366.384474	2434.877308
366.772284	2490.330000
367.160031	2487.809423
367.547715	2407.150962
367.935336	2482.768269
368.322893	2366.821731
368.710388	2399.589231
369.097820	2487.809423
369.485189	2477.727115
369.872495	2510.494615
370.259738	2381.945192
370.646918	2505.453462
371.034035	2447.480192
371.421090	2477.727115
371.808081	2424.795000
372.195010	2455.041923
372.581875	2462.603654
372.968678	2442.439038
373.355418	2518.056346
373.742096	2452.521346
374.128710	2462.603654
374.515262	2480.247692
374.901751	2525.618077
375.288177	2462.603654
375.674540	2495.371154
376.060841	2414.712692
376.447079	2545.782692
376.833254	2578.550192
377.219367	2520.576923
377.605417	2513.015192
377.991404	2397.068654
378.377329	2467.644808
378.763191	2472.685962
379.148991	2485.288846
379.534727	2379.424615
379.920402	2472.685962
380.306013	2447.480192
380.691563	2455.041923
381.077049	2472.685962
381.462474	2460.083077
381.847835	2455.041923
382.233134	2507.974038
382.618371	2407.150962
383.003545	2510.494615
383.388657	2450.000769
383.773706	2477.727115
384.158693	2442.439038
384.543618	2447.480192
384.928480	2490.330000
385.313280	2424.795000
385.698017	2392.027500
386.082692	2439.918462
386.467305	2467.644808
386.851856	2470.165385
387.236344	2437.397885
387.620770	2414.712692
388.005133	2419.753846
388.389435	2497.891731
388.773674	2434.877308
389.157851	2502.932885
389.541965	2427.315577
389.926018	2540.741538
390.310008	2447.480192
390.693936	2412.192115
391.077802	2510.494615
391.461606	2442.439038
391.845348	2460.083077
392.229027	2447.480192
392.612645	2515.535769
392.996200	2480.247692
393.379694	2500.412308
393.763125	2460.083077
394.146494	2553.344423
394.529801	2437.397885
394.913047	2434.877308
395.296230	2374.383462
395.679351	2429.836154
396.062410	2394.548077
396.445408	2457.562500
396.828343	2477.727115
397.211217	2497.891731
397.594028	2515.535769
397.976778	2518.056346
398.359466	2442.439038
398.742092	2432.356731
399.124656	2502.932885
399.507158	2437.397885
399.889598	2492.850577
400.271977	2465.124231
400.654294	2470.165385
401.036549	2480.247692
401.418742	2578.550192
401.800874	2439.918462
402.182944	2412.192115
402.564952	2384.465769
402.946898	2510.494615
403.328783	2442.439038
403.710606	2419.753846
404.092367	2460.083077
404.474067	2457.562500
404.855705	2414.712692
405.237282	2500.412308
405.618797	2525.618077
406.000250	2455.041923
406.381642	2477.727115
406.762972	2412.192115
407.144240	2490.330000
407.525447	2513.015192
407.906593	2402.109808
408.287677	2497.891731
408.668700	2470.165385
409.049661	2439.918462
409.430560	2475.206538
409.811399	2475.206538
410.192176	2457.562500
410.572891	2495.371154
410.953545	2424.795000
411.334138	2457.562500
411.714669	2447.480192
412.095139	2361.780577
412.475547	2467.644808
412.855894	2462.603654
413.236180	2523.097500
413.616405	2467.644808
413.996568	2424.795000
414.376670	2457.562500
414.756711	2490.330000
415.136691	2500.412308
415.516609	2502.932885
415.896466	2492.850577
416.276262	2467.644808
416.655997	2500.412308
417.035670	2444.959615
417.415283	2434.877308
417.794834	2384.465769
418.174324	2502.932885
418.553753	2540.741538
418.933121	2457.562500
419.312428	2507.974038
419.691674	2558.385577
420.070859	2475.206538
420.449983	2470.165385
420.829045	2467.644808
421.208047	2533.179808
421.586988	2507.974038
421.965867	2437.397885
422.344686	2470.165385
422.723444	2482.768269
423.102141	2460.083077
423.480777	2543.262115
423.859352	2472.685962
424.237866	2485.288846
424.616319	2510.494615
424.994712	2465.124231
425.373044	2490.330000
425.751314	2465.124231
426.129524	2513.015192
426.507673	2530.659231
426.885762	2502.932885
427.263789	2505.453462
427.641756	2462.603654
428.019662	2480.247692
428.397508	2465.124231
428.775292	2470.165385
429.153016	2558.385577
429.530679	2460.083077
429.908282	2490.330000
430.285824	2427.315577
430.663305	2465.124231
431.040726	2492.850577
431.418086	2540.741538
431.795385	2444.959615
432.172624	2568.467885
432.549802	2462.603654
432.926920	2505.453462
433.303977	2480.247692
433.680974	2472.685962
434.057910	2502.932885
434.434786	2450.000769
434.811601	2507.974038
435.188355	2500.412308
435.565050	2470.165385
435.941683	2555.865000
436.318257	2465.124231
436.694770	2487.809423
437.071222	2465.124231
437.447614	2460.083077
437.823946	2523.097500
438.200218	2427.315577
438.576429	2497.891731
438.952580	2502.932885
439.328670	2394.548077
439.704700	2450.000769
440.080670	2467.644808
440.456580	2462.603654
440.832429	2475.206538
441.208218	2568.467885
441.583947	2510.494615
441.959616	2497.891731
442.335224	2520.576923
442.710773	2487.809423
443.086261	2432.356731
443.461689	2465.124231
443.837057	2437.397885
444.212365	2555.865000
444.587612	2472.685962
444.962800	2530.659231
445.337927	2467.644808
445.712995	2502.932885
446.088002	2472.685962
446.462949	2535.700385
446.837837	2510.494615
447.212664	2497.891731
447.587431	2555.865000
447.962139	2490.330000
448.336786	2502.932885
448.711374	2460.083077
449.085901	2442.439038
449.460369	2447.480192
449.834776	2485.288846
450.209124	2455.041923
450.583412	2540.741538
450.957640	2490.330000
451.331808	2533.179808
451.705917	2482.768269
452.079965	2487.809423
452.453954	2490.330000
452.827883	2409.671538
453.201752	2570.988462
453.575562	2525.618077
453.949311	2417.233269
454.323001	2495.371154
454.696632	2475.206538
455.070202	2495.371154
455.443713	2563.426731
455.817164	2477.727115
456.190556	2447.480192
456.563888	2613.838269
456.937160	2513.015192
457.310373	2344.136538
457.683526	2452.521346
458.056619	2492.850577
458.429653	2439.918462
458.802628	2450.000769
459.175542	2472.685962
459.548398	2439.918462
459.921194	2495.371154
460.293930	2480.247692
460.666607	2515.535769
461.039224	2505.453462
461.411782	2460.083077
461.784280	2442.439038
462.156719	2530.659231
462.529099	2502.932885
462.901419	2457.562500
463.273680	2515.535769
463.645882	2550.823846
464.018024	2485.288846
464.390106	2424.795000
464.762130	2467.644808
465.134094	2533.179808
465.505999	2475.206538
465.877845	2507.974038
466.249631	2437.397885
466.621358	2533.179808
466.993026	2475.206538
467.364634	2457.562500
467.736184	2407.150962
468.107674	2472.685962
468.479105	2525.618077
468.850477	2392.027500
469.221790	2467.644808
469.593043	2507.974038
469.964238	2470.165385
470.335373	2502.932885
470.706449	2545.782692
471.077467	2482.768269
471.448425	2482.768269
471.819324	2525.618077
472.190164	2586.111923
472.560945	2427.315577
472.931667	2439.918462
473.302330	2560.906154
473.672934	2578.550192
474.043479	2518.056346
474.413965	2502.932885
474.784393	2500.412308
475.154761	2505.453462
475.525070	2437.397885
475.895321	2482.768269
476.265513	2419.753846
476.635645	2505.453462
477.005719	2513.015192
477.375734	2583.591346
477.745691	2444.959615
478.115588	2495.371154
478.485427	2452.521346
478.855207	2535.700385
479.224928	2495.371154
479.594591	2518.056346
479.964194	2548.303269
480.333739	2429.836154
480.703226	2523.097500
481.072653	2523.097500
481.442022	2482.768269
481.811333	2538.220962
482.180584	2500.412308
482.549777	2576.029615
482.918912	2470.165385
483.287988	2515.535769
483.657005	2523.097500
484.025964	2505.453462
484.394864	2583.591346
484.763706	2444.959615
485.132489	2578.550192
485.501213	2455.041923
485.869879	2437.397885
486.238487	2601.235385
486.607036	2528.138654
486.975527	2497.891731
487.343959	2407.150962
487.712333	2492.850577
488.080648	2485.288846
488.448905	2472.685962
488.817104	2513.015192
489.185244	2573.509038
489.553326	2444.959615
489.921350	2523.097500
490.289315	2424.795000
490.657222	2460.083077
491.025070	2560.906154
491.392861	2513.015192
491.760593	2510.494615
492.128267	2523.097500
492.495883	2500.412308
492.863440	2540.741538
493.230939	2444.959615
493.598380	2429.836154
493.965763	2444.959615
494.333088	2439.918462
494.700354	2505.453462
495.067563	2538.220962
495.434713	2480.247692
495.801805	2462.603654
496.168839	2576.029615
496.535815	2603.755962
496.902733	2477.727115
497.269593	2611.317692
497.636395	2500.412308
498.003139	2437.397885
498.369825	2530.659231
498.736453	2452.521346
499.103023	2495.371154
499.469535	2419.753846
499.835989	2497.891731
500.202385	2515.535769
500.568723	2555.865000
500.935003	2548.303269
501.301226	2500.412308
501.667390	2558.385577
502.033497	2492.850577
502.399546	2533.179808
502.765537	2472.685962
503.131470	2555.865000
503.497345	2487.809423
503.863163	2581.070769
504.228923	2475.206538
504.594625	2465.124231
504.960269	2442.439038
505.325856	2452.521346
505.691385	2495.371154
506.056856	2477.727115
506.422270	2528.138654
506.787625	2424.795000
507.152924	2515.535769
507.518164	2558.385577
507.883347	2462.603654
508.248472	2528.138654
508.613540	2492.850577
508.978550	2487.809423
509.343503	2513.015192
509.708398	2374.383462
510.073236	2543.262115
510.438016	2545.782692
510.802738	2502.932885
511.167403	2480.247692
511.532010	2502.932885
511.896561	2495.371154
512.261053	2467.644808
512.625488	2495.371154
512.989866	2535.700385
513.354186	2550.823846
513.718449	2507.974038
514.082655	2513.015192
514.446803	2452.521346
514.810894	2528.138654
515.174927	2545.782692
515.538904	2528.138654
515.902822	2450.000769
516.266684	2485.288846
516.630488	2482.768269
516.994235	2432.356731
517.357925	2533.179808
517.721558	2460.083077
518.085133	2482.768269
518.448651	2500.412308
518.812112	2510.494615
519.175516	2565.947308
519.538863	2560.906154
519.902152	2460.083077
520.265385	2560.906154
520.628560	2530.659231
520.991678	2427.315577
521.354739	2470.165385
521.717743	2505.453462
522.080690	2450.000769
522.443580	2505.453462
522.806413	2497.891731
523.169189	2490.330000
523.531908	2533.179808
523.894569	2530.659231
524.257174	2528.138654
524.619722	2553.344423
524.982213	2444.959615
525.344647	2500.412308
525.707025	2535.700385
526.069345	2518.056346
526.431608	2495.371154
526.793815	2548.303269
527.155964	2500.412308
527.518057	2528.138654
527.880093	2578.550192
528.242072	2452.521346
528.603995	2538.220962
528.965860	2510.494615
529.327669	2487.809423
529.689421	2462.603654
530.051117	2480.247692
530.412755	2492.850577
530.774337	2515.535769
531.135862	2497.891731
531.497331	2460.083077
531.858743	2530.659231
532.220098	2510.494615
532.581396	2528.138654
532.942638	2553.344423
533.303824	2581.070769
533.664953	2520.576923
534.026025	2515.535769
534.387040	2492.850577
534.747999	2465.124231
535.108902	2429.836154
535.469748	2515.535769
535.830537	2598.714808
536.191270	2525.618077
536.551947	2568.467885
536.912567	2480.247692
537.273131	2442.439038
537.633638	2523.097500
537.994089	2507.974038
538.354483	2492.850577
538.714821	2500.412308
539.075103	2520.576923
539.435328	2495.371154
539.795497	2513.015192
540.155609	2450.000769
540.515665	2439.918462
540.875665	2515.535769
541.235609	2518.056346
541.595496	2540.741538
541.955328	2520.576923
542.315102	2535.700385
542.674821	2513.015192
543.034483	2553.344423
543.394090	2560.906154
543.753640	2565.947308
544.113134	2452.521346
544.472571	2485.288846
544.831953	2490.330000
545.191278	2480.247692
545.550548	2422.274423
545.909761	2530.659231
546.268918	2507.974038
546.628019	2374.383462
546.987064	2480.247692
547.346053	2460.083077
547.704986	2444.959615
548.063863	2518.056346
548.422684	2513.015192
548.781449	2450.000769
549.140158	2439.918462
549.498811	2518.056346
549.857408	2502.932885
550.215949	2515.535769
550.574434	2434.877308
550.932864	2485.288846
551.291237	2452.521346
551.649555	2510.494615
552.007817	2386.986346
552.366022	2462.603654
552.724173	2563.426731
553.082267	2545.782692
553.440305	2470.165385
553.798288	2437.397885
554.156215	2450.000769
554.514086	2510.494615
554.871902	2538.220962
555.229661	2450.000769
555.587365	2457.562500
555.945014	2520.576923
556.302606	2505.453462
556.660143	2492.850577
557.017625	2510.494615
557.375050	2462.603654
557.732421	2434.877308
558.089735	2502.932885
558.446994	2465.124231
558.804197	2530.659231
559.161345	2490.330000
559.518437	2442.439038
559.875474	2525.618077
560.232455	2548.303269
560.589381	2475.206538
560.946251	2465.124231
561.303065	2535.700385
561.659825	2482.768269
562.016528	2513.015192
562.373177	2507.974038
562.729770	2558.385577
563.086307	2447.480192
563.442789	2450.000769
563.799216	2530.659231
564.155587	2513.015192
564.511904	2472.685962
564.868164	2457.562500
565.224370	2429.836154
565.580520	2530.659231
565.936615	2465.124231
566.292654	2500.412308
566.648638	2452.521346
567.004567	2465.124231
567.360441	2510.494615
567.716260	2462.603654
568.072023	2570.988462
568.427732	2419.753846
568.783385	2497.891731
569.138982	2515.535769
569.494525	2540.741538
569.850013	2470.165385
570.205445	2535.700385
570.560823	2442.439038
570.916145	2462.603654
571.271412	2500.412308
571.626625	2510.494615
571.981782	2442.439038
572.336884	2465.124231
572.691931	2429.836154
573.046923	2434.877308
573.401860	2515.535769
573.756743	2475.206538
574.111570	2548.303269
574.466342	2485.288846
574.821059	2467.644808
575.175722	2507.974038
575.530330	2447.480192
575.884882	2543.262115
576.239380	2518.056346
576.593823	2502.932885
576.948211	2553.344423
577.302544	2477.727115
577.656823	2560.906154
578.011047	2497.891731
578.365216	2485.288846
578.719330	2545.782692
579.073389	2432.356731
579.427394	2495.371154
579.781344	2538.220962
580.135239	2563.426731
580.489080	2558.385577
580.842866	2570.988462
581.196597	2467.644808
581.550273	2543.262115
581.903895	2434.877308
582.257463	2497.891731
582.610975	2535.700385
582.964434	2558.385577
583.317837	2475.206538
583.671186	2502.932885
584.024481	2528.138654
584.377721	2422.274423
584.730906	2497.891731
585.084037	2467.644808
585.437113	2495.371154
585.790135	2502.932885
586.143103	2424.795000
586.496016	2492.850577
586.848874	2472.685962
587.201679	2518.056346
587.554428	2465.124231
587.907124	2497.891731
588.259765	2374.383462
588.612352	2530.659231
588.964884	2513.015192
589.317362	2523.097500
589.669786	2482.768269
590.022155	2497.891731
590.374470	2490.330000
590.726731	2565.947308
591.078937	2455.041923
591.431090	2490.330000
591.783188	2447.480192
592.135232	2480.247692
592.487222	2502.932885
592.839157	2427.315577
593.191038	2530.659231
593.542866	2452.521346
593.894639	2485.288846
594.246358	2550.823846
594.598022	2457.562500
594.949633	2515.535769
595.301190	2540.741538
595.652692	2462.603654
596.004141	2465.124231
596.355535	2472.685962
596.706876	2523.097500
597.058162	2530.659231
597.409395	2475.206538
597.760573	2482.768269
598.111698	2515.535769
598.462768	2540.741538
598.813785	2535.700385
599.164748	2588.632500
599.515657	2444.959615
599.866511	2513.015192
600.217312	2535.700385
600.568060	2407.150962
600.918753	2507.974038
601.269392	2558.385577
601.619978	2495.371154
601.970510	2548.303269
602.320988	2492.850577
602.671412	2507.974038
603.021783	2477.727115
603.372100	2492.850577
603.722363	2457.562500
604.072572	2404.630385
604.422728	2497.891731
604.772830	2502.932885
605.122878	2460.083077
605.472872	2437.397885
605.822813	2533.179808
606.172701	2452.521346
606.522534	2540.741538
606.872314	2485.288846
607.222041	2513.015192
607.571714	2560.906154
607.921333	2495.371154
608.270899	2495.371154
608.620411	2553.344423
608.969870	2555.865000
609.319276	2545.782692
609.668627	2558.385577
610.017926	2513.015192
610.367171	2485.288846
610.716362	2518.056346
611.065500	2477.727115
611.414585	2568.467885
611.763616	2515.535769
612.112594	2492.850577
612.461518	2422.274423
612.810389	2563.426731
613.159207	2457.562500
613.507971	2467.644808
613.856682	2465.124231
614.205340	2500.412308
614.553945	2530.659231
614.902496	2507.974038
615.250994	2497.891731
615.599439	2568.467885
615.947830	2470.165385
616.296169	2515.535769
616.644454	2558.385577
616.992686	2538.220962
617.340864	2502.932885
617.688990	2560.906154
618.037063	2497.891731
618.385082	2477.727115
618.733048	2502.932885
619.080961	2505.453462
619.428821	2414.712692
619.776628	2543.262115
620.124382	2442.439038
620.472083	2500.412308
620.819731	2442.439038
621.167326	2513.015192
621.514868	2510.494615
621.862357	2520.576923
622.209793	2540.741538
622.557176	2485.288846
622.904506	2510.494615
623.251783	2510.494615
623.599007	2399.589231
623.946179	2475.206538
624.293297	2457.562500
624.640363	2540.741538
624.987376	2450.000769
625.334336	2530.659231
625.681243	2467.644808
626.028097	2543.262115
626.374899	2455.041923
626.721647	2515.535769
627.068343	2535.700385
627.414987	2487.809423
627.761577	2530.659231
628.108115	2422.274423
628.454600	2528.138654
628.801032	2518.056346
629.147412	2487.809423
629.493739	2545.782692
629.840014	2495.371154
630.186236	2553.344423
630.532405	2518.056346
630.878521	2568.467885
631.224585	2462.603654
631.570597	2513.015192
631.916556	2560.906154
632.262462	2507.974038
632.608316	2492.850577
632.954117	2500.412308
633.299866	2389.506923
633.645562	2495.371154
633.991206	2482.768269
634.336797	2505.453462
634.682336	2460.083077
635.027823	2495.371154
635.373257	2502.932885
635.718639	2429.836154
636.063968	2507.974038
636.409245	2470.165385
636.754470	2412.192115
637.099642	2505.453462
637.444762	2495.371154
637.789829	2492.850577
638.134845	2394.548077
638.479808	2555.865000
638.824719	2639.044038
639.169577	2563.426731
639.514383	2530.659231
639.859137	2583.591346
640.203839	2467.644808
640.548489	2528.138654
640.893086	2490.330000
641.237632	2500.412308
641.582125	2555.865000
641.926566	2452.521346
642.270955	2583.591346
642.615292	2480.247692
642.959576	2490.330000
643.303809	2487.809423
643.647990	2485.288846
643.992118	2475.206538
644.336195	2495.371154
644.680219	2565.947308
645.024192	2492.850577
645.368112	2437.397885
645.711981	2518.056346
646.055797	2578.550192
646.399562	2482.768269
646.743274	2510.494615
647.086935	2482.768269
647.430544	2472.685962
647.774101	2432.356731
648.117606	2500.412308
648.461059	2485.288846
648.804460	2470.165385
649.147810	2495.371154
649.491108	2434.877308
649.834354	2545.782692
650.177548	2513.015192
650.520690	2485.288846
650.863781	2523.097500
651.206820	2472.685962
651.549807	2492.850577
651.892742	2545.782692
652.235626	2427.315577
652.578458	2480.247692
652.921238	2515.535769
653.263967	2505.453462
653.606644	2543.262115
653.949269	2563.426731
654.291843	2490.330000
654.634365	2533.179808
654.976836	2477.727115
655.319255	2424.795000
655.661622	2485.288846
656.003938	2450.000769
656.346203	2465.124231
656.688416	2613.838269
657.030577	2507.974038
657.372687	2573.509038
657.714746	2480.247692
658.056753	2487.809423
658.398708	2480.247692
658.740612	2518.056346
659.082465	2450.000769
659.424266	2429.836154
659.766016	2513.015192
660.107715	2545.782692
660.449362	2528.138654
660.790958	2475.206538
661.132503	2495.371154
661.473996	2560.906154
661.815438	2492.850577
662.156829	2467.644808
662.498168	2513.015192
662.839456	2553.344423
663.180693	2490.330000
663.521879	2500.412308
663.863013	2558.385577
664.204097	2520.576923
664.545129	2581.070769
664.886110	2510.494615
665.227040	2535.700385
665.567918	2467.644808
665.908746	2505.453462
666.249522	2550.823846
666.590248	2450.000769
666.930922	2558.385577
667.271545	2492.850577
667.612118	2502.932885
667.952639	2500.412308
668.293109	2490.330000
668.633528	2467.644808
668.973896	2601.235385
669.314213	2500.412308
669.654480	2434.877308
669.994695	2495.371154
670.334859	2568.467885
670.674973	2470.165385
671.015035	2475.206538
671.355047	2472.685962
671.695008	2558.385577
672.034918	2477.727115
672.374777	2490.330000
672.714585	2513.015192
673.054342	2570.988462
673.394049	2523.097500
673.733705	2502.932885
674.073310	2480.247692
674.412864	2565.947308
674.752368	2515.535769
675.091820	2475.206538
675.431223	2439.918462
675.770574	2444.959615
676.109875	2432.356731
676.449125	2477.727115
676.788324	2558.385577
677.127473	2465.124231
677.466571	2543.262115
677.805619	2500.412308
678.144616	2513.015192
678.483562	2477.727115
678.822458	2573.509038
679.161303	2510.494615
679.500098	2515.535769
679.838842	2515.535769
680.177535	2533.179808
680.516179	2510.494615
680.854771	2394.548077
681.193314	2487.809423
681.531805	2518.056346
681.870247	2530.659231
682.208638	2480.247692
682.546978	2492.850577
682.885268	2502.932885
683.223508	2507.974038
683.561697	2490.330000
683.899836	2510.494615
684.237925	2505.453462
684.575963	2560.906154
684.913951	2583.591346
685.251889	2510.494615
685.589776	2520.576923
685.927614	2553.344423
686.265401	2444.959615
686.603137	2525.618077
686.940824	2465.124231
687.278460	2490.330000
687.616046	2434.877308
687.953582	2482.768269
688.291068	2477.727115
688.628504	2482.768269
688.965889	2530.659231
689.303224	2583.591346
689.640510	2490.330000
689.977745	2543.262115
690.314930	2505.453462
690.652065	2591.153077
690.989150	2495.371154
691.326185	2455.041923
691.663170	2525.618077
692.000105	2507.974038
692.336990	2485.288846
692.673825	2482.768269
693.010610	2507.974038
693.347345	2518.056346
693.684030	2553.344423
694.020665	2523.097500
694.357251	2500.412308
694.693786	2492.850577
695.030272	2447.480192
695.366707	2560.906154
695.703093	2450.000769
696.039429	2530.659231
696.375716	2475.206538
696.711952	2573.509038
697.048139	2475.206538
697.384276	2485.288846
697.720363	2490.330000
698.056400	2407.150962
698.392388	2510.494615
698.728326	2518.056346
699.064214	2412.192115
699.400053	2535.700385
699.735842	2477.727115
700.071581	2480.247692
700.407270	2487.809423
700.742910	2444.959615
701.078501	2507.974038
701.414042	2452.521346
701.749533	2560.906154
702.084974	2497.891731
702.420366	2583.591346
702.755709	2437.397885
703.091002	2485.288846
703.426246	2480.247692
703.761440	2583.591346
704.096584	2444.959615
704.431679	2513.015192
704.766725	2457.562500
705.101721	2505.453462
705.436668	2586.111923
705.771565	2523.097500
706.106413	2490.330000
706.441212	2472.685962
706.775961	2513.015192
707.110661	2507.974038
707.445311	2515.535769
707.779913	2465.124231
708.114465	2596.194231
708.448967	2520.576923
708.783421	2462.603654
709.117825	2563.426731
709.452180	2518.056346
709.786485	2568.467885
710.120742	2500.412308
710.454949	2475.206538
710.789107	2495.371154
711.123216	2472.685962
711.457275	2528.138654
711.791286	2535.700385
712.125247	2492.850577
712.459159	2507.974038
712.793023	2480.247692
713.126837	2533.179808
713.460602	2482.768269
713.794318	2500.412308
714.127985	2467.644808
714.461602	2570.988462
714.795171	2570.988462
715.128691	2460.083077
715.462162	2525.618077
715.795584	2502.932885
716.128957	2500.412308
716.462281	2470.165385
716.795556	2510.494615
717.128782	2502.932885
717.461960	2485.288846
717.795088	2475.206538
718.128167	2545.782692
718.461198	2485.288846
718.794180	2555.865000
719.127113	2457.562500
719.459997	2528.138654
719.792833	2447.480192
720.125619	2543.262115
720.458357	2487.809423
720.791046	2573.509038
721.123686	2507.974038
721.456278	2462.603654
721.788821	2495.371154
722.121315	2457.562500
722.453761	2399.589231
722.786158	2513.015192
723.118506	2465.124231
723.450805	2467.644808
723.783056	2462.603654
724.115259	2434.877308
724.447412	2525.618077
724.779518	2502.932885
725.111574	2543.262115
725.443582	2560.906154
725.775542	2528.138654
726.107453	2427.315577
726.439315	2555.865000
726.771129	2485.288846
727.102895	2475.206538
727.434612	2432.356731
727.766281	2548.303269
728.097901	2462.603654
728.429473	2452.521346
728.760996	2392.027500
729.092471	2500.412308
729.423897	2507.974038
729.755276	2444.959615
730.086606	2510.494615
730.417887	2465.124231
730.749120	2510.494615
731.080305	2467.644808
731.411442	2528.138654
731.742530	2465.124231
732.073570	2538.220962
732.404562	2480.247692
732.735506	2563.426731
733.066401	2472.685962
733.397249	2563.426731
733.728048	2452.521346
734.058798	2505.453462
734.389501	2475.206538
734.720156	2540.741538
735.050762	2475.206538
735.381320	2540.741538
735.711831	2457.562500
736.042293	2502.932885
736.372707	2465.124231
736.703073	2593.673654
737.033391	2450.000769
737.363661	2467.644808
737.693883	2555.865000
738.024056	2482.768269
738.354182	2500.412308
738.684260	2495.371154
739.014290	2502.932885
739.344272	2437.397885
739.674207	2419.753846
740.004093	2480.247692
740.333931	2482.768269
740.663722	2444.959615
740.993464	2457.562500
741.323159	2429.836154
741.652806	2470.165385
741.982405	2545.782692
742.311956	2447.480192
742.641460	2543.262115
742.970915	2530.659231
743.300323	2500.412308
743.629683	2482.768269
743.958996	2523.097500
744.288260	2465.124231
744.617477	2515.535769
744.946647	2530.659231
745.275768	2525.618077
745.604842	2540.741538
745.933869	2457.562500
746.262847	2507.974038
746.591778	2510.494615
746.920662	2482.768269
747.249498	2505.453462
747.578286	2533.179808
747.907027	2432.356731
748.235720	2510.494615
748.564365	2525.618077
748.892963	2452.521346
749.221514	2525.618077
749.550017	2480.247692
749.878473	2505.453462
750.206881	2513.015192
750.535242	2500.412308
750.863555	2528.138654
751.191821	2485.288846
751.520039	2492.850577
751.848210	2439.918462
752.176334	2475.206538
752.504411	2518.056346
752.832440	2513.015192
753.160421	2581.070769
753.488356	2515.535769
753.816243	2417.233269
754.144082	2442.439038
754.471875	2555.865000
754.799620	2495.371154
755.127318	2447.480192
755.454969	2432.356731
755.782572	2510.494615
756.110129	2538.220962
756.437638	2502.932885
756.765100	2492.850577
757.092515	2510.494615
757.419882	2450.000769
757.747203	2518.056346
758.074477	2586.111923
758.401703	2560.906154
758.728882	2535.700385
759.056014	2570.988462
759.383099	2427.315577
759.710138	2513.015192
760.037129	2485.288846
760.364073	2472.685962
760.690970	2485.288846
761.017820	2603.755962
761.344623	2444.959615
761.671379	2497.891731
761.998088	2444.959615
762.324751	2462.603654
762.651366	2419.753846
762.977935	2533.179808
763.304456	2507.974038
763.630931	2437.397885
763.957359	2434.877308
764.283740	2399.589231
764.610074	2465.124231
764.936362	2502.932885
765.262602	2472.685962
765.588796	2447.480192
765.914943	2495.371154
766.241044	2513.015192
766.567097	2490.330000
766.893104	2439.918462
767.219064	2442.439038
767.544978	2543.262115
767.870845	2500.412308
768.196665	2611.317692
768.522438	2419.753846
768.848165	2525.618077
769.173846	2429.836154
769.499479	2490.330000
769.825066	2470.165385
770.150607	2530.659231
770.476101	2573.509038
770.801548	2530.659231
771.126949	2500.412308
771.452303	2520.576923
771.777611	2485.288846
772.102872	2500.412308
772.428087	2606.276538
772.753256	2465.124231
773.078378	2510.494615
773.403453	2588.632500
773.728482	2520.576923
774.053465	2543.262115
774.378401	2548.303269
774.703291	2535.700385
775.028135	2477.727115
775.352932	2535.700385
775.677683	2545.782692
776.002388	2472.685962
776.327046	2507.974038
776.651658	2437.397885
776.976224	2472.685962
777.300743	2538.220962
777.625216	2515.535769
777.949643	2507.974038
778.274024	2608.797115
778.598359	2505.453462
778.922647	2553.344423
779.246889	2437.397885
779.571086	2452.521346
779.895236	2477.727115
780.219339	2558.385577
780.543397	2535.700385
780.867409	2452.521346
781.191374	2515.535769
781.515294	2437.397885
781.839167	2482.768269
782.162995	2442.439038
782.486776	2545.782692
782.810511	2548.303269
783.134201	2482.768269
783.457844	2525.618077
783.781441	2424.795000
784.104993	2548.303269
784.428498	2427.315577
784.751958	2596.194231
785.075372	2492.850577
785.398739	2528.138654
785.722061	2507.974038
786.045337	2533.179808
786.368568	2467.644808
786.691752	2439.918462
787.014891	2492.850577
787.337983	2497.891731
787.661030	2581.070769
787.984031	2482.768269
788.306987	2576.029615
788.629897	2555.865000
788.952760	2477.727115
789.275579	2450.000769
789.598351	2505.453462
789.921078	2553.344423
790.243759	2437.397885
790.566395	2477.727115
790.888984	2414.712692
791.211529	2513.015192
791.534027	2495.371154
791.856480	2477.727115
792.178888	2492.850577
792.501249	2437.397885
792.823566	2525.618077
793.145836	2518.056346
793.468062	2467.644808
793.790241	2490.330000
794.112375	2497.891731
794.434464	2528.138654
794.756507	2457.562500
795.078505	2507.974038
795.400457	2424.795000
795.722364	2462.603654
796.044226	2553.344423
796.366042	2523.097500
796.687812	2477.727115
797.009538	2472.685962
797.331218	2439.918462
797.652852	2505.453462
797.974442	2470.165385
798.295986	2523.097500
798.617484	2485.288846
798.938938	2444.959615
799.260346	2507.974038
799.581709	2495.371154
799.903026	2495.371154
800.224299	2513.015192
800.545526	2538.220962
800.866708	2513.015192
801.187845	2477.727115
801.508936	2518.056346
801.829983	2470.165385
802.150984	2507.974038
802.471940	2576.029615
802.792851	2543.262115
803.113717	2583.591346
803.434538	2530.659231
803.755314	2482.768269
804.076045	2487.809423
804.396731	2424.795000
804.717372	2424.795000
805.037967	2495.371154
805.358518	2485.288846
805.679024	2538.220962
805.999485	2513.015192
806.319901	2472.685962
806.640272	2487.809423
806.960598	2528.138654
807.280879	2442.439038
807.601115	2465.124231
807.921306	2480.247692
808.241453	2523.097500
808.561554	2467.644808
808.881611	2485.288846
809.201623	2538.220962
809.521590	2545.782692
809.841513	2535.700385
810.161390	2472.685962
810.481223	2492.850577
810.801011	2487.809423
811.120755	2513.015192
811.440453	2462.603654
811.760107	2520.576923
812.079716	2475.206538
812.399281	2528.138654
812.718801	2525.618077
813.038276	2439.918462
813.357707	2570.988462
813.677093	2467.644808
813.996434	2502.932885
814.315731	2427.315577
814.634983	2515.535769
814.954191	2530.659231
815.273354	2518.056346
815.592473	2555.865000
815.911547	2462.603654
816.230577	2442.439038
816.549562	2545.782692
816.868502	2407.150962
817.187399	2543.262115
817.506250	2460.083077
817.825058	2505.453462
818.143821	2568.467885
818.462539	2588.632500
818.781213	2439.918462
819.099843	2510.494615
819.418429	2422.274423
819.736970	2513.015192
820.055466	2482.768269
820.373919	2429.836154
820.692327	2515.535769
821.010691	2475.206538
821.329011	2500.412308
821.647286	2485.288846
821.965517	2455.041923
822.283704	2487.809423
822.601847	2578.550192
822.919945	2505.453462
823.237999	2543.262115
823.556010	2497.891731
823.873976	2573.509038
824.191897	2497.891731
824.509775	2442.439038
824.827609	2545.782692
825.145398	2472.685962
825.463144	2480.247692
825.780845	2533.179808
826.098502	2439.918462
826.416116	2533.179808
826.733685	2515.535769
827.051210	2535.700385
827.368692	2495.371154
827.686129	2490.330000
828.003522	2510.494615
828.320872	2507.974038
828.638177	2477.727115
828.955439	2538.220962
829.272656	2510.494615
829.589830	2555.865000
829.906960	2528.138654
830.224046	2513.015192
830.541088	2457.562500
830.858086	2450.000769
831.175041	2432.356731
831.491952	2472.685962
831.808819	2510.494615
832.125642	2543.262115
832.442421	2475.206538
832.759157	2530.659231
833.075849	2455.041923
833.392497	2485.288846
833.709101	2530.659231
834.025662	2482.768269
834.342179	2540.741538
834.658653	2462.603654
834.975083	2472.685962
835.291469	2485.288846
835.607811	2550.823846
835.924110	2409.671538
836.240366	2591.153077
836.556578	2525.618077
836.872746	2497.891731
837.188871	2505.453462
837.504952	2656.688077
837.820990	2439.918462
838.136984	2528.138654
838.452935	2452.521346
838.768842	2507.974038
839.084706	2487.809423
839.400526	2480.247692
839.716303	2447.480192
840.032037	2550.823846
840.347727	2437.397885
840.663373	2528.138654
840.978977	2550.823846
841.294537	2523.097500
841.610054	2475.206538
841.925527	2407.150962
842.240957	2563.426731
842.556344	2535.700385
842.871687	2465.124231
843.186987	2472.685962
843.502244	2502.932885
843.817458	2490.330000
844.132629	2513.015192
844.447756	2477.727115
844.762840	2510.494615
845.077881	2475.206538
845.392879	2510.494615
845.707833	2460.083077
846.022745	2528.138654
846.337613	2455.041923
846.652438	2477.727115
846.967221	2490.330000
847.281960	2470.165385
847.596656	2487.809423
847.911309	2457.562500
848.225919	2502.932885
848.540485	2424.795000
848.855009	2520.576923
849.169490	2518.056346
849.483928	2437.397885
849.798323	2384.465769
850.112675	2477.727115
850.426984	2490.330000
850.741251	2482.768269
851.055474	2437.397885
851.369654	2513.015192
851.683792	2457.562500
851.997887	2530.659231
852.311938	2530.659231
852.625947	2467.644808
852.939914	2495.371154
853.253837	2492.850577
853.567718	2470.165385
853.881555	2460.083077
854.195350	2563.426731
854.509103	2477.727115
854.822812	2540.741538
855.136479	2475.206538
855.450103	2515.535769
855.763685	2480.247692
856.077224	2502.932885
856.390720	2444.959615
856.704173	2502.932885
857.017584	2477.727115
857.330953	2520.576923
857.644278	2470.165385
857.957561	2407.150962
858.270802	2475.206538
858.584000	2452.521346
858.897155	2480.247692
859.210268	2505.453462
859.523339	2467.644808
859.836367	2533.179808
860.149352	2475.206538
860.462295	2480.247692
860.775195	2513.015192
861.088054	2538.220962
861.400869	2510.494615
861.713642	2457.562500
862.026373	2460.083077
862.339062	2485.288846
862.651708	2518.056346
862.964312	2510.494615
863.276873	2467.644808
863.589392	2475.206538
863.901869	2462.603654
864.214303	2533.179808
864.526696	2424.795000
864.839045	2447.480192
865.151353	2502.932885
865.463619	2576.029615
865.775842	2480.247692
866.088023	2497.891731
866.400162	2472.685962
866.712258	2505.453462
867.024313	2538.220962
867.336325	2470.165385
867.648296	2528.138654
867.960224	2495.371154
868.272110	2487.809423
868.583954	2513.015192
868.895755	2490.330000
869.207515	2573.509038
869.519233	2538.220962
869.830909	2457.562500
870.142542	2485.288846
870.454134	2525.618077
870.765684	2475.206538
871.077191	2472.685962
871.388657	2558.385577
871.700081	2452.521346
872.011463	2437.397885
872.322803	2528.138654
872.634101	2490.330000
872.945357	2482.768269
873.256571	2409.671538
873.567744	2452.521346
873.878874	2578.550192
874.189963	2485.288846
874.501010	2374.383462
874.812015	2465.124231
875.122979	2470.165385
875.433900	2422.274423
875.744780	2502.932885
876.055618	2422.274423
876.366415	2533.179808
876.677169	2500.412308
876.987882	2470.165385
877.298554	2495.371154
877.609183	2495.371154
877.919771	2510.494615
878.230317	2525.618077
878.540822	2500.412308
878.851285	2442.439038
879.161707	2447.480192
879.472087	2515.535769
879.782425	2442.439038
880.092722	2520.576923
880.402977	2465.124231
880.713191	2502.932885
881.023363	2502.932885
881.333494	2510.494615
881.643583	2384.465769
881.953631	2563.426731
882.263637	2560.906154
882.573602	2470.165385
882.883526	2535.700385
883.193408	2497.891731
883.503248	2475.206538
883.813048	2545.782692
884.122806	2470.165385
884.432522	2553.344423
884.742197	2457.562500
885.051831	2376.904038
885.361424	2472.685962
885.670975	2505.453462
885.980485	2505.453462
886.289954	2462.603654
886.599382	2497.891731
886.908768	2510.494615
887.218113	2487.809423
887.527417	2487.809423
887.836680	2475.206538
888.145901	2452.521346
888.455082	2490.330000
888.764221	2467.644808
889.073319	2497.891731
889.382376	2482.768269
889.691392	2530.659231
890.000366	2439.918462
890.309300	2432.356731
890.618193	2457.562500
890.927044	2460.083077
891.235855	2500.412308
891.544625	2394.548077
891.853353	2520.576923
892.162041	2437.397885
892.470687	2535.700385
892.779293	2515.535769
893.087858	2457.562500
893.396381	2495.371154
893.704864	2442.439038
894.013306	2513.015192
894.321707	2467.644808
894.630068	2452.521346
894.938387	2482.768269
895.246665	2480.247692
895.554903	2505.453462
895.863100	2492.850577
896.171256	2475.206538
896.479371	2470.165385
896.787446	2379.424615
897.095480	2447.480192
897.403473	2540.741538
897.711425	2558.385577
898.019336	2545.782692
898.327207	2465.124231
898.635038	2487.809423
898.942827	2460.083077
899.250576	2507.974038
899.558284	2482.768269
899.865952	2487.809423
900.173579	2568.467885
900.481165	2540.741538
900.788711	2482.768269
901.096216	2475.206538
901.403681	2487.809423
901.711105	2528.138654
902.018489	2470.165385
902.325832	2550.823846
902.633135	2467.644808
902.940397	2472.685962
903.247619	2432.356731
903.554800	2495.371154
903.861941	2545.782692
904.169041	2538.220962
904.476101	2520.576923
904.783121	2495.371154
905.090100	2462.603654
905.397039	2437.397885
905.703938	2603.755962
906.010796	2505.453462
906.317614	2523.097500
906.624391	2429.836154
906.931129	2447.480192
907.237826	2465.124231
907.544483	2553.344423
907.851099	2364.301154
908.157675	2520.576923
908.464211	2553.344423
908.770707	2513.015192
909.077163	2500.412308
909.383578	2487.809423
909.689954	2545.782692
909.996289	2465.124231
910.302584	2444.959615
910.608839	2490.330000
910.915054	2553.344423
911.221229	2432.356731
911.527363	2477.727115
911.833458	2432.356731
912.139513	2470.165385
912.445527	2439.918462
912.751502	2439.918462
913.057436	2502.932885
913.363331	2444.959615
913.669186	2495.371154
913.975000	2500.412308
914.280775	2455.041923
914.586510	2545.782692
914.892205	2573.509038
915.197859	2437.397885
915.503475	2500.412308
915.809050	2427.315577
916.114585	2482.768269
916.420081	2611.317692
916.725536	2513.015192
917.030952	2505.453462
917.336328	2452.521346
917.641665	2480.247692
917.946961	2510.494615
918.252218	2490.330000
918.557435	2497.891731
918.862612	2505.453462
919.167750	2500.412308
919.472848	2434.877308
919.777906	2505.453462
920.082925	2523.097500
920.387904	2462.603654
920.692843	2505.453462
920.997743	2507.974038
921.302603	2457.562500
921.607423	2424.795000
921.912204	2576.029615
922.216946	2533.179808
922.521647	2553.344423
922.826310	2462.603654
923.130932	2477.727115
923.435516	2553.344423
923.740059	2470.165385
924.044564	2455.041923
924.349028	2465.124231
924.653454	2563.426731
924.957840	2455.041923
925.262186	2510.494615
925.566493	2472.685962
925.870761	2528.138654
926.174989	2565.947308
926.479178	2417.233269
926.783328	2515.535769
927.087438	2480.247692
927.391509	2538.220962
927.695541	2442.439038
927.999533	2523.097500
928.303486	2518.056346
928.607400	2465.124231
928.911275	2482.768269
929.215110	2530.659231
929.518906	2450.000769
929.822663	2492.850577
930.126381	2528.138654
930.430060	2545.782692
930.733699	2525.618077
931.037299	2470.165385
931.340861	2535.700385
931.644383	2507.974038
931.947866	2492.850577
932.251309	2477.727115
932.554714	2465.124231
932.858080	2533.179808
933.161407	2452.521346
933.464694	2535.700385
933.767943	2553.344423
934.071153	2477.727115
934.374323	2560.906154
934.677455	2515.535769
934.980548	2437.397885
935.283602	2429.836154
935.586617	2467.644808
935.889593	2540.741538
936.192530	2482.768269
936.495428	2457.562500
936.798287	2490.330000
937.101108	2462.603654
937.403890	2490.330000
937.706632	2500.412308
938.009336	2467.644808
938.312002	2455.041923
938.614628	2515.535769
938.917216	2465.124231
939.219765	2465.124231
939.522275	2437.397885
939.824747	2482.768269
940.127179	2447.480192
940.429573	2397.068654
940.731929	2482.768269
941.034246	2482.768269
941.336524	2419.753846
941.638763	2497.891731
941.940964	2437.397885
942.243126	2465.124231
942.545250	2450.000769
942.847335	2515.535769
943.149381	2447.480192
943.451389	2467.644808
943.753359	2528.138654
944.055290	2530.659231
944.357182	2487.809423
944.659036	2422.274423
944.960851	2452.521346
945.262628	2482.768269
945.564367	2576.029615
945.866067	2568.467885
946.167729	2444.959615
946.469352	2500.412308
946.770937	2434.877308
947.072484	2457.562500
947.373992	2457.562500
947.675462	2482.768269
947.976893	2460.083077
948.278286	2502.932885
948.579641	2502.932885
948.880958	2533.179808
949.182236	2500.412308
949.483476	2626.441154
949.784678	2495.371154
950.085841	2419.753846
950.386967	2404.630385
950.688054	2359.260000
950.989103	2497.891731
951.290114	2502.932885
951.591087	2535.700385
951.892021	2472.685962
952.192917	2460.083077
952.493776	2482.768269
952.794596	2439.918462
953.095378	2543.262115
953.396122	2535.700385
953.696828	2384.465769
953.997496	2500.412308
954.298126	2500.412308
954.598718	2470.165385
954.899272	2492.850577
955.199788	2558.385577
955.500266	2565.947308
955.800706	2455.041923
956.101108	2480.247692
956.401472	2480.247692
956.701798	2507.974038
957.002087	2467.644808
957.302337	2492.850577
957.602550	2480.247692
957.902724	2470.165385
958.202861	2502.932885
958.502960	2502.932885
958.803022	2475.206538
959.103045	2540.741538
959.403031	2444.959615
959.702979	2515.535769
960.002889	2439.918462
960.302762	2533.179808
960.602596	2495.371154
960.902393	2472.685962
961.202153	2523.097500
961.501875	2485.288846
961.801559	2560.906154
962.101205	2462.603654
962.400814	2560.906154
962.700385	2450.000769
962.999918	2543.262115
963.299414	2455.041923
963.598873	2439.918462
963.898293	2475.206538
964.197677	2500.412308
964.497022	2500.412308
964.796331	2457.562500
965.095601	2434.877308
965.394835	2482.768269
965.694030	2434.877308
965.993189	2480.247692
966.292309	2467.644808
966.591393	2447.480192
966.890439	2500.412308
967.189447	2467.644808
967.488419	2475.206538
967.787353	2477.727115
968.086249	2548.303269
968.385108	2505.453462
968.683930	2558.385577
968.982714	2492.850577
969.281462	2578.550192
969.580172	2447.480192
969.878844	2492.850577
970.177480	2386.986346
970.476078	2490.330000
970.774639	2432.356731
971.073162	2528.138654
971.371649	2525.618077
971.670098	2543.262115
971.968510	2444.959615
972.266885	2414.712692
972.565223	2462.603654
972.863524	2452.521346
973.161788	2535.700385
973.460014	2497.891731
973.758204	2477.727115
974.056356	2485.288846
974.354471	2550.823846
974.652550	2447.480192
974.950591	2487.809423
975.248595	2518.056346
975.546563	2452.521346
975.844493	2434.877308
976.142386	2528.138654
976.440243	2477.727115
976.738062	2507.974038
977.035845	2450.000769
977.333590	2447.480192
977.631299	2437.397885
977.928971	2462.603654
978.226606	2518.056346
978.524204	2424.795000
978.821765	2457.562500
979.119290	2467.644808
979.416777	2490.330000
979.714228	2548.303269
980.011642	2432.356731
980.309020	2553.344423
980.606360	2447.480192
980.903664	2450.000769
981.200931	2518.056346
981.498162	2444.959615
981.795356	2450.000769
982.092513	2462.603654
982.389633	2434.877308
982.686717	2518.056346
982.983764	2452.521346
983.280775	2525.618077
983.577749	2520.576923
983.874686	2558.385577
984.171587	2558.385577
984.468451	2444.959615
984.765279	2538.220962
985.062070	2525.618077
985.358824	2462.603654
985.655543	2578.550192
985.952224	2432.356731
986.248869	2538.220962
986.545478	2402.109808
986.842050	2455.041923
987.138586	2366.821731
987.435086	2475.206538
987.731549	2442.439038
988.027975	2515.535769
988.324366	2437.397885
988.620719	2523.097500
988.917037	2538.220962
989.213318	2530.659231
989.509563	2457.562500
989.805772	2457.562500
990.101944	2490.330000
990.398080	2513.015192
990.694180	2455.041923
990.990244	2412.192115
991.286271	2447.480192
991.582262	2515.535769
991.878217	2480.247692
992.174136	2397.068654
992.470019	2550.823846
992.765865	2533.179808
993.061676	2462.603654
993.357450	2439.918462
993.653188	2457.562500
993.948890	2550.823846
994.244556	2480.247692
994.540186	2495.371154
994.835780	2434.877308
995.131337	2477.727115
995.426859	2535.700385
995.722345	2490.330000
996.017795	2543.262115
996.313208	2558.385577
996.608586	2427.315577
996.903928	2432.356731
997.199234	2455.041923
997.494504	2364.301154
997.789738	2442.439038
998.084936	2507.974038
998.380099	2465.124231
998.675225	2497.891731
998.970316	2502.932885
999.265371	2414.712692
999.560390	2381.945192
999.855373	2528.138654
1000.150320	2482.768269
1000.445232	2475.206538
1000.740108	2467.644808
1001.034948	2404.630385
1001.329752	2492.850577
1001.624521	2540.741538
1001.919254	2507.974038
1002.213951	2452.521346
1002.508613	2492.850577
1002.803239	2485.288846
1003.097829	2419.753846
1003.392384	2437.397885
1003.686903	2485.288846
1003.981386	2475.206538
1004.275834	2487.809423
1004.570246	2495.371154
1004.864623	2467.644808
1005.158964	2553.344423
1005.453270	2492.850577
1005.747540	2497.891731
1006.041775	2482.768269
1006.335974	2452.521346
1006.630138	2409.671538
1006.924266	2480.247692
1007.218359	2538.220962
1007.512416	2409.671538
1007.806438	2550.823846
1008.100425	2409.671538
1008.394376	2505.453462
1008.688292	2578.550192
1008.982172	2465.124231
1009.276017	2475.206538
1009.569827	2565.947308
1009.863602	2402.109808
1010.157341	2437.397885
1010.451045	2573.509038
1010.744714	2447.480192
1011.038347	2518.056346
1011.331945	2444.959615
1011.625508	2523.097500
1011.919036	2540.741538
1012.212528	2588.632500
1012.505986	2518.056346
1012.799408	2528.138654
1013.092795	2510.494615
1013.386147	2434.877308
1013.679464	2502.932885
1013.972745	2457.562500
1014.265992	2497.891731
1014.559204	2470.165385
1014.852380	2583.591346
1015.145521	2560.906154
1015.438628	2432.356731
1015.731699	2528.138654
1016.024736	2495.371154
1016.317737	2540.741538
1016.610703	2475.206538
1016.903635	2450.000769
1017.196531	2472.685962
1017.489393	2487.809423
1017.782219	2409.671538
1018.075011	2533.179808
1018.367768	2490.330000
1018.660490	2505.453462
1018.953177	2505.453462
1019.245829	2505.453462
