Dividing Wavelength (nm)	Counts (n)	Blue Motor Position (mm): 0.000000	Red Motor Position (mm): 4.000000	
326.493990	2142.490385
326.888308	2142.490385
327.282561	2142.490385
327.676750	2102.161154
328.070874	2107.202308
328.464933	2069.393654
328.858929	2051.749615
329.252859	2099.640577
329.646726	2094.599423
330.040528	2036.626154
330.434265	2097.120000
330.827938	2089.558269
331.221547	2107.202308
331.615091	2129.887500
332.008571	2157.613846
332.401986	2122.325769
332.795338	2238.272308
333.188625	2228.190000
333.581847	2298.766154
333.975006	2202.984231
334.368100	2286.163269
334.761129	2298.766154
335.154095	2334.054231
335.546996	2354.218846
335.939833	2341.615962
336.332606	2376.904038
336.725315	2384.465769
337.117960	2472.685962
337.510540	2427.315577
337.903056	2505.453462
338.295508	2402.109808
338.687896	2422.274423
339.080220	2455.041923
339.472480	2513.015192
339.864676	2427.315577
340.256807	2455.041923
340.648875	2455.041923
341.040879	2492.850577
341.432818	2485.288846
341.824694	2417.233269
342.216506	2492.850577
342.608253	2492.850577
342.999937	2470.165385
343.391557	2447.480192
343.783113	2467.644808
344.174605	2515.535769
344.566033	2444.959615
344.957397	2475.206538
345.348697	2507.974038
345.739934	2588.632500
346.131106	2497.891731
346.522215	2538.220962
346.913260	2417.233269
347.304241	2513.015192
347.695159	2397.068654
348.086012	2457.562500
348.476802	2402.109808
348.867528	2417.233269
349.258191	2399.589231
349.648789	2442.439038
350.039324	2427.315577
350.429796	2485.288846
350.820203	2386.986346
351.210548	2369.342308
351.600828	2480.247692
351.991045	2452.521346
352.381198	2392.027500
352.771288	2472.685962
353.161314	2394.548077
353.551276	2444.959615
353.941175	2495.371154
354.331010	2455.041923
354.720782	2495.371154
355.110490	2477.727115
355.500135	2386.986346
355.889717	2502.932885
356.279235	2518.056346
356.668689	2376.904038
357.058080	2397.068654
357.447408	2417.233269
357.836672	2429.836154
358.225873	2437.397885
358.615010	2407.150962
359.004084	2402.109808
359.393095	2462.603654
359.782043	2409.671538
360.170927	2492.850577
360.559748	2462.603654
360.948505	2535.700385
361.337199	2434.877308
361.725830	2439.918462
362.114398	2460.083077
362.502903	2450.000769
362.891344	2427.315577
363.279722	2457.562500
363.668037	2455.041923
364.056289	2465.124231
364.444478	2429.836154
364.832603	2497.891731
365.220665	2427.315577
365.608665	2432.356731
365.996601	2417.233269
366.384474	2490.330000
366.772284	2427.315577
367.160031	2437.397885
367.547715	2475.206538
367.935336	2482.768269
368.322893	2439.918462
368.710388	2538.220962
369.097820	2427.315577
369.485189	2371.862885
369.872495	2450.000769
370.259738	2455.041923
370.646918	2452.521346
371.034035	2513.015192
371.421090	2439.918462
371.808081	2450.000769
372.195010	2482.768269
372.581875	2465.124231
372.968678	2500.412308
373.355418	2414.712692
373.742096	2384.465769
374.128710	2434.877308
374.515262	2487.809423
374.901751	2429.836154
375.288177	2371.862885
375.674540	2467.644808
376.060841	2523.097500
376.447079	2513.015192
376.833254	2339.095385
377.219367	2434.877308
377.605417	2502.932885
377.991404	2354.218846
378.377329	2500.412308
378.763191	2444.959615
379.148991	2427.315577
379.534727	2525.618077
379.920402	2402.109808
380.306013	2384.465769
380.691563	2457.562500
381.077049	2392.027500
381.462474	2427.315577
381.847835	2470.165385
382.233134	2386.986346
382.618371	2472.685962
383.003545	2495.371154
383.388657	2402.109808
383.773706	2359.260000
384.158693	2558.385577
384.543618	2455.041923
384.928480	2467.644808
385.313280	2389.506923
385.698017	2520.576923
386.082692	2457.562500
386.467305	2492.850577
386.851856	2442.439038
387.236344	2490.330000
387.620770	2535.700385
388.005133	2502.932885
388.389435	2510.494615
388.773674	2444.959615
389.157851	2465.124231
389.541965	2477.727115
389.926018	2515.535769
390.310008	2419.753846
390.693936	2462.603654
391.077802	2502.932885
391.461606	2422.274423
391.845348	2533.179808
392.229027	2465.124231
392.612645	2495.371154
392.996200	2460.083077
393.379694	2419.753846
393.763125	2460.083077
394.146494	2422.274423
394.529801	2477.727115
394.913047	2434.877308
395.296230	2455.041923
395.679351	2429.836154
396.062410	2389.506923
396.445408	2376.904038
396.828343	2497.891731
397.211217	2467.644808
397.594028	2429.836154
397.976778	2439.918462
398.359466	2477.727115
398.742092	2452.521346
399.124656	2392.027500
399.507158	2480.247692
399.889598	2434.877308
400.271977	2407.150962
400.654294	2510.494615
401.036549	2419.753846
401.418742	2535.700385
401.800874	2502.932885
402.182944	2482.768269
402.564952	2495.371154
402.946898	2480.247692
403.328783	2513.015192
403.710606	2429.836154
404.092367	2540.741538
404.474067	2381.945192
404.855705	2465.124231
405.237282	2369.342308
405.618797	2520.576923
406.000250	2450.000769
406.381642	2460.083077
406.762972	2477.727115
407.144240	2465.124231
407.525447	2465.124231
407.906593	2500.412308
408.287677	2450.000769
408.668700	2492.850577
409.049661	2507.974038
409.430560	2442.439038
409.811399	2465.124231
410.192176	2465.124231
410.572891	2565.947308
410.953545	2397.068654
411.334138	2455.041923
411.714669	2477.727115
412.095139	2523.097500
412.475547	2467.644808
412.855894	2417.233269
413.236180	2533.179808
413.616405	2417.233269
413.996568	2414.712692
414.376670	2492.850577
414.756711	2427.315577
415.136691	2470.165385
415.516609	2452.521346
415.896466	2442.439038
416.276262	2470.165385
416.655997	2412.192115
417.035670	2540.741538
417.415283	2409.671538
417.794834	2485.288846
418.174324	2439.918462
418.553753	2475.206538
418.933121	2389.506923
419.312428	2414.712692
419.691674	2366.821731
420.070859	2545.782692
420.449983	2452.521346
420.829045	2535.700385
421.208047	2457.562500
421.586988	2568.467885
421.965867	2477.727115
422.344686	2515.535769
422.723444	2487.809423
423.102141	2457.562500
423.480777	2502.932885
423.859352	2467.644808
424.237866	2502.932885
424.616319	2447.480192
424.994712	2507.974038
425.373044	2485.288846
425.751314	2427.315577
426.129524	2429.836154
426.507673	2507.974038
426.885762	2462.603654
427.263789	2442.439038
427.641756	2492.850577
428.019662	2525.618077
428.397508	2543.262115
428.775292	2419.753846
429.153016	2475.206538
429.530679	2485.288846
429.908282	2462.603654
430.285824	2465.124231
430.663305	2555.865000
431.040726	2528.138654
431.418086	2457.562500
431.795385	2560.906154
432.172624	2457.562500
432.549802	2513.015192
432.926920	2412.192115
433.303977	2528.138654
433.680974	2490.330000
434.057910	2588.632500
434.434786	2399.589231
434.811601	2535.700385
435.188355	2392.027500
435.565050	2495.371154
435.941683	2523.097500
436.318257	2500.412308
436.694770	2477.727115
437.071222	2515.535769
437.447614	2467.644808
437.823946	2520.576923
438.200218	2505.453462
438.576429	2417.233269
438.952580	2528.138654
439.328670	2452.521346
439.704700	2444.959615
440.080670	2442.439038
440.456580	2518.056346
440.832429	2492.850577
441.208218	2505.453462
441.583947	2548.303269
441.959616	2555.865000
442.335224	2502.932885
442.710773	2450.000769
443.086261	2543.262115
443.461689	2523.097500
443.837057	2492.850577
444.212365	2450.000769
444.587612	2485.288846
444.962800	2495.371154
445.337927	2550.823846
445.712995	2480.247692
446.088002	2429.836154
446.462949	2528.138654
446.837837	2497.891731
447.212664	2560.906154
447.587431	2510.494615
447.962139	2525.618077
448.336786	2432.356731
448.711374	2523.097500
449.085901	2450.000769
449.460369	2460.083077
449.834776	2497.891731
450.209124	2490.330000
450.583412	2520.576923
450.957640	2490.330000
451.331808	2460.083077
451.705917	2477.727115
452.079965	2495.371154
452.453954	2515.535769
452.827883	2530.659231
453.201752	2460.083077
453.575562	2397.068654
453.949311	2563.426731
454.323001	2442.439038
454.696632	2490.330000
455.070202	2520.576923
455.443713	2437.397885
455.817164	2480.247692
456.190556	2495.371154
456.563888	2485.288846
456.937160	2565.947308
457.310373	2482.768269
457.683526	2434.877308
458.056619	2462.603654
458.429653	2528.138654
458.802628	2528.138654
459.175542	2439.918462
459.548398	2457.562500
459.921194	2439.918462
460.293930	2583.591346
460.666607	2472.685962
461.039224	2409.671538
461.411782	2523.097500
461.784280	2414.712692
462.156719	2444.959615
462.529099	2505.453462
462.901419	2510.494615
463.273680	2505.453462
463.645882	2523.097500
464.018024	2386.986346
464.390106	2533.179808
464.762130	2586.111923
465.134094	2442.439038
465.505999	2500.412308
465.877845	2578.550192
466.249631	2500.412308
466.621358	2533.179808
466.993026	2505.453462
467.364634	2475.206538
467.736184	2518.056346
468.107674	2540.741538
468.479105	2465.124231
468.850477	2462.603654
469.221790	2548.303269
469.593043	2548.303269
469.964238	2500.412308
470.335373	2533.179808
470.706449	2460.083077
471.077467	2472.685962
471.448425	2447.480192
471.819324	2550.823846
472.190164	2429.836154
472.560945	2581.070769
472.931667	2460.083077
473.302330	2422.274423
473.672934	2485.288846
474.043479	2586.111923
474.413965	2555.865000
474.784393	2495.371154
475.154761	2424.795000
475.525070	2482.768269
475.895321	2563.426731
476.265513	2492.850577
476.635645	2447.480192
477.005719	2472.685962
477.375734	2409.671538
477.745691	2545.782692
478.115588	2455.041923
478.485427	2492.850577
478.855207	2581.070769
479.224928	2444.959615
479.594591	2523.097500
479.964194	2427.315577
480.333739	2525.618077
480.703226	2500.412308
481.072653	2477.727115
481.442022	2535.700385
481.811333	2502.932885
482.180584	2482.768269
482.549777	2490.330000
482.918912	2507.974038
483.287988	2467.644808
483.657005	2520.576923
484.025964	2510.494615
484.394864	2470.165385
484.763706	2472.685962
485.132489	2568.467885
485.501213	2374.383462
485.869879	2475.206538
486.238487	2520.576923
486.607036	2535.700385
486.975527	2482.768269
487.343959	2457.562500
487.712333	2447.480192
488.080648	2470.165385
488.448905	2497.891731
488.817104	2465.124231
489.185244	2477.727115
489.553326	2457.562500
489.921350	2596.194231
490.289315	2422.274423
490.657222	2513.015192
491.025070	2472.685962
491.392861	2513.015192
491.760593	2467.644808
492.128267	2480.247692
492.495883	2500.412308
492.863440	2444.959615
493.230939	2510.494615
493.598380	2442.439038
493.965763	2510.494615
494.333088	2540.741538
494.700354	2497.891731
495.067563	2490.330000
495.434713	2530.659231
495.801805	2465.124231
496.168839	2505.453462
496.535815	2497.891731
496.902733	2444.959615
497.269593	2550.823846
497.636395	2507.974038
498.003139	2397.068654
498.369825	2513.015192
498.736453	2462.603654
499.103023	2520.576923
499.469535	2457.562500
499.835989	2563.426731
500.202385	2455.041923
500.568723	2535.700385
500.935003	2505.453462
501.301226	2528.138654
501.667390	2455.041923
502.033497	2502.932885
502.399546	2548.303269
502.765537	2472.685962
503.131470	2497.891731
503.497345	2507.974038
503.863163	2505.453462
504.228923	2523.097500
504.594625	2450.000769
504.960269	2447.480192
505.325856	2412.192115
505.691385	2437.397885
506.056856	2485.288846
506.422270	2545.782692
506.787625	2533.179808
507.152924	2500.412308
507.518164	2523.097500
507.883347	2558.385577
508.248472	2523.097500
508.613540	2515.535769
508.978550	2500.412308
509.343503	2485.288846
509.708398	2497.891731
510.073236	2480.247692
510.438016	2507.974038
510.802738	2500.412308
511.167403	2563.426731
511.532010	2437.397885
511.896561	2530.659231
512.261053	2432.356731
512.625488	2550.823846
512.989866	2495.371154
513.354186	2568.467885
513.718449	2450.000769
514.082655	2545.782692
514.446803	2480.247692
514.810894	2482.768269
515.174927	2472.685962
515.538904	2470.165385
515.902822	2472.685962
516.266684	2515.535769
516.630488	2570.988462
516.994235	2450.000769
517.357925	2480.247692
517.721558	2535.700385
518.085133	2518.056346
518.448651	2465.124231
518.812112	2500.412308
519.175516	2404.630385
519.538863	2477.727115
519.902152	2427.315577
520.265385	2518.056346
520.628560	2450.000769
520.991678	2543.262115
521.354739	2513.015192
521.717743	2558.385577
522.080690	2457.562500
522.443580	2550.823846
522.806413	2495.371154
523.169189	2439.918462
523.531908	2588.632500
523.894569	2407.150962
524.257174	2540.741538
524.619722	2548.303269
524.982213	2545.782692
525.344647	2492.850577
525.707025	2442.439038
526.069345	2510.494615
526.431608	2462.603654
526.793815	2523.097500
527.155964	2495.371154
527.518057	2535.700385
527.880093	2439.918462
528.242072	2495.371154
528.603995	2500.412308
528.965860	2422.274423
529.327669	2543.262115
529.689421	2480.247692
530.051117	2432.356731
530.412755	2495.371154
530.774337	2505.453462
531.135862	2389.506923
531.497331	2550.823846
531.858743	2495.371154
532.220098	2558.385577
532.581396	2618.879423
532.942638	2495.371154
533.303824	2444.959615
533.664953	2502.932885
534.026025	2462.603654
534.387040	2548.303269
534.747999	2568.467885
535.108902	2513.015192
535.469748	2409.671538
535.830537	2545.782692
536.191270	2588.632500
536.551947	2482.768269
536.912567	2505.453462
537.273131	2480.247692
537.633638	2467.644808
537.994089	2447.480192
538.354483	2560.906154
538.714821	2492.850577
539.075103	2515.535769
539.435328	2553.344423
539.795497	2487.809423
540.155609	2510.494615
540.515665	2419.753846
540.875665	2507.974038
541.235609	2525.618077
541.595496	2442.439038
541.955328	2550.823846
542.315102	2475.206538
542.674821	2482.768269
543.034483	2477.727115
543.394090	2581.070769
543.753640	2485.288846
544.113134	2543.262115
544.472571	2495.371154
544.831953	2538.220962
545.191278	2520.576923
545.550548	2422.274423
545.909761	2495.371154
546.268918	2558.385577
546.628019	2422.274423
546.987064	2485.288846
547.346053	2515.535769
547.704986	2432.356731
548.063863	2492.850577
548.422684	2525.618077
548.781449	2507.974038
549.140158	2402.109808
549.498811	2495.371154
549.857408	2450.000769
550.215949	2548.303269
550.574434	2548.303269
550.932864	2450.000769
551.291237	2502.932885
551.649555	2540.741538
552.007817	2523.097500
552.366022	2442.439038
552.724173	2555.865000
553.082267	2485.288846
553.440305	2470.165385
553.798288	2515.535769
554.156215	2470.165385
554.514086	2487.809423
554.871902	2578.550192
555.229661	2444.959615
555.587365	2558.385577
555.945014	2510.494615
556.302606	2548.303269
556.660143	2502.932885
557.017625	2507.974038
557.375050	2467.644808
557.732421	2510.494615
558.089735	2472.685962
558.446994	2545.782692
558.804197	2507.974038
559.161345	2513.015192
559.518437	2560.906154
559.875474	2424.795000
560.232455	2538.220962
560.589381	2492.850577
560.946251	2470.165385
561.303065	2555.865000
561.659825	2528.138654
562.016528	2553.344423
562.373177	2490.330000
562.729770	2475.206538
563.086307	2442.439038
563.442789	2558.385577
563.799216	2460.083077
564.155587	2505.453462
564.511904	2492.850577
564.868164	2450.000769
565.224370	2518.056346
565.580520	2475.206538
565.936615	2462.603654
566.292654	2444.959615
566.648638	2530.659231
567.004567	2507.974038
567.360441	2452.521346
567.716260	2545.782692
568.072023	2573.509038
568.427732	2505.453462
568.783385	2593.673654
569.138982	2576.029615
569.494525	2482.768269
569.850013	2505.453462
570.205445	2492.850577
570.560823	2394.548077
570.916145	2437.397885
571.271412	2560.906154
571.626625	2482.768269
571.981782	2550.823846
572.336884	2472.685962
572.691931	2548.303269
573.046923	2545.782692
573.401860	2601.235385
573.756743	2535.700385
574.111570	2434.877308
574.466342	2472.685962
574.821059	2442.439038
575.175722	2570.988462
575.530330	2573.509038
575.884882	2371.862885
576.239380	2470.165385
576.593823	2490.330000
576.948211	2429.836154
577.302544	2631.482308
577.656823	2429.836154
578.011047	2560.906154
578.365216	2530.659231
578.719330	2485.288846
579.073389	2505.453462
579.427394	2500.412308
579.781344	2490.330000
580.135239	2515.535769
580.489080	2523.097500
580.842866	2462.603654
581.196597	2505.453462
581.550273	2465.124231
581.903895	2518.056346
582.257463	2495.371154
582.610975	2520.576923
582.964434	2492.850577
583.317837	2538.220962
583.671186	2487.809423
584.024481	2497.891731
584.377721	2455.041923
584.730906	2555.865000
585.084037	2528.138654
585.437113	2507.974038
585.790135	2538.220962
586.143103	2457.562500
586.496016	2472.685962
586.848874	2412.192115
587.201679	2518.056346
587.554428	2543.262115
587.907124	2507.974038
588.259765	2434.877308
588.612352	2485.288846
588.964884	2518.056346
589.317362	2550.823846
589.669786	2523.097500
590.022155	2417.233269
590.374470	2573.509038
590.726731	2502.932885
591.078937	2485.288846
591.431090	2530.659231
591.783188	2462.603654
592.135232	2485.288846
592.487222	2465.124231
592.839157	2477.727115
593.191038	2475.206538
593.542866	2535.700385
593.894639	2437.397885
594.246358	2492.850577
594.598022	2472.685962
594.949633	2447.480192
595.301190	2507.974038
595.652692	2533.179808
596.004141	2565.947308
596.355535	2530.659231
596.706876	2528.138654
597.058162	2472.685962
597.409395	2439.918462
597.760573	2497.891731
598.111698	2485.288846
598.462768	2507.974038
598.813785	2444.959615
599.164748	2525.618077
599.515657	2467.644808
599.866511	2497.891731
600.217312	2462.603654
600.568060	2492.850577
600.918753	2477.727115
601.269392	2538.220962
601.619978	2538.220962
601.970510	2530.659231
602.320988	2460.083077
602.671412	2427.315577
603.021783	2422.274423
603.372100	2558.385577
603.722363	2545.782692
604.072572	2500.412308
604.422728	2563.426731
604.772830	2500.412308
605.122878	2528.138654
605.472872	2538.220962
605.822813	2510.494615
606.172701	2560.906154
606.522534	2444.959615
606.872314	2538.220962
607.222041	2437.397885
607.571714	2424.795000
607.921333	2500.412308
608.270899	2492.850577
608.620411	2477.727115
608.969870	2422.274423
609.319276	2492.850577
609.668627	2581.070769
610.017926	2439.918462
610.367171	2467.644808
610.716362	2434.877308
611.065500	2530.659231
611.414585	2384.465769
611.763616	2535.700385
612.112594	2452.521346
612.461518	2513.015192
612.810389	2530.659231
613.159207	2482.768269
613.507971	2497.891731
613.856682	2460.083077
614.205340	2455.041923
614.553945	2570.988462
614.902496	2470.165385
615.250994	2487.809423
615.599439	2570.988462
615.947830	2442.439038
616.296169	2465.124231
616.644454	2515.535769
616.992686	2558.385577
617.340864	2500.412308
617.688990	2515.535769
618.037063	2543.262115
618.385082	2533.179808
618.733048	2447.480192
619.080961	2525.618077
619.428821	2497.891731
619.776628	2525.618077
620.124382	2500.412308
620.472083	2502.932885
620.819731	2477.727115
621.167326	2442.439038
621.514868	2497.891731
621.862357	2570.988462
622.209793	2550.823846
622.557176	2507.974038
622.904506	2455.041923
623.251783	2467.644808
623.599007	2475.206538
623.946179	2616.358846
624.293297	2472.685962
624.640363	2482.768269
624.987376	2533.179808
625.334336	2548.303269
625.681243	2553.344423
626.028097	2485.288846
626.374899	2545.782692
626.721647	2591.153077
627.068343	2462.603654
627.414987	2525.618077
627.761577	2553.344423
628.108115	2533.179808
628.454600	2525.618077
628.801032	2545.782692
629.147412	2402.109808
629.493739	2490.330000
629.840014	2495.371154
630.186236	2477.727115
630.532405	2543.262115
630.878521	2510.494615
631.224585	2475.206538
631.570597	2507.974038
631.916556	2523.097500
632.262462	2530.659231
632.608316	2470.165385
632.954117	2533.179808
633.299866	2568.467885
633.645562	2490.330000
633.991206	2495.371154
634.336797	2505.453462
634.682336	2429.836154
635.027823	2578.550192
635.373257	2444.959615
635.718639	2507.974038
636.063968	2457.562500
636.409245	2500.412308
636.754470	2427.315577
637.099642	2452.521346
637.444762	2518.056346
637.789829	2412.192115
638.134845	2505.453462
638.479808	2492.850577
638.824719	2596.194231
639.169577	2492.850577
639.514383	2495.371154
639.859137	2412.192115
640.203839	2439.918462
640.548489	2497.891731
640.893086	2470.165385
641.237632	2487.809423
641.582125	2460.083077
641.926566	2515.535769
642.270955	2467.644808
642.615292	2505.453462
642.959576	2487.809423
643.303809	2500.412308
643.647990	2538.220962
643.992118	2533.179808
644.336195	2447.480192
644.680219	2392.027500
645.024192	2480.247692
645.368112	2462.603654
645.711981	2439.918462
646.055797	2523.097500
646.399562	2470.165385
646.743274	2470.165385
647.086935	2490.330000
647.430544	2490.330000
647.774101	2535.700385
648.117606	2485.288846
648.461059	2505.453462
648.804460	2570.988462
649.147810	2540.741538
649.491108	2502.932885
649.834354	2528.138654
650.177548	2533.179808
650.520690	2515.535769
650.863781	2419.753846
651.206820	2455.041923
651.549807	2593.673654
651.892742	2460.083077
652.235626	2533.179808
652.578458	2505.453462
652.921238	2462.603654
653.263967	2515.535769
653.606644	2515.535769
653.949269	2505.453462
654.291843	2407.150962
654.634365	2505.453462
654.976836	2487.809423
655.319255	2492.850577
655.661622	2462.603654
656.003938	2523.097500
656.346203	2513.015192
656.688416	2502.932885
657.030577	2470.165385
657.372687	2540.741538
657.714746	2475.206538
658.056753	2490.330000
658.398708	2500.412308
658.740612	2591.153077
659.082465	2480.247692
659.424266	2518.056346
659.766016	2560.906154
660.107715	2389.506923
660.449362	2515.535769
660.790958	2450.000769
661.132503	2407.150962
661.473996	2611.317692
661.815438	2465.124231
662.156829	2427.315577
662.498168	2535.700385
662.839456	2563.426731
663.180693	2510.494615
663.521879	2563.426731
663.863013	2538.220962
664.204097	2407.150962
664.545129	2525.618077
664.886110	2495.371154
665.227040	2450.000769
665.567918	2457.562500
665.908746	2528.138654
666.249522	2533.179808
666.590248	2497.891731
666.930922	2439.918462
667.271545	2427.315577
667.612118	2528.138654
667.952639	2495.371154
668.293109	2558.385577
668.633528	2520.576923
668.973896	2432.356731
669.314213	2543.262115
669.654480	2507.974038
669.994695	2472.685962
670.334859	2530.659231
670.674973	2460.083077
671.015035	2500.412308
671.355047	2502.932885
671.695008	2470.165385
672.034918	2480.247692
672.374777	2374.383462
672.714585	2581.070769
673.054342	2475.206538
673.394049	2485.288846
673.733705	2616.358846
674.073310	2548.303269
674.412864	2570.988462
674.752368	2472.685962
675.091820	2497.891731
675.431223	2482.768269
675.770574	2497.891731
676.109875	2500.412308
676.449125	2601.235385
676.788324	2432.356731
677.127473	2560.906154
677.466571	2487.809423
677.805619	2535.700385
678.144616	2429.836154
678.483562	2465.124231
678.822458	2606.276538
679.161303	2417.233269
679.500098	2548.303269
679.838842	2450.000769
680.177535	2538.220962
680.516179	2502.932885
680.854771	2427.315577
681.193314	2502.932885
681.531805	2535.700385
681.870247	2492.850577
682.208638	2470.165385
682.546978	2447.480192
682.885268	2485.288846
683.223508	2422.274423
683.561697	2540.741538
683.899836	2596.194231
684.237925	2492.850577
684.575963	2487.809423
684.913951	2490.330000
685.251889	2560.906154
685.589776	2467.644808
685.927614	2545.782692
686.265401	2528.138654
686.603137	2490.330000
686.940824	2455.041923
687.278460	2462.603654
687.616046	2528.138654
687.953582	2623.920577
688.291068	2520.576923
688.628504	2563.426731
688.965889	2560.906154
689.303224	2492.850577
689.640510	2424.795000
689.977745	2545.782692
690.314930	2540.741538
690.652065	2404.630385
690.989150	2429.836154
691.326185	2507.974038
691.663170	2437.397885
692.000105	2510.494615
692.336990	2502.932885
692.673825	2535.700385
693.010610	2487.809423
693.347345	2563.426731
693.684030	2540.741538
694.020665	2460.083077
694.357251	2518.056346
694.693786	2563.426731
695.030272	2490.330000
695.366707	2480.247692
695.703093	2576.029615
696.039429	2482.768269
696.375716	2485.288846
696.711952	2525.618077
697.048139	2510.494615
697.384276	2533.179808
697.720363	2555.865000
698.056400	2497.891731
698.392388	2533.179808
698.728326	2550.823846
699.064214	2545.782692
699.400053	2518.056346
699.735842	2472.685962
700.071581	2535.700385
700.407270	2470.165385
700.742910	2417.233269
701.078501	2523.097500
701.414042	2419.753846
701.749533	2462.603654
702.084974	2505.453462
702.420366	2538.220962
702.755709	2500.412308
703.091002	2480.247692
703.426246	2475.206538
703.761440	2573.509038
704.096584	2497.891731
704.431679	2475.206538
704.766725	2500.412308
705.101721	2528.138654
705.436668	2550.823846
705.771565	2538.220962
706.106413	2462.603654
706.441212	2424.795000
706.775961	2603.755962
707.110661	2565.947308
707.445311	2578.550192
707.779913	2550.823846
708.114465	2543.262115
708.448967	2520.576923
708.783421	2437.397885
709.117825	2543.262115
709.452180	2480.247692
709.786485	2510.494615
710.120742	2475.206538
710.454949	2482.768269
710.789107	2485.288846
711.123216	2465.124231
711.457275	2510.494615
711.791286	2528.138654
712.125247	2475.206538
712.459159	2507.974038
712.793023	2472.685962
713.126837	2419.753846
713.460602	2523.097500
713.794318	2452.521346
714.127985	2482.768269
714.461602	2671.811538
714.795171	2364.301154
715.128691	2495.371154
715.462162	2490.330000
715.795584	2520.576923
716.128957	2470.165385
716.462281	2507.974038
716.795556	2477.727115
717.128782	2550.823846
717.461960	2439.918462
717.795088	2444.959615
718.128167	2422.274423
718.461198	2477.727115
718.794180	2545.782692
719.127113	2505.453462
719.459997	2528.138654
719.792833	2490.330000
720.125619	2563.426731
720.458357	2533.179808
720.791046	2472.685962
721.123686	2538.220962
721.456278	2465.124231
721.788821	2525.618077
722.121315	2530.659231
722.453761	2550.823846
722.786158	2518.056346
723.118506	2472.685962
723.450805	2492.850577
723.783056	2540.741538
724.115259	2510.494615
724.447412	2558.385577
724.779518	2510.494615
725.111574	2444.959615
725.443582	2505.453462
725.775542	2550.823846
726.107453	2437.397885
726.439315	2510.494615
726.771129	2417.233269
727.102895	2583.591346
727.434612	2460.083077
727.766281	2513.015192
728.097901	2475.206538
728.429473	2573.509038
728.760996	2510.494615
729.092471	2500.412308
729.423897	2581.070769
729.755276	2523.097500
730.086606	2465.124231
730.417887	2444.959615
730.749120	2424.795000
731.080305	2450.000769
731.411442	2505.453462
731.742530	2513.015192
732.073570	2548.303269
732.404562	2523.097500
732.735506	2455.041923
733.066401	2477.727115
733.397249	2495.371154
733.728048	2472.685962
734.058798	2450.000769
734.389501	2392.027500
734.720156	2477.727115
735.050762	2482.768269
735.381320	2409.671538
735.711831	2444.959615
736.042293	2455.041923
736.372707	2502.932885
736.703073	2465.124231
737.033391	2515.535769
737.363661	2422.274423
737.693883	2492.850577
738.024056	2520.576923
738.354182	2502.932885
738.684260	2457.562500
739.014290	2429.836154
739.344272	2510.494615
739.674207	2510.494615
740.004093	2429.836154
740.333931	2528.138654
740.663722	2510.494615
740.993464	2490.330000
741.323159	2450.000769
741.652806	2510.494615
741.982405	2432.356731
742.311956	2505.453462
742.641460	2444.959615
742.970915	2515.535769
743.300323	2460.083077
743.629683	2535.700385
743.958996	2467.644808
744.288260	2507.974038
744.617477	2447.480192
744.946647	2460.083077
745.275768	2523.097500
745.604842	2487.809423
745.933869	2553.344423
746.262847	2528.138654
746.591778	2525.618077
746.920662	2550.823846
747.249498	2497.891731
747.578286	2550.823846
747.907027	2507.974038
748.235720	2548.303269
748.564365	2460.083077
748.892963	2518.056346
749.221514	2475.206538
749.550017	2502.932885
749.878473	2533.179808
750.206881	2480.247692
750.535242	2462.603654
750.863555	2518.056346
751.191821	2485.288846
751.520039	2540.741538
751.848210	2535.700385
752.176334	2470.165385
752.504411	2482.768269
752.832440	2507.974038
753.160421	2424.795000
753.488356	2513.015192
753.816243	2424.795000
754.144082	2555.865000
754.471875	2497.891731
754.799620	2583.591346
755.127318	2490.330000
755.454969	2467.644808
755.782572	2528.138654
756.110129	2518.056346
756.437638	2505.453462
756.765100	2535.700385
757.092515	2422.274423
757.419882	2543.262115
757.747203	2538.220962
758.074477	2543.262115
758.401703	2502.932885
758.728882	2525.618077
759.056014	2444.959615
759.383099	2533.179808
759.710138	2465.124231
760.037129	2465.124231
760.364073	2432.356731
760.690970	2457.562500
761.017820	2465.124231
761.344623	2568.467885
761.671379	2543.262115
761.998088	2439.918462
762.324751	2533.179808
762.651366	2487.809423
762.977935	2492.850577
763.304456	2490.330000
763.630931	2545.782692
763.957359	2404.630385
764.283740	2442.439038
764.610074	2470.165385
764.936362	2495.371154
765.262602	2447.480192
765.588796	2407.150962
765.914943	2394.548077
766.241044	2460.083077
766.567097	2497.891731
766.893104	2437.397885
767.219064	2457.562500
767.544978	2487.809423
767.870845	2535.700385
768.196665	2538.220962
768.522438	2472.685962
768.848165	2513.015192
769.173846	2472.685962
769.499479	2482.768269
769.825066	2543.262115
770.150607	2525.618077
770.476101	2485.288846
770.801548	2525.618077
771.126949	2460.083077
771.452303	2525.618077
771.777611	2492.850577
772.102872	2457.562500
772.428087	2402.109808
772.753256	2500.412308
773.078378	2578.550192
773.403453	2540.741538
773.728482	2407.150962
774.053465	2545.782692
774.378401	2429.836154
774.703291	2487.809423
775.028135	2485.288846
775.352932	2538.220962
775.677683	2523.097500
776.002388	2480.247692
776.327046	2533.179808
776.651658	2528.138654
776.976224	2487.809423
777.300743	2520.576923
777.625216	2460.083077
777.949643	2480.247692
778.274024	2351.698269
778.598359	2497.891731
778.922647	2389.506923
779.246889	2490.330000
779.571086	2450.000769
779.895236	2495.371154
780.219339	2538.220962
780.543397	2485.288846
780.867409	2550.823846
781.191374	2455.041923
781.515294	2477.727115
781.839167	2507.974038
782.162995	2548.303269
782.486776	2581.070769
782.810511	2502.932885
783.134201	2533.179808
783.457844	2452.521346
783.781441	2422.274423
784.104993	2480.247692
784.428498	2485.288846
784.751958	2399.589231
785.075372	2510.494615
785.398739	2515.535769
785.722061	2560.906154
786.045337	2497.891731
786.368568	2465.124231
786.691752	2500.412308
787.014891	2492.850577
787.337983	2560.906154
787.661030	2462.603654
787.984031	2432.356731
788.306987	2475.206538
788.629897	2404.630385
788.952760	2480.247692
789.275579	2444.959615
789.598351	2450.000769
789.921078	2513.015192
790.243759	2523.097500
790.566395	2475.206538
790.888984	2518.056346
791.211529	2465.124231
791.534027	2379.424615
791.856480	2515.535769
792.178888	2477.727115
792.501249	2528.138654
792.823566	2568.467885
793.145836	2520.576923
793.468062	2457.562500
793.790241	2437.397885
794.112375	2553.344423
794.434464	2462.603654
794.756507	2505.453462
795.078505	2417.233269
795.400457	2462.603654
795.722364	2510.494615
796.044226	2525.618077
796.366042	2467.644808
796.687812	2523.097500
797.009538	2424.795000
797.331218	2510.494615
797.652852	2452.521346
797.974442	2472.685962
798.295986	2510.494615
798.617484	2472.685962
798.938938	2394.548077
799.260346	2535.700385
799.581709	2470.165385
799.903026	2434.877308
800.224299	2550.823846
800.545526	2487.809423
800.866708	2528.138654
801.187845	2465.124231
801.508936	2482.768269
801.829983	2495.371154
802.150984	2523.097500
802.471940	2417.233269
802.792851	2553.344423
803.113717	2455.041923
803.434538	2502.932885
803.755314	2465.124231
804.076045	2437.397885
804.396731	2570.988462
804.717372	2487.809423
805.037967	2520.576923
805.358518	2477.727115
805.679024	2507.974038
805.999485	2520.576923
806.319901	2492.850577
806.640272	2414.712692
806.960598	2568.467885
807.280879	2442.439038
807.601115	2550.823846
807.921306	2414.712692
808.241453	2523.097500
808.561554	2462.603654
808.881611	2525.618077
809.201623	2450.000769
809.521590	2462.603654
809.841513	2530.659231
810.161390	2500.412308
810.481223	2412.192115
810.801011	2480.247692
811.120755	2495.371154
811.440453	2555.865000
811.760107	2475.206538
812.079716	2530.659231
812.399281	2429.836154
812.718801	2538.220962
813.038276	2467.644808
813.357707	2502.932885
813.677093	2465.124231
813.996434	2480.247692
814.315731	2437.397885
814.634983	2513.015192
814.954191	2505.453462
815.273354	2447.480192
815.592473	2434.877308
815.911547	2477.727115
816.230577	2475.206538
816.549562	2407.150962
816.868502	2432.356731
817.187399	2427.315577
817.506250	2427.315577
817.825058	2487.809423
818.143821	2523.097500
818.462539	2510.494615
818.781213	2462.603654
819.099843	2482.768269
819.418429	2482.768269
819.736970	2525.618077
820.055466	2560.906154
820.373919	2545.782692
820.692327	2475.206538
821.010691	2520.576923
821.329011	2432.356731
821.647286	2500.412308
821.965517	2523.097500
822.283704	2417.233269
822.601847	2510.494615
822.919945	2515.535769
823.237999	2475.206538
823.556010	2515.535769
823.873976	2381.945192
824.191897	2596.194231
824.509775	2457.562500
824.827609	2472.685962
825.145398	2392.027500
825.463144	2490.330000
825.780845	2492.850577
826.098502	2518.056346
826.416116	2545.782692
826.733685	2460.083077
827.051210	2515.535769
827.368692	2550.823846
827.686129	2528.138654
828.003522	2407.150962
828.320872	2419.753846
828.638177	2513.015192
828.955439	2515.535769
829.272656	2462.603654
829.589830	2518.056346
829.906960	2520.576923
830.224046	2455.041923
830.541088	2502.932885
830.858086	2460.083077
831.175041	2518.056346
831.491952	2555.865000
831.808819	2457.562500
832.125642	2500.412308
832.442421	2419.753846
832.759157	2447.480192
833.075849	2472.685962
833.392497	2513.015192
833.709101	2545.782692
834.025662	2505.453462
834.342179	2502.932885
834.658653	2460.083077
834.975083	2525.618077
835.291469	2507.974038
835.607811	2482.768269
835.924110	2525.618077
836.240366	2535.700385
836.556578	2543.262115
836.872746	2432.356731
837.188871	2460.083077
837.504952	2452.521346
837.820990	2467.644808
838.136984	2465.124231
838.452935	2500.412308
838.768842	2460.083077
839.084706	2470.165385
839.400526	2513.015192
839.716303	2447.480192
840.032037	2475.206538
840.347727	2434.877308
840.663373	2515.535769
840.978977	2490.330000
841.294537	2477.727115
841.610054	2482.768269
841.925527	2477.727115
842.240957	2381.945192
842.556344	2465.124231
842.871687	2407.150962
843.186987	2525.618077
843.502244	2507.974038
843.817458	2510.494615
844.132629	2513.015192
844.447756	2538.220962
844.762840	2492.850577
845.077881	2523.097500
845.392879	2465.124231
845.707833	2520.576923
846.022745	2442.439038
846.337613	2515.535769
846.652438	2470.165385
846.967221	2502.932885
847.281960	2480.247692
847.596656	2525.618077
847.911309	2523.097500
848.225919	2475.206538
848.540485	2530.659231
848.855009	2500.412308
849.169490	2513.015192
849.483928	2450.000769
849.798323	2497.891731
850.112675	2510.494615
850.426984	2555.865000
850.741251	2520.576923
851.055474	2439.918462
851.369654	2528.138654
851.683792	2485.288846
851.997887	2538.220962
852.311938	2545.782692
852.625947	2515.535769
852.939914	2447.480192
853.253837	2528.138654
853.567718	2548.303269
853.881555	2457.562500
854.195350	2462.603654
854.509103	2482.768269
854.822812	2477.727115
855.136479	2452.521346
855.450103	2472.685962
855.763685	2495.371154
856.077224	2500.412308
856.390720	2447.480192
856.704173	2510.494615
857.017584	2455.041923
857.330953	2492.850577
857.644278	2601.235385
857.957561	2507.974038
858.270802	2505.453462
858.584000	2513.015192
858.897155	2560.906154
859.210268	2485.288846
859.523339	2558.385577
859.836367	2467.644808
860.149352	2525.618077
860.462295	2535.700385
860.775195	2477.727115
861.088054	2513.015192
861.400869	2492.850577
861.713642	2497.891731
862.026373	2507.974038
862.339062	2407.150962
862.651708	2475.206538
862.964312	2465.124231
863.276873	2523.097500
863.589392	2422.274423
863.901869	2553.344423
864.214303	2442.439038
864.526696	2467.644808
864.839045	2465.124231
865.151353	2439.918462
865.463619	2444.959615
865.775842	2480.247692
866.088023	2497.891731
866.400162	2543.262115
866.712258	2450.000769
867.024313	2548.303269
867.336325	2505.453462
867.648296	2366.821731
867.960224	2480.247692
868.272110	2480.247692
868.583954	2477.727115
868.895755	2502.932885
869.207515	2452.521346
869.519233	2485.288846
869.830909	2465.124231
870.142542	2492.850577
870.454134	2581.070769
870.765684	2419.753846
871.077191	2507.974038
871.388657	2502.932885
871.700081	2520.576923
872.011463	2505.453462
872.322803	2444.959615
872.634101	2533.179808
872.945357	2450.000769
873.256571	2520.576923
873.567744	2417.233269
873.878874	2518.056346
874.189963	2520.576923
874.501010	2470.165385
874.812015	2480.247692
875.122979	2472.685962
875.433900	2457.562500
875.744780	2485.288846
876.055618	2444.959615
876.366415	2555.865000
876.677169	2530.659231
876.987882	2366.821731
877.298554	2533.179808
877.609183	2442.439038
877.919771	2573.509038
878.230317	2455.041923
878.540822	2538.220962
878.851285	2525.618077
879.161707	2470.165385
879.472087	2495.371154
879.782425	2502.932885
880.092722	2492.850577
880.402977	2452.521346
880.713191	2480.247692
881.023363	2427.315577
881.333494	2450.000769
881.643583	2611.317692
881.953631	2576.029615
882.263637	2570.988462
882.573602	2472.685962
882.883526	2470.165385
883.193408	2535.700385
883.503248	2422.274423
883.813048	2515.535769
884.122806	2450.000769
884.432522	2485.288846
884.742197	2543.262115
885.051831	2490.330000
885.361424	2533.179808
885.670975	2409.671538
885.980485	2533.179808
886.289954	2515.535769
886.599382	2450.000769
886.908768	2515.535769
887.218113	2389.506923
887.527417	2535.700385
887.836680	2513.015192
888.145901	2535.700385
888.455082	2507.974038
888.764221	2596.194231
889.073319	2507.974038
889.382376	2444.959615
889.691392	2533.179808
890.000366	2533.179808
890.309300	2497.891731
890.618193	2523.097500
890.927044	2482.768269
891.235855	2530.659231
891.544625	2520.576923
891.853353	2518.056346
892.162041	2510.494615
892.470687	2495.371154
892.779293	2434.877308
893.087858	2510.494615
893.396381	2467.644808
893.704864	2480.247692
894.013306	2533.179808
894.321707	2563.426731
894.630068	2510.494615
894.938387	2502.932885
895.246665	2495.371154
895.554903	2470.165385
895.863100	2515.535769
896.171256	2424.795000
896.479371	2490.330000
896.787446	2523.097500
897.095480	2444.959615
897.403473	2528.138654
897.711425	2538.220962
898.019336	2490.330000
898.327207	2505.453462
898.635038	2513.015192
898.942827	2538.220962
899.250576	2533.179808
899.558284	2495.371154
899.865952	2477.727115
900.173579	2394.548077
900.481165	2533.179808
900.788711	2485.288846
901.096216	2553.344423
901.403681	2507.974038
901.711105	2417.233269
902.018489	2389.506923
902.325832	2457.562500
902.633135	2510.494615
902.940397	2487.809423
903.247619	2427.315577
903.554800	2419.753846
903.861941	2447.480192
904.169041	2500.412308
904.476101	2492.850577
904.783121	2422.274423
905.090100	2485.288846
905.397039	2523.097500
905.703938	2560.906154
906.010796	2510.494615
906.317614	2570.988462
906.624391	2477.727115
906.931129	2409.671538
907.237826	2460.083077
907.544483	2465.124231
907.851099	2500.412308
908.157675	2533.179808
908.464211	2545.782692
908.770707	2414.712692
909.077163	2538.220962
909.383578	2520.576923
909.689954	2439.918462
909.996289	2487.809423
910.302584	2558.385577
910.608839	2467.644808
910.915054	2439.918462
911.221229	2525.618077
911.527363	2472.685962
911.833458	2502.932885
912.139513	2407.150962
912.445527	2515.535769
912.751502	2442.439038
913.057436	2505.453462
913.363331	2409.671538
913.669186	2487.809423
913.975000	2568.467885
914.280775	2495.371154
914.586510	2477.727115
914.892205	2495.371154
915.197859	2487.809423
915.503475	2462.603654
915.809050	2502.932885
916.114585	2392.027500
916.420081	2442.439038
916.725536	2538.220962
917.030952	2480.247692
917.336328	2470.165385
917.641665	2429.836154
917.946961	2475.206538
918.252218	2422.274423
918.557435	2515.535769
918.862612	2475.206538
919.167750	2460.083077
919.472848	2497.891731
919.777906	2394.548077
920.082925	2482.768269
920.387904	2502.932885
920.692843	2565.947308
920.997743	2462.603654
921.302603	2417.233269
921.607423	2555.865000
921.912204	2485.288846
922.216946	2533.179808
922.521647	2510.494615
922.826310	2452.521346
923.130932	2497.891731
923.435516	2422.274423
923.740059	2495.371154
924.044564	2525.618077
924.349028	2611.317692
924.653454	2523.097500
924.957840	2505.453462
925.262186	2452.521346
925.566493	2467.644808
925.870761	2505.453462
926.174989	2545.782692
926.479178	2497.891731
926.783328	2495.371154
927.087438	2482.768269
927.391509	2467.644808
927.695541	2528.138654
927.999533	2492.850577
928.303486	2548.303269
928.607400	2510.494615
928.911275	2462.603654
929.215110	2502.932885
929.518906	2480.247692
929.822663	2553.344423
930.126381	2475.206538
930.430060	2500.412308
930.733699	2555.865000
931.037299	2565.947308
931.340861	2460.083077
931.644383	2558.385577
931.947866	2475.206538
932.251309	2523.097500
932.554714	2507.974038
932.858080	2540.741538
933.161407	2457.562500
933.464694	2487.809423
933.767943	2500.412308
934.071153	2528.138654
934.374323	2535.700385
934.677455	2487.809423
934.980548	2437.397885
935.283602	2490.330000
935.586617	2427.315577
935.889593	2533.179808
936.192530	2578.550192
936.495428	2548.303269
936.798287	2439.918462
937.101108	2477.727115
937.403890	2490.330000
937.706632	2548.303269
938.009336	2417.233269
938.312002	2495.371154
938.614628	2548.303269
938.917216	2495.371154
939.219765	2507.974038
939.522275	2502.932885
939.824747	2593.673654
940.127179	2528.138654
940.429573	2447.480192
940.731929	2497.891731
941.034246	2465.124231
941.336524	2490.330000
941.638763	2528.138654
941.940964	2432.356731
942.243126	2497.891731
942.545250	2502.932885
942.847335	2419.753846
943.149381	2507.974038
943.451389	2545.782692
943.753359	2427.315577
944.055290	2500.412308
944.357182	2530.659231
944.659036	2538.220962
944.960851	2492.850577
945.262628	2608.797115
945.564367	2555.865000
945.866067	2545.782692
946.167729	2492.850577
946.469352	2450.000769
946.770937	2477.727115
947.072484	2492.850577
947.373992	2523.097500
947.675462	2545.782692
947.976893	2470.165385
948.278286	2588.632500
948.579641	2510.494615
948.880958	2560.906154
949.182236	2563.426731
949.483476	2434.877308
949.784678	2457.562500
950.085841	2490.330000
950.386967	2460.083077
950.688054	2510.494615
950.989103	2452.521346
951.290114	2518.056346
951.591087	2525.618077
951.892021	2550.823846
952.192917	2444.959615
952.493776	2510.494615
952.794596	2381.945192
953.095378	2492.850577
953.396122	2505.453462
953.696828	2497.891731
953.997496	2515.535769
954.298126	2465.124231
954.598718	2545.782692
954.899272	2452.521346
955.199788	2442.439038
955.500266	2487.809423
955.800706	2492.850577
956.101108	2392.027500
956.401472	2520.576923
956.701798	2465.124231
957.002087	2523.097500
957.302337	2480.247692
957.602550	2465.124231
957.902724	2601.235385
958.202861	2573.509038
958.502960	2525.618077
958.803022	2424.795000
959.103045	2502.932885
959.403031	2525.618077
959.702979	2530.659231
960.002889	2412.192115
960.302762	2472.685962
960.602596	2429.836154
960.902393	2548.303269
961.202153	2475.206538
961.501875	2510.494615
961.801559	2480.247692
962.101205	2374.383462
962.400814	2477.727115
962.700385	2548.303269
962.999918	2450.000769
963.299414	2530.659231
963.598873	2487.809423
963.898293	2507.974038
964.197677	2447.480192
964.497022	2444.959615
964.796331	2485.288846
965.095601	2487.809423
965.394835	2543.262115
965.694030	2467.644808
965.993189	2568.467885
966.292309	2442.439038
966.591393	2558.385577
966.890439	2500.412308
967.189447	2497.891731
967.488419	2553.344423
967.787353	2530.659231
968.086249	2578.550192
968.385108	2439.918462
968.683930	2518.056346
968.982714	2480.247692
969.281462	2560.906154
969.580172	2432.356731
969.878844	2530.659231
970.177480	2407.150962
970.476078	2450.000769
970.774639	2490.330000
971.073162	2485.288846
971.371649	2555.865000
971.670098	2487.809423
971.968510	2581.070769
972.266885	2414.712692
972.565223	2507.974038
972.863524	2497.891731
973.161788	2497.891731
973.460014	2490.330000
973.758204	2371.862885
974.056356	2502.932885
974.354471	2477.727115
974.652550	2518.056346
974.950591	2545.782692
975.248595	2510.494615
975.546563	2480.247692
975.844493	2417.233269
976.142386	2412.192115
976.440243	2528.138654
976.738062	2429.836154
977.035845	2475.206538
977.333590	2457.562500
977.631299	2444.959615
977.928971	2422.274423
978.226606	2510.494615
978.524204	2563.426731
978.821765	2518.056346
979.119290	2437.397885
979.416777	2550.823846
979.714228	2505.453462
980.011642	2550.823846
980.309020	2472.685962
980.606360	2442.439038
980.903664	2439.918462
981.200931	2523.097500
981.498162	2591.153077
981.795356	2450.000769
982.092513	2560.906154
982.389633	2465.124231
982.686717	2374.383462
982.983764	2480.247692
983.280775	2419.753846
983.577749	2470.165385
983.874686	2487.809423
984.171587	2472.685962
984.468451	2510.494615
984.765279	2500.412308
985.062070	2500.412308
985.358824	2472.685962
985.655543	2490.330000
985.952224	2555.865000
986.248869	2495.371154
986.545478	2450.000769
986.842050	2444.959615
987.138586	2480.247692
987.435086	2538.220962
987.731549	2457.562500
988.027975	2465.124231
988.324366	2548.303269
988.620719	2515.535769
988.917037	2452.521346
989.213318	2392.027500
989.509563	2477.727115
989.805772	2462.603654
990.101944	2452.521346
990.398080	2540.741538
990.694180	2495.371154
990.990244	2558.385577
991.286271	2470.165385
991.582262	2485.288846
991.878217	2495.371154
992.174136	2507.974038
992.470019	2472.685962
992.765865	2450.000769
993.061676	2467.644808
993.357450	2457.562500
993.653188	2462.603654
993.948890	2520.576923
994.244556	2535.700385
994.540186	2502.932885
994.835780	2528.138654
995.131337	2545.782692
995.426859	2470.165385
995.722345	2513.015192
996.017795	2424.795000
996.313208	2568.467885
996.608586	2528.138654
996.903928	2540.741538
997.199234	2450.000769
997.494504	2502.932885
997.789738	2487.809423
998.084936	2528.138654
998.380099	2475.206538
998.675225	2460.083077
998.970316	2460.083077
999.265371	2523.097500
999.560390	2497.891731
999.855373	2462.603654
1000.150320	2515.535769
1000.445232	2490.330000
1000.740108	2434.877308
1001.034948	2578.550192
1001.329752	2450.000769
1001.624521	2477.727115
1001.919254	2465.124231
1002.213951	2452.521346
1002.508613	2518.056346
1002.803239	2500.412308
1003.097829	2422.274423
1003.392384	2402.109808
1003.686903	2490.330000
1003.981386	2432.356731
1004.275834	2480.247692
1004.570246	2460.083077
1004.864623	2450.000769
1005.158964	2439.918462
1005.453270	2439.918462
1005.747540	2439.918462
1006.041775	2429.836154
1006.335974	2576.029615
1006.630138	2470.165385
1006.924266	2510.494615
1007.218359	2460.083077
1007.512416	2444.959615
1007.806438	2507.974038
1008.100425	2515.535769
1008.394376	2505.453462
1008.688292	2535.700385
1008.982172	2467.644808
1009.276017	2492.850577
1009.569827	2487.809423
1009.863602	2513.015192
1010.157341	2477.727115
1010.451045	2538.220962
1010.744714	2455.041923
1011.038347	2386.986346
1011.331945	2475.206538
1011.625508	2487.809423
1011.919036	2457.562500
1012.212528	2457.562500
1012.505986	2477.727115
1012.799408	2452.521346
1013.092795	2487.809423
1013.386147	2457.562500
1013.679464	2523.097500
1013.972745	2492.850577
1014.265992	2520.576923
1014.559204	2502.932885
1014.852380	2497.891731
1015.145521	2495.371154
1015.438628	2505.453462
1015.731699	2510.494615
1016.024736	2565.947308
1016.317737	2462.603654
1016.610703	2462.603654
1016.903635	2447.480192
1017.196531	2530.659231
1017.489393	2417.233269
1017.782219	2555.865000
1018.075011	2444.959615
1018.367768	2477.727115
1018.660490	2434.877308
1018.953177	2434.877308
1019.245829	2434.877308
