Dividing Wavelength (nm)	Counts (n)	Blue Motor Position (mm): 0.000000	Red Motor Position (mm): 9.600000	
326.493990	2114.764038
326.888308	2114.764038
327.282561	2114.764038
327.676750	2021.502692
328.070874	2041.667308
328.464933	2079.475962
328.858929	1998.817500
329.252859	2026.543846
329.646726	2109.722885
330.040528	2134.928654
330.434265	2142.490385
330.827938	2117.284615
331.221547	2142.490385
331.615091	2202.984231
332.008571	2195.422500
332.401986	2271.039808
332.795338	2303.807308
333.188625	2129.887500
333.581847	2306.327885
333.975006	2286.163269
334.368100	2308.848462
334.761129	2296.245577
335.154095	2339.095385
335.546996	2331.533654
335.939833	2326.492500
336.332606	2334.054231
336.725315	2376.904038
337.117960	2455.041923
337.510540	2429.836154
337.903056	2392.027500
338.295508	2397.068654
338.687896	2472.685962
339.080220	2462.603654
339.472480	2465.124231
339.864676	2525.618077
340.256807	2548.303269
340.648875	2460.083077
341.040879	2419.753846
341.432818	2457.562500
341.824694	2442.439038
342.216506	2482.768269
342.608253	2465.124231
342.999937	2414.712692
343.391557	2558.385577
343.783113	2510.494615
344.174605	2515.535769
344.566033	2548.303269
344.957397	2492.850577
345.348697	2412.192115
345.739934	2434.877308
346.131106	2472.685962
346.522215	2523.097500
346.913260	2475.206538
347.304241	2444.959615
347.695159	2437.397885
348.086012	2455.041923
348.476802	2510.494615
348.867528	2472.685962
349.258191	2442.439038
349.648789	2412.192115
350.039324	2507.974038
350.429796	2475.206538
350.820203	2465.124231
351.210548	2465.124231
351.600828	2359.260000
351.991045	2452.521346
352.381198	2442.439038
352.771288	2407.150962
353.161314	2457.562500
353.551276	2434.877308
353.941175	2409.671538
354.331010	2465.124231
354.720782	2427.315577
355.110490	2477.727115
355.500135	2457.562500
355.889717	2349.177692
356.279235	2492.850577
356.668689	2497.891731
357.058080	2472.685962
357.447408	2442.439038
357.836672	2520.576923
358.225873	2485.288846
358.615010	2482.768269
359.004084	2439.918462
359.393095	2409.671538
359.782043	2465.124231
360.170927	2402.109808
360.559748	2389.506923
360.948505	2419.753846
361.337199	2439.918462
361.725830	2492.850577
362.114398	2429.836154
362.502903	2470.165385
362.891344	2444.959615
363.279722	2424.795000
363.668037	2460.083077
364.056289	2424.795000
364.444478	2399.589231
364.832603	2432.356731
365.220665	2457.562500
365.608665	2465.124231
365.996601	2477.727115
366.384474	2439.918462
366.772284	2409.671538
367.160031	2507.974038
367.547715	2386.986346
367.935336	2472.685962
368.322893	2460.083077
368.710388	2424.795000
369.097820	2497.891731
369.485189	2513.015192
369.872495	2485.288846
370.259738	2455.041923
370.646918	2457.562500
371.034035	2437.397885
371.421090	2429.836154
371.808081	2472.685962
372.195010	2417.233269
372.581875	2467.644808
372.968678	2452.521346
373.355418	2394.548077
373.742096	2384.465769
374.128710	2392.027500
374.515262	2371.862885
374.901751	2520.576923
375.288177	2492.850577
375.674540	2507.974038
376.060841	2490.330000
376.447079	2434.877308
376.833254	2520.576923
377.219367	2424.795000
377.605417	2432.356731
377.991404	2414.712692
378.377329	2518.056346
378.763191	2374.383462
379.148991	2422.274423
379.534727	2535.700385
379.920402	2462.603654
380.306013	2452.521346
380.691563	2457.562500
381.077049	2429.836154
381.462474	2477.727115
381.847835	2404.630385
382.233134	2495.371154
382.618371	2497.891731
383.003545	2409.671538
383.388657	2502.932885
383.773706	2518.056346
384.158693	2482.768269
384.543618	2497.891731
384.928480	2480.247692
385.313280	2460.083077
385.698017	2543.262115
386.082692	2480.247692
386.467305	2412.192115
386.851856	2515.535769
387.236344	2470.165385
387.620770	2399.589231
388.005133	2455.041923
388.389435	2460.083077
388.773674	2417.233269
389.157851	2485.288846
389.541965	2444.959615
389.926018	2462.603654
390.310008	2485.288846
390.693936	2442.439038
391.077802	2417.233269
391.461606	2482.768269
391.845348	2460.083077
392.229027	2487.809423
392.612645	2444.959615
392.996200	2513.015192
393.379694	2500.412308
393.763125	2414.712692
394.146494	2533.179808
394.529801	2427.315577
394.913047	2485.288846
395.296230	2560.906154
395.679351	2457.562500
396.062410	2515.535769
396.445408	2487.809423
396.828343	2397.068654
397.211217	2389.506923
397.594028	2427.315577
397.976778	2513.015192
398.359466	2462.603654
398.742092	2407.150962
399.124656	2419.753846
399.507158	2442.439038
399.889598	2419.753846
400.271977	2505.453462
400.654294	2598.714808
401.036549	2530.659231
401.418742	2535.700385
401.800874	2510.494615
402.182944	2477.727115
402.564952	2447.480192
402.946898	2470.165385
403.328783	2427.315577
403.710606	2505.453462
404.092367	2457.562500
404.474067	2467.644808
404.855705	2500.412308
405.237282	2457.562500
405.618797	2553.344423
406.000250	2487.809423
406.381642	2553.344423
406.762972	2586.111923
407.144240	2497.891731
407.525447	2475.206538
407.906593	2487.809423
408.287677	2591.153077
408.668700	2482.768269
409.049661	2563.426731
409.430560	2487.809423
409.811399	2528.138654
410.192176	2439.918462
410.572891	2500.412308
410.953545	2545.782692
411.334138	2507.974038
411.714669	2507.974038
412.095139	2505.453462
412.475547	2439.918462
412.855894	2427.315577
413.236180	2482.768269
413.616405	2487.809423
413.996568	2492.850577
414.376670	2470.165385
414.756711	2492.850577
415.136691	2530.659231
415.516609	2588.632500
415.896466	2429.836154
416.276262	2475.206538
416.655997	2570.988462
417.035670	2460.083077
417.415283	2513.015192
417.794834	2409.671538
418.174324	2442.439038
418.553753	2525.618077
418.933121	2520.576923
419.312428	2485.288846
419.691674	2520.576923
420.070859	2470.165385
420.449983	2477.727115
420.829045	2480.247692
421.208047	2518.056346
421.586988	2490.330000
421.965867	2470.165385
422.344686	2452.521346
422.723444	2424.795000
423.102141	2513.015192
423.480777	2465.124231
423.859352	2450.000769
424.237866	2515.535769
424.616319	2351.698269
424.994712	2520.576923
425.373044	2437.397885
425.751314	2429.836154
426.129524	2528.138654
426.507673	2444.959615
426.885762	2520.576923
427.263789	2447.480192
427.641756	2530.659231
428.019662	2502.932885
428.397508	2497.891731
428.775292	2475.206538
429.153016	2497.891731
429.530679	2409.671538
429.908282	2490.330000
430.285824	2467.644808
430.663305	2482.768269
431.040726	2482.768269
431.418086	2434.877308
431.795385	2560.906154
432.172624	2452.521346
432.549802	2550.823846
432.926920	2500.412308
433.303977	2497.891731
433.680974	2434.877308
434.057910	2465.124231
434.434786	2530.659231
434.811601	2465.124231
435.188355	2467.644808
435.565050	2427.315577
435.941683	2472.685962
436.318257	2444.959615
436.694770	2427.315577
437.071222	2462.603654
437.447614	2472.685962
437.823946	2510.494615
438.200218	2563.426731
438.576429	2437.397885
438.952580	2444.959615
439.328670	2455.041923
439.704700	2505.453462
440.080670	2495.371154
440.456580	2477.727115
440.832429	2442.439038
441.208218	2487.809423
441.583947	2412.192115
441.959616	2432.356731
442.335224	2472.685962
442.710773	2530.659231
443.086261	2528.138654
443.461689	2565.947308
443.837057	2460.083077
444.212365	2510.494615
444.587612	2495.371154
444.962800	2487.809423
445.337927	2477.727115
445.712995	2520.576923
446.088002	2490.330000
446.462949	2528.138654
446.837837	2492.850577
447.212664	2502.932885
447.587431	2419.753846
447.962139	2434.877308
448.336786	2386.986346
448.711374	2485.288846
449.085901	2450.000769
449.460369	2525.618077
449.834776	2482.768269
450.209124	2558.385577
450.583412	2502.932885
450.957640	2475.206538
451.331808	2543.262115
451.705917	2419.753846
452.079965	2507.974038
452.453954	2550.823846
452.827883	2588.632500
453.201752	2480.247692
453.575562	2500.412308
453.949311	2502.932885
454.323001	2429.836154
454.696632	2497.891731
455.070202	2495.371154
455.443713	2455.041923
455.817164	2450.000769
456.190556	2490.330000
456.563888	2442.439038
456.937160	2422.274423
457.310373	2462.603654
457.683526	2485.288846
458.056619	2530.659231
458.429653	2560.906154
458.802628	2450.000769
459.175542	2480.247692
459.548398	2502.932885
459.921194	2485.288846
460.293930	2455.041923
460.666607	2545.782692
461.039224	2490.330000
461.411782	2480.247692
461.784280	2477.727115
462.156719	2523.097500
462.529099	2417.233269
462.901419	2520.576923
463.273680	2429.836154
463.645882	2412.192115
464.018024	2510.494615
464.390106	2513.015192
464.762130	2470.165385
465.134094	2545.782692
465.505999	2455.041923
465.877845	2500.412308
466.249631	2434.877308
466.621358	2515.535769
466.993026	2492.850577
467.364634	2487.809423
467.736184	2475.206538
468.107674	2553.344423
468.479105	2492.850577
468.850477	2460.083077
469.221790	2472.685962
469.593043	2573.509038
469.964238	2465.124231
470.335373	2495.371154
470.706449	2470.165385
471.077467	2500.412308
471.448425	2485.288846
471.819324	2452.521346
472.190164	2507.974038
472.560945	2485.288846
472.931667	2515.535769
473.302330	2533.179808
473.672934	2480.247692
474.043479	2477.727115
474.413965	2518.056346
474.784393	2497.891731
475.154761	2576.029615
475.525070	2485.288846
475.895321	2467.644808
476.265513	2447.480192
476.635645	2543.262115
477.005719	2412.192115
477.375734	2578.550192
477.745691	2477.727115
478.115588	2422.274423
478.485427	2530.659231
478.855207	2576.029615
479.224928	2513.015192
479.594591	2568.467885
479.964194	2515.535769
480.333739	2500.412308
480.703226	2467.644808
481.072653	2510.494615
481.442022	2462.603654
481.811333	2553.344423
482.180584	2434.877308
482.549777	2533.179808
482.918912	2550.823846
483.287988	2545.782692
483.657005	2525.618077
484.025964	2528.138654
484.394864	2424.795000
484.763706	2540.741538
485.132489	2583.591346
485.501213	2487.809423
485.869879	2573.509038
486.238487	2417.233269
486.607036	2450.000769
486.975527	2586.111923
487.343959	2568.467885
487.712333	2480.247692
488.080648	2518.056346
488.448905	2434.877308
488.817104	2507.974038
489.185244	2472.685962
489.553326	2475.206538
489.921350	2482.768269
490.289315	2523.097500
490.657222	2477.727115
491.025070	2394.548077
491.392861	2507.974038
491.760593	2591.153077
492.128267	2520.576923
492.495883	2427.315577
492.863440	2533.179808
493.230939	2442.439038
493.598380	2525.618077
493.965763	2434.877308
494.333088	2492.850577
494.700354	2419.753846
495.067563	2490.330000
495.434713	2447.480192
495.801805	2507.974038
496.168839	2455.041923
496.535815	2545.782692
496.902733	2550.823846
497.269593	2482.768269
497.636395	2497.891731
498.003139	2462.603654
498.369825	2528.138654
498.736453	2485.288846
499.103023	2520.576923
499.469535	2472.685962
499.835989	2550.823846
500.202385	2513.015192
500.568723	2467.644808
500.935003	2455.041923
501.301226	2606.276538
501.667390	2485.288846
502.033497	2470.165385
502.399546	2437.397885
502.765537	2533.179808
503.131470	2472.685962
503.497345	2502.932885
503.863163	2520.576923
504.228923	2553.344423
504.594625	2525.618077
504.960269	2550.823846
505.325856	2550.823846
505.691385	2444.959615
506.056856	2495.371154
506.422270	2462.603654
506.787625	2485.288846
507.152924	2465.124231
507.518164	2492.850577
507.883347	2472.685962
508.248472	2525.618077
508.613540	2583.591346
508.978550	2563.426731
509.343503	2470.165385
509.708398	2424.795000
510.073236	2422.274423
510.438016	2596.194231
510.802738	2621.400000
511.167403	2475.206538
511.532010	2502.932885
511.896561	2576.029615
512.261053	2497.891731
512.625488	2510.494615
512.989866	2447.480192
513.354186	2505.453462
513.718449	2457.562500
514.082655	2502.932885
514.446803	2515.535769
514.810894	2528.138654
515.174927	2558.385577
515.538904	2467.644808
515.902822	2540.741538
516.266684	2507.974038
516.630488	2477.727115
516.994235	2507.974038
517.357925	2432.356731
517.721558	2500.412308
518.085133	2568.467885
518.448651	2472.685962
518.812112	2502.932885
519.175516	2460.083077
519.538863	2540.741538
519.902152	2533.179808
520.265385	2545.782692
520.628560	2525.618077
520.991678	2505.453462
521.354739	2505.453462
521.717743	2520.576923
522.080690	2543.262115
522.443580	2538.220962
522.806413	2477.727115
523.169189	2472.685962
523.531908	2515.535769
523.894569	2470.165385
524.257174	2447.480192
524.619722	2497.891731
524.982213	2460.083077
525.344647	2543.262115
525.707025	2500.412308
526.069345	2497.891731
526.431608	2538.220962
526.793815	2505.453462
527.155964	2510.494615
527.518057	2475.206538
527.880093	2528.138654
528.242072	2482.768269
528.603995	2482.768269
528.965860	2510.494615
529.327669	2457.562500
529.689421	2523.097500
530.051117	2540.741538
530.412755	2475.206538
530.774337	2480.247692
531.135862	2477.727115
531.497331	2444.959615
531.858743	2520.576923
532.220098	2462.603654
532.581396	2505.453462
532.942638	2518.056346
533.303824	2482.768269
533.664953	2540.741538
534.026025	2450.000769
534.387040	2472.685962
534.747999	2452.521346
535.108902	2460.083077
535.469748	2525.618077
535.830537	2545.782692
536.191270	2485.288846
536.551947	2470.165385
536.912567	2450.000769
537.273131	2422.274423
537.633638	2487.809423
537.994089	2477.727115
538.354483	2485.288846
538.714821	2535.700385
539.075103	2470.165385
539.435328	2528.138654
539.795497	2507.974038
540.155609	2412.192115
540.515665	2477.727115
540.875665	2611.317692
541.235609	2417.233269
541.595496	2513.015192
541.955328	2570.988462
542.315102	2447.480192
542.674821	2404.630385
543.034483	2457.562500
543.394090	2581.070769
543.753640	2550.823846
544.113134	2523.097500
544.472571	2553.344423
544.831953	2452.521346
545.191278	2550.823846
545.550548	2540.741538
545.909761	2480.247692
546.268918	2480.247692
546.628019	2495.371154
546.987064	2439.918462
547.346053	2505.453462
547.704986	2505.453462
548.063863	2455.041923
548.422684	2427.315577
548.781449	2450.000769
549.140158	2513.015192
549.498811	2432.356731
549.857408	2538.220962
550.215949	2528.138654
550.574434	2480.247692
550.932864	2540.741538
551.291237	2520.576923
551.649555	2553.344423
552.007817	2492.850577
552.366022	2505.453462
552.724173	2485.288846
553.082267	2444.959615
553.440305	2455.041923
553.798288	2465.124231
554.156215	2538.220962
554.514086	2462.603654
554.871902	2528.138654
555.229661	2533.179808
555.587365	2487.809423
555.945014	2492.850577
556.302606	2535.700385
556.660143	2482.768269
557.017625	2520.576923
557.375050	2452.521346
557.732421	2540.741538
558.089735	2523.097500
558.446994	2555.865000
558.804197	2581.070769
559.161345	2439.918462
559.518437	2455.041923
559.875474	2525.618077
560.232455	2492.850577
560.589381	2591.153077
560.946251	2500.412308
561.303065	2507.974038
561.659825	2518.056346
562.016528	2495.371154
562.373177	2510.494615
562.729770	2424.795000
563.086307	2492.850577
563.442789	2563.426731
563.799216	2492.850577
564.155587	2510.494615
564.511904	2402.109808
564.868164	2495.371154
565.224370	2439.918462
565.580520	2485.288846
565.936615	2495.371154
566.292654	2530.659231
566.648638	2538.220962
567.004567	2525.618077
567.360441	2558.385577
567.716260	2502.932885
568.072023	2495.371154
568.427732	2452.521346
568.783385	2472.685962
569.138982	2422.274423
569.494525	2490.330000
569.850013	2412.192115
570.205445	2540.741538
570.560823	2515.535769
570.916145	2419.753846
571.271412	2465.124231
571.626625	2560.906154
571.981782	2495.371154
572.336884	2457.562500
572.691931	2490.330000
573.046923	2487.809423
573.401860	2460.083077
573.756743	2417.233269
574.111570	2467.644808
574.466342	2444.959615
574.821059	2497.891731
575.175722	2470.165385
575.530330	2492.850577
575.884882	2437.397885
576.239380	2472.685962
576.593823	2487.809423
576.948211	2520.576923
577.302544	2525.618077
577.656823	2538.220962
578.011047	2434.877308
578.365216	2472.685962
578.719330	2515.535769
579.073389	2422.274423
579.427394	2442.439038
579.781344	2422.274423
580.135239	2505.453462
580.489080	2548.303269
580.842866	2505.453462
581.196597	2510.494615
581.550273	2550.823846
581.903895	2538.220962
582.257463	2502.932885
582.610975	2477.727115
582.964434	2540.741538
583.317837	2510.494615
583.671186	2507.974038
584.024481	2444.959615
584.377721	2422.274423
584.730906	2470.165385
585.084037	2540.741538
585.437113	2518.056346
585.790135	2492.850577
586.143103	2480.247692
586.496016	2495.371154
586.848874	2409.671538
587.201679	2578.550192
587.554428	2450.000769
587.907124	2470.165385
588.259765	2543.262115
588.612352	2429.836154
588.964884	2472.685962
589.317362	2450.000769
589.669786	2465.124231
590.022155	2495.371154
590.374470	2540.741538
590.726731	2530.659231
591.078937	2555.865000
591.431090	2487.809423
591.783188	2513.015192
592.135232	2515.535769
592.487222	2570.988462
592.839157	2513.015192
593.191038	2513.015192
593.542866	2465.124231
593.894639	2487.809423
594.246358	2545.782692
594.598022	2515.535769
594.949633	2480.247692
595.301190	2513.015192
595.652692	2447.480192
596.004141	2513.015192
596.355535	2417.233269
596.706876	2485.288846
597.058162	2535.700385
597.409395	2472.685962
597.760573	2510.494615
598.111698	2507.974038
598.462768	2472.685962
598.813785	2467.644808
599.164748	2470.165385
599.515657	2444.959615
599.866511	2568.467885
600.217312	2470.165385
600.568060	2518.056346
600.918753	2520.576923
601.269392	2502.932885
601.619978	2523.097500
601.970510	2490.330000
602.320988	2528.138654
602.671412	2540.741538
603.021783	2591.153077
603.372100	2505.453462
603.722363	2636.523462
604.072572	2492.850577
604.422728	2515.535769
604.772830	2470.165385
605.122878	2492.850577
605.472872	2563.426731
605.822813	2515.535769
606.172701	2538.220962
606.522534	2560.906154
606.872314	2510.494615
607.222041	2581.070769
607.571714	2467.644808
607.921333	2578.550192
608.270899	2434.877308
608.620411	2520.576923
608.969870	2465.124231
609.319276	2523.097500
609.668627	2457.562500
610.017926	2543.262115
610.367171	2475.206538
610.716362	2528.138654
611.065500	2535.700385
611.414585	2563.426731
611.763616	2555.865000
612.112594	2497.891731
612.461518	2442.439038
612.810389	2528.138654
613.159207	2480.247692
613.507971	2553.344423
613.856682	2432.356731
614.205340	2515.535769
614.553945	2513.015192
614.902496	2601.235385
615.250994	2490.330000
615.599439	2490.330000
615.947830	2523.097500
616.296169	2520.576923
616.644454	2616.358846
616.992686	2480.247692
617.340864	2520.576923
617.688990	2510.494615
618.037063	2470.165385
618.385082	2528.138654
618.733048	2460.083077
619.080961	2450.000769
619.428821	2475.206538
619.776628	2525.618077
620.124382	2578.550192
620.472083	2525.618077
620.819731	2490.330000
621.167326	2487.809423
621.514868	2462.603654
621.862357	2482.768269
622.209793	2507.974038
622.557176	2495.371154
622.904506	2472.685962
623.251783	2495.371154
623.599007	2465.124231
623.946179	2417.233269
624.293297	2523.097500
624.640363	2495.371154
624.987376	2548.303269
625.334336	2452.521346
625.681243	2467.644808
626.028097	2500.412308
626.374899	2528.138654
626.721647	2447.480192
627.068343	2515.535769
627.414987	2462.603654
627.761577	2530.659231
628.108115	2467.644808
628.454600	2513.015192
628.801032	2538.220962
629.147412	2530.659231
629.493739	2515.535769
629.840014	2477.727115
630.186236	2510.494615
630.532405	2487.809423
630.878521	2555.865000
631.224585	2457.562500
631.570597	2432.356731
631.916556	2490.330000
632.262462	2457.562500
632.608316	2497.891731
632.954117	2447.480192
633.299866	2444.959615
633.645562	2490.330000
633.991206	2482.768269
634.336797	2578.550192
634.682336	2472.685962
635.027823	2492.850577
635.373257	2550.823846
635.718639	2465.124231
636.063968	2528.138654
636.409245	2470.165385
636.754470	2520.576923
637.099642	2470.165385
637.444762	2427.315577
637.789829	2487.809423
638.134845	2495.371154
638.479808	2505.453462
638.824719	2560.906154
639.169577	2543.262115
639.514383	2472.685962
639.859137	2467.644808
640.203839	2402.109808
640.548489	2439.918462
640.893086	2495.371154
641.237632	2510.494615
641.582125	2583.591346
641.926566	2505.453462
642.270955	2565.947308
642.615292	2447.480192
642.959576	2460.083077
643.303809	2520.576923
643.647990	2583.591346
643.992118	2497.891731
644.336195	2482.768269
644.680219	2500.412308
645.024192	2530.659231
645.368112	2419.753846
645.711981	2623.920577
646.055797	2455.041923
646.399562	2470.165385
646.743274	2570.988462
647.086935	2480.247692
647.430544	2490.330000
647.774101	2528.138654
648.117606	2545.782692
648.461059	2495.371154
648.804460	2565.947308
649.147810	2424.795000
649.491108	2507.974038
649.834354	2502.932885
650.177548	2513.015192
650.520690	2513.015192
650.863781	2563.426731
651.206820	2462.603654
651.549807	2429.836154
651.892742	2485.288846
652.235626	2444.959615
652.578458	2520.576923
652.921238	2485.288846
653.263967	2485.288846
653.606644	2523.097500
653.949269	2518.056346
654.291843	2515.535769
654.634365	2482.768269
654.976836	2457.562500
655.319255	2520.576923
655.661622	2442.439038
656.003938	2502.932885
656.346203	2465.124231
656.688416	2457.562500
657.030577	2565.947308
657.372687	2460.083077
657.714746	2520.576923
658.056753	2472.685962
658.398708	2447.480192
658.740612	2507.974038
659.082465	2424.795000
659.424266	2520.576923
659.766016	2439.918462
660.107715	2518.056346
660.449362	2538.220962
660.790958	2497.891731
661.132503	2455.041923
661.473996	2495.371154
661.815438	2548.303269
662.156829	2518.056346
662.498168	2518.056346
662.839456	2513.015192
663.180693	2497.891731
663.521879	2533.179808
663.863013	2513.015192
664.204097	2533.179808
664.545129	2500.412308
664.886110	2533.179808
665.227040	2540.741538
665.567918	2550.823846
665.908746	2520.576923
666.249522	2490.330000
666.590248	2520.576923
666.930922	2409.671538
667.271545	2570.988462
667.612118	2444.959615
667.952639	2419.753846
668.293109	2530.659231
668.633528	2505.453462
668.973896	2394.548077
669.314213	2497.891731
669.654480	2455.041923
669.994695	2505.453462
670.334859	2482.768269
670.674973	2457.562500
671.015035	2533.179808
671.355047	2447.480192
671.695008	2432.356731
672.034918	2475.206538
672.374777	2417.233269
672.714585	2434.877308
673.054342	2477.727115
673.394049	2525.618077
673.733705	2538.220962
674.073310	2558.385577
674.412864	2518.056346
674.752368	2528.138654
675.091820	2553.344423
675.431223	2548.303269
675.770574	2467.644808
676.109875	2447.480192
676.449125	2513.015192
676.788324	2429.836154
677.127473	2568.467885
677.466571	2528.138654
677.805619	2502.932885
678.144616	2525.618077
678.483562	2500.412308
678.822458	2513.015192
679.161303	2553.344423
679.500098	2470.165385
679.838842	2518.056346
680.177535	2500.412308
680.516179	2455.041923
680.854771	2475.206538
681.193314	2444.959615
681.531805	2528.138654
681.870247	2485.288846
682.208638	2538.220962
682.546978	2502.932885
682.885268	2518.056346
683.223508	2437.397885
683.561697	2472.685962
683.899836	2472.685962
684.237925	2550.823846
684.575963	2437.397885
684.913951	2452.521346
685.251889	2495.371154
685.589776	2475.206538
685.927614	2450.000769
686.265401	2447.480192
686.603137	2581.070769
686.940824	2487.809423
687.278460	2492.850577
687.616046	2434.877308
687.953582	2462.603654
688.291068	2555.865000
688.628504	2593.673654
688.965889	2485.288846
689.303224	2548.303269
689.640510	2434.877308
689.977745	2573.509038
690.314930	2455.041923
690.652065	2457.562500
690.989150	2487.809423
691.326185	2482.768269
691.663170	2450.000769
692.000105	2523.097500
692.336990	2538.220962
692.673825	2422.274423
693.010610	2576.029615
693.347345	2505.453462
693.684030	2535.700385
694.020665	2482.768269
694.357251	2500.412308
694.693786	2563.426731
695.030272	2492.850577
695.366707	2513.015192
695.703093	2550.823846
696.039429	2550.823846
696.375716	2570.988462
696.711952	2535.700385
697.048139	2490.330000
697.384276	2480.247692
697.720363	2505.453462
698.056400	2455.041923
698.392388	2543.262115
698.728326	2500.412308
699.064214	2480.247692
699.400053	2523.097500
699.735842	2442.439038
700.071581	2586.111923
700.407270	2490.330000
700.742910	2525.618077
701.078501	2470.165385
701.414042	2530.659231
701.749533	2533.179808
702.084974	2470.165385
702.420366	2507.974038
702.755709	2596.194231
703.091002	2525.618077
703.426246	2505.453462
703.761440	2505.453462
704.096584	2482.768269
704.431679	2528.138654
704.766725	2528.138654
705.101721	2497.891731
705.436668	2432.356731
705.771565	2525.618077
706.106413	2442.439038
706.441212	2523.097500
706.775961	2538.220962
707.110661	2495.371154
707.445311	2482.768269
707.779913	2525.618077
708.114465	2570.988462
708.448967	2492.850577
708.783421	2457.562500
709.117825	2550.823846
709.452180	2427.315577
709.786485	2480.247692
710.120742	2480.247692
710.454949	2452.521346
710.789107	2455.041923
711.123216	2487.809423
711.457275	2570.988462
711.791286	2475.206538
712.125247	2485.288846
712.459159	2513.015192
712.793023	2422.274423
713.126837	2434.877308
713.460602	2472.685962
713.794318	2437.397885
714.127985	2545.782692
714.461602	2389.506923
714.795171	2518.056346
715.128691	2465.124231
715.462162	2523.097500
715.795584	2487.809423
716.128957	2465.124231
716.462281	2447.480192
716.795556	2472.685962
717.128782	2560.906154
717.461960	2548.303269
717.795088	2513.015192
718.128167	2553.344423
718.461198	2540.741538
718.794180	2465.124231
719.127113	2538.220962
719.459997	2576.029615
719.792833	2535.700385
720.125619	2460.083077
720.458357	2497.891731
720.791046	2447.480192
721.123686	2533.179808
721.456278	2558.385577
721.788821	2586.111923
722.121315	2487.809423
722.453761	2538.220962
722.786158	2586.111923
723.118506	2447.480192
723.450805	2538.220962
723.783056	2513.015192
724.115259	2442.439038
724.447412	2442.439038
724.779518	2497.891731
725.111574	2417.233269
725.443582	2485.288846
725.775542	2460.083077
726.107453	2490.330000
726.439315	2513.015192
726.771129	2543.262115
727.102895	2507.974038
727.434612	2520.576923
727.766281	2465.124231
728.097901	2555.865000
728.429473	2394.548077
728.760996	2467.644808
729.092471	2475.206538
729.423897	2472.685962
729.755276	2497.891731
730.086606	2467.644808
730.417887	2447.480192
730.749120	2437.397885
731.080305	2419.753846
731.411442	2523.097500
731.742530	2492.850577
732.073570	2533.179808
732.404562	2442.439038
732.735506	2510.494615
733.066401	2570.988462
733.397249	2510.494615
733.728048	2520.576923
734.058798	2505.453462
734.389501	2510.494615
734.720156	2444.959615
735.050762	2490.330000
735.381320	2545.782692
735.711831	2553.344423
736.042293	2424.795000
736.372707	2538.220962
736.703073	2540.741538
737.033391	2487.809423
737.363661	2465.124231
737.693883	2472.685962
738.024056	2487.809423
738.354182	2490.330000
738.684260	2533.179808
739.014290	2553.344423
739.344272	2475.206538
739.674207	2487.809423
740.004093	2394.548077
740.333931	2586.111923
740.663722	2515.535769
740.993464	2507.974038
741.323159	2513.015192
741.652806	2558.385577
741.982405	2533.179808
742.311956	2462.603654
742.641460	2533.179808
742.970915	2419.753846
743.300323	2482.768269
743.629683	2515.535769
743.958996	2495.371154
744.288260	2545.782692
744.617477	2444.959615
744.946647	2535.700385
745.275768	2417.233269
745.604842	2492.850577
745.933869	2477.727115
746.262847	2543.262115
746.591778	2502.932885
746.920662	2543.262115
747.249498	2490.330000
747.578286	2548.303269
747.907027	2515.535769
748.235720	2535.700385
748.564365	2550.823846
748.892963	2455.041923
749.221514	2452.521346
749.550017	2366.821731
749.878473	2593.673654
750.206881	2535.700385
750.535242	2437.397885
750.863555	2510.494615
751.191821	2482.768269
751.520039	2540.741538
751.848210	2507.974038
752.176334	2558.385577
752.504411	2545.782692
752.832440	2550.823846
753.160421	2465.124231
753.488356	2543.262115
753.816243	2548.303269
754.144082	2402.109808
754.471875	2475.206538
754.799620	2432.356731
755.127318	2510.494615
755.454969	2442.439038
755.782572	2460.083077
756.110129	2447.480192
756.437638	2460.083077
756.765100	2591.153077
757.092515	2570.988462
757.419882	2399.589231
757.747203	2518.056346
758.074477	2545.782692
758.401703	2460.083077
758.728882	2480.247692
759.056014	2581.070769
759.383099	2513.015192
759.710138	2452.521346
760.037129	2500.412308
760.364073	2465.124231
760.690970	2520.576923
761.017820	2460.083077
761.344623	2419.753846
761.671379	2550.823846
761.998088	2462.603654
762.324751	2505.453462
762.651366	2510.494615
762.977935	2475.206538
763.304456	2460.083077
763.630931	2545.782692
763.957359	2447.480192
764.283740	2439.918462
764.610074	2477.727115
764.936362	2510.494615
765.262602	2593.673654
765.588796	2497.891731
765.914943	2540.741538
766.241044	2472.685962
766.567097	2545.782692
766.893104	2485.288846
767.219064	2467.644808
767.544978	2490.330000
767.870845	2485.288846
768.196665	2457.562500
768.522438	2442.439038
768.848165	2507.974038
769.173846	2515.535769
769.499479	2543.262115
769.825066	2467.644808
770.150607	2520.576923
770.476101	2472.685962
770.801548	2502.932885
771.126949	2465.124231
771.452303	2518.056346
771.777611	2515.535769
772.102872	2500.412308
772.428087	2525.618077
772.753256	2528.138654
773.078378	2538.220962
773.403453	2477.727115
773.728482	2576.029615
774.053465	2442.439038
774.378401	2603.755962
774.703291	2472.685962
775.028135	2397.068654
775.352932	2518.056346
775.677683	2424.795000
776.002388	2465.124231
776.327046	2495.371154
776.651658	2467.644808
776.976224	2427.315577
777.300743	2563.426731
777.625216	2507.974038
777.949643	2482.768269
778.274024	2543.262115
778.598359	2482.768269
778.922647	2540.741538
779.246889	2553.344423
779.571086	2485.288846
779.895236	2535.700385
780.219339	2439.918462
780.543397	2444.959615
780.867409	2475.206538
781.191374	2543.262115
781.515294	2492.850577
781.839167	2450.000769
782.162995	2432.356731
782.486776	2543.262115
782.810511	2560.906154
783.134201	2394.548077
783.457844	2535.700385
783.781441	2525.618077
784.104993	2505.453462
784.428498	2570.988462
784.751958	2447.480192
785.075372	2462.603654
785.398739	2507.974038
785.722061	2432.356731
786.045337	2475.206538
786.368568	2518.056346
786.691752	2480.247692
787.014891	2482.768269
787.337983	2525.618077
787.661030	2528.138654
787.984031	2538.220962
788.306987	2545.782692
788.629897	2550.823846
788.952760	2442.439038
789.275579	2437.397885
789.598351	2437.397885
789.921078	2497.891731
790.243759	2550.823846
790.566395	2500.412308
790.888984	2543.262115
791.211529	2437.397885
791.534027	2543.262115
791.856480	2616.358846
792.178888	2480.247692
792.501249	2450.000769
792.823566	2553.344423
793.145836	2530.659231
793.468062	2477.727115
793.790241	2485.288846
794.112375	2510.494615
794.434464	2434.877308
794.756507	2419.753846
795.078505	2583.591346
795.400457	2507.974038
795.722364	2560.906154
796.044226	2442.439038
796.366042	2555.865000
796.687812	2490.330000
797.009538	2492.850577
797.331218	2530.659231
797.652852	2450.000769
797.974442	2502.932885
798.295986	2550.823846
798.617484	2485.288846
798.938938	2510.494615
799.260346	2470.165385
799.581709	2475.206538
799.903026	2500.412308
800.224299	2598.714808
800.545526	2550.823846
800.866708	2419.753846
801.187845	2507.974038
801.508936	2495.371154
801.829983	2573.509038
802.150984	2404.630385
802.471940	2535.700385
802.792851	2467.644808
803.113717	2427.315577
803.434538	2485.288846
803.755314	2477.727115
804.076045	2487.809423
804.396731	2523.097500
804.717372	2528.138654
805.037967	2477.727115
805.358518	2447.480192
805.679024	2482.768269
805.999485	2545.782692
806.319901	2467.644808
806.640272	2528.138654
806.960598	2447.480192
807.280879	2530.659231
807.601115	2462.603654
807.921306	2457.562500
808.241453	2588.632500
808.561554	2492.850577
808.881611	2495.371154
809.201623	2586.111923
809.521590	2518.056346
809.841513	2452.521346
810.161390	2465.124231
810.481223	2427.315577
810.801011	2407.150962
811.120755	2477.727115
811.440453	2429.836154
811.760107	2497.891731
812.079716	2447.480192
812.399281	2492.850577
812.718801	2543.262115
813.038276	2414.712692
813.357707	2507.974038
813.677093	2452.521346
813.996434	2555.865000
814.315731	2470.165385
814.634983	2573.509038
814.954191	2558.385577
815.273354	2439.918462
815.592473	2528.138654
815.911547	2485.288846
816.230577	2586.111923
816.549562	2523.097500
816.868502	2510.494615
817.187399	2437.397885
817.506250	2477.727115
817.825058	2412.192115
818.143821	2384.465769
818.462539	2470.165385
818.781213	2477.727115
819.099843	2598.714808
819.418429	2485.288846
819.736970	2523.097500
820.055466	2485.288846
820.373919	2502.932885
820.692327	2487.809423
821.010691	2477.727115
821.329011	2601.235385
821.647286	2447.480192
821.965517	2565.947308
822.283704	2497.891731
822.601847	2482.768269
822.919945	2515.535769
823.237999	2492.850577
823.556010	2492.850577
823.873976	2422.274423
824.191897	2525.618077
824.509775	2482.768269
824.827609	2505.453462
825.145398	2495.371154
825.463144	2570.988462
825.780845	2513.015192
826.098502	2495.371154
826.416116	2462.603654
826.733685	2593.673654
827.051210	2465.124231
827.368692	2460.083077
827.686129	2422.274423
828.003522	2495.371154
828.320872	2535.700385
828.638177	2548.303269
828.955439	2505.453462
829.272656	2500.412308
829.589830	2583.591346
829.906960	2497.891731
830.224046	2523.097500
830.541088	2528.138654
830.858086	2450.000769
831.175041	2470.165385
831.491952	2417.233269
831.808819	2540.741538
832.125642	2467.644808
832.442421	2505.453462
832.759157	2419.753846
833.075849	2578.550192
833.392497	2465.124231
833.709101	2467.644808
834.025662	2528.138654
834.342179	2485.288846
834.658653	2437.397885
834.975083	2417.233269
835.291469	2523.097500
835.607811	2442.439038
835.924110	2538.220962
836.240366	2402.109808
836.556578	2422.274423
836.872746	2414.712692
837.188871	2505.453462
837.504952	2432.356731
837.820990	2530.659231
838.136984	2535.700385
838.452935	2467.644808
838.768842	2386.986346
839.084706	2490.330000
839.400526	2455.041923
839.716303	2558.385577
840.032037	2457.562500
840.347727	2538.220962
840.663373	2439.918462
840.978977	2487.809423
841.294537	2477.727115
841.610054	2437.397885
841.925527	2437.397885
842.240957	2480.247692
842.556344	2482.768269
842.871687	2497.891731
843.186987	2417.233269
843.502244	2507.974038
843.817458	2465.124231
844.132629	2500.412308
844.447756	2548.303269
844.762840	2452.521346
845.077881	2518.056346
845.392879	2523.097500
845.707833	2439.918462
846.022745	2482.768269
846.337613	2545.782692
846.652438	2487.809423
846.967221	2510.494615
847.281960	2515.535769
847.596656	2510.494615
847.911309	2477.727115
848.225919	2457.562500
848.540485	2510.494615
848.855009	2427.315577
849.169490	2550.823846
849.483928	2513.015192
849.798323	2548.303269
850.112675	2460.083077
850.426984	2553.344423
850.741251	2515.535769
851.055474	2439.918462
851.369654	2538.220962
851.683792	2429.836154
851.997887	2439.918462
852.311938	2432.356731
852.625947	2485.288846
852.939914	2472.685962
853.253837	2560.906154
853.567718	2591.153077
853.881555	2525.618077
854.195350	2487.809423
854.509103	2480.247692
854.822812	2520.576923
855.136479	2485.288846
855.450103	2467.644808
855.763685	2457.562500
856.077224	2369.342308
856.390720	2475.206538
856.704173	2528.138654
857.017584	2497.891731
857.330953	2477.727115
857.644278	2485.288846
857.957561	2477.727115
858.270802	2472.685962
858.584000	2472.685962
858.897155	2477.727115
859.210268	2462.603654
859.523339	2462.603654
859.836367	2525.618077
860.149352	2515.535769
860.462295	2492.850577
860.775195	2530.659231
861.088054	2480.247692
861.400869	2497.891731
861.713642	2392.027500
862.026373	2515.535769
862.339062	2450.000769
862.651708	2500.412308
862.964312	2513.015192
863.276873	2525.618077
863.589392	2467.644808
863.901869	2490.330000
864.214303	2394.548077
864.526696	2495.371154
864.839045	2487.809423
865.151353	2593.673654
865.463619	2439.918462
865.775842	2477.727115
866.088023	2518.056346
866.400162	2467.644808
866.712258	2495.371154
867.024313	2500.412308
867.336325	2427.315577
867.648296	2492.850577
867.960224	2573.509038
868.272110	2482.768269
868.583954	2525.618077
868.895755	2482.768269
869.207515	2490.330000
869.519233	2505.453462
869.830909	2480.247692
870.142542	2513.015192
870.454134	2490.330000
870.765684	2505.453462
871.077191	2457.562500
871.388657	2495.371154
871.700081	2450.000769
872.011463	2419.753846
872.322803	2543.262115
872.634101	2497.891731
872.945357	2402.109808
873.256571	2570.988462
873.567744	2434.877308
873.878874	2500.412308
874.189963	2518.056346
874.501010	2399.589231
874.812015	2586.111923
875.122979	2412.192115
875.433900	2490.330000
875.744780	2447.480192
876.055618	2505.453462
876.366415	2477.727115
876.677169	2444.959615
876.987882	2515.535769
877.298554	2422.274423
877.609183	2492.850577
877.919771	2472.685962
878.230317	2502.932885
878.540822	2412.192115
878.851285	2500.412308
879.161707	2550.823846
879.472087	2399.589231
879.782425	2505.453462
880.092722	2515.535769
880.402977	2424.795000
880.713191	2394.548077
881.023363	2510.494615
881.333494	2472.685962
881.643583	2502.932885
881.953631	2513.015192
882.263637	2397.068654
882.573602	2495.371154
882.883526	2560.906154
883.193408	2480.247692
883.503248	2434.877308
883.813048	2487.809423
884.122806	2482.768269
884.432522	2389.506923
884.742197	2389.506923
885.051831	2497.891731
885.361424	2427.315577
885.670975	2535.700385
885.980485	2424.795000
886.289954	2414.712692
886.599382	2502.932885
886.908768	2502.932885
887.218113	2543.262115
887.527417	2497.891731
887.836680	2543.262115
888.145901	2470.165385
888.455082	2520.576923
888.764221	2444.959615
889.073319	2422.274423
889.382376	2500.412308
889.691392	2384.465769
890.000366	2439.918462
890.309300	2528.138654
890.618193	2439.918462
890.927044	2565.947308
891.235855	2442.439038
891.544625	2439.918462
891.853353	2513.015192
892.162041	2480.247692
892.470687	2573.509038
892.779293	2475.206538
893.087858	2475.206538
893.396381	2570.988462
893.704864	2419.753846
894.013306	2470.165385
894.321707	2422.274423
894.630068	2467.644808
894.938387	2455.041923
895.246665	2439.918462
895.554903	2429.836154
895.863100	2455.041923
896.171256	2497.891731
896.479371	2538.220962
896.787446	2465.124231
897.095480	2510.494615
897.403473	2472.685962
897.711425	2492.850577
898.019336	2462.603654
898.327207	2518.056346
898.635038	2500.412308
898.942827	2515.535769
899.250576	2465.124231
899.558284	2510.494615
899.865952	2452.521346
900.173579	2495.371154
900.481165	2452.521346
900.788711	2502.932885
901.096216	2444.959615
901.403681	2500.412308
901.711105	2573.509038
902.018489	2515.535769
902.325832	2490.330000
902.633135	2477.727115
902.940397	2490.330000
903.247619	2460.083077
903.554800	2487.809423
903.861941	2480.247692
904.169041	2502.932885
904.476101	2601.235385
904.783121	2505.453462
905.090100	2472.685962
905.397039	2505.453462
905.703938	2530.659231
906.010796	2455.041923
906.317614	2528.138654
906.624391	2520.576923
906.931129	2447.480192
907.237826	2475.206538
907.544483	2397.068654
907.851099	2497.891731
908.157675	2505.453462
908.464211	2477.727115
908.770707	2528.138654
909.077163	2507.974038
909.383578	2502.932885
909.689954	2412.192115
909.996289	2538.220962
910.302584	2467.644808
910.608839	2497.891731
910.915054	2515.535769
911.221229	2500.412308
911.527363	2482.768269
911.833458	2558.385577
912.139513	2442.439038
912.445527	2462.603654
912.751502	2540.741538
913.057436	2525.618077
913.363331	2497.891731
913.669186	2525.618077
913.975000	2434.877308
914.280775	2460.083077
914.586510	2507.974038
914.892205	2528.138654
915.197859	2548.303269
915.503475	2457.562500
915.809050	2485.288846
916.114585	2422.274423
916.420081	2533.179808
916.725536	2487.809423
917.030952	2583.591346
917.336328	2543.262115
917.641665	2475.206538
917.946961	2490.330000
918.252218	2442.439038
918.557435	2545.782692
918.862612	2505.453462
919.167750	2507.974038
919.472848	2450.000769
919.777906	2490.330000
920.082925	2573.509038
920.387904	2452.521346
920.692843	2497.891731
920.997743	2450.000769
921.302603	2444.959615
921.607423	2485.288846
921.912204	2480.247692
922.216946	2497.891731
922.521647	2475.206538
922.826310	2472.685962
923.130932	2513.015192
923.435516	2465.124231
923.740059	2487.809423
924.044564	2528.138654
924.349028	2394.548077
924.653454	2505.453462
924.957840	2437.397885
925.262186	2447.480192
925.566493	2492.850577
925.870761	2533.179808
926.174989	2442.439038
926.479178	2412.192115
926.783328	2412.192115
927.087438	2505.453462
927.391509	2480.247692
927.695541	2505.453462
927.999533	2460.083077
928.303486	2505.453462
928.607400	2467.644808
928.911275	2475.206538
929.215110	2457.562500
929.518906	2505.453462
929.822663	2482.768269
930.126381	2477.727115
930.430060	2492.850577
930.733699	2412.192115
931.037299	2487.809423
931.340861	2434.877308
931.644383	2477.727115
931.947866	2414.712692
932.251309	2470.165385
932.554714	2442.439038
932.858080	2472.685962
933.161407	2386.986346
933.464694	2447.480192
933.767943	2530.659231
934.071153	2465.124231
934.374323	2530.659231
934.677455	2492.850577
934.980548	2573.509038
935.283602	2485.288846
935.586617	2432.356731
935.889593	2535.700385
936.192530	2576.029615
936.495428	2601.235385
936.798287	2447.480192
937.101108	2429.836154
937.403890	2487.809423
937.706632	2477.727115
938.009336	2520.576923
938.312002	2452.521346
938.614628	2515.535769
938.917216	2412.192115
939.219765	2563.426731
939.522275	2460.083077
939.824747	2560.906154
940.127179	2472.685962
940.429573	2434.877308
940.731929	2424.795000
941.034246	2490.330000
941.336524	2525.618077
941.638763	2550.823846
941.940964	2513.015192
942.243126	2477.727115
942.545250	2530.659231
942.847335	2427.315577
943.149381	2444.959615
943.451389	2485.288846
943.753359	2502.932885
944.055290	2460.083077
944.357182	2386.986346
944.659036	2487.809423
944.960851	2502.932885
945.262628	2495.371154
945.564367	2475.206538
945.866067	2477.727115
946.167729	2523.097500
946.469352	2475.206538
946.770937	2558.385577
947.072484	2533.179808
947.373992	2462.603654
947.675462	2525.618077
947.976893	2477.727115
948.278286	2553.344423
948.579641	2535.700385
948.880958	2485.288846
949.182236	2528.138654
949.483476	2513.015192
949.784678	2495.371154
950.085841	2523.097500
950.386967	2513.015192
950.688054	2492.850577
950.989103	2505.453462
951.290114	2523.097500
951.591087	2626.441154
951.892021	2485.288846
952.192917	2465.124231
952.493776	2422.274423
952.794596	2520.576923
953.095378	2467.644808
953.396122	2578.550192
953.696828	2538.220962
953.997496	2550.823846
954.298126	2505.453462
954.598718	2513.015192
954.899272	2598.714808
955.199788	2558.385577
955.500266	2394.548077
955.800706	2543.262115
956.101108	2460.083077
956.401472	2477.727115
956.701798	2472.685962
957.002087	2487.809423
957.302337	2460.083077
957.602550	2520.576923
957.902724	2477.727115
958.202861	2419.753846
958.502960	2497.891731
958.803022	2439.918462
959.103045	2540.741538
959.403031	2462.603654
959.702979	2495.371154
960.002889	2452.521346
960.302762	2520.576923
960.602596	2560.906154
960.902393	2495.371154
961.202153	2482.768269
961.501875	2460.083077
961.801559	2576.029615
962.101205	2510.494615
962.400814	2502.932885
962.700385	2570.988462
962.999918	2455.041923
963.299414	2528.138654
963.598873	2419.753846
963.898293	2520.576923
964.197677	2495.371154
964.497022	2457.562500
964.796331	2457.562500
965.095601	2490.330000
965.394835	2500.412308
965.694030	2538.220962
965.993189	2472.685962
966.292309	2492.850577
966.591393	2444.959615
966.890439	2505.453462
967.189447	2533.179808
967.488419	2510.494615
967.787353	2555.865000
968.086249	2467.644808
968.385108	2507.974038
968.683930	2505.453462
968.982714	2455.041923
969.281462	2462.603654
969.580172	2422.274423
969.878844	2583.591346
970.177480	2487.809423
970.476078	2482.768269
970.774639	2455.041923
971.073162	2530.659231
971.371649	2581.070769
971.670098	2502.932885
971.968510	2500.412308
972.266885	2477.727115
972.565223	2485.288846
972.863524	2444.959615
973.161788	2384.465769
973.460014	2500.412308
973.758204	2407.150962
974.056356	2513.015192
974.354471	2467.644808
974.652550	2563.426731
974.950591	2540.741538
975.248595	2437.397885
975.546563	2434.877308
975.844493	2452.521346
976.142386	2540.741538
976.440243	2500.412308
976.738062	2533.179808
977.035845	2538.220962
977.333590	2490.330000
977.631299	2530.659231
977.928971	2505.453462
978.226606	2550.823846
978.524204	2477.727115
978.821765	2520.576923
979.119290	2540.741538
979.416777	2472.685962
979.714228	2444.959615
980.011642	2523.097500
980.309020	2525.618077
980.606360	2510.494615
980.903664	2480.247692
981.200931	2543.262115
981.498162	2434.877308
981.795356	2467.644808
982.092513	2601.235385
982.389633	2465.124231
982.686717	2470.165385
982.983764	2371.862885
983.280775	2497.891731
983.577749	2510.494615
983.874686	2538.220962
984.171587	2505.453462
984.468451	2555.865000
984.765279	2437.397885
985.062070	2500.412308
985.358824	2492.850577
985.655543	2477.727115
985.952224	2412.192115
986.248869	2392.027500
986.545478	2515.535769
986.842050	2450.000769
987.138586	2613.838269
987.435086	2475.206538
987.731549	2581.070769
988.027975	2593.673654
988.324366	2510.494615
988.620719	2414.712692
988.917037	2477.727115
989.213318	2470.165385
989.509563	2535.700385
989.805772	2495.371154
990.101944	2548.303269
990.398080	2492.850577
990.694180	2485.288846
990.990244	2502.932885
991.286271	2558.385577
991.582262	2432.356731
991.878217	2460.083077
992.174136	2548.303269
992.470019	2485.288846
992.765865	2487.809423
993.061676	2485.288846
993.357450	2535.700385
993.653188	2447.480192
993.948890	2518.056346
994.244556	2457.562500
994.540186	2497.891731
994.835780	2472.685962
995.131337	2402.109808
995.426859	2492.850577
995.722345	2447.480192
996.017795	2548.303269
996.313208	2525.618077
996.608586	2419.753846
996.903928	2540.741538
997.199234	2487.809423
997.494504	2543.262115
997.789738	2462.603654
998.084936	2520.576923
998.380099	2455.041923
998.675225	2538.220962
998.970316	2490.330000
999.265371	2510.494615
999.560390	2505.453462
999.855373	2487.809423
1000.150320	2437.397885
1000.445232	2586.111923
1000.740108	2505.453462
1001.034948	2447.480192
1001.329752	2482.768269
1001.624521	2482.768269
1001.919254	2502.932885
1002.213951	2513.015192
1002.508613	2482.768269
1002.803239	2429.836154
1003.097829	2450.000769
1003.392384	2399.589231
1003.686903	2505.453462
1003.981386	2455.041923
1004.275834	2515.535769
1004.570246	2500.412308
1004.864623	2470.165385
1005.158964	2502.932885
1005.453270	2457.562500
1005.747540	2442.439038
1006.041775	2495.371154
1006.335974	2550.823846
1006.630138	2490.330000
1006.924266	2447.480192
1007.218359	2505.453462
1007.512416	2497.891731
1007.806438	2500.412308
1008.100425	2480.247692
1008.394376	2513.015192
1008.688292	2437.397885
1008.982172	2457.562500
1009.276017	2545.782692
1009.569827	2424.795000
1009.863602	2485.288846
1010.157341	2452.521346
1010.451045	2492.850577
1010.744714	2502.932885
1011.038347	2543.262115
1011.331945	2492.850577
1011.625508	2439.918462
1011.919036	2470.165385
1012.212528	2535.700385
1012.505986	2429.836154
1012.799408	2500.412308
1013.092795	2465.124231
1013.386147	2465.124231
1013.679464	2563.426731
1013.972745	2470.165385
1014.265992	2480.247692
1014.559204	2422.274423
1014.852380	2502.932885
1015.145521	2379.424615
1015.438628	2490.330000
1015.731699	2439.918462
1016.024736	2404.630385
1016.317737	2495.371154
1016.610703	2480.247692
1016.903635	2480.247692
1017.196531	2480.247692
1017.489393	2457.562500
1017.782219	2518.056346
1018.075011	2455.041923
1018.367768	2586.111923
1018.660490	2601.235385
1018.953177	2601.235385
1019.245829	2601.235385
