Dividing Wavelength (nm)	Counts (n)	Blue Motor Position (mm): 0.000000	Red Motor Position (mm): 8.700000	
326.493990	2054.270192
326.888308	2054.270192
327.282561	2054.270192
327.676750	2059.311346
328.070874	2124.846346
328.464933	2008.899808
328.858929	2036.626154
329.252859	2041.667308
329.646726	2087.037692
330.040528	2124.846346
330.434265	2087.037692
330.827938	2132.408077
331.221547	2039.146731
331.615091	2192.901923
332.008571	2220.628269
332.401986	2228.190000
332.795338	2200.463654
333.188625	2218.107692
333.581847	2215.587115
333.975006	2278.601538
334.368100	2223.148846
334.761129	2288.683846
335.154095	2298.766154
335.546996	2271.039808
335.939833	2359.260000
336.332606	2351.698269
336.725315	2308.848462
337.117960	2303.807308
337.510540	2424.795000
337.903056	2414.712692
338.295508	2495.371154
338.687896	2399.589231
339.080220	2492.850577
339.472480	2462.603654
339.864676	2412.192115
340.256807	2502.932885
340.648875	2439.918462
341.040879	2444.959615
341.432818	2460.083077
341.824694	2414.712692
342.216506	2500.412308
342.608253	2404.630385
342.999937	2442.439038
343.391557	2490.330000
343.783113	2538.220962
344.174605	2470.165385
344.566033	2467.644808
344.957397	2465.124231
345.348697	2424.795000
345.739934	2533.179808
346.131106	2470.165385
346.522215	2492.850577
346.913260	2528.138654
347.304241	2472.685962
347.695159	2480.247692
348.086012	2389.506923
348.476802	2404.630385
348.867528	2467.644808
349.258191	2444.959615
349.648789	2470.165385
350.039324	2495.371154
350.429796	2482.768269
350.820203	2492.850577
351.210548	2412.192115
351.600828	2409.671538
351.991045	2437.397885
352.381198	2394.548077
352.771288	2424.795000
353.161314	2470.165385
353.551276	2525.618077
353.941175	2533.179808
354.331010	2482.768269
354.720782	2513.015192
355.110490	2419.753846
355.500135	2412.192115
355.889717	2505.453462
356.279235	2414.712692
356.668689	2500.412308
357.058080	2460.083077
357.447408	2550.823846
357.836672	2482.768269
358.225873	2381.945192
358.615010	2465.124231
359.004084	2409.671538
359.393095	2505.453462
359.782043	2439.918462
360.170927	2384.465769
360.559748	2482.768269
360.948505	2409.671538
361.337199	2412.192115
361.725830	2429.836154
362.114398	2397.068654
362.502903	2470.165385
362.891344	2434.877308
363.279722	2439.918462
363.668037	2485.288846
364.056289	2447.480192
364.444478	2450.000769
364.832603	2523.097500
365.220665	2434.877308
365.608665	2502.932885
365.996601	2432.356731
366.384474	2364.301154
366.772284	2465.124231
367.160031	2472.685962
367.547715	2424.795000
367.935336	2369.342308
368.322893	2482.768269
368.710388	2533.179808
369.097820	2450.000769
369.485189	2497.891731
369.872495	2470.165385
370.259738	2404.630385
370.646918	2490.330000
371.034035	2424.795000
371.421090	2452.521346
371.808081	2419.753846
372.195010	2472.685962
372.581875	2394.548077
372.968678	2467.644808
373.355418	2480.247692
373.742096	2434.877308
374.128710	2465.124231
374.515262	2548.303269
374.901751	2528.138654
375.288177	2460.083077
375.674540	2397.068654
376.060841	2417.233269
376.447079	2452.521346
376.833254	2366.821731
377.219367	2480.247692
377.605417	2548.303269
377.991404	2513.015192
378.377329	2404.630385
378.763191	2402.109808
379.148991	2520.576923
379.534727	2452.521346
379.920402	2500.412308
380.306013	2467.644808
380.691563	2480.247692
381.077049	2470.165385
381.462474	2349.177692
381.847835	2475.206538
382.233134	2437.397885
382.618371	2495.371154
383.003545	2429.836154
383.388657	2404.630385
383.773706	2452.521346
384.158693	2518.056346
384.543618	2386.986346
384.928480	2404.630385
385.313280	2507.974038
385.698017	2429.836154
386.082692	2502.932885
386.467305	2543.262115
386.851856	2381.945192
387.236344	2462.603654
387.620770	2545.782692
388.005133	2500.412308
388.389435	2455.041923
388.773674	2460.083077
389.157851	2444.959615
389.541965	2477.727115
389.926018	2450.000769
390.310008	2472.685962
390.693936	2520.576923
391.077802	2412.192115
391.461606	2553.344423
391.845348	2434.877308
392.229027	2389.506923
392.612645	2470.165385
392.996200	2525.618077
393.379694	2631.482308
393.763125	2397.068654
394.146494	2490.330000
394.529801	2439.918462
394.913047	2543.262115
395.296230	2404.630385
395.679351	2457.562500
396.062410	2480.247692
396.445408	2434.877308
396.828343	2460.083077
397.211217	2482.768269
397.594028	2371.862885
397.976778	2485.288846
398.359466	2528.138654
398.742092	2460.083077
399.124656	2470.165385
399.507158	2565.947308
399.889598	2528.138654
400.271977	2482.768269
400.654294	2455.041923
401.036549	2475.206538
401.418742	2608.797115
401.800874	2447.480192
402.182944	2520.576923
402.564952	2422.274423
402.946898	2467.644808
403.328783	2513.015192
403.710606	2573.509038
404.092367	2540.741538
404.474067	2485.288846
404.855705	2538.220962
405.237282	2490.330000
405.618797	2434.877308
406.000250	2570.988462
406.381642	2533.179808
406.762972	2523.097500
407.144240	2505.453462
407.525447	2482.768269
407.906593	2535.700385
408.287677	2470.165385
408.668700	2475.206538
409.049661	2447.480192
409.430560	2424.795000
409.811399	2472.685962
410.192176	2434.877308
410.572891	2502.932885
410.953545	2442.439038
411.334138	2477.727115
411.714669	2465.124231
412.095139	2497.891731
412.475547	2500.412308
412.855894	2439.918462
413.236180	2432.356731
413.616405	2477.727115
413.996568	2427.315577
414.376670	2450.000769
414.756711	2495.371154
415.136691	2419.753846
415.516609	2472.685962
415.896466	2407.150962
416.276262	2480.247692
416.655997	2523.097500
417.035670	2450.000769
417.415283	2505.453462
417.794834	2452.521346
418.174324	2439.918462
418.553753	2455.041923
418.933121	2500.412308
419.312428	2427.315577
419.691674	2606.276538
420.070859	2429.836154
420.449983	2442.439038
420.829045	2480.247692
421.208047	2492.850577
421.586988	2543.262115
421.965867	2500.412308
422.344686	2439.918462
422.723444	2515.535769
423.102141	2455.041923
423.480777	2490.330000
423.859352	2434.877308
424.237866	2485.288846
424.616319	2417.233269
424.994712	2487.809423
425.373044	2450.000769
425.751314	2361.780577
426.129524	2497.891731
426.507673	2487.809423
426.885762	2497.891731
427.263789	2525.618077
427.641756	2490.330000
428.019662	2538.220962
428.397508	2487.809423
428.775292	2462.603654
429.153016	2523.097500
429.530679	2465.124231
429.908282	2407.150962
430.285824	2407.150962
430.663305	2535.700385
431.040726	2460.083077
431.418086	2513.015192
431.795385	2588.632500
432.172624	2457.562500
432.549802	2457.562500
432.926920	2550.823846
433.303977	2505.453462
433.680974	2452.521346
434.057910	2502.932885
434.434786	2528.138654
434.811601	2530.659231
435.188355	2442.439038
435.565050	2465.124231
435.941683	2510.494615
436.318257	2397.068654
436.694770	2555.865000
437.071222	2465.124231
437.447614	2472.685962
437.823946	2505.453462
438.200218	2533.179808
438.576429	2442.439038
438.952580	2467.644808
439.328670	2560.906154
439.704700	2452.521346
440.080670	2485.288846
440.456580	2550.823846
440.832429	2442.439038
441.208218	2520.576923
441.583947	2495.371154
441.959616	2402.109808
442.335224	2465.124231
442.710773	2505.453462
443.086261	2576.029615
443.461689	2497.891731
443.837057	2465.124231
444.212365	2417.233269
444.587612	2422.274423
444.962800	2487.809423
445.337927	2563.426731
445.712995	2462.603654
446.088002	2507.974038
446.462949	2490.330000
446.837837	2518.056346
447.212664	2444.959615
447.587431	2505.453462
447.962139	2407.150962
448.336786	2515.535769
448.711374	2437.397885
449.085901	2467.644808
449.460369	2452.521346
449.834776	2462.603654
450.209124	2487.809423
450.583412	2523.097500
450.957640	2487.809423
451.331808	2500.412308
451.705917	2465.124231
452.079965	2518.056346
452.453954	2505.453462
452.827883	2472.685962
453.201752	2465.124231
453.575562	2462.603654
453.949311	2447.480192
454.323001	2487.809423
454.696632	2545.782692
455.070202	2482.768269
455.443713	2505.453462
455.817164	2472.685962
456.190556	2538.220962
456.563888	2417.233269
456.937160	2525.618077
457.310373	2507.974038
457.683526	2490.330000
458.056619	2472.685962
458.429653	2477.727115
458.802628	2417.233269
459.175542	2462.603654
459.548398	2490.330000
459.921194	2581.070769
460.293930	2437.397885
460.666607	2553.344423
461.039224	2490.330000
461.411782	2535.700385
461.784280	2520.576923
462.156719	2513.015192
462.529099	2485.288846
462.901419	2500.412308
463.273680	2603.755962
463.645882	2485.288846
464.018024	2530.659231
464.390106	2502.932885
464.762130	2455.041923
465.134094	2500.412308
465.505999	2487.809423
465.877845	2520.576923
466.249631	2470.165385
466.621358	2507.974038
466.993026	2520.576923
467.364634	2518.056346
467.736184	2611.317692
468.107674	2510.494615
468.479105	2452.521346
468.850477	2525.618077
469.221790	2467.644808
469.593043	2525.618077
469.964238	2475.206538
470.335373	2465.124231
470.706449	2457.562500
471.077467	2558.385577
471.448425	2528.138654
471.819324	2477.727115
472.190164	2477.727115
472.560945	2366.821731
472.931667	2507.974038
473.302330	2548.303269
473.672934	2422.274423
474.043479	2502.932885
474.413965	2457.562500
474.784393	2518.056346
475.154761	2518.056346
475.525070	2510.494615
475.895321	2460.083077
476.265513	2528.138654
476.635645	2533.179808
477.005719	2452.521346
477.375734	2520.576923
477.745691	2500.412308
478.115588	2497.891731
478.485427	2424.795000
478.855207	2455.041923
479.224928	2515.535769
479.594591	2545.782692
479.964194	2518.056346
480.333739	2558.385577
480.703226	2528.138654
481.072653	2447.480192
481.442022	2588.632500
481.811333	2472.685962
482.180584	2523.097500
482.549777	2417.233269
482.918912	2492.850577
483.287988	2543.262115
483.657005	2601.235385
484.025964	2510.494615
484.394864	2497.891731
484.763706	2505.453462
485.132489	2505.453462
485.501213	2490.330000
485.869879	2565.947308
486.238487	2543.262115
486.607036	2603.755962
486.975527	2482.768269
487.343959	2515.535769
487.712333	2518.056346
488.080648	2455.041923
488.448905	2545.782692
488.817104	2475.206538
489.185244	2477.727115
489.553326	2477.727115
489.921350	2412.192115
490.289315	2482.768269
490.657222	2507.974038
491.025070	2487.809423
491.392861	2518.056346
491.760593	2480.247692
492.128267	2455.041923
492.495883	2513.015192
492.863440	2422.274423
493.230939	2502.932885
493.598380	2450.000769
493.965763	2487.809423
494.333088	2540.741538
494.700354	2505.453462
495.067563	2450.000769
495.434713	2520.576923
495.801805	2462.603654
496.168839	2500.412308
496.535815	2407.150962
496.902733	2525.618077
497.269593	2444.959615
497.636395	2515.535769
498.003139	2480.247692
498.369825	2472.685962
498.736453	2578.550192
499.103023	2482.768269
499.469535	2442.439038
499.835989	2409.671538
500.202385	2485.288846
500.568723	2472.685962
500.935003	2434.877308
501.301226	2470.165385
501.667390	2485.288846
502.033497	2442.439038
502.399546	2455.041923
502.765537	2523.097500
503.131470	2480.247692
503.497345	2407.150962
503.863163	2550.823846
504.228923	2407.150962
504.594625	2520.576923
504.960269	2450.000769
505.325856	2402.109808
505.691385	2444.959615
506.056856	2432.356731
506.422270	2480.247692
506.787625	2525.618077
507.152924	2505.453462
507.518164	2487.809423
507.883347	2470.165385
508.248472	2510.494615
508.613540	2548.303269
508.978550	2482.768269
509.343503	2462.603654
509.708398	2490.330000
510.073236	2409.671538
510.438016	2563.426731
510.802738	2550.823846
511.167403	2525.618077
511.532010	2565.947308
511.896561	2565.947308
512.261053	2490.330000
512.625488	2450.000769
512.989866	2437.397885
513.354186	2533.179808
513.718449	2412.192115
514.082655	2465.124231
514.446803	2485.288846
514.810894	2447.480192
515.174927	2419.753846
515.538904	2439.918462
515.902822	2553.344423
516.266684	2482.768269
516.630488	2497.891731
516.994235	2515.535769
517.357925	2475.206538
517.721558	2490.330000
518.085133	2424.795000
518.448651	2477.727115
518.812112	2477.727115
519.175516	2442.439038
519.538863	2550.823846
519.902152	2462.603654
520.265385	2533.179808
520.628560	2472.685962
520.991678	2434.877308
521.354739	2545.782692
521.717743	2465.124231
522.080690	2485.288846
522.443580	2439.918462
522.806413	2523.097500
523.169189	2462.603654
523.531908	2422.274423
523.894569	2482.768269
524.257174	2495.371154
524.619722	2470.165385
524.982213	2510.494615
525.344647	2530.659231
525.707025	2480.247692
526.069345	2558.385577
526.431608	2535.700385
526.793815	2550.823846
527.155964	2510.494615
527.518057	2510.494615
527.880093	2492.850577
528.242072	2538.220962
528.603995	2555.865000
528.965860	2399.589231
529.327669	2500.412308
529.689421	2480.247692
530.051117	2477.727115
530.412755	2432.356731
530.774337	2419.753846
531.135862	2460.083077
531.497331	2545.782692
531.858743	2487.809423
532.220098	2450.000769
532.581396	2525.618077
532.942638	2475.206538
533.303824	2502.932885
533.664953	2407.150962
534.026025	2490.330000
534.387040	2603.755962
534.747999	2427.315577
535.108902	2530.659231
535.469748	2412.192115
535.830537	2485.288846
536.191270	2530.659231
536.551947	2553.344423
536.912567	2475.206538
537.273131	2591.153077
537.633638	2502.932885
537.994089	2480.247692
538.354483	2465.124231
538.714821	2427.315577
539.075103	2581.070769
539.435328	2460.083077
539.795497	2570.988462
540.155609	2477.727115
540.515665	2518.056346
540.875665	2465.124231
541.235609	2545.782692
541.595496	2455.041923
541.955328	2402.109808
542.315102	2507.974038
542.674821	2477.727115
543.034483	2447.480192
543.394090	2427.315577
543.753640	2555.865000
544.113134	2528.138654
544.472571	2548.303269
544.831953	2528.138654
545.191278	2457.562500
545.550548	2528.138654
545.909761	2462.603654
546.268918	2472.685962
546.628019	2513.015192
546.987064	2487.809423
547.346053	2432.356731
547.704986	2550.823846
548.063863	2439.918462
548.422684	2540.741538
548.781449	2492.850577
549.140158	2525.618077
549.498811	2515.535769
549.857408	2540.741538
550.215949	2565.947308
550.574434	2576.029615
550.932864	2543.262115
551.291237	2548.303269
551.649555	2555.865000
552.007817	2447.480192
552.366022	2447.480192
552.724173	2475.206538
553.082267	2518.056346
553.440305	2457.562500
553.798288	2432.356731
554.156215	2432.356731
554.514086	2482.768269
554.871902	2502.932885
555.229661	2497.891731
555.587365	2525.618077
555.945014	2470.165385
556.302606	2485.288846
556.660143	2485.288846
557.017625	2523.097500
557.375050	2442.439038
557.732421	2535.700385
558.089735	2538.220962
558.446994	2538.220962
558.804197	2444.959615
559.161345	2475.206538
559.518437	2417.233269
559.875474	2513.015192
560.232455	2477.727115
560.589381	2497.891731
560.946251	2467.644808
561.303065	2437.397885
561.659825	2470.165385
562.016528	2523.097500
562.373177	2583.591346
562.729770	2507.974038
563.086307	2513.015192
563.442789	2460.083077
563.799216	2515.535769
564.155587	2444.959615
564.511904	2477.727115
564.868164	2576.029615
565.224370	2550.823846
565.580520	2538.220962
565.936615	2502.932885
566.292654	2563.426731
566.648638	2507.974038
567.004567	2505.453462
567.360441	2407.150962
567.716260	2490.330000
568.072023	2384.465769
568.427732	2487.809423
568.783385	2492.850577
569.138982	2568.467885
569.494525	2500.412308
569.850013	2472.685962
570.205445	2392.027500
570.560823	2530.659231
570.916145	2618.879423
571.271412	2525.618077
571.626625	2555.865000
571.981782	2500.412308
572.336884	2530.659231
572.691931	2467.644808
573.046923	2553.344423
573.401860	2467.644808
573.756743	2439.918462
574.111570	2455.041923
574.466342	2477.727115
574.821059	2530.659231
575.175722	2533.179808
575.530330	2490.330000
575.884882	2538.220962
576.239380	2437.397885
576.593823	2414.712692
576.948211	2535.700385
577.302544	2439.918462
577.656823	2497.891731
578.011047	2563.426731
578.365216	2457.562500
578.719330	2513.015192
579.073389	2500.412308
579.427394	2482.768269
579.781344	2470.165385
580.135239	2533.179808
580.489080	2505.453462
580.842866	2434.877308
581.196597	2550.823846
581.550273	2480.247692
581.903895	2500.412308
582.257463	2528.138654
582.610975	2467.644808
582.964434	2460.083077
583.317837	2510.494615
583.671186	2419.753846
584.024481	2432.356731
584.377721	2502.932885
584.730906	2525.618077
585.084037	2510.494615
585.437113	2535.700385
585.790135	2490.330000
586.143103	2480.247692
586.496016	2613.838269
586.848874	2495.371154
587.201679	2563.426731
587.554428	2596.194231
587.907124	2525.618077
588.259765	2510.494615
588.612352	2593.673654
588.964884	2515.535769
589.317362	2543.262115
589.669786	2462.603654
590.022155	2550.823846
590.374470	2550.823846
590.726731	2477.727115
591.078937	2480.247692
591.431090	2490.330000
591.783188	2495.371154
592.135232	2495.371154
592.487222	2502.932885
592.839157	2495.371154
593.191038	2510.494615
593.542866	2613.838269
593.894639	2457.562500
594.246358	2510.494615
594.598022	2502.932885
594.949633	2495.371154
595.301190	2460.083077
595.652692	2528.138654
596.004141	2535.700385
596.355535	2439.918462
596.706876	2558.385577
597.058162	2555.865000
597.409395	2538.220962
597.760573	2472.685962
598.111698	2505.453462
598.462768	2452.521346
598.813785	2548.303269
599.164748	2457.562500
599.515657	2515.535769
599.866511	2573.509038
600.217312	2576.029615
600.568060	2507.974038
600.918753	2533.179808
601.269392	2497.891731
601.619978	2505.453462
601.970510	2497.891731
602.320988	2548.303269
602.671412	2565.947308
603.021783	2386.986346
603.372100	2482.768269
603.722363	2518.056346
604.072572	2397.068654
604.422728	2467.644808
604.772830	2528.138654
605.122878	2510.494615
605.472872	2482.768269
605.822813	2447.480192
606.172701	2583.591346
606.522534	2392.027500
606.872314	2414.712692
607.222041	2490.330000
607.571714	2502.932885
607.921333	2505.453462
608.270899	2485.288846
608.620411	2497.891731
608.969870	2444.959615
609.319276	2505.453462
609.668627	2523.097500
610.017926	2427.315577
610.367171	2467.644808
610.716362	2437.397885
611.065500	2543.262115
611.414585	2434.877308
611.763616	2588.632500
612.112594	2583.591346
612.461518	2507.974038
612.810389	2470.165385
613.159207	2462.603654
613.507971	2447.480192
613.856682	2424.795000
614.205340	2477.727115
614.553945	2475.206538
614.902496	2485.288846
615.250994	2457.562500
615.599439	2497.891731
615.947830	2452.521346
616.296169	2513.015192
616.644454	2447.480192
616.992686	2538.220962
617.340864	2603.755962
617.688990	2505.453462
618.037063	2424.795000
618.385082	2543.262115
618.733048	2462.603654
619.080961	2525.618077
619.428821	2467.644808
619.776628	2477.727115
620.124382	2596.194231
620.472083	2470.165385
620.819731	2558.385577
621.167326	2487.809423
621.514868	2452.521346
621.862357	2492.850577
622.209793	2515.535769
622.557176	2548.303269
622.904506	2528.138654
623.251783	2535.700385
623.599007	2490.330000
623.946179	2452.521346
624.293297	2477.727115
624.640363	2472.685962
624.987376	2528.138654
625.334336	2465.124231
625.681243	2444.959615
626.028097	2457.562500
626.374899	2550.823846
626.721647	2538.220962
627.068343	2513.015192
627.414987	2502.932885
627.761577	2497.891731
628.108115	2490.330000
628.454600	2477.727115
628.801032	2465.124231
629.147412	2535.700385
629.493739	2482.768269
629.840014	2505.453462
630.186236	2543.262115
630.532405	2452.521346
630.878521	2548.303269
631.224585	2470.165385
631.570597	2513.015192
631.916556	2586.111923
632.262462	2475.206538
632.608316	2573.509038
632.954117	2555.865000
633.299866	2419.753846
633.645562	2578.550192
633.991206	2502.932885
634.336797	2505.453462
634.682336	2502.932885
635.027823	2525.618077
635.373257	2467.644808
635.718639	2475.206538
636.063968	2533.179808
636.409245	2424.795000
636.754470	2533.179808
637.099642	2452.521346
637.444762	2528.138654
637.789829	2480.247692
638.134845	2477.727115
638.479808	2455.041923
638.824719	2525.618077
639.169577	2417.233269
639.514383	2545.782692
639.859137	2533.179808
640.203839	2437.397885
640.548489	2467.644808
640.893086	2513.015192
641.237632	2563.426731
641.582125	2460.083077
641.926566	2482.768269
642.270955	2543.262115
642.615292	2550.823846
642.959576	2565.947308
643.303809	2460.083077
643.647990	2530.659231
643.992118	2475.206538
644.336195	2460.083077
644.680219	2487.809423
645.024192	2455.041923
645.368112	2495.371154
645.711981	2442.439038
646.055797	2505.453462
646.399562	2472.685962
646.743274	2487.809423
647.086935	2528.138654
647.430544	2399.589231
647.774101	2487.809423
648.117606	2535.700385
648.461059	2528.138654
648.804460	2442.439038
649.147810	2490.330000
649.491108	2528.138654
649.834354	2507.974038
650.177548	2417.233269
650.520690	2510.494615
650.863781	2465.124231
651.206820	2507.974038
651.549807	2528.138654
651.892742	2497.891731
652.235626	2450.000769
652.578458	2568.467885
652.921238	2462.603654
653.263967	2492.850577
653.606644	2437.397885
653.949269	2540.741538
654.291843	2553.344423
654.634365	2455.041923
654.976836	2465.124231
655.319255	2427.315577
655.661622	2545.782692
656.003938	2550.823846
656.346203	2563.426731
656.688416	2513.015192
657.030577	2507.974038
657.372687	2533.179808
657.714746	2490.330000
658.056753	2490.330000
658.398708	2576.029615
658.740612	2518.056346
659.082465	2530.659231
659.424266	2495.371154
659.766016	2470.165385
660.107715	2497.891731
660.449362	2452.521346
660.790958	2444.959615
661.132503	2417.233269
661.473996	2525.618077
661.815438	2477.727115
662.156829	2535.700385
662.498168	2543.262115
662.839456	2593.673654
663.180693	2528.138654
663.521879	2452.521346
663.863013	2472.685962
664.204097	2439.918462
664.545129	2500.412308
664.886110	2507.974038
665.227040	2535.700385
665.567918	2470.165385
665.908746	2490.330000
666.249522	2470.165385
666.590248	2497.891731
666.930922	2457.562500
667.271545	2470.165385
667.612118	2581.070769
667.952639	2470.165385
668.293109	2533.179808
668.633528	2507.974038
668.973896	2470.165385
669.314213	2596.194231
669.654480	2505.453462
669.994695	2409.671538
670.334859	2472.685962
670.674973	2525.618077
671.015035	2528.138654
671.355047	2507.974038
671.695008	2500.412308
672.034918	2475.206538
672.374777	2472.685962
672.714585	2533.179808
673.054342	2437.397885
673.394049	2540.741538
673.733705	2422.274423
674.073310	2510.494615
674.412864	2480.247692
674.752368	2497.891731
675.091820	2500.412308
675.431223	2530.659231
675.770574	2475.206538
676.109875	2490.330000
676.449125	2477.727115
676.788324	2490.330000
677.127473	2434.877308
677.466571	2528.138654
677.805619	2389.506923
678.144616	2538.220962
678.483562	2480.247692
678.822458	2573.509038
679.161303	2392.027500
679.500098	2545.782692
679.838842	2553.344423
680.177535	2505.453462
680.516179	2465.124231
680.854771	2505.453462
681.193314	2487.809423
681.531805	2419.753846
681.870247	2528.138654
682.208638	2543.262115
682.546978	2538.220962
682.885268	2507.974038
683.223508	2596.194231
683.561697	2538.220962
683.899836	2550.823846
684.237925	2462.603654
684.575963	2482.768269
684.913951	2528.138654
685.251889	2437.397885
685.589776	2475.206538
685.927614	2480.247692
686.265401	2535.700385
686.603137	2482.768269
686.940824	2492.850577
687.278460	2528.138654
687.616046	2450.000769
687.953582	2447.480192
688.291068	2480.247692
688.628504	2555.865000
688.965889	2412.192115
689.303224	2485.288846
689.640510	2442.439038
689.977745	2409.671538
690.314930	2568.467885
690.652065	2510.494615
690.989150	2477.727115
691.326185	2520.576923
691.663170	2460.083077
692.000105	2553.344423
692.336990	2460.083077
692.673825	2502.932885
693.010610	2520.576923
693.347345	2470.165385
693.684030	2485.288846
694.020665	2419.753846
694.357251	2495.371154
694.693786	2444.959615
695.030272	2495.371154
695.366707	2513.015192
695.703093	2450.000769
696.039429	2462.603654
696.375716	2392.027500
696.711952	2523.097500
697.048139	2460.083077
697.384276	2515.535769
697.720363	2515.535769
698.056400	2515.535769
698.392388	2470.165385
698.728326	2409.671538
699.064214	2518.056346
699.400053	2482.768269
699.735842	2467.644808
700.071581	2565.947308
700.407270	2515.535769
700.742910	2457.562500
701.078501	2439.918462
701.414042	2497.891731
701.749533	2462.603654
702.084974	2497.891731
702.420366	2492.850577
702.755709	2530.659231
703.091002	2533.179808
703.426246	2490.330000
703.761440	2487.809423
704.096584	2444.959615
704.431679	2485.288846
704.766725	2450.000769
705.101721	2389.506923
705.436668	2533.179808
705.771565	2381.945192
706.106413	2523.097500
706.441212	2485.288846
706.775961	2495.371154
707.110661	2510.494615
707.445311	2505.453462
707.779913	2480.247692
708.114465	2558.385577
708.448967	2432.356731
708.783421	2545.782692
709.117825	2583.591346
709.452180	2439.918462
709.786485	2593.673654
710.120742	2485.288846
710.454949	2533.179808
710.789107	2495.371154
711.123216	2540.741538
711.457275	2429.836154
711.791286	2563.426731
712.125247	2490.330000
712.459159	2482.768269
712.793023	2439.918462
713.126837	2434.877308
713.460602	2414.712692
713.794318	2530.659231
714.127985	2490.330000
714.461602	2505.453462
714.795171	2528.138654
715.128691	2502.932885
715.462162	2500.412308
715.795584	2540.741538
716.128957	2482.768269
716.462281	2533.179808
716.795556	2475.206538
717.128782	2500.412308
717.461960	2520.576923
717.795088	2475.206538
718.128167	2460.083077
718.461198	2573.509038
718.794180	2525.618077
719.127113	2530.659231
719.459997	2457.562500
719.792833	2475.206538
720.125619	2434.877308
720.458357	2573.509038
720.791046	2429.836154
721.123686	2487.809423
721.456278	2543.262115
721.788821	2437.397885
722.121315	2500.412308
722.453761	2444.959615
722.786158	2452.521346
723.118506	2520.576923
723.450805	2386.986346
723.783056	2475.206538
724.115259	2452.521346
724.447412	2545.782692
724.779518	2515.535769
725.111574	2467.644808
725.443582	2507.974038
725.775542	2475.206538
726.107453	2437.397885
726.439315	2528.138654
726.771129	2553.344423
727.102895	2497.891731
727.434612	2492.850577
727.766281	2543.262115
728.097901	2513.015192
728.429473	2485.288846
728.760996	2487.809423
729.092471	2560.906154
729.423897	2460.083077
729.755276	2470.165385
730.086606	2442.439038
730.417887	2538.220962
730.749120	2545.782692
731.080305	2470.165385
731.411442	2495.371154
731.742530	2475.206538
732.073570	2507.974038
732.404562	2452.521346
732.735506	2414.712692
733.066401	2507.974038
733.397249	2417.233269
733.728048	2407.150962
734.058798	2439.918462
734.389501	2497.891731
734.720156	2422.274423
735.050762	2548.303269
735.381320	2492.850577
735.711831	2480.247692
736.042293	2603.755962
736.372707	2505.453462
736.703073	2452.521346
737.033391	2439.918462
737.363661	2505.453462
737.693883	2490.330000
738.024056	2553.344423
738.354182	2525.618077
738.684260	2525.618077
739.014290	2477.727115
739.344272	2520.576923
739.674207	2500.412308
740.004093	2507.974038
740.333931	2477.727115
740.663722	2462.603654
740.993464	2485.288846
741.323159	2530.659231
741.652806	2467.644808
741.982405	2533.179808
742.311956	2530.659231
742.641460	2513.015192
742.970915	2555.865000
743.300323	2513.015192
743.629683	2560.906154
743.958996	2364.301154
744.288260	2535.700385
744.617477	2518.056346
744.946647	2475.206538
745.275768	2505.453462
745.604842	2507.974038
745.933869	2502.932885
746.262847	2543.262115
746.591778	2492.850577
746.920662	2523.097500
747.249498	2487.809423
747.578286	2520.576923
747.907027	2495.371154
748.235720	2495.371154
748.564365	2560.906154
748.892963	2492.850577
749.221514	2429.836154
749.550017	2528.138654
749.878473	2583.591346
750.206881	2510.494615
750.535242	2485.288846
750.863555	2465.124231
751.191821	2497.891731
751.520039	2520.576923
751.848210	2520.576923
752.176334	2518.056346
752.504411	2548.303269
752.832440	2477.727115
753.160421	2429.836154
753.488356	2540.741538
753.816243	2543.262115
754.144082	2487.809423
754.471875	2553.344423
754.799620	2465.124231
755.127318	2480.247692
755.454969	2495.371154
755.782572	2528.138654
756.110129	2460.083077
756.437638	2502.932885
756.765100	2480.247692
757.092515	2578.550192
757.419882	2518.056346
757.747203	2505.453462
758.074477	2369.342308
758.401703	2460.083077
758.728882	2462.603654
759.056014	2513.015192
759.383099	2507.974038
759.710138	2409.671538
760.037129	2490.330000
760.364073	2470.165385
760.690970	2530.659231
761.017820	2422.274423
761.344623	2460.083077
761.671379	2505.453462
761.998088	2530.659231
762.324751	2490.330000
762.651366	2540.741538
762.977935	2576.029615
763.304456	2487.809423
763.630931	2470.165385
763.957359	2530.659231
764.283740	2419.753846
764.610074	2513.015192
764.936362	2523.097500
765.262602	2550.823846
765.588796	2460.083077
765.914943	2510.494615
766.241044	2455.041923
766.567097	2500.412308
766.893104	2495.371154
767.219064	2525.618077
767.544978	2540.741538
767.870845	2538.220962
768.196665	2465.124231
768.522438	2477.727115
768.848165	2482.768269
769.173846	2485.288846
769.499479	2518.056346
769.825066	2422.274423
770.150607	2482.768269
770.476101	2500.412308
770.801548	2477.727115
771.126949	2452.521346
771.452303	2510.494615
771.777611	2525.618077
772.102872	2505.453462
772.428087	2518.056346
772.753256	2576.029615
773.078378	2545.782692
773.403453	2513.015192
773.728482	2487.809423
774.053465	2452.521346
774.378401	2457.562500
774.703291	2447.480192
775.028135	2505.453462
775.352932	2558.385577
775.677683	2460.083077
776.002388	2523.097500
776.327046	2477.727115
776.651658	2477.727115
776.976224	2568.467885
777.300743	2450.000769
777.625216	2570.988462
777.949643	2402.109808
778.274024	2477.727115
778.598359	2518.056346
778.922647	2535.700385
779.246889	2490.330000
779.571086	2480.247692
779.895236	2467.644808
780.219339	2518.056346
780.543397	2513.015192
780.867409	2394.548077
781.191374	2510.494615
781.515294	2442.439038
781.839167	2497.891731
782.162995	2480.247692
782.486776	2528.138654
782.810511	2419.753846
783.134201	2460.083077
783.457844	2477.727115
783.781441	2460.083077
784.104993	2523.097500
784.428498	2490.330000
784.751958	2510.494615
785.075372	2533.179808
785.398739	2439.918462
785.722061	2460.083077
786.045337	2500.412308
786.368568	2480.247692
786.691752	2550.823846
787.014891	2515.535769
787.337983	2439.918462
787.661030	2525.618077
787.984031	2495.371154
788.306987	2611.317692
788.629897	2397.068654
788.952760	2444.959615
789.275579	2497.891731
789.598351	2422.274423
789.921078	2510.494615
790.243759	2538.220962
790.566395	2467.644808
790.888984	2518.056346
791.211529	2475.206538
791.534027	2490.330000
791.856480	2467.644808
792.178888	2467.644808
792.501249	2497.891731
792.823566	2397.068654
793.145836	2475.206538
793.468062	2477.727115
793.790241	2538.220962
794.112375	2543.262115
794.434464	2497.891731
794.756507	2543.262115
795.078505	2407.150962
795.400457	2437.397885
795.722364	2525.618077
796.044226	2487.809423
796.366042	2510.494615
796.687812	2422.274423
797.009538	2533.179808
797.331218	2528.138654
797.652852	2452.521346
797.974442	2470.165385
798.295986	2505.453462
798.617484	2500.412308
798.938938	2386.986346
799.260346	2475.206538
799.581709	2439.918462
799.903026	2518.056346
800.224299	2515.535769
800.545526	2487.809423
800.866708	2507.974038
801.187845	2500.412308
801.508936	2427.315577
801.829983	2513.015192
802.150984	2442.439038
802.471940	2386.986346
802.792851	2480.247692
803.113717	2548.303269
803.434538	2450.000769
803.755314	2490.330000
804.076045	2422.274423
804.396731	2520.576923
804.717372	2518.056346
805.037967	2465.124231
805.358518	2495.371154
805.679024	2475.206538
805.999485	2480.247692
806.319901	2568.467885
806.640272	2507.974038
806.960598	2407.150962
807.280879	2457.562500
807.601115	2399.589231
807.921306	2548.303269
808.241453	2452.521346
808.561554	2487.809423
808.881611	2482.768269
809.201623	2444.959615
809.521590	2457.562500
809.841513	2485.288846
810.161390	2462.603654
810.481223	2490.330000
810.801011	2447.480192
811.120755	2492.850577
811.440453	2518.056346
811.760107	2439.918462
812.079716	2470.165385
812.399281	2583.591346
812.718801	2495.371154
813.038276	2553.344423
813.357707	2434.877308
813.677093	2434.877308
813.996434	2480.247692
814.315731	2578.550192
814.634983	2550.823846
814.954191	2427.315577
815.273354	2492.850577
815.592473	2570.988462
815.911547	2533.179808
816.230577	2560.906154
816.549562	2477.727115
816.868502	2460.083077
817.187399	2429.836154
817.506250	2480.247692
817.825058	2515.535769
818.143821	2518.056346
818.462539	2490.330000
818.781213	2540.741538
819.099843	2465.124231
819.418429	2442.439038
819.736970	2462.603654
820.055466	2525.618077
820.373919	2510.494615
820.692327	2487.809423
821.010691	2444.959615
821.329011	2505.453462
821.647286	2492.850577
821.965517	2429.836154
822.283704	2432.356731
822.601847	2518.056346
822.919945	2482.768269
823.237999	2495.371154
823.556010	2480.247692
823.873976	2535.700385
824.191897	2467.644808
824.509775	2530.659231
824.827609	2482.768269
825.145398	2460.083077
825.463144	2497.891731
825.780845	2452.521346
826.098502	2505.453462
826.416116	2555.865000
826.733685	2424.795000
827.051210	2487.809423
827.368692	2424.795000
827.686129	2533.179808
828.003522	2447.480192
828.320872	2472.685962
828.638177	2543.262115
828.955439	2573.509038
829.272656	2429.836154
829.589830	2462.603654
829.906960	2475.206538
830.224046	2510.494615
830.541088	2460.083077
830.858086	2500.412308
831.175041	2475.206538
831.491952	2558.385577
831.808819	2439.918462
832.125642	2540.741538
832.442421	2530.659231
832.759157	2487.809423
833.075849	2462.603654
833.392497	2495.371154
833.709101	2510.494615
834.025662	2555.865000
834.342179	2497.891731
834.658653	2540.741538
834.975083	2447.480192
835.291469	2500.412308
835.607811	2427.315577
835.924110	2573.509038
836.240366	2455.041923
836.556578	2487.809423
836.872746	2530.659231
837.188871	2457.562500
837.504952	2424.795000
837.820990	2462.603654
838.136984	2513.015192
838.452935	2480.247692
838.768842	2497.891731
839.084706	2563.426731
839.400526	2480.247692
839.716303	2470.165385
840.032037	2495.371154
840.347727	2472.685962
840.663373	2460.083077
840.978977	2560.906154
841.294537	2404.630385
841.610054	2487.809423
841.925527	2414.712692
842.240957	2389.506923
842.556344	2460.083077
842.871687	2381.945192
843.186987	2482.768269
843.502244	2427.315577
843.817458	2475.206538
844.132629	2555.865000
844.447756	2525.618077
844.762840	2495.371154
845.077881	2472.685962
845.392879	2462.603654
845.707833	2513.015192
846.022745	2447.480192
846.337613	2477.727115
846.652438	2429.836154
846.967221	2490.330000
847.281960	2424.795000
847.596656	2518.056346
847.911309	2452.521346
848.225919	2510.494615
848.540485	2429.836154
848.855009	2523.097500
849.169490	2583.591346
849.483928	2510.494615
849.798323	2490.330000
850.112675	2515.535769
850.426984	2631.482308
850.741251	2530.659231
851.055474	2560.906154
851.369654	2465.124231
851.683792	2507.974038
851.997887	2470.165385
852.311938	2530.659231
852.625947	2460.083077
852.939914	2513.015192
853.253837	2502.932885
853.567718	2565.947308
853.881555	2550.823846
854.195350	2495.371154
854.509103	2439.918462
854.822812	2535.700385
855.136479	2492.850577
855.450103	2490.330000
855.763685	2507.974038
856.077224	2576.029615
856.390720	2397.068654
856.704173	2485.288846
857.017584	2510.494615
857.330953	2427.315577
857.644278	2467.644808
857.957561	2573.509038
858.270802	2543.262115
858.584000	2540.741538
858.897155	2447.480192
859.210268	2412.192115
859.523339	2450.000769
859.836367	2485.288846
860.149352	2495.371154
860.462295	2492.850577
860.775195	2434.877308
861.088054	2490.330000
861.400869	2492.850577
861.713642	2462.603654
862.026373	2510.494615
862.339062	2477.727115
862.651708	2545.782692
862.964312	2460.083077
863.276873	2530.659231
863.589392	2444.959615
863.901869	2563.426731
864.214303	2518.056346
864.526696	2414.712692
864.839045	2394.548077
865.151353	2533.179808
865.463619	2480.247692
865.775842	2523.097500
866.088023	2457.562500
866.400162	2457.562500
866.712258	2384.465769
867.024313	2520.576923
867.336325	2626.441154
867.648296	2457.562500
867.960224	2513.015192
868.272110	2477.727115
868.583954	2490.330000
868.895755	2457.562500
869.207515	2523.097500
869.519233	2480.247692
869.830909	2518.056346
870.142542	2470.165385
870.454134	2467.644808
870.765684	2475.206538
871.077191	2490.330000
871.388657	2507.974038
871.700081	2520.576923
872.011463	2543.262115
872.322803	2502.932885
872.634101	2500.412308
872.945357	2502.932885
873.256571	2439.918462
873.567744	2460.083077
873.878874	2581.070769
874.189963	2485.288846
874.501010	2525.618077
874.812015	2475.206538
875.122979	2495.371154
875.433900	2510.494615
875.744780	2492.850577
876.055618	2513.015192
876.366415	2558.385577
876.677169	2477.727115
876.987882	2465.124231
877.298554	2500.412308
877.609183	2465.124231
877.919771	2558.385577
878.230317	2518.056346
878.540822	2442.439038
878.851285	2465.124231
879.161707	2502.932885
879.472087	2497.891731
879.782425	2497.891731
880.092722	2465.124231
880.402977	2588.632500
880.713191	2414.712692
881.023363	2492.850577
881.333494	2513.015192
881.643583	2442.439038
881.953631	2477.727115
882.263637	2482.768269
882.573602	2510.494615
882.883526	2530.659231
883.193408	2439.918462
883.503248	2472.685962
883.813048	2470.165385
884.122806	2520.576923
884.432522	2576.029615
884.742197	2475.206538
885.051831	2389.506923
885.361424	2510.494615
885.670975	2465.124231
885.980485	2412.192115
886.289954	2472.685962
886.599382	2505.453462
886.908768	2470.165385
887.218113	2518.056346
887.527417	2475.206538
887.836680	2500.412308
888.145901	2523.097500
888.455082	2480.247692
888.764221	2492.850577
889.073319	2497.891731
889.382376	2586.111923
889.691392	2480.247692
890.000366	2465.124231
890.309300	2576.029615
890.618193	2467.644808
890.927044	2447.480192
891.235855	2560.906154
891.544625	2583.591346
891.853353	2457.562500
892.162041	2442.439038
892.470687	2477.727115
892.779293	2414.712692
893.087858	2465.124231
893.396381	2447.480192
893.704864	2475.206538
894.013306	2543.262115
894.321707	2507.974038
894.630068	2507.974038
894.938387	2523.097500
895.246665	2513.015192
895.554903	2465.124231
895.863100	2553.344423
896.171256	2563.426731
896.479371	2586.111923
896.787446	2475.206538
897.095480	2437.397885
897.403473	2480.247692
897.711425	2505.453462
898.019336	2523.097500
898.327207	2442.439038
898.635038	2467.644808
898.942827	2525.618077
899.250576	2523.097500
899.558284	2424.795000
899.865952	2439.918462
900.173579	2528.138654
900.481165	2608.797115
900.788711	2379.424615
901.096216	2487.809423
901.403681	2455.041923
901.711105	2608.797115
902.018489	2402.109808
902.325832	2505.453462
902.633135	2487.809423
902.940397	2538.220962
903.247619	2497.891731
903.554800	2550.823846
903.861941	2523.097500
904.169041	2533.179808
904.476101	2528.138654
904.783121	2422.274423
905.090100	2535.700385
905.397039	2424.795000
905.703938	2399.589231
906.010796	2437.397885
906.317614	2596.194231
906.624391	2472.685962
906.931129	2442.439038
907.237826	2545.782692
907.544483	2427.315577
907.851099	2407.150962
908.157675	2505.453462
908.464211	2450.000769
908.770707	2472.685962
909.077163	2477.727115
909.383578	2467.644808
909.689954	2502.932885
909.996289	2505.453462
910.302584	2510.494615
910.608839	2452.521346
910.915054	2523.097500
911.221229	2460.083077
911.527363	2558.385577
911.833458	2520.576923
912.139513	2424.795000
912.445527	2576.029615
912.751502	2485.288846
913.057436	2447.480192
913.363331	2475.206538
913.669186	2422.274423
913.975000	2507.974038
914.280775	2502.932885
914.586510	2553.344423
914.892205	2407.150962
915.197859	2500.412308
915.503475	2492.850577
915.809050	2586.111923
916.114585	2480.247692
916.420081	2477.727115
916.725536	2555.865000
917.030952	2530.659231
917.336328	2497.891731
917.641665	2540.741538
917.946961	2467.644808
918.252218	2553.344423
918.557435	2505.453462
918.862612	2482.768269
919.167750	2444.959615
919.472848	2492.850577
919.777906	2455.041923
920.082925	2477.727115
920.387904	2450.000769
920.692843	2548.303269
920.997743	2520.576923
921.302603	2437.397885
921.607423	2397.068654
921.912204	2515.535769
922.216946	2397.068654
922.521647	2465.124231
922.826310	2487.809423
923.130932	2502.932885
923.435516	2528.138654
923.740059	2457.562500
924.044564	2487.809423
924.349028	2432.356731
924.653454	2419.753846
924.957840	2422.274423
925.262186	2502.932885
925.566493	2502.932885
925.870761	2550.823846
926.174989	2591.153077
926.479178	2560.906154
926.783328	2596.194231
927.087438	2545.782692
927.391509	2535.700385
927.695541	2419.753846
927.999533	2480.247692
928.303486	2467.644808
928.607400	2513.015192
928.911275	2507.974038
929.215110	2525.618077
929.518906	2535.700385
929.822663	2502.932885
930.126381	2505.453462
930.430060	2588.632500
930.733699	2563.426731
931.037299	2452.521346
931.340861	2520.576923
931.644383	2492.850577
931.947866	2568.467885
932.251309	2505.453462
932.554714	2525.618077
932.858080	2475.206538
933.161407	2495.371154
933.464694	2462.603654
933.767943	2543.262115
934.071153	2543.262115
934.374323	2513.015192
934.677455	2442.439038
934.980548	2434.877308
935.283602	2384.465769
935.586617	2480.247692
935.889593	2465.124231
936.192530	2409.671538
936.495428	2502.932885
936.798287	2497.891731
937.101108	2535.700385
937.403890	2457.562500
937.706632	2490.330000
938.009336	2480.247692
938.312002	2467.644808
938.614628	2492.850577
938.917216	2472.685962
939.219765	2530.659231
939.522275	2434.877308
939.824747	2437.397885
940.127179	2480.247692
940.429573	2439.918462
940.731929	2581.070769
941.034246	2467.644808
941.336524	2507.974038
941.638763	2490.330000
941.940964	2480.247692
942.243126	2505.453462
942.545250	2386.986346
942.847335	2502.932885
943.149381	2444.959615
943.451389	2525.618077
943.753359	2553.344423
944.055290	2492.850577
944.357182	2450.000769
944.659036	2502.932885
944.960851	2467.644808
945.262628	2515.535769
945.564367	2555.865000
945.866067	2379.424615
946.167729	2520.576923
946.469352	2392.027500
946.770937	2518.056346
947.072484	2442.439038
947.373992	2510.494615
947.675462	2500.412308
947.976893	2581.070769
948.278286	2548.303269
948.579641	2490.330000
948.880958	2515.535769
949.182236	2500.412308
949.483476	2555.865000
949.784678	2558.385577
950.085841	2515.535769
950.386967	2467.644808
950.688054	2480.247692
950.989103	2492.850577
951.290114	2497.891731
951.591087	2502.932885
951.892021	2472.685962
952.192917	2500.412308
952.493776	2470.165385
952.794596	2452.521346
953.095378	2560.906154
953.396122	2540.741538
953.696828	2495.371154
953.997496	2515.535769
954.298126	2439.918462
954.598718	2475.206538
954.899272	2460.083077
955.199788	2507.974038
955.500266	2472.685962
955.800706	2570.988462
956.101108	2492.850577
956.401472	2455.041923
956.701798	2502.932885
957.002087	2515.535769
957.302337	2480.247692
957.602550	2450.000769
957.902724	2558.385577
958.202861	2485.288846
958.502960	2497.891731
958.803022	2439.918462
959.103045	2465.124231
959.403031	2457.562500
959.702979	2507.974038
960.002889	2497.891731
960.302762	2480.247692
960.602596	2462.603654
960.902393	2487.809423
961.202153	2518.056346
961.501875	2482.768269
961.801559	2429.836154
962.101205	2540.741538
962.400814	2507.974038
962.700385	2513.015192
962.999918	2520.576923
963.299414	2545.782692
963.598873	2520.576923
963.898293	2492.850577
964.197677	2485.288846
964.497022	2424.795000
964.796331	2462.603654
965.095601	2550.823846
965.394835	2450.000769
965.694030	2518.056346
965.993189	2457.562500
966.292309	2470.165385
966.591393	2475.206538
966.890439	2540.741538
967.189447	2442.439038
967.488419	2467.644808
967.787353	2450.000769
968.086249	2477.727115
968.385108	2500.412308
968.683930	2520.576923
968.982714	2412.192115
969.281462	2465.124231
969.580172	2497.891731
969.878844	2495.371154
970.177480	2444.959615
970.476078	2495.371154
970.774639	2467.644808
971.073162	2533.179808
971.371649	2407.150962
971.670098	2482.768269
971.968510	2482.768269
972.266885	2492.850577
972.565223	2429.836154
972.863524	2497.891731
973.161788	2475.206538
973.460014	2510.494615
973.758204	2424.795000
974.056356	2576.029615
974.354471	2558.385577
974.652550	2553.344423
974.950591	2419.753846
975.248595	2507.974038
975.546563	2533.179808
975.844493	2523.097500
976.142386	2540.741538
976.440243	2480.247692
976.738062	2457.562500
977.035845	2424.795000
977.333590	2545.782692
977.631299	2480.247692
977.928971	2475.206538
978.226606	2492.850577
978.524204	2427.315577
978.821765	2442.439038
979.119290	2535.700385
979.416777	2513.015192
979.714228	2530.659231
980.011642	2538.220962
980.309020	2555.865000
980.606360	2457.562500
980.903664	2480.247692
981.200931	2520.576923
981.498162	2492.850577
981.795356	2497.891731
982.092513	2437.397885
982.389633	2555.865000
982.686717	2460.083077
982.983764	2555.865000
983.280775	2573.509038
983.577749	2492.850577
983.874686	2583.591346
984.171587	2500.412308
984.468451	2507.974038
984.765279	2550.823846
985.062070	2480.247692
985.358824	2450.000769
985.655543	2510.494615
985.952224	2543.262115
986.248869	2444.959615
986.545478	2475.206538
986.842050	2490.330000
987.138586	2510.494615
987.435086	2419.753846
987.731549	2513.015192
988.027975	2502.932885
988.324366	2460.083077
988.620719	2490.330000
988.917037	2480.247692
989.213318	2470.165385
989.509563	2404.630385
989.805772	2439.918462
990.101944	2495.371154
990.398080	2460.083077
990.694180	2414.712692
990.990244	2492.850577
991.286271	2515.535769
991.582262	2538.220962
991.878217	2450.000769
992.174136	2457.562500
992.470019	2475.206538
992.765865	2513.015192
993.061676	2502.932885
993.357450	2444.959615
993.653188	2482.768269
993.948890	2432.356731
994.244556	2434.877308
994.540186	2525.618077
994.835780	2356.739423
995.131337	2364.301154
995.426859	2586.111923
995.722345	2407.150962
996.017795	2462.603654
996.313208	2407.150962
996.608586	2492.850577
996.903928	2432.356731
997.199234	2553.344423
997.494504	2540.741538
997.789738	2513.015192
998.084936	2465.124231
998.380099	2414.712692
998.675225	2374.383462
998.970316	2485.288846
999.265371	2485.288846
999.560390	2502.932885
999.855373	2457.562500
1000.150320	2467.644808
1000.445232	2487.809423
1000.740108	2548.303269
1001.034948	2520.576923
1001.329752	2482.768269
1001.624521	2467.644808
1001.919254	2518.056346
1002.213951	2427.315577
1002.508613	2490.330000
1002.803239	2424.795000
1003.097829	2502.932885
1003.392384	2518.056346
1003.686903	2452.521346
1003.981386	2535.700385
1004.275834	2477.727115
1004.570246	2530.659231
1004.864623	2472.685962
1005.158964	2490.330000
1005.453270	2578.550192
1005.747540	2538.220962
1006.041775	2500.412308
1006.335974	2444.959615
1006.630138	2495.371154
1006.924266	2533.179808
1007.218359	2548.303269
1007.512416	2480.247692
1007.806438	2472.685962
1008.100425	2507.974038
1008.394376	2500.412308
1008.688292	2412.192115
1008.982172	2540.741538
1009.276017	2444.959615
1009.569827	2502.932885
1009.863602	2530.659231
1010.157341	2520.576923
1010.451045	2409.671538
1010.744714	2427.315577
1011.038347	2485.288846
1011.331945	2439.918462
1011.625508	2500.412308
1011.919036	2439.918462
1012.212528	2513.015192
1012.505986	2558.385577
1012.799408	2495.371154
1013.092795	2495.371154
1013.386147	2495.371154
1013.679464	2576.029615
1013.972745	2472.685962
1014.265992	2467.644808
1014.559204	2497.891731
1014.852380	2437.397885
1015.145521	2477.727115
1015.438628	2550.823846
1015.731699	2462.603654
1016.024736	2487.809423
1016.317737	2548.303269
1016.610703	2563.426731
1016.903635	2455.041923
1017.196531	2470.165385
1017.489393	2472.685962
1017.782219	2497.891731
1018.075011	2450.000769
1018.367768	2472.685962
1018.660490	2565.947308
1018.953177	2565.947308
1019.245829	2565.947308
