Dividing Wavelength (nm)	Counts (n)	Blue Motor Position (mm): 0.000000	Red Motor Position (mm): 8.000000	
326.493990	2049.229038
326.888308	2049.229038
327.282561	2049.229038
327.676750	2013.940962
328.070874	2079.475962
328.464933	2061.831923
328.858929	2026.543846
329.252859	2079.475962
329.646726	2200.463654
330.040528	2142.490385
330.434265	2124.846346
330.827938	2137.449231
331.221547	2092.078846
331.615091	2238.272308
332.008571	2145.010962
332.401986	2235.751731
332.795338	2228.190000
333.188625	2255.916346
333.581847	2228.190000
333.975006	2296.245577
334.368100	2346.657115
334.761129	2414.712692
335.154095	2321.451346
335.546996	2318.930769
335.939833	2397.068654
336.332606	2301.286731
336.725315	2417.233269
337.117960	2444.959615
337.510540	2379.424615
337.903056	2397.068654
338.295508	2389.506923
338.687896	2492.850577
339.080220	2442.439038
339.472480	2485.288846
339.864676	2356.739423
340.256807	2419.753846
340.648875	2530.659231
341.040879	2444.959615
341.432818	2457.562500
341.824694	2447.480192
342.216506	2520.576923
342.608253	2460.083077
342.999937	2487.809423
343.391557	2462.603654
343.783113	2452.521346
344.174605	2470.165385
344.566033	2495.371154
344.957397	2487.809423
345.348697	2439.918462
345.739934	2434.877308
346.131106	2455.041923
346.522215	2397.068654
346.913260	2432.356731
347.304241	2495.371154
347.695159	2482.768269
348.086012	2452.521346
348.476802	2402.109808
348.867528	2424.795000
349.258191	2492.850577
349.648789	2495.371154
350.039324	2470.165385
350.429796	2490.330000
350.820203	2523.097500
351.210548	2480.247692
351.600828	2447.480192
351.991045	2414.712692
352.381198	2455.041923
352.771288	2450.000769
353.161314	2480.247692
353.551276	2432.356731
353.941175	2427.315577
354.331010	2386.986346
354.720782	2505.453462
355.110490	2369.342308
355.500135	2450.000769
355.889717	2437.397885
356.279235	2402.109808
356.668689	2518.056346
357.058080	2409.671538
357.447408	2429.836154
357.836672	2407.150962
358.225873	2429.836154
358.615010	2381.945192
359.004084	2475.206538
359.393095	2379.424615
359.782043	2427.315577
360.170927	2450.000769
360.559748	2490.330000
360.948505	2502.932885
361.337199	2399.589231
361.725830	2472.685962
362.114398	2510.494615
362.502903	2429.836154
362.891344	2470.165385
363.279722	2520.576923
363.668037	2490.330000
364.056289	2500.412308
364.444478	2455.041923
364.832603	2495.371154
365.220665	2500.412308
365.608665	2369.342308
365.996601	2414.712692
366.384474	2558.385577
366.772284	2477.727115
367.160031	2434.877308
367.547715	2495.371154
367.935336	2477.727115
368.322893	2492.850577
368.710388	2402.109808
369.097820	2497.891731
369.485189	2442.439038
369.872495	2467.644808
370.259738	2384.465769
370.646918	2535.700385
371.034035	2437.397885
371.421090	2465.124231
371.808081	2447.480192
372.195010	2427.315577
372.581875	2427.315577
372.968678	2492.850577
373.355418	2442.439038
373.742096	2538.220962
374.128710	2452.521346
374.515262	2447.480192
374.901751	2339.095385
375.288177	2460.083077
375.674540	2427.315577
376.060841	2424.795000
376.447079	2447.480192
376.833254	2369.342308
377.219367	2460.083077
377.605417	2477.727115
377.991404	2386.986346
378.377329	2381.945192
378.763191	2505.453462
379.148991	2399.589231
379.534727	2497.891731
379.920402	2467.644808
380.306013	2455.041923
380.691563	2558.385577
381.077049	2394.548077
381.462474	2523.097500
381.847835	2462.603654
382.233134	2457.562500
382.618371	2427.315577
383.003545	2502.932885
383.388657	2439.918462
383.773706	2495.371154
384.158693	2376.904038
384.543618	2482.768269
384.928480	2439.918462
385.313280	2450.000769
385.698017	2412.192115
386.082692	2487.809423
386.467305	2429.836154
386.851856	2535.700385
387.236344	2555.865000
387.620770	2450.000769
388.005133	2513.015192
388.389435	2434.877308
388.773674	2341.615962
389.157851	2437.397885
389.541965	2475.206538
389.926018	2480.247692
390.310008	2442.439038
390.693936	2455.041923
391.077802	2523.097500
391.461606	2487.809423
391.845348	2480.247692
392.229027	2475.206538
392.612645	2492.850577
392.996200	2465.124231
393.379694	2492.850577
393.763125	2500.412308
394.146494	2467.644808
394.529801	2480.247692
394.913047	2507.974038
395.296230	2460.083077
395.679351	2434.877308
396.062410	2427.315577
396.445408	2460.083077
396.828343	2487.809423
397.211217	2465.124231
397.594028	2452.521346
397.976778	2518.056346
398.359466	2455.041923
398.742092	2472.685962
399.124656	2417.233269
399.507158	2424.795000
399.889598	2422.274423
400.271977	2422.274423
400.654294	2560.906154
401.036549	2442.439038
401.418742	2472.685962
401.800874	2490.330000
402.182944	2384.465769
402.564952	2465.124231
402.946898	2475.206538
403.328783	2409.671538
403.710606	2490.330000
404.092367	2452.521346
404.474067	2548.303269
404.855705	2558.385577
405.237282	2455.041923
405.618797	2465.124231
406.000250	2576.029615
406.381642	2447.480192
406.762972	2518.056346
407.144240	2558.385577
407.525447	2447.480192
407.906593	2477.727115
408.287677	2487.809423
408.668700	2523.097500
409.049661	2442.439038
409.430560	2548.303269
409.811399	2497.891731
410.192176	2528.138654
410.572891	2419.753846
410.953545	2500.412308
411.334138	2492.850577
411.714669	2543.262115
412.095139	2502.932885
412.475547	2439.918462
412.855894	2530.659231
413.236180	2500.412308
413.616405	2439.918462
413.996568	2475.206538
414.376670	2444.959615
414.756711	2515.535769
415.136691	2424.795000
415.516609	2576.029615
415.896466	2538.220962
416.276262	2507.974038
416.655997	2477.727115
417.035670	2502.932885
417.415283	2482.768269
417.794834	2528.138654
418.174324	2482.768269
418.553753	2442.439038
418.933121	2480.247692
419.312428	2530.659231
419.691674	2543.262115
420.070859	2485.288846
420.449983	2485.288846
420.829045	2414.712692
421.208047	2404.630385
421.586988	2434.877308
421.965867	2447.480192
422.344686	2442.439038
422.723444	2523.097500
423.102141	2452.521346
423.480777	2487.809423
423.859352	2538.220962
424.237866	2606.276538
424.616319	2515.535769
424.994712	2424.795000
425.373044	2492.850577
425.751314	2502.932885
426.129524	2528.138654
426.507673	2487.809423
426.885762	2578.550192
427.263789	2540.741538
427.641756	2444.959615
428.019662	2457.562500
428.397508	2492.850577
428.775292	2462.603654
429.153016	2439.918462
429.530679	2467.644808
429.908282	2457.562500
430.285824	2485.288846
430.663305	2480.247692
431.040726	2530.659231
431.418086	2583.591346
431.795385	2462.603654
432.172624	2482.768269
432.549802	2480.247692
432.926920	2525.618077
433.303977	2475.206538
433.680974	2480.247692
434.057910	2450.000769
434.434786	2545.782692
434.811601	2502.932885
435.188355	2482.768269
435.565050	2530.659231
435.941683	2505.453462
436.318257	2467.644808
436.694770	2444.959615
437.071222	2560.906154
437.447614	2419.753846
437.823946	2432.356731
438.200218	2482.768269
438.576429	2533.179808
438.952580	2409.671538
439.328670	2490.330000
439.704700	2460.083077
440.080670	2455.041923
440.456580	2455.041923
440.832429	2535.700385
441.208218	2530.659231
441.583947	2439.918462
441.959616	2518.056346
442.335224	2482.768269
442.710773	2548.303269
443.086261	2525.618077
443.461689	2485.288846
443.837057	2402.109808
444.212365	2500.412308
444.587612	2452.521346
444.962800	2492.850577
445.337927	2492.850577
445.712995	2510.494615
446.088002	2480.247692
446.462949	2495.371154
446.837837	2515.535769
447.212664	2414.712692
447.587431	2485.288846
447.962139	2515.535769
448.336786	2472.685962
448.711374	2513.015192
449.085901	2472.685962
449.460369	2472.685962
449.834776	2533.179808
450.209124	2394.548077
450.583412	2525.618077
450.957640	2450.000769
451.331808	2444.959615
451.705917	2490.330000
452.079965	2543.262115
452.453954	2381.945192
452.827883	2560.906154
453.201752	2427.315577
453.575562	2475.206538
453.949311	2485.288846
454.323001	2455.041923
454.696632	2409.671538
455.070202	2452.521346
455.443713	2492.850577
455.817164	2437.397885
456.190556	2477.727115
456.563888	2470.165385
456.937160	2450.000769
457.310373	2490.330000
457.683526	2528.138654
458.056619	2507.974038
458.429653	2520.576923
458.802628	2409.671538
459.175542	2475.206538
459.548398	2507.974038
459.921194	2523.097500
460.293930	2495.371154
460.666607	2460.083077
461.039224	2427.315577
461.411782	2492.850577
461.784280	2530.659231
462.156719	2492.850577
462.529099	2465.124231
462.901419	2543.262115
463.273680	2500.412308
463.645882	2550.823846
464.018024	2409.671538
464.390106	2482.768269
464.762130	2505.453462
465.134094	2500.412308
465.505999	2379.424615
465.877845	2530.659231
466.249631	2470.165385
466.621358	2386.986346
466.993026	2530.659231
467.364634	2465.124231
467.736184	2439.918462
468.107674	2465.124231
468.479105	2487.809423
468.850477	2480.247692
469.221790	2482.768269
469.593043	2470.165385
469.964238	2548.303269
470.335373	2452.521346
470.706449	2500.412308
471.077467	2414.712692
471.448425	2444.959615
471.819324	2482.768269
472.190164	2485.288846
472.560945	2444.959615
472.931667	2402.109808
473.302330	2467.644808
473.672934	2414.712692
474.043479	2442.439038
474.413965	2487.809423
474.784393	2510.494615
475.154761	2558.385577
475.525070	2472.685962
475.895321	2601.235385
476.265513	2462.603654
476.635645	2505.453462
477.005719	2538.220962
477.375734	2450.000769
477.745691	2399.589231
478.115588	2450.000769
478.485427	2568.467885
478.855207	2467.644808
479.224928	2545.782692
479.594591	2439.918462
479.964194	2545.782692
480.333739	2518.056346
480.703226	2507.974038
481.072653	2507.974038
481.442022	2495.371154
481.811333	2487.809423
482.180584	2477.727115
482.549777	2528.138654
482.918912	2533.179808
483.287988	2452.521346
483.657005	2603.755962
484.025964	2447.480192
484.394864	2543.262115
484.763706	2480.247692
485.132489	2540.741538
485.501213	2515.535769
485.869879	2563.426731
486.238487	2540.741538
486.607036	2540.741538
486.975527	2520.576923
487.343959	2442.439038
487.712333	2570.988462
488.080648	2475.206538
488.448905	2505.453462
488.817104	2490.330000
489.185244	2404.630385
489.553326	2465.124231
489.921350	2417.233269
490.289315	2497.891731
490.657222	2535.700385
491.025070	2502.932885
491.392861	2472.685962
491.760593	2482.768269
492.128267	2533.179808
492.495883	2467.644808
492.863440	2465.124231
493.230939	2439.918462
493.598380	2520.576923
493.965763	2495.371154
494.333088	2518.056346
494.700354	2482.768269
495.067563	2515.535769
495.434713	2475.206538
495.801805	2447.480192
496.168839	2462.603654
496.535815	2570.988462
496.902733	2437.397885
497.269593	2548.303269
497.636395	2437.397885
498.003139	2500.412308
498.369825	2515.535769
498.736453	2467.644808
499.103023	2523.097500
499.469535	2523.097500
499.835989	2480.247692
500.202385	2427.315577
500.568723	2402.109808
500.935003	2480.247692
501.301226	2444.959615
501.667390	2500.412308
502.033497	2578.550192
502.399546	2470.165385
502.765537	2455.041923
503.131470	2568.467885
503.497345	2465.124231
503.863163	2442.439038
504.228923	2460.083077
504.594625	2381.945192
504.960269	2538.220962
505.325856	2462.603654
505.691385	2510.494615
506.056856	2520.576923
506.422270	2495.371154
506.787625	2568.467885
507.152924	2545.782692
507.518164	2550.823846
507.883347	2490.330000
508.248472	2553.344423
508.613540	2467.644808
508.978550	2487.809423
509.343503	2515.535769
509.708398	2485.288846
510.073236	2450.000769
510.438016	2482.768269
510.802738	2513.015192
511.167403	2518.056346
511.532010	2492.850577
511.896561	2460.083077
512.261053	2439.918462
512.625488	2490.330000
512.989866	2482.768269
513.354186	2535.700385
513.718449	2404.630385
514.082655	2520.576923
514.446803	2460.083077
514.810894	2510.494615
515.174927	2462.603654
515.538904	2563.426731
515.902822	2520.576923
516.266684	2460.083077
516.630488	2500.412308
516.994235	2409.671538
517.357925	2439.918462
517.721558	2616.358846
518.085133	2389.506923
518.448651	2500.412308
518.812112	2460.083077
519.175516	2560.906154
519.538863	2447.480192
519.902152	2505.453462
520.265385	2510.494615
520.628560	2545.782692
520.991678	2545.782692
521.354739	2533.179808
521.717743	2513.015192
522.080690	2515.535769
522.443580	2422.274423
522.806413	2533.179808
523.169189	2465.124231
523.531908	2465.124231
523.894569	2497.891731
524.257174	2515.535769
524.619722	2475.206538
524.982213	2397.068654
525.344647	2497.891731
525.707025	2492.850577
526.069345	2497.891731
526.431608	2528.138654
526.793815	2563.426731
527.155964	2437.397885
527.518057	2530.659231
527.880093	2452.521346
528.242072	2467.644808
528.603995	2444.959615
528.965860	2417.233269
529.327669	2485.288846
529.689421	2460.083077
530.051117	2548.303269
530.412755	2548.303269
530.774337	2487.809423
531.135862	2558.385577
531.497331	2450.000769
531.858743	2523.097500
532.220098	2477.727115
532.581396	2477.727115
532.942638	2538.220962
533.303824	2606.276538
533.664953	2460.083077
534.026025	2497.891731
534.387040	2366.821731
534.747999	2518.056346
535.108902	2518.056346
535.469748	2439.918462
535.830537	2477.727115
536.191270	2487.809423
536.551947	2482.768269
536.912567	2573.509038
537.273131	2545.782692
537.633638	2533.179808
537.994089	2477.727115
538.354483	2434.877308
538.714821	2510.494615
539.075103	2477.727115
539.435328	2450.000769
539.795497	2422.274423
540.155609	2467.644808
540.515665	2550.823846
540.875665	2442.439038
541.235609	2535.700385
541.595496	2500.412308
541.955328	2538.220962
542.315102	2455.041923
542.674821	2530.659231
543.034483	2487.809423
543.394090	2591.153077
543.753640	2548.303269
544.113134	2538.220962
544.472571	2495.371154
544.831953	2513.015192
545.191278	2525.618077
545.550548	2447.480192
545.909761	2513.015192
546.268918	2457.562500
546.628019	2465.124231
546.987064	2548.303269
547.346053	2492.850577
547.704986	2586.111923
548.063863	2407.150962
548.422684	2548.303269
548.781449	2467.644808
549.140158	2475.206538
549.498811	2518.056346
549.857408	2492.850577
550.215949	2477.727115
550.574434	2507.974038
550.932864	2467.644808
551.291237	2533.179808
551.649555	2399.589231
552.007817	2538.220962
552.366022	2523.097500
552.724173	2472.685962
553.082267	2565.947308
553.440305	2545.782692
553.798288	2477.727115
554.156215	2616.358846
554.514086	2424.795000
554.871902	2513.015192
555.229661	2513.015192
555.587365	2397.068654
555.945014	2518.056346
556.302606	2452.521346
556.660143	2475.206538
557.017625	2515.535769
557.375050	2558.385577
557.732421	2432.356731
558.089735	2434.877308
558.446994	2457.562500
558.804197	2462.603654
559.161345	2472.685962
559.518437	2490.330000
559.875474	2437.397885
560.232455	2427.315577
560.589381	2414.712692
560.946251	2505.453462
561.303065	2470.165385
561.659825	2573.509038
562.016528	2447.480192
562.373177	2538.220962
562.729770	2442.439038
563.086307	2439.918462
563.442789	2424.795000
563.799216	2492.850577
564.155587	2437.397885
564.511904	2485.288846
564.868164	2525.618077
565.224370	2523.097500
565.580520	2429.836154
565.936615	2467.644808
566.292654	2507.974038
566.648638	2487.809423
567.004567	2490.330000
567.360441	2500.412308
567.716260	2513.015192
568.072023	2513.015192
568.427732	2502.932885
568.783385	2465.124231
569.138982	2490.330000
569.494525	2490.330000
569.850013	2525.618077
570.205445	2429.836154
570.560823	2487.809423
570.916145	2591.153077
571.271412	2525.618077
571.626625	2457.562500
571.981782	2540.741538
572.336884	2548.303269
572.691931	2500.412308
573.046923	2523.097500
573.401860	2533.179808
573.756743	2444.959615
574.111570	2412.192115
574.466342	2490.330000
574.821059	2490.330000
575.175722	2460.083077
575.530330	2523.097500
575.884882	2576.029615
576.239380	2485.288846
576.593823	2550.823846
576.948211	2545.782692
577.302544	2555.865000
577.656823	2588.632500
578.011047	2518.056346
578.365216	2550.823846
578.719330	2502.932885
579.073389	2462.603654
579.427394	2558.385577
579.781344	2548.303269
580.135239	2424.795000
580.489080	2520.576923
580.842866	2535.700385
581.196597	2563.426731
581.550273	2422.274423
581.903895	2477.727115
582.257463	2495.371154
582.610975	2482.768269
582.964434	2465.124231
583.317837	2434.877308
583.671186	2563.426731
584.024481	2462.603654
584.377721	2555.865000
584.730906	2518.056346
585.084037	2437.397885
585.437113	2490.330000
585.790135	2465.124231
586.143103	2613.838269
586.496016	2452.521346
586.848874	2442.439038
587.201679	2560.906154
587.554428	2422.274423
587.907124	2490.330000
588.259765	2439.918462
588.612352	2525.618077
588.964884	2429.836154
589.317362	2545.782692
589.669786	2616.358846
590.022155	2470.165385
590.374470	2548.303269
590.726731	2515.535769
591.078937	2477.727115
591.431090	2568.467885
591.783188	2490.330000
592.135232	2457.562500
592.487222	2442.439038
592.839157	2533.179808
593.191038	2502.932885
593.542866	2515.535769
593.894639	2603.755962
594.246358	2485.288846
594.598022	2450.000769
594.949633	2475.206538
595.301190	2528.138654
595.652692	2485.288846
596.004141	2528.138654
596.355535	2530.659231
596.706876	2487.809423
597.058162	2482.768269
597.409395	2477.727115
597.760573	2457.562500
598.111698	2465.124231
598.462768	2558.385577
598.813785	2480.247692
599.164748	2538.220962
599.515657	2523.097500
599.866511	2578.550192
600.217312	2492.850577
600.568060	2444.959615
600.918753	2482.768269
601.269392	2450.000769
601.619978	2558.385577
601.970510	2510.494615
602.320988	2452.521346
602.671412	2490.330000
603.021783	2565.947308
603.372100	2573.509038
603.722363	2444.959615
604.072572	2520.576923
604.422728	2495.371154
604.772830	2543.262115
605.122878	2520.576923
605.472872	2407.150962
605.822813	2510.494615
606.172701	2457.562500
606.522534	2439.918462
606.872314	2555.865000
607.222041	2452.521346
607.571714	2439.918462
607.921333	2553.344423
608.270899	2510.494615
608.620411	2513.015192
608.969870	2465.124231
609.319276	2535.700385
609.668627	2434.877308
610.017926	2475.206538
610.367171	2500.412308
610.716362	2422.274423
611.065500	2417.233269
611.414585	2523.097500
611.763616	2462.603654
612.112594	2550.823846
612.461518	2470.165385
612.810389	2507.974038
613.159207	2485.288846
613.507971	2515.535769
613.856682	2470.165385
614.205340	2470.165385
614.553945	2563.426731
614.902496	2462.603654
615.250994	2487.809423
615.599439	2429.836154
615.947830	2505.453462
616.296169	2465.124231
616.644454	2490.330000
616.992686	2563.426731
617.340864	2409.671538
617.688990	2518.056346
618.037063	2634.002885
618.385082	2530.659231
618.733048	2424.795000
619.080961	2535.700385
619.428821	2558.385577
619.776628	2419.753846
620.124382	2455.041923
620.472083	2492.850577
620.819731	2472.685962
621.167326	2422.274423
621.514868	2460.083077
621.862357	2462.603654
622.209793	2510.494615
622.557176	2465.124231
622.904506	2500.412308
623.251783	2596.194231
623.599007	2480.247692
623.946179	2576.029615
624.293297	2518.056346
624.640363	2429.836154
624.987376	2573.509038
625.334336	2540.741538
625.681243	2477.727115
626.028097	2578.550192
626.374899	2434.877308
626.721647	2550.823846
627.068343	2490.330000
627.414987	2513.015192
627.761577	2548.303269
628.108115	2482.768269
628.454600	2535.700385
628.801032	2460.083077
629.147412	2525.618077
629.493739	2487.809423
629.840014	2535.700385
630.186236	2502.932885
630.532405	2525.618077
630.878521	2573.509038
631.224585	2553.344423
631.570597	2553.344423
631.916556	2455.041923
632.262462	2578.550192
632.608316	2500.412308
632.954117	2621.400000
633.299866	2399.589231
633.645562	2513.015192
633.991206	2472.685962
634.336797	2500.412308
634.682336	2439.918462
635.027823	2460.083077
635.373257	2550.823846
635.718639	2505.453462
636.063968	2480.247692
636.409245	2520.576923
636.754470	2450.000769
637.099642	2535.700385
637.444762	2462.603654
637.789829	2480.247692
638.134845	2555.865000
638.479808	2439.918462
638.824719	2477.727115
639.169577	2450.000769
639.514383	2540.741538
639.859137	2502.932885
640.203839	2505.453462
640.548489	2402.109808
640.893086	2510.494615
641.237632	2495.371154
641.582125	2515.535769
641.926566	2477.727115
642.270955	2555.865000
642.615292	2455.041923
642.959576	2528.138654
643.303809	2573.509038
643.647990	2548.303269
643.992118	2437.397885
644.336195	2492.850577
644.680219	2452.521346
645.024192	2545.782692
645.368112	2538.220962
645.711981	2497.891731
646.055797	2525.618077
646.399562	2540.741538
646.743274	2472.685962
647.086935	2467.644808
647.430544	2452.521346
647.774101	2402.109808
648.117606	2455.041923
648.461059	2586.111923
648.804460	2507.974038
649.147810	2530.659231
649.491108	2500.412308
649.834354	2457.562500
650.177548	2447.480192
650.520690	2528.138654
650.863781	2470.165385
651.206820	2555.865000
651.549807	2507.974038
651.892742	2427.315577
652.235626	2482.768269
652.578458	2475.206538
652.921238	2513.015192
653.263967	2432.356731
653.606644	2487.809423
653.949269	2460.083077
654.291843	2432.356731
654.634365	2535.700385
654.976836	2555.865000
655.319255	2548.303269
655.661622	2505.453462
656.003938	2490.330000
656.346203	2543.262115
656.688416	2422.274423
657.030577	2513.015192
657.372687	2477.727115
657.714746	2470.165385
658.056753	2520.576923
658.398708	2591.153077
658.740612	2495.371154
659.082465	2568.467885
659.424266	2429.836154
659.766016	2470.165385
660.107715	2364.301154
660.449362	2533.179808
660.790958	2477.727115
661.132503	2555.865000
661.473996	2485.288846
661.815438	2487.809423
662.156829	2505.453462
662.498168	2513.015192
662.839456	2482.768269
663.180693	2507.974038
663.521879	2502.932885
663.863013	2533.179808
664.204097	2581.070769
664.545129	2565.947308
664.886110	2543.262115
665.227040	2535.700385
665.567918	2465.124231
665.908746	2389.506923
666.249522	2492.850577
666.590248	2560.906154
666.930922	2417.233269
667.271545	2573.509038
667.612118	2495.371154
667.952639	2485.288846
668.293109	2439.918462
668.633528	2497.891731
668.973896	2560.906154
669.314213	2518.056346
669.654480	2507.974038
669.994695	2470.165385
670.334859	2482.768269
670.674973	2475.206538
671.015035	2558.385577
671.355047	2467.644808
671.695008	2550.823846
672.034918	2450.000769
672.374777	2417.233269
672.714585	2482.768269
673.054342	2467.644808
673.394049	2475.206538
673.733705	2480.247692
674.073310	2472.685962
674.412864	2419.753846
674.752368	2507.974038
675.091820	2432.356731
675.431223	2465.124231
675.770574	2495.371154
676.109875	2515.535769
676.449125	2502.932885
676.788324	2480.247692
677.127473	2507.974038
677.466571	2437.397885
677.805619	2502.932885
678.144616	2545.782692
678.483562	2450.000769
678.822458	2482.768269
679.161303	2452.521346
679.500098	2510.494615
679.838842	2457.562500
680.177535	2596.194231
680.516179	2399.589231
680.854771	2535.700385
681.193314	2414.712692
681.531805	2533.179808
681.870247	2472.685962
682.208638	2560.906154
682.546978	2518.056346
682.885268	2543.262115
683.223508	2495.371154
683.561697	2450.000769
683.899836	2530.659231
684.237925	2492.850577
684.575963	2545.782692
684.913951	2462.603654
685.251889	2586.111923
685.589776	2535.700385
685.927614	2500.412308
686.265401	2437.397885
686.603137	2490.330000
686.940824	2477.727115
687.278460	2462.603654
687.616046	2540.741538
687.953582	2518.056346
688.291068	2465.124231
688.628504	2548.303269
688.965889	2485.288846
689.303224	2520.576923
689.640510	2462.603654
689.977745	2573.509038
690.314930	2467.644808
690.652065	2513.015192
690.989150	2490.330000
691.326185	2465.124231
691.663170	2480.247692
692.000105	2543.262115
692.336990	2455.041923
692.673825	2490.330000
693.010610	2528.138654
693.347345	2444.959615
693.684030	2444.959615
694.020665	2513.015192
694.357251	2510.494615
694.693786	2583.591346
695.030272	2487.809423
695.366707	2487.809423
695.703093	2429.836154
696.039429	2560.906154
696.375716	2515.535769
696.711952	2553.344423
697.048139	2452.521346
697.384276	2510.494615
697.720363	2480.247692
698.056400	2568.467885
698.392388	2495.371154
698.728326	2495.371154
699.064214	2475.206538
699.400053	2545.782692
699.735842	2528.138654
700.071581	2558.385577
700.407270	2432.356731
700.742910	2548.303269
701.078501	2492.850577
701.414042	2553.344423
701.749533	2502.932885
702.084974	2500.412308
702.420366	2543.262115
702.755709	2540.741538
703.091002	2465.124231
703.426246	2540.741538
703.761440	2505.453462
704.096584	2576.029615
704.431679	2565.947308
704.766725	2513.015192
705.101721	2485.288846
705.436668	2583.591346
705.771565	2432.356731
706.106413	2523.097500
706.441212	2455.041923
706.775961	2538.220962
707.110661	2515.535769
707.445311	2525.618077
707.779913	2419.753846
708.114465	2497.891731
708.448967	2462.603654
708.783421	2507.974038
709.117825	2482.768269
709.452180	2505.453462
709.786485	2538.220962
710.120742	2606.276538
710.454949	2452.521346
710.789107	2515.535769
711.123216	2573.509038
711.457275	2497.891731
711.791286	2482.768269
712.125247	2510.494615
712.459159	2457.562500
712.793023	2611.317692
713.126837	2427.315577
713.460602	2530.659231
713.794318	2480.247692
714.127985	2482.768269
714.461602	2510.494615
714.795171	2457.562500
715.128691	2500.412308
715.462162	2475.206538
715.795584	2490.330000
716.128957	2439.918462
716.462281	2543.262115
716.795556	2500.412308
717.128782	2528.138654
717.461960	2560.906154
717.795088	2570.988462
718.128167	2424.795000
718.461198	2510.494615
718.794180	2513.015192
719.127113	2581.070769
719.459997	2455.041923
719.792833	2457.562500
720.125619	2465.124231
720.458357	2570.988462
720.791046	2480.247692
721.123686	2538.220962
721.456278	2482.768269
721.788821	2507.974038
722.121315	2460.083077
722.453761	2344.136538
722.786158	2482.768269
723.118506	2450.000769
723.450805	2538.220962
723.783056	2490.330000
724.115259	2457.562500
724.447412	2520.576923
724.779518	2525.618077
725.111574	2608.797115
725.443582	2465.124231
725.775542	2548.303269
726.107453	2545.782692
726.439315	2553.344423
726.771129	2462.603654
727.102895	2502.932885
727.434612	2492.850577
727.766281	2422.274423
728.097901	2500.412308
728.429473	2505.453462
728.760996	2515.535769
729.092471	2550.823846
729.423897	2560.906154
729.755276	2510.494615
730.086606	2482.768269
730.417887	2568.467885
730.749120	2465.124231
731.080305	2545.782692
731.411442	2450.000769
731.742530	2530.659231
732.073570	2422.274423
732.404562	2477.727115
732.735506	2452.521346
733.066401	2495.371154
733.397249	2485.288846
733.728048	2480.247692
734.058798	2502.932885
734.389501	2550.823846
734.720156	2548.303269
735.050762	2457.562500
735.381320	2485.288846
735.711831	2429.836154
736.042293	2570.988462
736.372707	2447.480192
736.703073	2543.262115
737.033391	2472.685962
737.363661	2465.124231
737.693883	2450.000769
738.024056	2462.603654
738.354182	2470.165385
738.684260	2490.330000
739.014290	2442.439038
739.344272	2510.494615
739.674207	2530.659231
740.004093	2424.795000
740.333931	2490.330000
740.663722	2444.959615
740.993464	2475.206538
741.323159	2429.836154
741.652806	2502.932885
741.982405	2409.671538
742.311956	2462.603654
742.641460	2533.179808
742.970915	2530.659231
743.300323	2480.247692
743.629683	2586.111923
743.958996	2475.206538
744.288260	2565.947308
744.617477	2515.535769
744.946647	2555.865000
745.275768	2477.727115
745.604842	2452.521346
745.933869	2487.809423
746.262847	2538.220962
746.591778	2477.727115
746.920662	2487.809423
747.249498	2520.576923
747.578286	2487.809423
747.907027	2452.521346
748.235720	2467.644808
748.564365	2457.562500
748.892963	2530.659231
749.221514	2502.932885
749.550017	2576.029615
749.878473	2497.891731
750.206881	2588.632500
750.535242	2576.029615
750.863555	2581.070769
751.191821	2381.945192
751.520039	2472.685962
751.848210	2487.809423
752.176334	2578.550192
752.504411	2485.288846
752.832440	2520.576923
753.160421	2505.453462
753.488356	2578.550192
753.816243	2442.439038
754.144082	2548.303269
754.471875	2500.412308
754.799620	2528.138654
755.127318	2502.932885
755.454969	2439.918462
755.782572	2518.056346
756.110129	2465.124231
756.437638	2482.768269
756.765100	2434.877308
757.092515	2520.576923
757.419882	2533.179808
757.747203	2457.562500
758.074477	2480.247692
758.401703	2492.850577
758.728882	2439.918462
759.056014	2530.659231
759.383099	2442.439038
759.710138	2450.000769
760.037129	2510.494615
760.364073	2444.959615
760.690970	2535.700385
761.017820	2455.041923
761.344623	2515.535769
761.671379	2460.083077
761.998088	2553.344423
762.324751	2523.097500
762.651366	2487.809423
762.977935	2467.644808
763.304456	2470.165385
763.630931	2505.453462
763.957359	2434.877308
764.283740	2543.262115
764.610074	2507.974038
764.936362	2525.618077
765.262602	2558.385577
765.588796	2437.397885
765.914943	2560.906154
766.241044	2477.727115
766.567097	2518.056346
766.893104	2518.056346
767.219064	2528.138654
767.544978	2560.906154
767.870845	2513.015192
768.196665	2553.344423
768.522438	2437.397885
768.848165	2533.179808
769.173846	2419.753846
769.499479	2490.330000
769.825066	2439.918462
770.150607	2543.262115
770.476101	2535.700385
770.801548	2444.959615
771.126949	2515.535769
771.452303	2475.206538
771.777611	2414.712692
772.102872	2507.974038
772.428087	2513.015192
772.753256	2467.644808
773.078378	2432.356731
773.403453	2497.891731
773.728482	2538.220962
774.053465	2450.000769
774.378401	2528.138654
774.703291	2439.918462
775.028135	2462.603654
775.352932	2502.932885
775.677683	2439.918462
776.002388	2467.644808
776.327046	2455.041923
776.651658	2500.412308
776.976224	2434.877308
777.300743	2465.124231
777.625216	2452.521346
777.949643	2422.274423
778.274024	2409.671538
778.598359	2487.809423
778.922647	2437.397885
779.246889	2525.618077
779.571086	2460.083077
779.895236	2475.206538
780.219339	2422.274423
780.543397	2533.179808
780.867409	2497.891731
781.191374	2535.700385
781.515294	2457.562500
781.839167	2550.823846
782.162995	2576.029615
782.486776	2573.509038
782.810511	2437.397885
783.134201	2482.768269
783.457844	2470.165385
783.781441	2427.315577
784.104993	2364.301154
784.428498	2538.220962
784.751958	2515.535769
785.075372	2530.659231
785.398739	2472.685962
785.722061	2482.768269
786.045337	2442.439038
786.368568	2553.344423
786.691752	2500.412308
787.014891	2505.453462
787.337983	2500.412308
787.661030	2616.358846
787.984031	2475.206538
788.306987	2490.330000
788.629897	2482.768269
788.952760	2409.671538
789.275579	2518.056346
789.598351	2452.521346
789.921078	2500.412308
790.243759	2510.494615
790.566395	2475.206538
790.888984	2477.727115
791.211529	2470.165385
791.534027	2510.494615
791.856480	2505.453462
792.178888	2472.685962
792.501249	2513.015192
792.823566	2530.659231
793.145836	2545.782692
793.468062	2467.644808
793.790241	2475.206538
794.112375	2439.918462
794.434464	2475.206538
794.756507	2442.439038
795.078505	2497.891731
795.400457	2477.727115
795.722364	2480.247692
796.044226	2442.439038
796.366042	2490.330000
796.687812	2507.974038
797.009538	2518.056346
797.331218	2570.988462
797.652852	2530.659231
797.974442	2429.836154
798.295986	2467.644808
798.617484	2452.521346
798.938938	2505.453462
799.260346	2444.959615
799.581709	2485.288846
799.903026	2533.179808
800.224299	2520.576923
800.545526	2513.015192
800.866708	2553.344423
801.187845	2472.685962
801.508936	2465.124231
801.829983	2450.000769
802.150984	2520.576923
802.471940	2444.959615
802.792851	2515.535769
803.113717	2553.344423
803.434538	2369.342308
803.755314	2490.330000
804.076045	2442.439038
804.396731	2538.220962
804.717372	2540.741538
805.037967	2540.741538
805.358518	2530.659231
805.679024	2495.371154
805.999485	2492.850577
806.319901	2545.782692
806.640272	2520.576923
806.960598	2570.988462
807.280879	2482.768269
807.601115	2530.659231
807.921306	2447.480192
808.241453	2434.877308
808.561554	2419.753846
808.881611	2515.535769
809.201623	2525.618077
809.521590	2528.138654
809.841513	2492.850577
810.161390	2535.700385
810.481223	2513.015192
810.801011	2543.262115
811.120755	2447.480192
811.440453	2500.412308
811.760107	2467.644808
812.079716	2565.947308
812.399281	2540.741538
812.718801	2392.027500
813.038276	2465.124231
813.357707	2462.603654
813.677093	2432.356731
813.996434	2465.124231
814.315731	2480.247692
814.634983	2507.974038
814.954191	2429.836154
815.273354	2510.494615
815.592473	2437.397885
815.911547	2444.959615
816.230577	2477.727115
816.549562	2470.165385
816.868502	2490.330000
817.187399	2507.974038
817.506250	2553.344423
817.825058	2447.480192
818.143821	2555.865000
818.462539	2495.371154
818.781213	2432.356731
819.099843	2525.618077
819.418429	2497.891731
819.736970	2533.179808
820.055466	2467.644808
820.373919	2485.288846
820.692327	2507.974038
821.010691	2548.303269
821.329011	2555.865000
821.647286	2563.426731
821.965517	2422.274423
822.283704	2528.138654
822.601847	2528.138654
822.919945	2553.344423
823.237999	2500.412308
823.556010	2500.412308
823.873976	2543.262115
824.191897	2487.809423
824.509775	2495.371154
824.827609	2570.988462
825.145398	2465.124231
825.463144	2520.576923
825.780845	2513.015192
826.098502	2487.809423
826.416116	2485.288846
826.733685	2538.220962
827.051210	2485.288846
827.368692	2495.371154
827.686129	2482.768269
828.003522	2507.974038
828.320872	2467.644808
828.638177	2492.850577
828.955439	2432.356731
829.272656	2505.453462
829.589830	2482.768269
829.906960	2518.056346
830.224046	2470.165385
830.541088	2581.070769
830.858086	2518.056346
831.175041	2500.412308
831.491952	2462.603654
831.808819	2444.959615
832.125642	2485.288846
832.442421	2482.768269
832.759157	2475.206538
833.075849	2525.618077
833.392497	2603.755962
833.709101	2452.521346
834.025662	2505.453462
834.342179	2417.233269
834.658653	2573.509038
834.975083	2535.700385
835.291469	2545.782692
835.607811	2477.727115
835.924110	2482.768269
836.240366	2485.288846
836.556578	2397.068654
836.872746	2482.768269
837.188871	2432.356731
837.504952	2465.124231
837.820990	2437.397885
838.136984	2548.303269
838.452935	2565.947308
838.768842	2525.618077
839.084706	2502.932885
839.400526	2457.562500
839.716303	2507.974038
840.032037	2497.891731
840.347727	2528.138654
840.663373	2450.000769
840.978977	2518.056346
841.294537	2412.192115
841.610054	2528.138654
841.925527	2548.303269
842.240957	2515.535769
842.556344	2492.850577
842.871687	2460.083077
843.186987	2558.385577
843.502244	2467.644808
843.817458	2548.303269
844.132629	2450.000769
844.447756	2515.535769
844.762840	2432.356731
845.077881	2462.603654
845.392879	2528.138654
845.707833	2535.700385
846.022745	2492.850577
846.337613	2424.795000
846.652438	2495.371154
846.967221	2442.439038
847.281960	2588.632500
847.596656	2530.659231
847.911309	2447.480192
848.225919	2513.015192
848.540485	2419.753846
848.855009	2457.562500
849.169490	2510.494615
849.483928	2462.603654
849.798323	2409.671538
850.112675	2414.712692
850.426984	2533.179808
850.741251	2500.412308
851.055474	2581.070769
851.369654	2586.111923
851.683792	2482.768269
851.997887	2535.700385
852.311938	2485.288846
852.625947	2490.330000
852.939914	2528.138654
853.253837	2535.700385
853.567718	2477.727115
853.881555	2407.150962
854.195350	2545.782692
854.509103	2452.521346
854.822812	2432.356731
855.136479	2482.768269
855.450103	2497.891731
855.763685	2427.315577
856.077224	2576.029615
856.390720	2465.124231
856.704173	2520.576923
857.017584	2472.685962
857.330953	2467.644808
857.644278	2528.138654
857.957561	2472.685962
858.270802	2490.330000
858.584000	2455.041923
858.897155	2492.850577
859.210268	2477.727115
859.523339	2555.865000
859.836367	2555.865000
860.149352	2457.562500
860.462295	2591.153077
860.775195	2427.315577
861.088054	2518.056346
861.400869	2533.179808
861.713642	2543.262115
862.026373	2550.823846
862.339062	2492.850577
862.651708	2553.344423
862.964312	2439.918462
863.276873	2565.947308
863.589392	2500.412308
863.901869	2520.576923
864.214303	2576.029615
864.526696	2500.412308
864.839045	2507.974038
865.151353	2490.330000
865.463619	2505.453462
865.775842	2528.138654
866.088023	2419.753846
866.400162	2497.891731
866.712258	2490.330000
867.024313	2487.809423
867.336325	2402.109808
867.648296	2475.206538
867.960224	2497.891731
868.272110	2404.630385
868.583954	2472.685962
868.895755	2480.247692
869.207515	2457.562500
869.519233	2417.233269
869.830909	2467.644808
870.142542	2500.412308
870.454134	2515.535769
870.765684	2417.233269
871.077191	2548.303269
871.388657	2457.562500
871.700081	2500.412308
872.011463	2563.426731
872.322803	2502.932885
872.634101	2457.562500
872.945357	2588.632500
873.256571	2424.795000
873.567744	2540.741538
873.878874	2439.918462
874.189963	2553.344423
874.501010	2492.850577
874.812015	2467.644808
875.122979	2490.330000
875.433900	2419.753846
875.744780	2540.741538
876.055618	2465.124231
876.366415	2432.356731
876.677169	2429.836154
876.987882	2450.000769
877.298554	2525.618077
877.609183	2518.056346
877.919771	2540.741538
878.230317	2424.795000
878.540822	2510.494615
878.851285	2492.850577
879.161707	2563.426731
879.472087	2419.753846
879.782425	2432.356731
880.092722	2570.988462
880.402977	2520.576923
880.713191	2530.659231
881.023363	2470.165385
881.333494	2555.865000
881.643583	2490.330000
881.953631	2515.535769
882.263637	2465.124231
882.573602	2560.906154
882.883526	2513.015192
883.193408	2505.453462
883.503248	2568.467885
883.813048	2553.344423
884.122806	2500.412308
884.432522	2450.000769
884.742197	2538.220962
885.051831	2457.562500
885.361424	2510.494615
885.670975	2444.959615
885.980485	2419.753846
886.289954	2477.727115
886.599382	2528.138654
886.908768	2495.371154
887.218113	2568.467885
887.527417	2455.041923
887.836680	2558.385577
888.145901	2492.850577
888.455082	2477.727115
888.764221	2513.015192
889.073319	2467.644808
889.382376	2518.056346
889.691392	2581.070769
890.000366	2457.562500
890.309300	2439.918462
890.618193	2538.220962
890.927044	2472.685962
891.235855	2530.659231
891.544625	2523.097500
891.853353	2490.330000
892.162041	2467.644808
892.470687	2485.288846
892.779293	2530.659231
893.087858	2460.083077
893.396381	2424.795000
893.704864	2492.850577
894.013306	2457.562500
894.321707	2525.618077
894.630068	2455.041923
894.938387	2502.932885
895.246665	2455.041923
895.554903	2523.097500
895.863100	2482.768269
896.171256	2598.714808
896.479371	2555.865000
896.787446	2477.727115
897.095480	2560.906154
897.403473	2470.165385
897.711425	2543.262115
898.019336	2497.891731
898.327207	2543.262115
898.635038	2455.041923
898.942827	2510.494615
899.250576	2419.753846
899.558284	2477.727115
899.865952	2500.412308
900.173579	2487.809423
900.481165	2485.288846
900.788711	2470.165385
901.096216	2548.303269
901.403681	2389.506923
901.711105	2492.850577
902.018489	2447.480192
902.325832	2510.494615
902.633135	2538.220962
902.940397	2515.535769
903.247619	2470.165385
903.554800	2462.603654
903.861941	2570.988462
904.169041	2442.439038
904.476101	2502.932885
904.783121	2419.753846
905.090100	2495.371154
905.397039	2480.247692
905.703938	2530.659231
906.010796	2434.877308
906.317614	2485.288846
906.624391	2568.467885
906.931129	2470.165385
907.237826	2465.124231
907.544483	2447.480192
907.851099	2487.809423
908.157675	2513.015192
908.464211	2495.371154
908.770707	2417.233269
909.077163	2467.644808
909.383578	2462.603654
909.689954	2495.371154
909.996289	2507.974038
910.302584	2523.097500
910.608839	2492.850577
910.915054	2495.371154
911.221229	2568.467885
911.527363	2477.727115
911.833458	2450.000769
912.139513	2485.288846
912.445527	2548.303269
912.751502	2477.727115
913.057436	2533.179808
913.363331	2470.165385
913.669186	2502.932885
913.975000	2528.138654
914.280775	2457.562500
914.586510	2470.165385
914.892205	2490.330000
915.197859	2404.630385
915.503475	2507.974038
915.809050	2513.015192
916.114585	2510.494615
916.420081	2475.206538
916.725536	2518.056346
917.030952	2457.562500
917.336328	2450.000769
917.641665	2505.453462
917.946961	2523.097500
918.252218	2492.850577
918.557435	2523.097500
918.862612	2515.535769
919.167750	2497.891731
919.472848	2460.083077
919.777906	2490.330000
920.082925	2510.494615
920.387904	2482.768269
920.692843	2492.850577
920.997743	2540.741538
921.302603	2555.865000
921.607423	2470.165385
921.912204	2505.453462
922.216946	2470.165385
922.521647	2434.877308
922.826310	2513.015192
923.130932	2495.371154
923.435516	2502.932885
923.740059	2480.247692
924.044564	2573.509038
924.349028	2465.124231
924.653454	2371.862885
924.957840	2576.029615
925.262186	2409.671538
925.566493	2419.753846
925.870761	2462.603654
926.174989	2404.630385
926.479178	2593.673654
926.783328	2500.412308
927.087438	2525.618077
927.391509	2465.124231
927.695541	2528.138654
927.999533	2450.000769
928.303486	2535.700385
928.607400	2432.356731
928.911275	2563.426731
929.215110	2502.932885
929.518906	2490.330000
929.822663	2513.015192
930.126381	2470.165385
930.430060	2465.124231
930.733699	2500.412308
931.037299	2550.823846
931.340861	2485.288846
931.644383	2500.412308
931.947866	2452.521346
932.251309	2434.877308
932.554714	2490.330000
932.858080	2432.356731
933.161407	2555.865000
933.464694	2555.865000
933.767943	2518.056346
934.071153	2530.659231
934.374323	2429.836154
934.677455	2462.603654
934.980548	2487.809423
935.283602	2472.685962
935.586617	2475.206538
935.889593	2520.576923
936.192530	2434.877308
936.495428	2437.397885
936.798287	2485.288846
937.101108	2482.768269
937.403890	2475.206538
937.706632	2497.891731
938.009336	2507.974038
938.312002	2467.644808
938.614628	2434.877308
938.917216	2487.809423
939.219765	2467.644808
939.522275	2437.397885
939.824747	2538.220962
940.127179	2452.521346
940.429573	2492.850577
940.731929	2523.097500
941.034246	2432.356731
941.336524	2492.850577
941.638763	2550.823846
941.940964	2505.453462
942.243126	2500.412308
942.545250	2550.823846
942.847335	2540.741538
943.149381	2505.453462
943.451389	2452.521346
943.753359	2520.576923
944.055290	2545.782692
944.357182	2515.535769
944.659036	2502.932885
944.960851	2545.782692
945.262628	2424.795000
945.564367	2477.727115
945.866067	2477.727115
946.167729	2505.453462
946.469352	2568.467885
946.770937	2482.768269
947.072484	2442.439038
947.373992	2502.932885
947.675462	2507.974038
947.976893	2507.974038
948.278286	2455.041923
948.579641	2530.659231
948.880958	2475.206538
949.182236	2437.397885
949.483476	2553.344423
949.784678	2513.015192
950.085841	2485.288846
950.386967	2397.068654
950.688054	2548.303269
950.989103	2500.412308
951.290114	2455.041923
951.591087	2457.562500
951.892021	2457.562500
952.192917	2543.262115
952.493776	2515.535769
952.794596	2528.138654
953.095378	2457.562500
953.396122	2492.850577
953.696828	2470.165385
953.997496	2462.603654
954.298126	2523.097500
954.598718	2533.179808
954.899272	2500.412308
955.199788	2520.576923
955.500266	2515.535769
955.800706	2434.877308
956.101108	2515.535769
956.401472	2550.823846
956.701798	2475.206538
957.002087	2482.768269
957.302337	2452.521346
957.602550	2513.015192
957.902724	2404.630385
958.202861	2538.220962
958.502960	2480.247692
958.803022	2439.918462
959.103045	2475.206538
959.403031	2427.315577
959.702979	2442.439038
960.002889	2510.494615
960.302762	2480.247692
960.602596	2513.015192
960.902393	2548.303269
961.202153	2455.041923
961.501875	2444.959615
961.801559	2444.959615
962.101205	2530.659231
962.400814	2492.850577
962.700385	2482.768269
962.999918	2593.673654
963.299414	2467.644808
963.598873	2460.083077
963.898293	2424.795000
964.197677	2460.083077
964.497022	2419.753846
964.796331	2502.932885
965.095601	2404.630385
965.394835	2533.179808
965.694030	2465.124231
965.993189	2550.823846
966.292309	2505.453462
966.591393	2502.932885
966.890439	2439.918462
967.189447	2487.809423
967.488419	2550.823846
967.787353	2462.603654
968.086249	2550.823846
968.385108	2404.630385
968.683930	2482.768269
968.982714	2581.070769
969.281462	2470.165385
969.580172	2535.700385
969.878844	2422.274423
970.177480	2485.288846
970.476078	2480.247692
970.774639	2460.083077
971.073162	2558.385577
971.371649	2540.741538
971.670098	2563.426731
971.968510	2444.959615
972.266885	2540.741538
972.565223	2432.356731
972.863524	2490.330000
973.161788	2510.494615
973.460014	2407.150962
973.758204	2444.959615
974.056356	2535.700385
974.354471	2535.700385
974.652550	2490.330000
974.950591	2502.932885
975.248595	2467.644808
975.546563	2528.138654
975.844493	2543.262115
976.142386	2530.659231
976.440243	2444.959615
976.738062	2452.521346
977.035845	2502.932885
977.333590	2555.865000
977.631299	2475.206538
977.928971	2558.385577
978.226606	2485.288846
978.524204	2525.618077
978.821765	2487.809423
979.119290	2447.480192
979.416777	2472.685962
979.714228	2568.467885
980.011642	2472.685962
980.309020	2553.344423
980.606360	2533.179808
980.903664	2525.618077
981.200931	2563.426731
981.498162	2450.000769
981.795356	2525.618077
982.092513	2540.741538
982.389633	2457.562500
982.686717	2510.494615
982.983764	2404.630385
983.280775	2497.891731
983.577749	2455.041923
983.874686	2467.644808
984.171587	2510.494615
984.468451	2472.685962
984.765279	2507.974038
985.062070	2528.138654
985.358824	2487.809423
985.655543	2384.465769
985.952224	2369.342308
986.248869	2477.727115
986.545478	2523.097500
986.842050	2528.138654
987.138586	2442.439038
987.435086	2520.576923
987.731549	2548.303269
988.027975	2475.206538
988.324366	2447.480192
988.620719	2434.877308
988.917037	2480.247692
989.213318	2613.838269
989.509563	2452.521346
989.805772	2447.480192
990.101944	2472.685962
990.398080	2475.206538
990.694180	2439.918462
990.990244	2419.753846
991.286271	2497.891731
991.582262	2621.400000
991.878217	2513.015192
992.174136	2576.029615
992.470019	2490.330000
992.765865	2477.727115
993.061676	2550.823846
993.357450	2439.918462
993.653188	2523.097500
993.948890	2505.453462
994.244556	2467.644808
994.540186	2520.576923
994.835780	2429.836154
995.131337	2565.947308
995.426859	2472.685962
995.722345	2462.603654
996.017795	2540.741538
996.313208	2450.000769
996.608586	2467.644808
996.903928	2450.000769
997.199234	2540.741538
997.494504	2434.877308
997.789738	2525.618077
998.084936	2528.138654
998.380099	2576.029615
998.675225	2515.535769
998.970316	2528.138654
999.265371	2502.932885
999.560390	2533.179808
999.855373	2518.056346
1000.150320	2462.603654
1000.445232	2513.015192
1000.740108	2520.576923
1001.034948	2545.782692
1001.329752	2492.850577
1001.624521	2455.041923
1001.919254	2535.700385
1002.213951	2475.206538
1002.508613	2462.603654
1002.803239	2444.959615
1003.097829	2462.603654
1003.392384	2437.397885
1003.686903	2497.891731
1003.981386	2465.124231
1004.275834	2533.179808
1004.570246	2450.000769
1004.864623	2558.385577
1005.158964	2497.891731
1005.453270	2467.644808
1005.747540	2510.494615
1006.041775	2510.494615
1006.335974	2467.644808
1006.630138	2497.891731
1006.924266	2437.397885
1007.218359	2480.247692
1007.512416	2540.741538
1007.806438	2376.904038
1008.100425	2513.015192
1008.394376	2417.233269
1008.688292	2570.988462
1008.982172	2530.659231
1009.276017	2568.467885
1009.569827	2490.330000
1009.863602	2563.426731
1010.157341	2505.453462
1010.451045	2450.000769
1010.744714	2482.768269
1011.038347	2470.165385
1011.331945	2475.206538
1011.625508	2523.097500
1011.919036	2530.659231
1012.212528	2500.412308
1012.505986	2470.165385
1012.799408	2477.727115
1013.092795	2510.494615
1013.386147	2419.753846
1013.679464	2429.836154
1013.972745	2530.659231
1014.265992	2538.220962
1014.559204	2525.618077
1014.852380	2450.000769
1015.145521	2450.000769
1015.438628	2485.288846
1015.731699	2598.714808
1016.024736	2467.644808
1016.317737	2505.453462
1016.610703	2414.712692
1016.903635	2447.480192
1017.196531	2497.891731
1017.489393	2442.439038
1017.782219	2452.521346
1018.075011	2497.891731
1018.367768	2477.727115
1018.660490	2543.262115
1018.953177	2543.262115
1019.245829	2543.262115
