Dividing Wavelength (nm)	Counts (n)	Blue Motor Position (mm): 0.000000	Red Motor Position (mm): 3.200000	
326.493990	2107.202308
326.888308	2107.202308
327.282561	2107.202308
327.676750	2054.270192
328.070874	2074.434808
328.464933	2041.667308
328.858929	2119.805192
329.252859	2069.393654
329.646726	2084.517115
330.040528	2129.887500
330.434265	2074.434808
330.827938	2102.161154
331.221547	2192.901923
331.615091	2099.640577
332.008571	2192.901923
332.401986	2286.163269
332.795338	2195.422500
333.188625	2296.245577
333.581847	2192.901923
333.975006	2281.122115
334.368100	2260.957500
334.761129	2291.204423
335.154095	2296.245577
335.546996	2306.327885
335.939833	2404.630385
336.332606	2389.506923
336.725315	2465.124231
337.117960	2457.562500
337.510540	2462.603654
337.903056	2392.027500
338.295508	2404.630385
338.687896	2366.821731
339.080220	2482.768269
339.472480	2465.124231
339.864676	2490.330000
340.256807	2432.356731
340.648875	2548.303269
341.040879	2485.288846
341.432818	2442.439038
341.824694	2495.371154
342.216506	2475.206538
342.608253	2502.932885
342.999937	2452.521346
343.391557	2490.330000
343.783113	2502.932885
344.174605	2502.932885
344.566033	2429.836154
344.957397	2520.576923
345.348697	2515.535769
345.739934	2475.206538
346.131106	2465.124231
346.522215	2409.671538
346.913260	2465.124231
347.304241	2412.192115
347.695159	2457.562500
348.086012	2548.303269
348.476802	2470.165385
348.867528	2386.986346
349.258191	2444.959615
349.648789	2502.932885
350.039324	2528.138654
350.429796	2434.877308
350.820203	2518.056346
351.210548	2437.397885
351.600828	2409.671538
351.991045	2482.768269
352.381198	2437.397885
352.771288	2417.233269
353.161314	2447.480192
353.551276	2465.124231
353.941175	2369.342308
354.331010	2502.932885
354.720782	2422.274423
355.110490	2422.274423
355.500135	2467.644808
355.889717	2450.000769
356.279235	2409.671538
356.668689	2444.959615
357.058080	2424.795000
357.447408	2397.068654
357.836672	2364.301154
358.225873	2404.630385
358.615010	2427.315577
359.004084	2447.480192
359.393095	2361.780577
359.782043	2447.480192
360.170927	2432.356731
360.559748	2412.192115
360.948505	2507.974038
361.337199	2409.671538
361.725830	2472.685962
362.114398	2414.712692
362.502903	2470.165385
362.891344	2412.192115
363.279722	2450.000769
363.668037	2485.288846
364.056289	2513.015192
364.444478	2424.795000
364.832603	2434.877308
365.220665	2545.782692
365.608665	2432.356731
365.996601	2419.753846
366.384474	2467.644808
366.772284	2467.644808
367.160031	2457.562500
367.547715	2444.959615
367.935336	2450.000769
368.322893	2497.891731
368.710388	2482.768269
369.097820	2497.891731
369.485189	2518.056346
369.872495	2434.877308
370.259738	2558.385577
370.646918	2535.700385
371.034035	2487.809423
371.421090	2487.809423
371.808081	2402.109808
372.195010	2422.274423
372.581875	2528.138654
372.968678	2452.521346
373.355418	2467.644808
373.742096	2450.000769
374.128710	2480.247692
374.515262	2432.356731
374.901751	2515.535769
375.288177	2462.603654
375.674540	2490.330000
376.060841	2364.301154
376.447079	2409.671538
376.833254	2497.891731
377.219367	2460.083077
377.605417	2570.988462
377.991404	2588.632500
378.377329	2439.918462
378.763191	2507.974038
379.148991	2424.795000
379.534727	2465.124231
379.920402	2437.397885
380.306013	2520.576923
380.691563	2412.192115
381.077049	2397.068654
381.462474	2447.480192
381.847835	2482.768269
382.233134	2409.671538
382.618371	2495.371154
383.003545	2492.850577
383.388657	2381.945192
383.773706	2505.453462
384.158693	2455.041923
384.543618	2518.056346
384.928480	2495.371154
385.313280	2480.247692
385.698017	2442.439038
386.082692	2467.644808
386.467305	2487.809423
386.851856	2467.644808
387.236344	2439.918462
387.620770	2505.453462
388.005133	2402.109808
388.389435	2447.480192
388.773674	2523.097500
389.157851	2450.000769
389.541965	2407.150962
389.926018	2450.000769
390.310008	2437.397885
390.693936	2480.247692
391.077802	2394.548077
391.461606	2427.315577
391.845348	2525.618077
392.229027	2437.397885
392.612645	2470.165385
392.996200	2472.685962
393.379694	2477.727115
393.763125	2492.850577
394.146494	2482.768269
394.529801	2485.288846
394.913047	2439.918462
395.296230	2513.015192
395.679351	2439.918462
396.062410	2434.877308
396.445408	2442.439038
396.828343	2530.659231
397.211217	2460.083077
397.594028	2525.618077
397.976778	2487.809423
398.359466	2434.877308
398.742092	2490.330000
399.124656	2429.836154
399.507158	2462.603654
399.889598	2518.056346
400.271977	2462.603654
400.654294	2404.630385
401.036549	2439.918462
401.418742	2409.671538
401.800874	2487.809423
402.182944	2525.618077
402.564952	2427.315577
402.946898	2394.548077
403.328783	2455.041923
403.710606	2427.315577
404.092367	2492.850577
404.474067	2462.603654
404.855705	2467.644808
405.237282	2518.056346
405.618797	2412.192115
406.000250	2530.659231
406.381642	2510.494615
406.762972	2442.439038
407.144240	2402.109808
407.525447	2460.083077
407.906593	2480.247692
408.287677	2510.494615
408.668700	2555.865000
409.049661	2460.083077
409.430560	2429.836154
409.811399	2576.029615
410.192176	2505.453462
410.572891	2533.179808
410.953545	2409.671538
411.334138	2525.618077
411.714669	2528.138654
412.095139	2437.397885
412.475547	2439.918462
412.855894	2439.918462
413.236180	2477.727115
413.616405	2523.097500
413.996568	2518.056346
414.376670	2530.659231
414.756711	2540.741538
415.136691	2467.644808
415.516609	2545.782692
415.896466	2477.727115
416.276262	2475.206538
416.655997	2586.111923
417.035670	2543.262115
417.415283	2497.891731
417.794834	2447.480192
418.174324	2507.974038
418.553753	2432.356731
418.933121	2465.124231
419.312428	2513.015192
419.691674	2487.809423
420.070859	2482.768269
420.449983	2450.000769
420.829045	2502.932885
421.208047	2530.659231
421.586988	2417.233269
421.965867	2505.453462
422.344686	2450.000769
422.723444	2470.165385
423.102141	2495.371154
423.480777	2457.562500
423.859352	2513.015192
424.237866	2429.836154
424.616319	2495.371154
424.994712	2477.727115
425.373044	2492.850577
425.751314	2495.371154
426.129524	2485.288846
426.507673	2502.932885
426.885762	2472.685962
427.263789	2434.877308
427.641756	2462.603654
428.019662	2392.027500
428.397508	2460.083077
428.775292	2444.959615
429.153016	2482.768269
429.530679	2576.029615
429.908282	2470.165385
430.285824	2540.741538
430.663305	2507.974038
431.040726	2460.083077
431.418086	2497.891731
431.795385	2450.000769
432.172624	2444.959615
432.549802	2482.768269
432.926920	2525.618077
433.303977	2482.768269
433.680974	2455.041923
434.057910	2467.644808
434.434786	2444.959615
434.811601	2507.974038
435.188355	2399.589231
435.565050	2528.138654
435.941683	2487.809423
436.318257	2518.056346
436.694770	2422.274423
437.071222	2500.412308
437.447614	2477.727115
437.823946	2543.262115
438.200218	2472.685962
438.576429	2495.371154
438.952580	2444.959615
439.328670	2528.138654
439.704700	2500.412308
440.080670	2470.165385
440.456580	2502.932885
440.832429	2543.262115
441.208218	2502.932885
441.583947	2460.083077
441.959616	2591.153077
442.335224	2444.959615
442.710773	2500.412308
443.086261	2505.453462
443.461689	2550.823846
443.837057	2495.371154
444.212365	2427.315577
444.587612	2490.330000
444.962800	2513.015192
445.337927	2540.741538
445.712995	2457.562500
446.088002	2578.550192
446.462949	2475.206538
446.837837	2485.288846
447.212664	2500.412308
447.587431	2523.097500
447.962139	2482.768269
448.336786	2432.356731
448.711374	2492.850577
449.085901	2535.700385
449.460369	2485.288846
449.834776	2565.947308
450.209124	2465.124231
450.583412	2520.576923
450.957640	2437.397885
451.331808	2412.192115
451.705917	2553.344423
452.079965	2492.850577
452.453954	2535.700385
452.827883	2437.397885
453.201752	2500.412308
453.575562	2500.412308
453.949311	2520.576923
454.323001	2613.838269
454.696632	2452.521346
455.070202	2545.782692
455.443713	2540.741538
455.817164	2500.412308
456.190556	2490.330000
456.563888	2535.700385
456.937160	2497.891731
457.310373	2480.247692
457.683526	2439.918462
458.056619	2470.165385
458.429653	2447.480192
458.802628	2523.097500
459.175542	2455.041923
459.548398	2490.330000
459.921194	2414.712692
460.293930	2442.439038
460.666607	2450.000769
461.039224	2513.015192
461.411782	2535.700385
461.784280	2402.109808
462.156719	2490.330000
462.529099	2485.288846
462.901419	2434.877308
463.273680	2482.768269
463.645882	2515.535769
464.018024	2505.453462
464.390106	2502.932885
464.762130	2482.768269
465.134094	2460.083077
465.505999	2467.644808
465.877845	2422.274423
466.249631	2460.083077
466.621358	2570.988462
466.993026	2434.877308
467.364634	2442.439038
467.736184	2429.836154
468.107674	2460.083077
468.479105	2520.576923
468.850477	2447.480192
469.221790	2540.741538
469.593043	2500.412308
469.964238	2404.630385
470.335373	2535.700385
470.706449	2427.315577
471.077467	2540.741538
471.448425	2404.630385
471.819324	2538.220962
472.190164	2477.727115
472.560945	2457.562500
472.931667	2510.494615
473.302330	2513.015192
473.672934	2412.192115
474.043479	2558.385577
474.413965	2538.220962
474.784393	2460.083077
475.154761	2530.659231
475.525070	2505.453462
475.895321	2487.809423
476.265513	2492.850577
476.635645	2505.453462
477.005719	2540.741538
477.375734	2487.809423
477.745691	2548.303269
478.115588	2525.618077
478.485427	2462.603654
478.855207	2520.576923
479.224928	2603.755962
479.594591	2467.644808
479.964194	2457.562500
480.333739	2500.412308
480.703226	2505.453462
481.072653	2470.165385
481.442022	2442.439038
481.811333	2472.685962
482.180584	2520.576923
482.549777	2533.179808
482.918912	2455.041923
483.287988	2460.083077
483.657005	2545.782692
484.025964	2399.589231
484.394864	2455.041923
484.763706	2538.220962
485.132489	2379.424615
485.501213	2502.932885
485.869879	2475.206538
486.238487	2472.685962
486.607036	2523.097500
486.975527	2470.165385
487.343959	2500.412308
487.712333	2452.521346
488.080648	2510.494615
488.448905	2475.206538
488.817104	2535.700385
489.185244	2460.083077
489.553326	2555.865000
489.921350	2480.247692
490.289315	2467.644808
490.657222	2608.797115
491.025070	2510.494615
491.392861	2528.138654
491.760593	2399.589231
492.128267	2492.850577
492.495883	2523.097500
492.863440	2535.700385
493.230939	2558.385577
493.598380	2480.247692
493.965763	2495.371154
494.333088	2444.959615
494.700354	2507.974038
495.067563	2452.521346
495.434713	2535.700385
495.801805	2417.233269
496.168839	2568.467885
496.535815	2502.932885
496.902733	2570.988462
497.269593	2538.220962
497.636395	2447.480192
498.003139	2603.755962
498.369825	2520.576923
498.736453	2586.111923
499.103023	2507.974038
499.469535	2538.220962
499.835989	2450.000769
500.202385	2535.700385
500.568723	2482.768269
500.935003	2553.344423
501.301226	2502.932885
501.667390	2465.124231
502.033497	2457.562500
502.399546	2525.618077
502.765537	2480.247692
503.131470	2560.906154
503.497345	2578.550192
503.863163	2558.385577
504.228923	2482.768269
504.594625	2470.165385
504.960269	2500.412308
505.325856	2518.056346
505.691385	2492.850577
506.056856	2465.124231
506.422270	2540.741538
506.787625	2525.618077
507.152924	2492.850577
507.518164	2560.906154
507.883347	2472.685962
508.248472	2555.865000
508.613540	2543.262115
508.978550	2495.371154
509.343503	2490.330000
509.708398	2470.165385
510.073236	2523.097500
510.438016	2439.918462
510.802738	2412.192115
511.167403	2550.823846
511.532010	2505.453462
511.896561	2419.753846
512.261053	2485.288846
512.625488	2570.988462
512.989866	2480.247692
513.354186	2502.932885
513.718449	2525.618077
514.082655	2452.521346
514.446803	2470.165385
514.810894	2460.083077
515.174927	2550.823846
515.538904	2568.467885
515.902822	2450.000769
516.266684	2500.412308
516.630488	2394.548077
516.994235	2480.247692
517.357925	2543.262115
517.721558	2485.288846
518.085133	2439.918462
518.448651	2528.138654
518.812112	2465.124231
519.175516	2505.453462
519.538863	2513.015192
519.902152	2444.959615
520.265385	2523.097500
520.628560	2442.439038
520.991678	2548.303269
521.354739	2419.753846
521.717743	2543.262115
522.080690	2515.535769
522.443580	2495.371154
522.806413	2533.179808
523.169189	2515.535769
523.531908	2530.659231
523.894569	2457.562500
524.257174	2518.056346
524.619722	2495.371154
524.982213	2548.303269
525.344647	2455.041923
525.707025	2518.056346
526.069345	2518.056346
526.431608	2492.850577
526.793815	2497.891731
527.155964	2482.768269
527.518057	2523.097500
527.880093	2528.138654
528.242072	2439.918462
528.603995	2497.891731
528.965860	2525.618077
529.327669	2485.288846
529.689421	2507.974038
530.051117	2495.371154
530.412755	2422.274423
530.774337	2518.056346
531.135862	2487.809423
531.497331	2533.179808
531.858743	2462.603654
532.220098	2535.700385
532.581396	2412.192115
532.942638	2528.138654
533.303824	2495.371154
533.664953	2485.288846
534.026025	2487.809423
534.387040	2550.823846
534.747999	2507.974038
535.108902	2452.521346
535.469748	2548.303269
535.830537	2457.562500
536.191270	2525.618077
536.551947	2482.768269
536.912567	2515.535769
537.273131	2472.685962
537.633638	2467.644808
537.994089	2467.644808
538.354483	2530.659231
538.714821	2588.632500
539.075103	2505.453462
539.435328	2507.974038
539.795497	2412.192115
540.155609	2515.535769
540.515665	2538.220962
540.875665	2472.685962
541.235609	2548.303269
541.595496	2540.741538
541.955328	2487.809423
542.315102	2482.768269
542.674821	2535.700385
543.034483	2533.179808
543.394090	2490.330000
543.753640	2437.397885
544.113134	2550.823846
544.472571	2523.097500
544.831953	2535.700385
545.191278	2500.412308
545.550548	2513.015192
545.909761	2444.959615
546.268918	2555.865000
546.628019	2538.220962
546.987064	2535.700385
547.346053	2480.247692
547.704986	2452.521346
548.063863	2497.891731
548.422684	2427.315577
548.781449	2507.974038
549.140158	2424.795000
549.498811	2429.836154
549.857408	2563.426731
550.215949	2442.439038
550.574434	2442.439038
550.932864	2603.755962
551.291237	2565.947308
551.649555	2465.124231
552.007817	2465.124231
552.366022	2525.618077
552.724173	2525.618077
553.082267	2518.056346
553.440305	2497.891731
553.798288	2568.467885
554.156215	2513.015192
554.514086	2482.768269
554.871902	2477.727115
555.229661	2442.439038
555.587365	2563.426731
555.945014	2505.453462
556.302606	2500.412308
556.660143	2533.179808
557.017625	2565.947308
557.375050	2520.576923
557.732421	2502.932885
558.089735	2409.671538
558.446994	2505.453462
558.804197	2588.632500
559.161345	2550.823846
559.518437	2470.165385
559.875474	2581.070769
560.232455	2447.480192
560.589381	2548.303269
560.946251	2414.712692
561.303065	2515.535769
561.659825	2545.782692
562.016528	2452.521346
562.373177	2462.603654
562.729770	2528.138654
563.086307	2467.644808
563.442789	2447.480192
563.799216	2455.041923
564.155587	2444.959615
564.511904	2467.644808
564.868164	2497.891731
565.224370	2497.891731
565.580520	2507.974038
565.936615	2462.603654
566.292654	2513.015192
566.648638	2523.097500
567.004567	2548.303269
567.360441	2513.015192
567.716260	2480.247692
568.072023	2550.823846
568.427732	2429.836154
568.783385	2482.768269
569.138982	2505.453462
569.494525	2465.124231
569.850013	2540.741538
570.205445	2419.753846
570.560823	2565.947308
570.916145	2543.262115
571.271412	2492.850577
571.626625	2586.111923
571.981782	2475.206538
572.336884	2538.220962
572.691931	2565.947308
573.046923	2434.877308
573.401860	2507.974038
573.756743	2452.521346
574.111570	2482.768269
574.466342	2442.439038
574.821059	2513.015192
575.175722	2558.385577
575.530330	2465.124231
575.884882	2540.741538
576.239380	2515.535769
576.593823	2475.206538
576.948211	2452.521346
577.302544	2472.685962
577.656823	2414.712692
578.011047	2462.603654
578.365216	2427.315577
578.719330	2515.535769
579.073389	2475.206538
579.427394	2507.974038
579.781344	2490.330000
580.135239	2482.768269
580.489080	2507.974038
580.842866	2487.809423
581.196597	2427.315577
581.550273	2490.330000
581.903895	2500.412308
582.257463	2482.768269
582.610975	2568.467885
582.964434	2543.262115
583.317837	2470.165385
583.671186	2455.041923
584.024481	2424.795000
584.377721	2538.220962
584.730906	2505.453462
585.084037	2570.988462
585.437113	2518.056346
585.790135	2528.138654
586.143103	2462.603654
586.496016	2558.385577
586.848874	2570.988462
587.201679	2507.974038
587.554428	2513.015192
587.907124	2439.918462
588.259765	2538.220962
588.612352	2510.494615
588.964884	2502.932885
589.317362	2490.330000
589.669786	2530.659231
590.022155	2422.274423
590.374470	2560.906154
590.726731	2576.029615
591.078937	2525.618077
591.431090	2475.206538
591.783188	2621.400000
592.135232	2480.247692
592.487222	2497.891731
592.839157	2573.509038
593.191038	2497.891731
593.542866	2455.041923
593.894639	2485.288846
594.246358	2447.480192
594.598022	2480.247692
594.949633	2452.521346
595.301190	2543.262115
595.652692	2467.644808
596.004141	2407.150962
596.355535	2555.865000
596.706876	2434.877308
597.058162	2520.576923
597.409395	2507.974038
597.760573	2507.974038
598.111698	2487.809423
598.462768	2543.262115
598.813785	2470.165385
599.164748	2553.344423
599.515657	2492.850577
599.866511	2513.015192
600.217312	2465.124231
600.568060	2535.700385
600.918753	2419.753846
601.269392	2444.959615
601.619978	2490.330000
601.970510	2497.891731
602.320988	2472.685962
602.671412	2550.823846
603.021783	2502.932885
603.372100	2510.494615
603.722363	2452.521346
604.072572	2520.576923
604.422728	2576.029615
604.772830	2450.000769
605.122878	2485.288846
605.472872	2475.206538
605.822813	2480.247692
606.172701	2432.356731
606.522534	2439.918462
606.872314	2502.932885
607.222041	2518.056346
607.571714	2444.959615
607.921333	2429.836154
608.270899	2480.247692
608.620411	2555.865000
608.969870	2417.233269
609.319276	2533.179808
609.668627	2480.247692
610.017926	2480.247692
610.367171	2568.467885
610.716362	2492.850577
611.065500	2525.618077
611.414585	2444.959615
611.763616	2444.959615
612.112594	2482.768269
612.461518	2525.618077
612.810389	2533.179808
613.159207	2487.809423
613.507971	2437.397885
613.856682	2560.906154
614.205340	2442.439038
614.553945	2515.535769
614.902496	2533.179808
615.250994	2371.862885
615.599439	2545.782692
615.947830	2480.247692
616.296169	2477.727115
616.644454	2550.823846
616.992686	2475.206538
617.340864	2472.685962
617.688990	2500.412308
618.037063	2502.932885
618.385082	2535.700385
618.733048	2482.768269
619.080961	2475.206538
619.428821	2581.070769
619.776628	2490.330000
620.124382	2528.138654
620.472083	2530.659231
620.819731	2472.685962
621.167326	2455.041923
621.514868	2444.959615
621.862357	2492.850577
622.209793	2465.124231
622.557176	2505.453462
622.904506	2538.220962
623.251783	2548.303269
623.599007	2455.041923
623.946179	2513.015192
624.293297	2523.097500
624.640363	2351.698269
624.987376	2482.768269
625.334336	2437.397885
625.681243	2429.836154
626.028097	2450.000769
626.374899	2545.782692
626.721647	2480.247692
627.068343	2533.179808
627.414987	2434.877308
627.761577	2465.124231
628.108115	2528.138654
628.454600	2475.206538
628.801032	2525.618077
629.147412	2573.509038
629.493739	2487.809423
629.840014	2507.974038
630.186236	2447.480192
630.532405	2482.768269
630.878521	2535.700385
631.224585	2487.809423
631.570597	2492.850577
631.916556	2553.344423
632.262462	2490.330000
632.608316	2457.562500
632.954117	2442.439038
633.299866	2444.959615
633.645562	2455.041923
633.991206	2636.523462
634.336797	2538.220962
634.682336	2545.782692
635.027823	2487.809423
635.373257	2432.356731
635.718639	2422.274423
636.063968	2487.809423
636.409245	2457.562500
636.754470	2513.015192
637.099642	2444.959615
637.444762	2525.618077
637.789829	2523.097500
638.134845	2513.015192
638.479808	2455.041923
638.824719	2538.220962
639.169577	2558.385577
639.514383	2500.412308
639.859137	2480.247692
640.203839	2482.768269
640.548489	2467.644808
640.893086	2472.685962
641.237632	2505.453462
641.582125	2520.576923
641.926566	2565.947308
642.270955	2417.233269
642.615292	2565.947308
642.959576	2513.015192
643.303809	2530.659231
643.647990	2477.727115
643.992118	2402.109808
644.336195	2538.220962
644.680219	2475.206538
645.024192	2495.371154
645.368112	2507.974038
645.711981	2560.906154
646.055797	2497.891731
646.399562	2502.932885
646.743274	2422.274423
647.086935	2492.850577
647.430544	2450.000769
647.774101	2523.097500
648.117606	2520.576923
648.461059	2475.206538
648.804460	2399.589231
649.147810	2520.576923
649.491108	2570.988462
649.834354	2495.371154
650.177548	2513.015192
650.520690	2460.083077
650.863781	2470.165385
651.206820	2444.959615
651.549807	2477.727115
651.892742	2450.000769
652.235626	2545.782692
652.578458	2480.247692
652.921238	2588.632500
653.263967	2573.509038
653.606644	2475.206538
653.949269	2513.015192
654.291843	2495.371154
654.634365	2472.685962
654.976836	2475.206538
655.319255	2588.632500
655.661622	2475.206538
656.003938	2492.850577
656.346203	2424.795000
656.688416	2437.397885
657.030577	2452.521346
657.372687	2482.768269
657.714746	2545.782692
658.056753	2548.303269
658.398708	2513.015192
658.740612	2621.400000
659.082465	2450.000769
659.424266	2487.809423
659.766016	2497.891731
660.107715	2581.070769
660.449362	2510.494615
660.790958	2560.906154
661.132503	2452.521346
661.473996	2513.015192
661.815438	2510.494615
662.156829	2540.741538
662.498168	2500.412308
662.839456	2505.453462
663.180693	2429.836154
663.521879	2611.317692
663.863013	2505.453462
664.204097	2545.782692
664.545129	2497.891731
664.886110	2490.330000
665.227040	2515.535769
665.567918	2523.097500
665.908746	2558.385577
666.249522	2462.603654
666.590248	2450.000769
666.930922	2452.521346
667.271545	2480.247692
667.612118	2487.809423
667.952639	2460.083077
668.293109	2480.247692
668.633528	2485.288846
668.973896	2495.371154
669.314213	2507.974038
669.654480	2515.535769
669.994695	2545.782692
670.334859	2553.344423
670.674973	2588.632500
671.015035	2437.397885
671.355047	2538.220962
671.695008	2462.603654
672.034918	2520.576923
672.374777	2513.015192
672.714585	2507.974038
673.054342	2513.015192
673.394049	2540.741538
673.733705	2500.412308
674.073310	2444.959615
674.412864	2492.850577
674.752368	2404.630385
675.091820	2520.576923
675.431223	2455.041923
675.770574	2528.138654
676.109875	2414.712692
676.449125	2502.932885
676.788324	2480.247692
677.127473	2518.056346
677.466571	2407.150962
677.805619	2523.097500
678.144616	2485.288846
678.483562	2505.453462
678.822458	2462.603654
679.161303	2442.439038
679.500098	2399.589231
679.838842	2513.015192
680.177535	2502.932885
680.516179	2505.453462
680.854771	2495.371154
681.193314	2510.494615
681.531805	2510.494615
681.870247	2515.535769
682.208638	2492.850577
682.546978	2583.591346
682.885268	2450.000769
683.223508	2515.535769
683.561697	2432.356731
683.899836	2500.412308
684.237925	2500.412308
684.575963	2515.535769
684.913951	2502.932885
685.251889	2434.877308
685.589776	2495.371154
685.927614	2596.194231
686.265401	2538.220962
686.603137	2470.165385
686.940824	2523.097500
687.278460	2457.562500
687.616046	2457.562500
687.953582	2432.356731
688.291068	2530.659231
688.628504	2465.124231
688.965889	2533.179808
689.303224	2518.056346
689.640510	2505.453462
689.977745	2505.453462
690.314930	2472.685962
690.652065	2470.165385
690.989150	2538.220962
691.326185	2407.150962
691.663170	2523.097500
692.000105	2510.494615
692.336990	2535.700385
692.673825	2482.768269
693.010610	2538.220962
693.347345	2510.494615
693.684030	2515.535769
694.020665	2452.521346
694.357251	2560.906154
694.693786	2457.562500
695.030272	2500.412308
695.366707	2548.303269
695.703093	2560.906154
696.039429	2525.618077
696.375716	2558.385577
696.711952	2460.083077
697.048139	2528.138654
697.384276	2409.671538
697.720363	2472.685962
698.056400	2492.850577
698.392388	2444.959615
698.728326	2452.521346
699.064214	2576.029615
699.400053	2530.659231
699.735842	2525.618077
700.071581	2497.891731
700.407270	2460.083077
700.742910	2472.685962
701.078501	2570.988462
701.414042	2432.356731
701.749533	2518.056346
702.084974	2505.453462
702.420366	2475.206538
702.755709	2439.918462
703.091002	2510.494615
703.426246	2462.603654
703.761440	2528.138654
704.096584	2477.727115
704.431679	2515.535769
704.766725	2490.330000
705.101721	2646.605769
705.436668	2553.344423
705.771565	2523.097500
706.106413	2447.480192
706.441212	2530.659231
706.775961	2533.179808
707.110661	2470.165385
707.445311	2535.700385
707.779913	2568.467885
708.114465	2480.247692
708.448967	2560.906154
708.783421	2434.877308
709.117825	2553.344423
709.452180	2442.439038
709.786485	2510.494615
710.120742	2480.247692
710.454949	2442.439038
710.789107	2460.083077
711.123216	2530.659231
711.457275	2510.494615
711.791286	2581.070769
712.125247	2550.823846
712.459159	2535.700385
712.793023	2439.918462
713.126837	2434.877308
713.460602	2465.124231
713.794318	2545.782692
714.127985	2548.303269
714.461602	2560.906154
714.795171	2482.768269
715.128691	2583.591346
715.462162	2487.809423
715.795584	2452.521346
716.128957	2404.630385
716.462281	2444.959615
716.795556	2515.535769
717.128782	2482.768269
717.461960	2485.288846
717.795088	2507.974038
718.128167	2487.809423
718.461198	2528.138654
718.794180	2485.288846
719.127113	2497.891731
719.459997	2497.891731
719.792833	2533.179808
720.125619	2417.233269
720.458357	2523.097500
720.791046	2487.809423
721.123686	2492.850577
721.456278	2515.535769
721.788821	2462.603654
722.121315	2470.165385
722.453761	2513.015192
722.786158	2550.823846
723.118506	2447.480192
723.450805	2520.576923
723.783056	2616.358846
724.115259	2540.741538
724.447412	2460.083077
724.779518	2528.138654
725.111574	2455.041923
725.443582	2583.591346
725.775542	2364.301154
726.107453	2444.959615
726.439315	2588.632500
726.771129	2407.150962
727.102895	2530.659231
727.434612	2497.891731
727.766281	2513.015192
728.097901	2553.344423
728.429473	2432.356731
728.760996	2510.494615
729.092471	2472.685962
729.423897	2535.700385
729.755276	2460.083077
730.086606	2455.041923
730.417887	2429.836154
730.749120	2485.288846
731.080305	2502.932885
731.411442	2470.165385
731.742530	2477.727115
732.073570	2505.453462
732.404562	2573.509038
732.735506	2505.453462
733.066401	2424.795000
733.397249	2538.220962
733.728048	2543.262115
734.058798	2565.947308
734.389501	2462.603654
734.720156	2518.056346
735.050762	2482.768269
735.381320	2455.041923
735.711831	2553.344423
736.042293	2394.548077
736.372707	2568.467885
736.703073	2450.000769
737.033391	2487.809423
737.363661	2490.330000
737.693883	2442.439038
738.024056	2472.685962
738.354182	2500.412308
738.684260	2528.138654
739.014290	2525.618077
739.344272	2480.247692
739.674207	2525.618077
740.004093	2465.124231
740.333931	2407.150962
740.663722	2553.344423
740.993464	2369.342308
741.323159	2457.562500
741.652806	2432.356731
741.982405	2502.932885
742.311956	2460.083077
742.641460	2540.741538
742.970915	2513.015192
743.300323	2460.083077
743.629683	2545.782692
743.958996	2525.618077
744.288260	2475.206538
744.617477	2460.083077
744.946647	2444.959615
745.275768	2452.521346
745.604842	2568.467885
745.933869	2513.015192
746.262847	2470.165385
746.591778	2507.974038
746.920662	2434.877308
747.249498	2497.891731
747.578286	2450.000769
747.907027	2490.330000
748.235720	2462.603654
748.564365	2558.385577
748.892963	2487.809423
749.221514	2515.535769
749.550017	2460.083077
749.878473	2555.865000
750.206881	2457.562500
750.535242	2528.138654
750.863555	2432.356731
751.191821	2500.412308
751.520039	2432.356731
751.848210	2513.015192
752.176334	2477.727115
752.504411	2530.659231
752.832440	2480.247692
753.160421	2530.659231
753.488356	2455.041923
753.816243	2518.056346
754.144082	2510.494615
754.471875	2480.247692
754.799620	2490.330000
755.127318	2502.932885
755.454969	2523.097500
755.782572	2490.330000
756.110129	2530.659231
756.437638	2490.330000
756.765100	2480.247692
757.092515	2444.959615
757.419882	2475.206538
757.747203	2490.330000
758.074477	2490.330000
758.401703	2439.918462
758.728882	2462.603654
759.056014	2518.056346
759.383099	2419.753846
759.710138	2414.712692
760.037129	2475.206538
760.364073	2540.741538
760.690970	2513.015192
761.017820	2490.330000
761.344623	2477.727115
761.671379	2482.768269
761.998088	2470.165385
762.324751	2465.124231
762.651366	2505.453462
762.977935	2467.644808
763.304456	2535.700385
763.630931	2535.700385
763.957359	2548.303269
764.283740	2472.685962
764.610074	2472.685962
764.936362	2477.727115
765.262602	2492.850577
765.588796	2452.521346
765.914943	2545.782692
766.241044	2500.412308
766.567097	2538.220962
766.893104	2500.412308
767.219064	2485.288846
767.544978	2558.385577
767.870845	2460.083077
768.196665	2573.509038
768.522438	2480.247692
768.848165	2538.220962
769.173846	2507.974038
769.499479	2596.194231
769.825066	2560.906154
770.150607	2429.836154
770.476101	2457.562500
770.801548	2578.550192
771.126949	2578.550192
771.452303	2490.330000
771.777611	2500.412308
772.102872	2457.562500
772.428087	2518.056346
772.753256	2507.974038
773.078378	2505.453462
773.403453	2555.865000
773.728482	2472.685962
774.053465	2472.685962
774.378401	2482.768269
774.703291	2457.562500
775.028135	2507.974038
775.352932	2510.494615
775.677683	2450.000769
776.002388	2490.330000
776.327046	2513.015192
776.651658	2533.179808
776.976224	2439.918462
777.300743	2530.659231
777.625216	2515.535769
777.949643	2540.741538
778.274024	2530.659231
778.598359	2540.741538
778.922647	2450.000769
779.246889	2568.467885
779.571086	2550.823846
779.895236	2460.083077
780.219339	2505.453462
780.543397	2576.029615
780.867409	2553.344423
781.191374	2460.083077
781.515294	2470.165385
781.839167	2523.097500
782.162995	2462.603654
782.486776	2495.371154
782.810511	2550.823846
783.134201	2429.836154
783.457844	2495.371154
783.781441	2505.453462
784.104993	2538.220962
784.428498	2465.124231
784.751958	2520.576923
785.075372	2477.727115
785.398739	2518.056346
785.722061	2442.439038
786.045337	2477.727115
786.368568	2550.823846
786.691752	2457.562500
787.014891	2477.727115
787.337983	2525.618077
787.661030	2432.356731
787.984031	2505.453462
788.306987	2553.344423
788.629897	2543.262115
788.952760	2427.315577
789.275579	2555.865000
789.598351	2462.603654
789.921078	2434.877308
790.243759	2535.700385
790.566395	2457.562500
790.888984	2452.521346
791.211529	2439.918462
791.534027	2427.315577
791.856480	2492.850577
792.178888	2507.974038
792.501249	2565.947308
792.823566	2475.206538
793.145836	2487.809423
793.468062	2530.659231
793.790241	2462.603654
794.112375	2437.397885
794.434464	2563.426731
794.756507	2482.768269
795.078505	2555.865000
795.400457	2409.671538
795.722364	2507.974038
796.044226	2535.700385
796.366042	2530.659231
796.687812	2528.138654
797.009538	2535.700385
797.331218	2477.727115
797.652852	2543.262115
797.974442	2530.659231
798.295986	2492.850577
798.617484	2578.550192
798.938938	2518.056346
799.260346	2490.330000
799.581709	2455.041923
799.903026	2591.153077
800.224299	2528.138654
800.545526	2482.768269
800.866708	2550.823846
801.187845	2497.891731
801.508936	2525.618077
801.829983	2477.727115
802.150984	2455.041923
802.471940	2545.782692
802.792851	2482.768269
803.113717	2558.385577
803.434538	2548.303269
803.755314	2528.138654
804.076045	2477.727115
804.396731	2510.494615
804.717372	2573.509038
805.037967	2402.109808
805.358518	2452.521346
805.679024	2502.932885
805.999485	2530.659231
806.319901	2475.206538
806.640272	2576.029615
806.960598	2470.165385
807.280879	2480.247692
807.601115	2540.741538
807.921306	2487.809423
808.241453	2497.891731
808.561554	2490.330000
808.881611	2439.918462
809.201623	2434.877308
809.521590	2487.809423
809.841513	2502.932885
810.161390	2475.206538
810.481223	2475.206538
810.801011	2492.850577
811.120755	2467.644808
811.440453	2540.741538
811.760107	2422.274423
812.079716	2482.768269
812.399281	2465.124231
812.718801	2447.480192
813.038276	2485.288846
813.357707	2460.083077
813.677093	2520.576923
813.996434	2497.891731
814.315731	2482.768269
814.634983	2513.015192
814.954191	2480.247692
815.273354	2460.083077
815.592473	2417.233269
815.911547	2530.659231
816.230577	2485.288846
816.549562	2470.165385
816.868502	2485.288846
817.187399	2487.809423
817.506250	2535.700385
817.825058	2518.056346
818.143821	2505.453462
818.462539	2422.274423
818.781213	2467.644808
819.099843	2573.509038
819.418429	2492.850577
819.736970	2573.509038
820.055466	2500.412308
820.373919	2543.262115
820.692327	2450.000769
821.010691	2505.453462
821.329011	2424.795000
821.647286	2495.371154
821.965517	2540.741538
822.283704	2495.371154
822.601847	2553.344423
822.919945	2477.727115
823.237999	2482.768269
823.556010	2490.330000
823.873976	2513.015192
824.191897	2444.959615
824.509775	2523.097500
824.827609	2434.877308
825.145398	2444.959615
825.463144	2439.918462
825.780845	2457.562500
826.098502	2520.576923
826.416116	2518.056346
826.733685	2412.192115
827.051210	2586.111923
827.368692	2507.974038
827.686129	2475.206538
828.003522	2553.344423
828.320872	2500.412308
828.638177	2563.426731
828.955439	2432.356731
829.272656	2467.644808
829.589830	2409.671538
829.906960	2490.330000
830.224046	2490.330000
830.541088	2505.453462
830.858086	2452.521346
831.175041	2510.494615
831.491952	2455.041923
831.808819	2520.576923
832.125642	2477.727115
832.442421	2495.371154
832.759157	2495.371154
833.075849	2472.685962
833.392497	2510.494615
833.709101	2472.685962
834.025662	2523.097500
834.342179	2477.727115
834.658653	2510.494615
834.975083	2581.070769
835.291469	2460.083077
835.607811	2530.659231
835.924110	2457.562500
836.240366	2510.494615
836.556578	2485.288846
836.872746	2535.700385
837.188871	2530.659231
837.504952	2523.097500
837.820990	2424.795000
838.136984	2507.974038
838.452935	2447.480192
838.768842	2525.618077
839.084706	2409.671538
839.400526	2487.809423
839.716303	2543.262115
840.032037	2462.603654
840.347727	2492.850577
840.663373	2490.330000
840.978977	2497.891731
841.294537	2540.741538
841.610054	2475.206538
841.925527	2555.865000
842.240957	2480.247692
842.556344	2578.550192
842.871687	2450.000769
843.186987	2487.809423
843.502244	2523.097500
843.817458	2475.206538
844.132629	2427.315577
844.447756	2510.494615
844.762840	2467.644808
845.077881	2530.659231
845.392879	2482.768269
845.707833	2427.315577
846.022745	2480.247692
846.337613	2437.397885
846.652438	2379.424615
846.967221	2515.535769
847.281960	2472.685962
847.596656	2525.618077
847.911309	2462.603654
848.225919	2475.206538
848.540485	2513.015192
848.855009	2475.206538
849.169490	2528.138654
849.483928	2444.959615
849.798323	2492.850577
850.112675	2429.836154
850.426984	2502.932885
850.741251	2533.179808
851.055474	2487.809423
851.369654	2505.453462
851.683792	2495.371154
851.997887	2470.165385
852.311938	2495.371154
852.625947	2528.138654
852.939914	2477.727115
853.253837	2472.685962
853.567718	2510.494615
853.881555	2452.521346
854.195350	2492.850577
854.509103	2482.768269
854.822812	2480.247692
855.136479	2490.330000
855.450103	2500.412308
855.763685	2460.083077
856.077224	2495.371154
856.390720	2530.659231
856.704173	2540.741538
857.017584	2570.988462
857.330953	2570.988462
857.644278	2487.809423
857.957561	2520.576923
858.270802	2460.083077
858.584000	2409.671538
858.897155	2540.741538
859.210268	2467.644808
859.523339	2374.383462
859.836367	2520.576923
860.149352	2480.247692
860.462295	2460.083077
860.775195	2452.521346
861.088054	2518.056346
861.400869	2535.700385
861.713642	2475.206538
862.026373	2455.041923
862.339062	2515.535769
862.651708	2437.397885
862.964312	2513.015192
863.276873	2437.397885
863.589392	2578.550192
863.901869	2533.179808
864.214303	2578.550192
864.526696	2439.918462
864.839045	2518.056346
865.151353	2457.562500
865.463619	2510.494615
865.775842	2467.644808
866.088023	2520.576923
866.400162	2502.932885
866.712258	2507.974038
867.024313	2540.741538
867.336325	2371.862885
867.648296	2515.535769
867.960224	2460.083077
868.272110	2472.685962
868.583954	2460.083077
868.895755	2505.453462
869.207515	2427.315577
869.519233	2515.535769
869.830909	2450.000769
870.142542	2576.029615
870.454134	2477.727115
870.765684	2487.809423
871.077191	2487.809423
871.388657	2500.412308
871.700081	2472.685962
872.011463	2467.644808
872.322803	2528.138654
872.634101	2467.644808
872.945357	2439.918462
873.256571	2535.700385
873.567744	2457.562500
873.878874	2518.056346
874.189963	2477.727115
874.501010	2565.947308
874.812015	2548.303269
875.122979	2507.974038
875.433900	2492.850577
875.744780	2452.521346
876.055618	2492.850577
876.366415	2523.097500
876.677169	2462.603654
876.987882	2475.206538
877.298554	2455.041923
877.609183	2490.330000
877.919771	2515.535769
878.230317	2520.576923
878.540822	2422.274423
878.851285	2558.385577
879.161707	2500.412308
879.472087	2513.015192
879.782425	2419.753846
880.092722	2535.700385
880.402977	2538.220962
880.713191	2470.165385
881.023363	2374.383462
881.333494	2485.288846
881.643583	2507.974038
881.953631	2548.303269
882.263637	2601.235385
882.573602	2523.097500
882.883526	2513.015192
883.193408	2528.138654
883.503248	2457.562500
883.813048	2470.165385
884.122806	2560.906154
884.432522	2424.795000
884.742197	2427.315577
885.051831	2432.356731
885.361424	2444.959615
885.670975	2485.288846
885.980485	2548.303269
886.289954	2548.303269
886.599382	2470.165385
886.908768	2523.097500
887.218113	2513.015192
887.527417	2447.480192
887.836680	2507.974038
888.145901	2424.795000
888.455082	2480.247692
888.764221	2495.371154
889.073319	2412.192115
889.382376	2472.685962
889.691392	2533.179808
890.000366	2520.576923
890.309300	2523.097500
890.618193	2455.041923
890.927044	2490.330000
891.235855	2485.288846
891.544625	2520.576923
891.853353	2424.795000
892.162041	2538.220962
892.470687	2525.618077
892.779293	2502.932885
893.087858	2475.206538
893.396381	2492.850577
893.704864	2523.097500
894.013306	2563.426731
894.321707	2450.000769
894.630068	2492.850577
894.938387	2530.659231
895.246665	2581.070769
895.554903	2505.453462
895.863100	2550.823846
896.171256	2505.453462
896.479371	2510.494615
896.787446	2485.288846
897.095480	2538.220962
897.403473	2490.330000
897.711425	2457.562500
898.019336	2480.247692
898.327207	2442.439038
898.635038	2412.192115
898.942827	2545.782692
899.250576	2523.097500
899.558284	2470.165385
899.865952	2525.618077
900.173579	2490.330000
900.481165	2518.056346
900.788711	2480.247692
901.096216	2475.206538
901.403681	2528.138654
901.711105	2475.206538
902.018489	2437.397885
902.325832	2450.000769
902.633135	2447.480192
902.940397	2523.097500
903.247619	2452.521346
903.554800	2422.274423
903.861941	2586.111923
904.169041	2467.644808
904.476101	2505.453462
904.783121	2490.330000
905.090100	2545.782692
905.397039	2462.603654
905.703938	2462.603654
906.010796	2386.986346
906.317614	2525.618077
906.624391	2507.974038
906.931129	2485.288846
907.237826	2490.330000
907.544483	2583.591346
907.851099	2462.603654
908.157675	2538.220962
908.464211	2392.027500
908.770707	2485.288846
909.077163	2450.000769
909.383578	2495.371154
909.689954	2452.521346
909.996289	2465.124231
910.302584	2563.426731
910.608839	2450.000769
910.915054	2462.603654
911.221229	2450.000769
911.527363	2462.603654
911.833458	2455.041923
912.139513	2460.083077
912.445527	2444.959615
912.751502	2505.453462
913.057436	2500.412308
913.363331	2492.850577
913.669186	2434.877308
913.975000	2482.768269
914.280775	2432.356731
914.586510	2540.741538
914.892205	2450.000769
915.197859	2528.138654
915.503475	2399.589231
915.809050	2500.412308
916.114585	2540.741538
916.420081	2429.836154
916.725536	2523.097500
917.030952	2550.823846
917.336328	2495.371154
917.641665	2500.412308
917.946961	2434.877308
918.252218	2475.206538
918.557435	2500.412308
918.862612	2467.644808
919.167750	2510.494615
919.472848	2437.397885
919.777906	2507.974038
920.082925	2500.412308
920.387904	2507.974038
920.692843	2424.795000
920.997743	2528.138654
921.302603	2462.603654
921.607423	2545.782692
921.912204	2543.262115
922.216946	2588.632500
922.521647	2477.727115
922.826310	2510.494615
923.130932	2477.727115
923.435516	2525.618077
923.740059	2528.138654
924.044564	2482.768269
924.349028	2485.288846
924.653454	2492.850577
924.957840	2568.467885
925.262186	2507.974038
925.566493	2475.206538
925.870761	2472.685962
926.174989	2540.741538
926.479178	2507.974038
926.783328	2437.397885
927.087438	2507.974038
927.391509	2444.959615
927.695541	2439.918462
927.999533	2502.932885
928.303486	2558.385577
928.607400	2502.932885
928.911275	2523.097500
929.215110	2515.535769
929.518906	2465.124231
929.822663	2538.220962
930.126381	2535.700385
930.430060	2460.083077
930.733699	2462.603654
931.037299	2558.385577
931.340861	2462.603654
931.644383	2492.850577
931.947866	2495.371154
932.251309	2510.494615
932.554714	2492.850577
932.858080	2450.000769
933.161407	2444.959615
933.464694	2442.439038
933.767943	2530.659231
934.071153	2495.371154
934.374323	2450.000769
934.677455	2513.015192
934.980548	2424.795000
935.283602	2414.712692
935.586617	2538.220962
935.889593	2444.959615
936.192530	2510.494615
936.495428	2371.862885
936.798287	2548.303269
937.101108	2402.109808
937.403890	2523.097500
937.706632	2455.041923
938.009336	2404.630385
938.312002	2386.986346
938.614628	2404.630385
938.917216	2394.548077
939.219765	2518.056346
939.522275	2492.850577
939.824747	2422.274423
940.127179	2568.467885
940.429573	2497.891731
940.731929	2548.303269
941.034246	2495.371154
941.336524	2485.288846
941.638763	2467.644808
941.940964	2482.768269
942.243126	2513.015192
942.545250	2477.727115
942.847335	2442.439038
943.149381	2513.015192
943.451389	2555.865000
943.753359	2475.206538
944.055290	2528.138654
944.357182	2505.453462
944.659036	2490.330000
944.960851	2462.603654
945.262628	2518.056346
945.564367	2487.809423
945.866067	2477.727115
946.167729	2490.330000
946.469352	2510.494615
946.770937	2578.550192
947.072484	2462.603654
947.373992	2462.603654
947.675462	2505.453462
947.976893	2515.535769
948.278286	2518.056346
948.579641	2480.247692
948.880958	2550.823846
949.182236	2578.550192
949.483476	2568.467885
949.784678	2548.303269
950.085841	2565.947308
950.386967	2480.247692
950.688054	2432.356731
950.989103	2507.974038
951.290114	2513.015192
951.591087	2482.768269
951.892021	2535.700385
952.192917	2490.330000
952.493776	2452.521346
952.794596	2530.659231
953.095378	2520.576923
953.396122	2437.397885
953.696828	2545.782692
953.997496	2515.535769
954.298126	2455.041923
954.598718	2460.083077
954.899272	2523.097500
955.199788	2502.932885
955.500266	2452.521346
955.800706	2518.056346
956.101108	2490.330000
956.401472	2419.753846
956.701798	2455.041923
957.002087	2490.330000
957.302337	2462.603654
957.602550	2545.782692
957.902724	2444.959615
958.202861	2507.974038
958.502960	2475.206538
958.803022	2495.371154
959.103045	2427.315577
959.403031	2482.768269
959.702979	2386.986346
960.002889	2462.603654
960.302762	2523.097500
960.602596	2533.179808
960.902393	2434.877308
961.202153	2452.521346
961.501875	2399.589231
961.801559	2429.836154
962.101205	2465.124231
962.400814	2412.192115
962.700385	2535.700385
962.999918	2485.288846
963.299414	2485.288846
963.598873	2588.632500
963.898293	2434.877308
964.197677	2558.385577
964.497022	2523.097500
964.796331	2371.862885
965.095601	2447.480192
965.394835	2588.632500
965.694030	2518.056346
965.993189	2379.424615
966.292309	2495.371154
966.591393	2442.439038
966.890439	2417.233269
967.189447	2563.426731
967.488419	2540.741538
967.787353	2497.891731
968.086249	2505.453462
968.385108	2513.015192
968.683930	2490.330000
968.982714	2515.535769
969.281462	2482.768269
969.580172	2558.385577
969.878844	2500.412308
970.177480	2535.700385
970.476078	2507.974038
970.774639	2485.288846
971.073162	2462.603654
971.371649	2480.247692
971.670098	2457.562500
971.968510	2412.192115
972.266885	2402.109808
972.565223	2530.659231
972.863524	2455.041923
973.161788	2513.015192
973.460014	2560.906154
973.758204	2490.330000
974.056356	2475.206538
974.354471	2467.644808
974.652550	2530.659231
974.950591	2545.782692
975.248595	2439.918462
975.546563	2417.233269
975.844493	2538.220962
976.142386	2530.659231
976.440243	2543.262115
976.738062	2520.576923
977.035845	2518.056346
977.333590	2513.015192
977.631299	2500.412308
977.928971	2490.330000
978.226606	2576.029615
978.524204	2497.891731
978.821765	2576.029615
979.119290	2500.412308
979.416777	2480.247692
979.714228	2457.562500
980.011642	2558.385577
980.309020	2432.356731
980.606360	2540.741538
980.903664	2510.494615
981.200931	2528.138654
981.498162	2518.056346
981.795356	2500.412308
982.092513	2560.906154
982.389633	2555.865000
982.686717	2507.974038
982.983764	2422.274423
983.280775	2470.165385
983.577749	2429.836154
983.874686	2528.138654
984.171587	2487.809423
984.468451	2510.494615
984.765279	2450.000769
985.062070	2530.659231
985.358824	2482.768269
985.655543	2502.932885
985.952224	2570.988462
986.248869	2535.700385
986.545478	2450.000769
986.842050	2465.124231
987.138586	2550.823846
987.435086	2510.494615
987.731549	2462.603654
988.027975	2470.165385
988.324366	2497.891731
988.620719	2550.823846
988.917037	2545.782692
989.213318	2520.576923
989.509563	2515.535769
989.805772	2533.179808
990.101944	2490.330000
990.398080	2422.274423
990.694180	2530.659231
990.990244	2477.727115
991.286271	2490.330000
991.582262	2500.412308
991.878217	2515.535769
992.174136	2475.206538
992.470019	2538.220962
992.765865	2389.506923
993.061676	2555.865000
993.357450	2513.015192
993.653188	2462.603654
993.948890	2507.974038
994.244556	2581.070769
994.540186	2467.644808
994.835780	2450.000769
995.131337	2565.947308
995.426859	2492.850577
995.722345	2520.576923
996.017795	2513.015192
996.313208	2460.083077
996.608586	2507.974038
996.903928	2540.741538
997.199234	2394.548077
997.494504	2510.494615
997.789738	2505.453462
998.084936	2437.397885
998.380099	2475.206538
998.675225	2452.521346
998.970316	2490.330000
999.265371	2432.356731
999.560390	2477.727115
999.855373	2502.932885
1000.150320	2465.124231
1000.445232	2495.371154
1000.740108	2485.288846
1001.034948	2452.521346
1001.329752	2450.000769
1001.624521	2533.179808
1001.919254	2543.262115
1002.213951	2538.220962
1002.508613	2490.330000
1002.803239	2515.535769
1003.097829	2490.330000
1003.392384	2495.371154
1003.686903	2452.521346
1003.981386	2500.412308
1004.275834	2543.262115
1004.570246	2485.288846
1004.864623	2462.603654
1005.158964	2409.671538
1005.453270	2520.576923
1005.747540	2480.247692
1006.041775	2492.850577
1006.335974	2465.124231
1006.630138	2480.247692
1006.924266	2424.795000
1007.218359	2570.988462
1007.512416	2460.083077
1007.806438	2492.850577
1008.100425	2500.412308
1008.394376	2538.220962
1008.688292	2550.823846
1008.982172	2495.371154
1009.276017	2480.247692
1009.569827	2520.576923
1009.863602	2543.262115
1010.157341	2520.576923
1010.451045	2528.138654
1010.744714	2480.247692
1011.038347	2500.412308
1011.331945	2505.453462
1011.625508	2596.194231
1011.919036	2432.356731
1012.212528	2455.041923
1012.505986	2606.276538
1012.799408	2502.932885
1013.092795	2457.562500
1013.386147	2460.083077
1013.679464	2523.097500
1013.972745	2457.562500
1014.265992	2530.659231
1014.559204	2457.562500
1014.852380	2419.753846
1015.145521	2576.029615
1015.438628	2422.274423
1015.731699	2460.083077
1016.024736	2568.467885
1016.317737	2550.823846
1016.610703	2477.727115
1016.903635	2540.741538
1017.196531	2555.865000
1017.489393	2447.480192
1017.782219	2656.688077
1018.075011	2452.521346
1018.367768	2515.535769
1018.660490	2457.562500
1018.953177	2457.562500
1019.245829	2457.562500
