Dividing Wavelength (nm)	Counts (n)	Blue Motor Position (mm): 0.000000	Red Motor Position (mm): 5.800000	
326.493990	2137.449231
326.888308	2137.449231
327.282561	2137.449231
327.676750	2054.270192
328.070874	2079.475962
328.464933	2097.120000
328.858929	2112.243462
329.252859	2029.064423
329.646726	2079.475962
330.040528	2087.037692
330.434265	2117.284615
330.827938	2134.928654
331.221547	2127.366923
331.615091	2192.901923
332.008571	2152.572692
332.401986	2177.778462
332.795338	2200.463654
333.188625	2187.860769
333.581847	2220.628269
333.975006	2301.286731
334.368100	2278.601538
334.761129	2303.807308
335.154095	2253.395769
335.546996	2298.766154
335.939833	2354.218846
336.332606	2359.260000
336.725315	2336.574808
337.117960	2381.945192
337.510540	2424.795000
337.903056	2417.233269
338.295508	2434.877308
338.687896	2381.945192
339.080220	2344.136538
339.472480	2422.274423
339.864676	2538.220962
340.256807	2482.768269
340.648875	2394.548077
341.040879	2497.891731
341.432818	2439.918462
341.824694	2543.262115
342.216506	2465.124231
342.608253	2538.220962
342.999937	2507.974038
343.391557	2540.741538
343.783113	2439.918462
344.174605	2487.809423
344.566033	2538.220962
344.957397	2482.768269
345.348697	2419.753846
345.739934	2530.659231
346.131106	2422.274423
346.522215	2366.821731
346.913260	2460.083077
347.304241	2510.494615
347.695159	2475.206538
348.086012	2470.165385
348.476802	2432.356731
348.867528	2379.424615
349.258191	2530.659231
349.648789	2437.397885
350.039324	2455.041923
350.429796	2460.083077
350.820203	2384.465769
351.210548	2470.165385
351.600828	2442.439038
351.991045	2482.768269
352.381198	2409.671538
352.771288	2497.891731
353.161314	2429.836154
353.551276	2424.795000
353.941175	2409.671538
354.331010	2419.753846
354.720782	2487.809423
355.110490	2429.836154
355.500135	2437.397885
355.889717	2505.453462
356.279235	2465.124231
356.668689	2487.809423
357.058080	2465.124231
357.447408	2452.521346
357.836672	2447.480192
358.225873	2452.521346
358.615010	2533.179808
359.004084	2457.562500
359.393095	2495.371154
359.782043	2462.603654
360.170927	2404.630385
360.559748	2450.000769
360.948505	2518.056346
361.337199	2361.780577
361.725830	2555.865000
362.114398	2492.850577
362.502903	2409.671538
362.891344	2467.644808
363.279722	2414.712692
363.668037	2417.233269
364.056289	2460.083077
364.444478	2465.124231
364.832603	2371.862885
365.220665	2558.385577
365.608665	2407.150962
365.996601	2429.836154
366.384474	2487.809423
366.772284	2379.424615
367.160031	2407.150962
367.547715	2477.727115
367.935336	2409.671538
368.322893	2407.150962
368.710388	2424.795000
369.097820	2452.521346
369.485189	2442.439038
369.872495	2540.741538
370.259738	2402.109808
370.646918	2402.109808
371.034035	2424.795000
371.421090	2424.795000
371.808081	2490.330000
372.195010	2450.000769
372.581875	2359.260000
372.968678	2447.480192
373.355418	2523.097500
373.742096	2419.753846
374.128710	2444.959615
374.515262	2465.124231
374.901751	2427.315577
375.288177	2450.000769
375.674540	2450.000769
376.060841	2507.974038
376.447079	2447.480192
376.833254	2457.562500
377.219367	2444.959615
377.605417	2414.712692
377.991404	2472.685962
378.377329	2392.027500
378.763191	2427.315577
379.148991	2407.150962
379.534727	2422.274423
379.920402	2399.589231
380.306013	2475.206538
380.691563	2482.768269
381.077049	2432.356731
381.462474	2530.659231
381.847835	2434.877308
382.233134	2457.562500
382.618371	2465.124231
383.003545	2520.576923
383.388657	2500.412308
383.773706	2462.603654
384.158693	2533.179808
384.543618	2467.644808
384.928480	2480.247692
385.313280	2419.753846
385.698017	2565.947308
386.082692	2444.959615
386.467305	2523.097500
386.851856	2540.741538
387.236344	2475.206538
387.620770	2553.344423
388.005133	2417.233269
388.389435	2470.165385
388.773674	2505.453462
389.157851	2507.974038
389.541965	2444.959615
389.926018	2492.850577
390.310008	2429.836154
390.693936	2563.426731
391.077802	2472.685962
391.461606	2392.027500
391.845348	2450.000769
392.229027	2480.247692
392.612645	2364.301154
392.996200	2480.247692
393.379694	2434.877308
393.763125	2475.206538
394.146494	2424.795000
394.529801	2422.274423
394.913047	2424.795000
395.296230	2452.521346
395.679351	2487.809423
396.062410	2467.644808
396.445408	2601.235385
396.828343	2442.439038
397.211217	2510.494615
397.594028	2457.562500
397.976778	2482.768269
398.359466	2450.000769
398.742092	2540.741538
399.124656	2500.412308
399.507158	2467.644808
399.889598	2465.124231
400.271977	2555.865000
400.654294	2434.877308
401.036549	2520.576923
401.418742	2487.809423
401.800874	2492.850577
402.182944	2447.480192
402.564952	2563.426731
402.946898	2429.836154
403.328783	2487.809423
403.710606	2520.576923
404.092367	2452.521346
404.474067	2455.041923
404.855705	2515.535769
405.237282	2482.768269
405.618797	2520.576923
406.000250	2429.836154
406.381642	2548.303269
406.762972	2467.644808
407.144240	2409.671538
407.525447	2444.959615
407.906593	2530.659231
408.287677	2462.603654
408.668700	2513.015192
409.049661	2424.795000
409.430560	2533.179808
409.811399	2515.535769
410.192176	2379.424615
410.572891	2429.836154
410.953545	2462.603654
411.334138	2394.548077
411.714669	2518.056346
412.095139	2384.465769
412.475547	2485.288846
412.855894	2555.865000
413.236180	2422.274423
413.616405	2548.303269
413.996568	2462.603654
414.376670	2472.685962
414.756711	2452.521346
415.136691	2611.317692
415.516609	2447.480192
415.896466	2424.795000
416.276262	2439.918462
416.655997	2475.206538
417.035670	2510.494615
417.415283	2402.109808
417.794834	2447.480192
418.174324	2500.412308
418.553753	2472.685962
418.933121	2404.630385
419.312428	2460.083077
419.691674	2553.344423
420.070859	2591.153077
420.449983	2490.330000
420.829045	2538.220962
421.208047	2424.795000
421.586988	2490.330000
421.965867	2505.453462
422.344686	2510.494615
422.723444	2447.480192
423.102141	2523.097500
423.480777	2495.371154
423.859352	2452.521346
424.237866	2500.412308
424.616319	2548.303269
424.994712	2465.124231
425.373044	2533.179808
425.751314	2465.124231
426.129524	2485.288846
426.507673	2548.303269
426.885762	2518.056346
427.263789	2394.548077
427.641756	2386.986346
428.019662	2427.315577
428.397508	2392.027500
428.775292	2497.891731
429.153016	2523.097500
429.530679	2381.945192
429.908282	2497.891731
430.285824	2414.712692
430.663305	2533.179808
431.040726	2439.918462
431.418086	2439.918462
431.795385	2492.850577
432.172624	2523.097500
432.549802	2525.618077
432.926920	2515.535769
433.303977	2520.576923
433.680974	2404.630385
434.057910	2424.795000
434.434786	2407.150962
434.811601	2462.603654
435.188355	2505.453462
435.565050	2477.727115
435.941683	2407.150962
436.318257	2507.974038
436.694770	2560.906154
437.071222	2507.974038
437.447614	2452.521346
437.823946	2467.644808
438.200218	2386.986346
438.576429	2500.412308
438.952580	2427.315577
439.328670	2409.671538
439.704700	2502.932885
440.080670	2447.480192
440.456580	2444.959615
440.832429	2563.426731
441.208218	2450.000769
441.583947	2475.206538
441.959616	2407.150962
442.335224	2467.644808
442.710773	2490.330000
443.086261	2500.412308
443.461689	2427.315577
443.837057	2487.809423
444.212365	2513.015192
444.587612	2404.630385
444.962800	2450.000769
445.337927	2497.891731
445.712995	2533.179808
446.088002	2560.906154
446.462949	2558.385577
446.837837	2505.453462
447.212664	2497.891731
447.587431	2510.494615
447.962139	2555.865000
448.336786	2467.644808
448.711374	2513.015192
449.085901	2558.385577
449.460369	2530.659231
449.834776	2447.480192
450.209124	2472.685962
450.583412	2470.165385
450.957640	2523.097500
451.331808	2450.000769
451.705917	2528.138654
452.079965	2520.576923
452.453954	2525.618077
452.827883	2424.795000
453.201752	2510.494615
453.575562	2442.439038
453.949311	2419.753846
454.323001	2518.056346
454.696632	2427.315577
455.070202	2490.330000
455.443713	2581.070769
455.817164	2460.083077
456.190556	2487.809423
456.563888	2427.315577
456.937160	2414.712692
457.310373	2515.535769
457.683526	2490.330000
458.056619	2392.027500
458.429653	2502.932885
458.802628	2477.727115
459.175542	2472.685962
459.548398	2555.865000
459.921194	2550.823846
460.293930	2505.453462
460.666607	2462.603654
461.039224	2424.795000
461.411782	2507.974038
461.784280	2530.659231
462.156719	2533.179808
462.529099	2470.165385
462.901419	2422.274423
463.273680	2437.397885
463.645882	2490.330000
464.018024	2439.918462
464.390106	2520.576923
464.762130	2470.165385
465.134094	2563.426731
465.505999	2485.288846
465.877845	2480.247692
466.249631	2530.659231
466.621358	2490.330000
466.993026	2470.165385
467.364634	2487.809423
467.736184	2581.070769
468.107674	2540.741538
468.479105	2460.083077
468.850477	2570.988462
469.221790	2563.426731
469.593043	2485.288846
469.964238	2525.618077
470.335373	2500.412308
470.706449	2490.330000
471.077467	2576.029615
471.448425	2452.521346
471.819324	2518.056346
472.190164	2444.959615
472.560945	2530.659231
472.931667	2487.809423
473.302330	2576.029615
473.672934	2412.192115
474.043479	2487.809423
474.413965	2444.959615
474.784393	2492.850577
475.154761	2518.056346
475.525070	2460.083077
475.895321	2507.974038
476.265513	2507.974038
476.635645	2460.083077
477.005719	2608.797115
477.375734	2515.535769
477.745691	2502.932885
478.115588	2492.850577
478.485427	2576.029615
478.855207	2482.768269
479.224928	2507.974038
479.594591	2525.618077
479.964194	2550.823846
480.333739	2528.138654
480.703226	2515.535769
481.072653	2386.986346
481.442022	2528.138654
481.811333	2616.358846
482.180584	2507.974038
482.549777	2507.974038
482.918912	2477.727115
483.287988	2548.303269
483.657005	2533.179808
484.025964	2472.685962
484.394864	2538.220962
484.763706	2397.068654
485.132489	2497.891731
485.501213	2485.288846
485.869879	2495.371154
486.238487	2513.015192
486.607036	2528.138654
486.975527	2538.220962
487.343959	2472.685962
487.712333	2507.974038
488.080648	2434.877308
488.448905	2457.562500
488.817104	2568.467885
489.185244	2470.165385
489.553326	2427.315577
489.921350	2518.056346
490.289315	2598.714808
490.657222	2407.150962
491.025070	2505.453462
491.392861	2487.809423
491.760593	2482.768269
492.128267	2502.932885
492.495883	2477.727115
492.863440	2492.850577
493.230939	2452.521346
493.598380	2475.206538
493.965763	2505.453462
494.333088	2412.192115
494.700354	2545.782692
495.067563	2465.124231
495.434713	2457.562500
495.801805	2518.056346
496.168839	2455.041923
496.535815	2513.015192
496.902733	2477.727115
497.269593	2472.685962
497.636395	2457.562500
498.003139	2487.809423
498.369825	2510.494615
498.736453	2417.233269
499.103023	2495.371154
499.469535	2477.727115
499.835989	2573.509038
500.202385	2429.836154
500.568723	2548.303269
500.935003	2467.644808
501.301226	2447.480192
501.667390	2444.959615
502.033497	2560.906154
502.399546	2447.480192
502.765537	2518.056346
503.131470	2457.562500
503.497345	2513.015192
503.863163	2515.535769
504.228923	2487.809423
504.594625	2452.521346
504.960269	2518.056346
505.325856	2520.576923
505.691385	2513.015192
506.056856	2477.727115
506.422270	2434.877308
506.787625	2457.562500
507.152924	2505.453462
507.518164	2500.412308
507.883347	2543.262115
508.248472	2573.509038
508.613540	2528.138654
508.978550	2502.932885
509.343503	2520.576923
509.708398	2455.041923
510.073236	2480.247692
510.438016	2477.727115
510.802738	2455.041923
511.167403	2560.906154
511.532010	2492.850577
511.896561	2505.453462
512.261053	2528.138654
512.625488	2507.974038
512.989866	2485.288846
513.354186	2530.659231
513.718449	2528.138654
514.082655	2528.138654
514.446803	2513.015192
514.810894	2502.932885
515.174927	2505.453462
515.538904	2452.521346
515.902822	2492.850577
516.266684	2560.906154
516.630488	2510.494615
516.994235	2518.056346
517.357925	2444.959615
517.721558	2434.877308
518.085133	2565.947308
518.448651	2399.589231
518.812112	2467.644808
519.175516	2457.562500
519.538863	2553.344423
519.902152	2507.974038
520.265385	2520.576923
520.628560	2482.768269
520.991678	2477.727115
521.354739	2429.836154
521.717743	2467.644808
522.080690	2505.453462
522.443580	2455.041923
522.806413	2533.179808
523.169189	2535.700385
523.531908	2467.644808
523.894569	2447.480192
524.257174	2492.850577
524.619722	2495.371154
524.982213	2513.015192
525.344647	2462.603654
525.707025	2513.015192
526.069345	2465.124231
526.431608	2513.015192
526.793815	2565.947308
527.155964	2495.371154
527.518057	2384.465769
527.880093	2477.727115
528.242072	2530.659231
528.603995	2548.303269
528.965860	2447.480192
529.327669	2538.220962
529.689421	2492.850577
530.051117	2515.535769
530.412755	2442.439038
530.774337	2563.426731
531.135862	2588.632500
531.497331	2505.453462
531.858743	2452.521346
532.220098	2500.412308
532.581396	2525.618077
532.942638	2533.179808
533.303824	2457.562500
533.664953	2500.412308
534.026025	2450.000769
534.387040	2467.644808
534.747999	2480.247692
535.108902	2497.891731
535.469748	2550.823846
535.830537	2545.782692
536.191270	2492.850577
536.551947	2495.371154
536.912567	2497.891731
537.273131	2560.906154
537.633638	2613.838269
537.994089	2465.124231
538.354483	2492.850577
538.714821	2518.056346
539.075103	2475.206538
539.435328	2490.330000
539.795497	2578.550192
540.155609	2520.576923
540.515665	2477.727115
540.875665	2407.150962
541.235609	2570.988462
541.595496	2442.439038
541.955328	2455.041923
542.315102	2538.220962
542.674821	2507.974038
543.034483	2510.494615
543.394090	2419.753846
543.753640	2502.932885
544.113134	2452.521346
544.472571	2533.179808
544.831953	2455.041923
545.191278	2475.206538
545.550548	2520.576923
545.909761	2505.453462
546.268918	2586.111923
546.628019	2462.603654
546.987064	2417.233269
547.346053	2495.371154
547.704986	2467.644808
548.063863	2523.097500
548.422684	2550.823846
548.781449	2467.644808
549.140158	2568.467885
549.498811	2563.426731
549.857408	2495.371154
550.215949	2490.330000
550.574434	2492.850577
550.932864	2523.097500
551.291237	2439.918462
551.649555	2553.344423
552.007817	2535.700385
552.366022	2535.700385
552.724173	2490.330000
553.082267	2560.906154
553.440305	2495.371154
553.798288	2487.809423
554.156215	2528.138654
554.514086	2465.124231
554.871902	2515.535769
555.229661	2447.480192
555.587365	2492.850577
555.945014	2523.097500
556.302606	2563.426731
556.660143	2467.644808
557.017625	2533.179808
557.375050	2545.782692
557.732421	2586.111923
558.089735	2490.330000
558.446994	2386.986346
558.804197	2510.494615
559.161345	2487.809423
559.518437	2538.220962
559.875474	2500.412308
560.232455	2422.274423
560.589381	2434.877308
560.946251	2442.439038
561.303065	2447.480192
561.659825	2470.165385
562.016528	2480.247692
562.373177	2497.891731
562.729770	2485.288846
563.086307	2497.891731
563.442789	2429.836154
563.799216	2470.165385
564.155587	2502.932885
564.511904	2482.768269
564.868164	2477.727115
565.224370	2560.906154
565.580520	2465.124231
565.936615	2565.947308
566.292654	2535.700385
566.648638	2472.685962
567.004567	2480.247692
567.360441	2518.056346
567.716260	2427.315577
568.072023	2573.509038
568.427732	2525.618077
568.783385	2455.041923
569.138982	2502.932885
569.494525	2553.344423
569.850013	2515.535769
570.205445	2507.974038
570.560823	2472.685962
570.916145	2450.000769
571.271412	2550.823846
571.626625	2502.932885
571.981782	2442.439038
572.336884	2444.959615
572.691931	2601.235385
573.046923	2545.782692
573.401860	2500.412308
573.756743	2394.548077
574.111570	2523.097500
574.466342	2560.906154
574.821059	2492.850577
575.175722	2535.700385
575.530330	2563.426731
575.884882	2505.453462
576.239380	2475.206538
576.593823	2505.453462
576.948211	2558.385577
577.302544	2560.906154
577.656823	2477.727115
578.011047	2452.521346
578.365216	2397.068654
578.719330	2513.015192
579.073389	2450.000769
579.427394	2528.138654
579.781344	2535.700385
580.135239	2502.932885
580.489080	2495.371154
580.842866	2591.153077
581.196597	2513.015192
581.550273	2472.685962
581.903895	2560.906154
582.257463	2497.891731
582.610975	2550.823846
582.964434	2530.659231
583.317837	2444.959615
583.671186	2540.741538
584.024481	2477.727115
584.377721	2530.659231
584.730906	2434.877308
585.084037	2523.097500
585.437113	2565.947308
585.790135	2502.932885
586.143103	2570.988462
586.496016	2472.685962
586.848874	2495.371154
587.201679	2467.644808
587.554428	2540.741538
587.907124	2475.206538
588.259765	2444.959615
588.612352	2412.192115
588.964884	2477.727115
589.317362	2540.741538
589.669786	2568.467885
590.022155	2533.179808
590.374470	2444.959615
590.726731	2507.974038
591.078937	2505.453462
591.431090	2538.220962
591.783188	2490.330000
592.135232	2563.426731
592.487222	2462.603654
592.839157	2543.262115
593.191038	2492.850577
593.542866	2500.412308
593.894639	2555.865000
594.246358	2429.836154
594.598022	2450.000769
594.949633	2460.083077
595.301190	2434.877308
595.652692	2447.480192
596.004141	2505.453462
596.355535	2465.124231
596.706876	2606.276538
597.058162	2442.439038
597.409395	2523.097500
597.760573	2513.015192
598.111698	2513.015192
598.462768	2538.220962
598.813785	2510.494615
599.164748	2465.124231
599.515657	2419.753846
599.866511	2480.247692
600.217312	2533.179808
600.568060	2455.041923
600.918753	2437.397885
601.269392	2535.700385
601.619978	2520.576923
601.970510	2424.795000
602.320988	2457.562500
602.671412	2513.015192
603.021783	2462.603654
603.372100	2550.823846
603.722363	2523.097500
604.072572	2507.974038
604.422728	2525.618077
604.772830	2510.494615
605.122878	2500.412308
605.472872	2470.165385
605.822813	2518.056346
606.172701	2533.179808
606.522534	2424.795000
606.872314	2520.576923
607.222041	2540.741538
607.571714	2608.797115
607.921333	2550.823846
608.270899	2482.768269
608.620411	2560.906154
608.969870	2500.412308
609.319276	2513.015192
609.668627	2505.453462
610.017926	2404.630385
610.367171	2485.288846
610.716362	2520.576923
611.065500	2480.247692
611.414585	2528.138654
611.763616	2593.673654
612.112594	2543.262115
612.461518	2485.288846
612.810389	2450.000769
613.159207	2482.768269
613.507971	2450.000769
613.856682	2596.194231
614.205340	2482.768269
614.553945	2490.330000
614.902496	2414.712692
615.250994	2505.453462
615.599439	2477.727115
615.947830	2455.041923
616.296169	2419.753846
616.644454	2437.397885
616.992686	2497.891731
617.340864	2553.344423
617.688990	2412.192115
618.037063	2419.753846
618.385082	2432.356731
618.733048	2432.356731
619.080961	2515.535769
619.428821	2565.947308
619.776628	2545.782692
620.124382	2424.795000
620.472083	2475.206538
620.819731	2507.974038
621.167326	2563.426731
621.514868	2533.179808
621.862357	2487.809423
622.209793	2437.397885
622.557176	2487.809423
622.904506	2591.153077
623.251783	2581.070769
623.599007	2467.644808
623.946179	2533.179808
624.293297	2518.056346
624.640363	2505.453462
624.987376	2485.288846
625.334336	2553.344423
625.681243	2470.165385
626.028097	2467.644808
626.374899	2528.138654
626.721647	2563.426731
627.068343	2500.412308
627.414987	2490.330000
627.761577	2487.809423
628.108115	2538.220962
628.454600	2545.782692
628.801032	2570.988462
629.147412	2379.424615
629.493739	2538.220962
629.840014	2513.015192
630.186236	2472.685962
630.532405	2530.659231
630.878521	2470.165385
631.224585	2477.727115
631.570597	2505.453462
631.916556	2409.671538
632.262462	2444.959615
632.608316	2470.165385
632.954117	2502.932885
633.299866	2422.274423
633.645562	2465.124231
633.991206	2543.262115
634.336797	2505.453462
634.682336	2530.659231
635.027823	2480.247692
635.373257	2482.768269
635.718639	2530.659231
636.063968	2482.768269
636.409245	2480.247692
636.754470	2480.247692
637.099642	2505.453462
637.444762	2565.947308
637.789829	2455.041923
638.134845	2520.576923
638.479808	2475.206538
638.824719	2523.097500
639.169577	2472.685962
639.514383	2507.974038
639.859137	2495.371154
640.203839	2533.179808
640.548489	2465.124231
640.893086	2480.247692
641.237632	2543.262115
641.582125	2457.562500
641.926566	2500.412308
642.270955	2422.274423
642.615292	2626.441154
642.959576	2480.247692
643.303809	2548.303269
643.647990	2555.865000
643.992118	2475.206538
644.336195	2427.315577
644.680219	2601.235385
645.024192	2492.850577
645.368112	2654.167500
645.711981	2543.262115
646.055797	2548.303269
646.399562	2520.576923
646.743274	2485.288846
647.086935	2535.700385
647.430544	2530.659231
647.774101	2467.644808
648.117606	2374.383462
648.461059	2452.521346
648.804460	2518.056346
649.147810	2465.124231
649.491108	2437.397885
649.834354	2507.974038
650.177548	2565.947308
650.520690	2497.891731
650.863781	2442.439038
651.206820	2457.562500
651.549807	2452.521346
651.892742	2427.315577
652.235626	2523.097500
652.578458	2500.412308
652.921238	2553.344423
653.263967	2444.959615
653.606644	2452.521346
653.949269	2545.782692
654.291843	2520.576923
654.634365	2455.041923
654.976836	2417.233269
655.319255	2404.630385
655.661622	2507.974038
656.003938	2414.712692
656.346203	2497.891731
656.688416	2477.727115
657.030577	2492.850577
657.372687	2507.974038
657.714746	2397.068654
658.056753	2558.385577
658.398708	2412.192115
658.740612	2495.371154
659.082465	2462.603654
659.424266	2452.521346
659.766016	2523.097500
660.107715	2485.288846
660.449362	2523.097500
660.790958	2601.235385
661.132503	2495.371154
661.473996	2530.659231
661.815438	2472.685962
662.156829	2520.576923
662.498168	2495.371154
662.839456	2523.097500
663.180693	2475.206538
663.521879	2515.535769
663.863013	2465.124231
664.204097	2538.220962
664.545129	2389.506923
664.886110	2518.056346
665.227040	2467.644808
665.567918	2513.015192
665.908746	2593.673654
666.249522	2555.865000
666.590248	2482.768269
666.930922	2558.385577
667.271545	2560.906154
667.612118	2510.494615
667.952639	2528.138654
668.293109	2555.865000
668.633528	2477.727115
668.973896	2606.276538
669.314213	2455.041923
669.654480	2472.685962
669.994695	2462.603654
670.334859	2477.727115
670.674973	2472.685962
671.015035	2568.467885
671.355047	2550.823846
671.695008	2545.782692
672.034918	2502.932885
672.374777	2475.206538
672.714585	2497.891731
673.054342	2505.453462
673.394049	2482.768269
673.733705	2485.288846
674.073310	2477.727115
674.412864	2492.850577
674.752368	2462.603654
675.091820	2565.947308
675.431223	2528.138654
675.770574	2513.015192
676.109875	2510.494615
676.449125	2505.453462
676.788324	2447.480192
677.127473	2492.850577
677.466571	2500.412308
677.805619	2535.700385
678.144616	2447.480192
678.483562	2523.097500
678.822458	2450.000769
679.161303	2510.494615
679.500098	2492.850577
679.838842	2462.603654
680.177535	2555.865000
680.516179	2530.659231
680.854771	2470.165385
681.193314	2505.453462
681.531805	2535.700385
681.870247	2497.891731
682.208638	2450.000769
682.546978	2586.111923
682.885268	2502.932885
683.223508	2528.138654
683.561697	2482.768269
683.899836	2535.700385
684.237925	2563.426731
684.575963	2434.877308
684.913951	2523.097500
685.251889	2444.959615
685.589776	2432.356731
685.927614	2505.453462
686.265401	2452.521346
686.603137	2550.823846
686.940824	2518.056346
687.278460	2545.782692
687.616046	2432.356731
687.953582	2424.795000
688.291068	2515.535769
688.628504	2497.891731
688.965889	2392.027500
689.303224	2510.494615
689.640510	2523.097500
689.977745	2568.467885
690.314930	2523.097500
690.652065	2480.247692
690.989150	2581.070769
691.326185	2470.165385
691.663170	2482.768269
692.000105	2409.671538
692.336990	2460.083077
692.673825	2379.424615
693.010610	2500.412308
693.347345	2510.494615
693.684030	2500.412308
694.020665	2455.041923
694.357251	2495.371154
694.693786	2520.576923
695.030272	2475.206538
695.366707	2545.782692
695.703093	2487.809423
696.039429	2513.015192
696.375716	2510.494615
696.711952	2492.850577
697.048139	2513.015192
697.384276	2603.755962
697.720363	2565.947308
698.056400	2525.618077
698.392388	2500.412308
698.728326	2535.700385
699.064214	2465.124231
699.400053	2528.138654
699.735842	2548.303269
700.071581	2444.959615
700.407270	2407.150962
700.742910	2487.809423
701.078501	2487.809423
701.414042	2442.439038
701.749533	2523.097500
702.084974	2497.891731
702.420366	2487.809423
702.755709	2447.480192
703.091002	2591.153077
703.426246	2429.836154
703.761440	2563.426731
704.096584	2472.685962
704.431679	2507.974038
704.766725	2596.194231
705.101721	2500.412308
705.436668	2429.836154
705.771565	2505.453462
706.106413	2467.644808
706.441212	2548.303269
706.775961	2429.836154
707.110661	2525.618077
707.445311	2507.974038
707.779913	2497.891731
708.114465	2497.891731
708.448967	2505.453462
708.783421	2513.015192
709.117825	2543.262115
709.452180	2548.303269
709.786485	2543.262115
710.120742	2442.439038
710.454949	2540.741538
710.789107	2510.494615
711.123216	2553.344423
711.457275	2505.453462
711.791286	2490.330000
712.125247	2490.330000
712.459159	2505.453462
712.793023	2439.918462
713.126837	2548.303269
713.460602	2591.153077
713.794318	2470.165385
714.127985	2472.685962
714.461602	2515.535769
714.795171	2407.150962
715.128691	2510.494615
715.462162	2525.618077
715.795584	2515.535769
716.128957	2452.521346
716.462281	2452.521346
716.795556	2545.782692
717.128782	2507.974038
717.461960	2397.068654
717.795088	2480.247692
718.128167	2535.700385
718.461198	2487.809423
718.794180	2523.097500
719.127113	2507.974038
719.459997	2505.453462
719.792833	2437.397885
720.125619	2528.138654
720.458357	2510.494615
720.791046	2442.439038
721.123686	2427.315577
721.456278	2482.768269
721.788821	2502.932885
722.121315	2510.494615
722.453761	2465.124231
722.786158	2417.233269
723.118506	2565.947308
723.450805	2545.782692
723.783056	2470.165385
724.115259	2518.056346
724.447412	2492.850577
724.779518	2533.179808
725.111574	2513.015192
725.443582	2455.041923
725.775542	2528.138654
726.107453	2465.124231
726.439315	2485.288846
726.771129	2455.041923
727.102895	2553.344423
727.434612	2497.891731
727.766281	2482.768269
728.097901	2422.274423
728.429473	2538.220962
728.760996	2525.618077
729.092471	2528.138654
729.423897	2500.412308
729.755276	2550.823846
730.086606	2523.097500
730.417887	2523.097500
730.749120	2528.138654
731.080305	2490.330000
731.411442	2505.453462
731.742530	2540.741538
732.073570	2485.288846
732.404562	2533.179808
732.735506	2520.576923
733.066401	2472.685962
733.397249	2460.083077
733.728048	2538.220962
734.058798	2475.206538
734.389501	2490.330000
734.720156	2565.947308
735.050762	2530.659231
735.381320	2467.644808
735.711831	2568.467885
736.042293	2439.918462
736.372707	2563.426731
736.703073	2520.576923
737.033391	2502.932885
737.363661	2472.685962
737.693883	2505.453462
738.024056	2419.753846
738.354182	2475.206538
738.684260	2550.823846
739.014290	2510.494615
739.344272	2513.015192
739.674207	2510.494615
740.004093	2417.233269
740.333931	2480.247692
740.663722	2475.206538
740.993464	2470.165385
741.323159	2560.906154
741.652806	2507.974038
741.982405	2475.206538
742.311956	2523.097500
742.641460	2500.412308
742.970915	2525.618077
743.300323	2497.891731
743.629683	2482.768269
743.958996	2510.494615
744.288260	2545.782692
744.617477	2457.562500
744.946647	2523.097500
745.275768	2475.206538
745.604842	2480.247692
745.933869	2432.356731
746.262847	2457.562500
746.591778	2470.165385
746.920662	2507.974038
747.249498	2510.494615
747.578286	2525.618077
747.907027	2482.768269
748.235720	2550.823846
748.564365	2507.974038
748.892963	2515.535769
749.221514	2432.356731
749.550017	2495.371154
749.878473	2530.659231
750.206881	2386.986346
750.535242	2462.603654
750.863555	2505.453462
751.191821	2553.344423
751.520039	2525.618077
751.848210	2452.521346
752.176334	2495.371154
752.504411	2528.138654
752.832440	2460.083077
753.160421	2427.315577
753.488356	2485.288846
753.816243	2507.974038
754.144082	2492.850577
754.471875	2419.753846
754.799620	2492.850577
755.127318	2482.768269
755.454969	2558.385577
755.782572	2525.618077
756.110129	2540.741538
756.437638	2475.206538
756.765100	2465.124231
757.092515	2573.509038
757.419882	2472.685962
757.747203	2490.330000
758.074477	2513.015192
758.401703	2563.426731
758.728882	2510.494615
759.056014	2460.083077
759.383099	2560.906154
759.710138	2485.288846
760.037129	2515.535769
760.364073	2414.712692
760.690970	2515.535769
761.017820	2460.083077
761.344623	2472.685962
761.671379	2523.097500
761.998088	2492.850577
762.324751	2518.056346
762.651366	2470.165385
762.977935	2540.741538
763.304456	2465.124231
763.630931	2545.782692
763.957359	2507.974038
764.283740	2444.959615
764.610074	2510.494615
764.936362	2502.932885
765.262602	2507.974038
765.588796	2568.467885
765.914943	2487.809423
766.241044	2586.111923
766.567097	2455.041923
766.893104	2482.768269
767.219064	2502.932885
767.544978	2502.932885
767.870845	2548.303269
768.196665	2513.015192
768.522438	2399.589231
768.848165	2460.083077
769.173846	2465.124231
769.499479	2462.603654
769.825066	2404.630385
770.150607	2535.700385
770.476101	2444.959615
770.801548	2513.015192
771.126949	2450.000769
771.452303	2507.974038
771.777611	2442.439038
772.102872	2472.685962
772.428087	2515.535769
772.753256	2570.988462
773.078378	2472.685962
773.403453	2535.700385
773.728482	2465.124231
774.053465	2523.097500
774.378401	2611.317692
774.703291	2460.083077
775.028135	2553.344423
775.352932	2518.056346
775.677683	2505.453462
776.002388	2460.083077
776.327046	2520.576923
776.651658	2444.959615
776.976224	2573.509038
777.300743	2538.220962
777.625216	2450.000769
777.949643	2470.165385
778.274024	2422.274423
778.598359	2475.206538
778.922647	2507.974038
779.246889	2394.548077
779.571086	2475.206538
779.895236	2505.453462
780.219339	2467.644808
780.543397	2497.891731
780.867409	2513.015192
781.191374	2467.644808
781.515294	2412.192115
781.839167	2492.850577
782.162995	2487.809423
782.486776	2500.412308
782.810511	2543.262115
783.134201	2475.206538
783.457844	2581.070769
783.781441	2427.315577
784.104993	2455.041923
784.428498	2500.412308
784.751958	2442.439038
785.075372	2455.041923
785.398739	2492.850577
785.722061	2513.015192
786.045337	2510.494615
786.368568	2510.494615
786.691752	2507.974038
787.014891	2495.371154
787.337983	2535.700385
787.661030	2444.959615
787.984031	2530.659231
788.306987	2528.138654
788.629897	2462.603654
788.952760	2487.809423
789.275579	2538.220962
789.598351	2495.371154
789.921078	2548.303269
790.243759	2485.288846
790.566395	2487.809423
790.888984	2573.509038
791.211529	2437.397885
791.534027	2457.562500
791.856480	2533.179808
792.178888	2568.467885
792.501249	2596.194231
792.823566	2497.891731
793.145836	2492.850577
793.468062	2515.535769
793.790241	2472.685962
794.112375	2482.768269
794.434464	2492.850577
794.756507	2515.535769
795.078505	2533.179808
795.400457	2465.124231
795.722364	2540.741538
796.044226	2530.659231
796.366042	2467.644808
796.687812	2429.836154
797.009538	2487.809423
797.331218	2444.959615
797.652852	2505.453462
797.974442	2533.179808
798.295986	2424.795000
798.617484	2548.303269
798.938938	2538.220962
799.260346	2397.068654
799.581709	2495.371154
799.903026	2452.521346
800.224299	2452.521346
800.545526	2467.644808
800.866708	2482.768269
801.187845	2437.397885
801.508936	2520.576923
801.829983	2460.083077
802.150984	2447.480192
802.471940	2500.412308
802.792851	2563.426731
803.113717	2475.206538
803.434538	2636.523462
803.755314	2447.480192
804.076045	2460.083077
804.396731	2455.041923
804.717372	2513.015192
805.037967	2462.603654
805.358518	2558.385577
805.679024	2535.700385
805.999485	2523.097500
806.319901	2465.124231
806.640272	2535.700385
806.960598	2492.850577
807.280879	2462.603654
807.601115	2485.288846
807.921306	2467.644808
808.241453	2452.521346
808.561554	2450.000769
808.881611	2495.371154
809.201623	2538.220962
809.521590	2447.480192
809.841513	2434.877308
810.161390	2505.453462
810.481223	2492.850577
810.801011	2482.768269
811.120755	2502.932885
811.440453	2497.891731
811.760107	2452.521346
812.079716	2444.959615
812.399281	2535.700385
812.718801	2470.165385
813.038276	2477.727115
813.357707	2465.124231
813.677093	2528.138654
813.996434	2457.562500
814.315731	2520.576923
814.634983	2477.727115
814.954191	2543.262115
815.273354	2477.727115
815.592473	2472.685962
815.911547	2444.959615
816.230577	2513.015192
816.549562	2480.247692
816.868502	2487.809423
817.187399	2586.111923
817.506250	2553.344423
817.825058	2490.330000
818.143821	2581.070769
818.462539	2513.015192
818.781213	2518.056346
819.099843	2470.165385
819.418429	2485.288846
819.736970	2515.535769
820.055466	2414.712692
820.373919	2507.974038
820.692327	2450.000769
821.010691	2558.385577
821.329011	2482.768269
821.647286	2487.809423
821.965517	2462.603654
822.283704	2530.659231
822.601847	2482.768269
822.919945	2540.741538
823.237999	2432.356731
823.556010	2505.453462
823.873976	2525.618077
824.191897	2439.918462
824.509775	2545.782692
824.827609	2510.494615
825.145398	2472.685962
825.463144	2558.385577
825.780845	2520.576923
826.098502	2548.303269
826.416116	2409.671538
826.733685	2535.700385
827.051210	2412.192115
827.368692	2475.206538
827.686129	2523.097500
828.003522	2515.535769
828.320872	2502.932885
828.638177	2500.412308
828.955439	2472.685962
829.272656	2475.206538
829.589830	2533.179808
829.906960	2525.618077
830.224046	2434.877308
830.541088	2510.494615
830.858086	2482.768269
831.175041	2505.453462
831.491952	2518.056346
831.808819	2472.685962
832.125642	2515.535769
832.442421	2505.453462
832.759157	2548.303269
833.075849	2502.932885
833.392497	2490.330000
833.709101	2533.179808
834.025662	2553.344423
834.342179	2543.262115
834.658653	2450.000769
834.975083	2480.247692
835.291469	2450.000769
835.607811	2485.288846
835.924110	2500.412308
836.240366	2470.165385
836.556578	2394.548077
836.872746	2530.659231
837.188871	2507.974038
837.504952	2545.782692
837.820990	2480.247692
838.136984	2497.891731
838.452935	2450.000769
838.768842	2457.562500
839.084706	2578.550192
839.400526	2485.288846
839.716303	2482.768269
840.032037	2460.083077
840.347727	2482.768269
840.663373	2462.603654
840.978977	2477.727115
841.294537	2495.371154
841.610054	2505.453462
841.925527	2535.700385
842.240957	2495.371154
842.556344	2533.179808
842.871687	2457.562500
843.186987	2507.974038
843.502244	2528.138654
843.817458	2346.657115
844.132629	2480.247692
844.447756	2437.397885
844.762840	2538.220962
845.077881	2477.727115
845.392879	2482.768269
845.707833	2460.083077
846.022745	2497.891731
846.337613	2432.356731
846.652438	2502.932885
846.967221	2530.659231
847.281960	2570.988462
847.596656	2608.797115
847.911309	2450.000769
848.225919	2439.918462
848.540485	2540.741538
848.855009	2505.453462
849.169490	2497.891731
849.483928	2510.494615
849.798323	2525.618077
850.112675	2515.535769
850.426984	2513.015192
850.741251	2477.727115
851.055474	2540.741538
851.369654	2538.220962
851.683792	2497.891731
851.997887	2389.506923
852.311938	2462.603654
852.625947	2490.330000
852.939914	2497.891731
853.253837	2568.467885
853.567718	2515.535769
853.881555	2490.330000
854.195350	2495.371154
854.509103	2472.685962
854.822812	2548.303269
855.136479	2467.644808
855.450103	2490.330000
855.763685	2452.521346
856.077224	2460.083077
856.390720	2467.644808
856.704173	2538.220962
857.017584	2414.712692
857.330953	2505.453462
857.644278	2495.371154
857.957561	2502.932885
858.270802	2513.015192
858.584000	2568.467885
858.897155	2487.809423
859.210268	2523.097500
859.523339	2520.576923
859.836367	2560.906154
860.149352	2432.356731
860.462295	2452.521346
860.775195	2439.918462
861.088054	2434.877308
861.400869	2419.753846
861.713642	2470.165385
862.026373	2525.618077
862.339062	2465.124231
862.651708	2502.932885
862.964312	2470.165385
863.276873	2480.247692
863.589392	2492.850577
863.901869	2492.850577
864.214303	2475.206538
864.526696	2465.124231
864.839045	2510.494615
865.151353	2480.247692
865.463619	2424.795000
865.775842	2472.685962
866.088023	2487.809423
866.400162	2480.247692
866.712258	2591.153077
867.024313	2447.480192
867.336325	2525.618077
867.648296	2457.562500
867.960224	2510.494615
868.272110	2485.288846
868.583954	2467.644808
868.895755	2487.809423
869.207515	2482.768269
869.519233	2444.959615
869.830909	2513.015192
870.142542	2432.356731
870.454134	2528.138654
870.765684	2475.206538
871.077191	2553.344423
871.388657	2540.741538
871.700081	2485.288846
872.011463	2432.356731
872.322803	2538.220962
872.634101	2505.453462
872.945357	2530.659231
873.256571	2533.179808
873.567744	2555.865000
873.878874	2457.562500
874.189963	2513.015192
874.501010	2480.247692
874.812015	2520.576923
875.122979	2437.397885
875.433900	2548.303269
875.744780	2480.247692
876.055618	2470.165385
876.366415	2505.453462
876.677169	2533.179808
876.987882	2528.138654
877.298554	2495.371154
877.609183	2439.918462
877.919771	2437.397885
878.230317	2550.823846
878.540822	2518.056346
878.851285	2457.562500
879.161707	2510.494615
879.472087	2497.891731
879.782425	2455.041923
880.092722	2482.768269
880.402977	2497.891731
880.713191	2490.330000
881.023363	2528.138654
881.333494	2523.097500
881.643583	2500.412308
881.953631	2583.591346
882.263637	2520.576923
882.573602	2507.974038
882.883526	2409.671538
883.193408	2475.206538
883.503248	2505.453462
883.813048	2510.494615
884.122806	2497.891731
884.432522	2455.041923
884.742197	2518.056346
885.051831	2402.109808
885.361424	2429.836154
885.670975	2507.974038
885.980485	2457.562500
886.289954	2427.315577
886.599382	2475.206538
886.908768	2495.371154
887.218113	2548.303269
887.527417	2492.850577
887.836680	2553.344423
888.145901	2482.768269
888.455082	2457.562500
888.764221	2432.356731
889.073319	2465.124231
889.382376	2450.000769
889.691392	2535.700385
890.000366	2482.768269
890.309300	2475.206538
890.618193	2457.562500
890.927044	2586.111923
891.235855	2568.467885
891.544625	2520.576923
891.853353	2513.015192
892.162041	2482.768269
892.470687	2538.220962
892.779293	2492.850577
893.087858	2490.330000
893.396381	2485.288846
893.704864	2576.029615
894.013306	2558.385577
894.321707	2439.918462
894.630068	2450.000769
894.938387	2533.179808
895.246665	2563.426731
895.554903	2558.385577
895.863100	2490.330000
896.171256	2550.823846
896.479371	2460.083077
896.787446	2429.836154
897.095480	2523.097500
897.403473	2505.453462
897.711425	2570.988462
898.019336	2505.453462
898.327207	2500.412308
898.635038	2480.247692
898.942827	2392.027500
899.250576	2470.165385
899.558284	2528.138654
899.865952	2485.288846
900.173579	2465.124231
900.481165	2450.000769
900.788711	2470.165385
901.096216	2432.356731
901.403681	2543.262115
901.711105	2513.015192
902.018489	2545.782692
902.325832	2450.000769
902.633135	2545.782692
902.940397	2475.206538
903.247619	2550.823846
903.554800	2467.644808
903.861941	2515.535769
904.169041	2462.603654
904.476101	2487.809423
904.783121	2560.906154
905.090100	2442.439038
905.397039	2538.220962
905.703938	2450.000769
906.010796	2528.138654
906.317614	2490.330000
906.624391	2520.576923
906.931129	2472.685962
907.237826	2570.988462
907.544483	2422.274423
907.851099	2480.247692
908.157675	2565.947308
908.464211	2515.535769
908.770707	2480.247692
909.077163	2485.288846
909.383578	2490.330000
909.689954	2467.644808
909.996289	2467.644808
910.302584	2596.194231
910.608839	2477.727115
910.915054	2434.877308
911.221229	2497.891731
911.527363	2553.344423
911.833458	2477.727115
912.139513	2427.315577
912.445527	2497.891731
912.751502	2472.685962
913.057436	2470.165385
913.363331	2437.397885
913.669186	2502.932885
913.975000	2487.809423
914.280775	2485.288846
914.586510	2485.288846
914.892205	2533.179808
915.197859	2450.000769
915.503475	2507.974038
915.809050	2477.727115
916.114585	2422.274423
916.420081	2480.247692
916.725536	2515.535769
917.030952	2523.097500
917.336328	2477.727115
917.641665	2535.700385
917.946961	2455.041923
918.252218	2513.015192
918.557435	2475.206538
918.862612	2477.727115
919.167750	2533.179808
919.472848	2553.344423
919.777906	2470.165385
920.082925	2538.220962
920.387904	2487.809423
920.692843	2500.412308
920.997743	2505.453462
921.302603	2520.576923
921.607423	2442.439038
921.912204	2513.015192
922.216946	2475.206538
922.521647	2462.603654
922.826310	2495.371154
923.130932	2439.918462
923.435516	2455.041923
923.740059	2437.397885
924.044564	2500.412308
924.349028	2528.138654
924.653454	2520.576923
924.957840	2613.838269
925.262186	2457.562500
925.566493	2465.124231
925.870761	2497.891731
926.174989	2560.906154
926.479178	2550.823846
926.783328	2472.685962
927.087438	2472.685962
927.391509	2487.809423
927.695541	2455.041923
927.999533	2429.836154
928.303486	2515.535769
928.607400	2450.000769
928.911275	2533.179808
929.215110	2507.974038
929.518906	2500.412308
929.822663	2482.768269
930.126381	2490.330000
930.430060	2444.959615
930.733699	2538.220962
931.037299	2444.959615
931.340861	2560.906154
931.644383	2414.712692
931.947866	2437.397885
932.251309	2502.932885
932.554714	2442.439038
932.858080	2530.659231
933.161407	2452.521346
933.464694	2412.192115
933.767943	2505.453462
934.071153	2540.741538
934.374323	2550.823846
934.677455	2555.865000
934.980548	2465.124231
935.283602	2452.521346
935.586617	2495.371154
935.889593	2414.712692
936.192530	2447.480192
936.495428	2427.315577
936.798287	2439.918462
937.101108	2482.768269
937.403890	2452.521346
937.706632	2462.603654
938.009336	2543.262115
938.312002	2485.288846
938.614628	2465.124231
938.917216	2495.371154
939.219765	2530.659231
939.522275	2460.083077
939.824747	2447.480192
940.127179	2467.644808
940.429573	2523.097500
940.731929	2424.795000
941.034246	2465.124231
941.336524	2417.233269
941.638763	2502.932885
941.940964	2495.371154
942.243126	2507.974038
942.545250	2467.644808
942.847335	2442.439038
943.149381	2475.206538
943.451389	2492.850577
943.753359	2432.356731
944.055290	2553.344423
944.357182	2434.877308
944.659036	2427.315577
944.960851	2480.247692
945.262628	2510.494615
945.564367	2530.659231
945.866067	2442.439038
946.167729	2533.179808
946.469352	2565.947308
946.770937	2520.576923
947.072484	2434.877308
947.373992	2424.795000
947.675462	2515.535769
947.976893	2543.262115
948.278286	2409.671538
948.579641	2518.056346
948.880958	2578.550192
949.182236	2543.262115
949.483476	2450.000769
949.784678	2525.618077
950.085841	2452.521346
950.386967	2397.068654
950.688054	2510.494615
950.989103	2470.165385
951.290114	2523.097500
951.591087	2495.371154
951.892021	2472.685962
952.192917	2429.836154
952.493776	2505.453462
952.794596	2515.535769
953.095378	2492.850577
953.396122	2545.782692
953.696828	2500.412308
953.997496	2447.480192
954.298126	2573.509038
954.598718	2480.247692
954.899272	2523.097500
955.199788	2535.700385
955.500266	2513.015192
955.800706	2505.453462
956.101108	2480.247692
956.401472	2485.288846
956.701798	2467.644808
957.002087	2470.165385
957.302337	2432.356731
957.602550	2495.371154
957.902724	2502.932885
958.202861	2513.015192
958.502960	2424.795000
958.803022	2505.453462
959.103045	2447.480192
959.403031	2439.918462
959.702979	2535.700385
960.002889	2558.385577
960.302762	2462.603654
960.602596	2492.850577
960.902393	2439.918462
961.202153	2427.315577
961.501875	2563.426731
961.801559	2560.906154
962.101205	2505.453462
962.400814	2500.412308
962.700385	2462.603654
962.999918	2520.576923
963.299414	2515.535769
963.598873	2538.220962
963.898293	2570.988462
964.197677	2465.124231
964.497022	2485.288846
964.796331	2518.056346
965.095601	2467.644808
965.394835	2460.083077
965.694030	2502.932885
965.993189	2543.262115
966.292309	2528.138654
966.591393	2467.644808
966.890439	2485.288846
967.189447	2450.000769
967.488419	2560.906154
967.787353	2432.356731
968.086249	2538.220962
968.385108	2467.644808
968.683930	2545.782692
968.982714	2545.782692
969.281462	2455.041923
969.580172	2502.932885
969.878844	2513.015192
970.177480	2452.521346
970.476078	2507.974038
970.774639	2407.150962
971.073162	2495.371154
971.371649	2510.494615
971.670098	2555.865000
971.968510	2482.768269
972.266885	2462.603654
972.565223	2462.603654
972.863524	2540.741538
973.161788	2563.426731
973.460014	2399.589231
973.758204	2560.906154
974.056356	2540.741538
974.354471	2540.741538
974.652550	2540.741538
974.950591	2480.247692
975.248595	2490.330000
975.546563	2485.288846
975.844493	2414.712692
976.142386	2520.576923
976.440243	2429.836154
976.738062	2530.659231
977.035845	2442.439038
977.333590	2482.768269
977.631299	2500.412308
977.928971	2510.494615
978.226606	2545.782692
978.524204	2490.330000
978.821765	2465.124231
979.119290	2460.083077
979.416777	2485.288846
979.714228	2598.714808
980.011642	2465.124231
980.309020	2487.809423
980.606360	2465.124231
980.903664	2548.303269
981.200931	2568.467885
981.498162	2487.809423
981.795356	2467.644808
982.092513	2472.685962
982.389633	2533.179808
982.686717	2518.056346
982.983764	2442.439038
983.280775	2573.509038
983.577749	2455.041923
983.874686	2525.618077
984.171587	2548.303269
984.468451	2525.618077
984.765279	2530.659231
985.062070	2497.891731
985.358824	2533.179808
985.655543	2412.192115
985.952224	2593.673654
986.248869	2434.877308
986.545478	2462.603654
986.842050	2424.795000
987.138586	2424.795000
987.435086	2485.288846
987.731549	2507.974038
988.027975	2444.959615
988.324366	2507.974038
988.620719	2402.109808
988.917037	2502.932885
989.213318	2477.727115
989.509563	2477.727115
989.805772	2437.397885
990.101944	2495.371154
990.398080	2450.000769
990.694180	2392.027500
990.990244	2548.303269
991.286271	2462.603654
991.582262	2467.644808
991.878217	2470.165385
992.174136	2535.700385
992.470019	2452.521346
992.765865	2500.412308
993.061676	2467.644808
993.357450	2581.070769
993.653188	2427.315577
993.948890	2480.247692
994.244556	2555.865000
994.540186	2477.727115
994.835780	2495.371154
995.131337	2422.274423
995.426859	2419.753846
995.722345	2528.138654
996.017795	2432.356731
996.313208	2553.344423
996.608586	2565.947308
996.903928	2429.836154
997.199234	2472.685962
997.494504	2414.712692
997.789738	2495.371154
998.084936	2442.439038
998.380099	2419.753846
998.675225	2359.260000
998.970316	2492.850577
999.265371	2447.480192
999.560390	2475.206538
999.855373	2555.865000
1000.150320	2480.247692
1000.445232	2490.330000
1000.740108	2492.850577
1001.034948	2507.974038
1001.329752	2462.603654
1001.624521	2530.659231
1001.919254	2530.659231
1002.213951	2414.712692
1002.508613	2457.562500
1002.803239	2434.877308
1003.097829	2525.618077
1003.392384	2565.947308
1003.686903	2548.303269
1003.981386	2608.797115
1004.275834	2563.426731
1004.570246	2487.809423
1004.864623	2523.097500
1005.158964	2502.932885
1005.453270	2538.220962
1005.747540	2480.247692
1006.041775	2442.439038
1006.335974	2460.083077
1006.630138	2530.659231
1006.924266	2462.603654
1007.218359	2510.494615
1007.512416	2460.083077
1007.806438	2455.041923
1008.100425	2495.371154
1008.394376	2460.083077
1008.688292	2480.247692
1008.982172	2490.330000
1009.276017	2422.274423
1009.569827	2477.727115
1009.863602	2444.959615
1010.157341	2525.618077
1010.451045	2424.795000
1010.744714	2510.494615
1011.038347	2447.480192
1011.331945	2452.521346
1011.625508	2457.562500
1011.919036	2528.138654
1012.212528	2515.535769
1012.505986	2457.562500
1012.799408	2500.412308
1013.092795	2507.974038
1013.386147	2417.233269
1013.679464	2437.397885
1013.972745	2437.397885
1014.265992	2520.576923
1014.559204	2402.109808
1014.852380	2568.467885
1015.145521	2472.685962
1015.438628	2482.768269
1015.731699	2394.548077
1016.024736	2500.412308
1016.317737	2553.344423
1016.610703	2550.823846
1016.903635	2444.959615
1017.196531	2462.603654
1017.489393	2515.535769
1017.782219	2520.576923
1018.075011	2500.412308
1018.367768	2507.974038
1018.660490	2540.741538
1018.953177	2540.741538
1019.245829	2540.741538
