Dividing Wavelength (nm)	Counts (n)	Blue Motor Position (mm): 0.000000	Red Motor Position (mm): 6.200000	
326.493990	2059.311346
326.888308	2059.311346
327.282561	2059.311346
327.676750	2069.393654
328.070874	2139.969808
328.464933	1991.255769
328.858929	2092.078846
329.252859	2137.449231
329.646726	2076.955385
330.040528	2122.325769
330.434265	2160.134423
330.827938	2094.599423
331.221547	2213.066538
331.615091	2182.819615
332.008571	2185.340192
332.401986	2213.066538
332.795338	2190.381346
333.188625	2235.751731
333.581847	2220.628269
333.975006	2321.451346
334.368100	2326.492500
334.761129	2369.342308
335.154095	2301.286731
335.546996	2339.095385
335.939833	2369.342308
336.332606	2356.739423
336.725315	2384.465769
337.117960	2429.836154
337.510540	2389.506923
337.903056	2444.959615
338.295508	2462.603654
338.687896	2467.644808
339.080220	2465.124231
339.472480	2379.424615
339.864676	2386.986346
340.256807	2510.494615
340.648875	2407.150962
341.040879	2386.986346
341.432818	2510.494615
341.824694	2457.562500
342.216506	2450.000769
342.608253	2487.809423
342.999937	2366.821731
343.391557	2455.041923
343.783113	2467.644808
344.174605	2470.165385
344.566033	2386.986346
344.957397	2583.591346
345.348697	2422.274423
345.739934	2497.891731
346.131106	2389.506923
346.522215	2457.562500
346.913260	2525.618077
347.304241	2450.000769
347.695159	2467.644808
348.086012	2455.041923
348.476802	2447.480192
348.867528	2472.685962
349.258191	2419.753846
349.648789	2457.562500
350.039324	2528.138654
350.429796	2467.644808
350.820203	2389.506923
351.210548	2520.576923
351.600828	2437.397885
351.991045	2482.768269
352.381198	2487.809423
352.771288	2470.165385
353.161314	2414.712692
353.551276	2361.780577
353.941175	2495.371154
354.331010	2477.727115
354.720782	2525.618077
355.110490	2361.780577
355.500135	2414.712692
355.889717	2618.879423
356.279235	2497.891731
356.668689	2548.303269
357.058080	2490.330000
357.447408	2513.015192
357.836672	2412.192115
358.225873	2467.644808
358.615010	2523.097500
359.004084	2450.000769
359.393095	2399.589231
359.782043	2359.260000
360.170927	2437.397885
360.559748	2414.712692
360.948505	2480.247692
361.337199	2409.671538
361.725830	2450.000769
362.114398	2442.439038
362.502903	2472.685962
362.891344	2505.453462
363.279722	2429.836154
363.668037	2480.247692
364.056289	2465.124231
364.444478	2485.288846
364.832603	2432.356731
365.220665	2404.630385
365.608665	2369.342308
365.996601	2472.685962
366.384474	2432.356731
366.772284	2439.918462
367.160031	2447.480192
367.547715	2424.795000
367.935336	2450.000769
368.322893	2414.712692
368.710388	2399.589231
369.097820	2442.439038
369.485189	2397.068654
369.872495	2389.506923
370.259738	2462.603654
370.646918	2455.041923
371.034035	2424.795000
371.421090	2392.027500
371.808081	2394.548077
372.195010	2475.206538
372.581875	2417.233269
372.968678	2412.192115
373.355418	2394.548077
373.742096	2487.809423
374.128710	2472.685962
374.515262	2427.315577
374.901751	2460.083077
375.288177	2386.986346
375.674540	2472.685962
376.060841	2379.424615
376.447079	2457.562500
376.833254	2515.535769
377.219367	2432.356731
377.605417	2434.877308
377.991404	2434.877308
378.377329	2386.986346
378.763191	2417.233269
379.148991	2465.124231
379.534727	2381.945192
379.920402	2437.397885
380.306013	2487.809423
380.691563	2397.068654
381.077049	2381.945192
381.462474	2419.753846
381.847835	2447.480192
382.233134	2467.644808
382.618371	2437.397885
383.003545	2495.371154
383.388657	2540.741538
383.773706	2462.603654
384.158693	2523.097500
384.543618	2528.138654
384.928480	2477.727115
385.313280	2540.741538
385.698017	2424.795000
386.082692	2485.288846
386.467305	2487.809423
386.851856	2593.673654
387.236344	2495.371154
387.620770	2487.809423
388.005133	2422.274423
388.389435	2427.315577
388.773674	2404.630385
389.157851	2482.768269
389.541965	2492.850577
389.926018	2439.918462
390.310008	2528.138654
390.693936	2482.768269
391.077802	2439.918462
391.461606	2475.206538
391.845348	2460.083077
392.229027	2452.521346
392.612645	2450.000769
392.996200	2500.412308
393.379694	2432.356731
393.763125	2414.712692
394.146494	2434.877308
394.529801	2465.124231
394.913047	2500.412308
395.296230	2480.247692
395.679351	2457.562500
396.062410	2467.644808
396.445408	2437.397885
396.828343	2525.618077
397.211217	2525.618077
397.594028	2477.727115
397.976778	2482.768269
398.359466	2402.109808
398.742092	2513.015192
399.124656	2538.220962
399.507158	2457.562500
399.889598	2545.782692
400.271977	2384.465769
400.654294	2444.959615
401.036549	2442.439038
401.418742	2477.727115
401.800874	2477.727115
402.182944	2523.097500
402.564952	2462.603654
402.946898	2500.412308
403.328783	2543.262115
403.710606	2462.603654
404.092367	2424.795000
404.474067	2389.506923
404.855705	2470.165385
405.237282	2424.795000
405.618797	2525.618077
406.000250	2548.303269
406.381642	2520.576923
406.762972	2460.083077
407.144240	2472.685962
407.525447	2502.932885
407.906593	2412.192115
408.287677	2611.317692
408.668700	2434.877308
409.049661	2465.124231
409.430560	2429.836154
409.811399	2505.453462
410.192176	2495.371154
410.572891	2487.809423
410.953545	2472.685962
411.334138	2409.671538
411.714669	2507.974038
412.095139	2528.138654
412.475547	2462.603654
412.855894	2495.371154
413.236180	2444.959615
413.616405	2497.891731
413.996568	2492.850577
414.376670	2510.494615
414.756711	2502.932885
415.136691	2472.685962
415.516609	2513.015192
415.896466	2434.877308
416.276262	2444.959615
416.655997	2394.548077
417.035670	2450.000769
417.415283	2460.083077
417.794834	2487.809423
418.174324	2558.385577
418.553753	2477.727115
418.933121	2429.836154
419.312428	2450.000769
419.691674	2432.356731
420.070859	2447.480192
420.449983	2432.356731
420.829045	2465.124231
421.208047	2515.535769
421.586988	2444.959615
421.965867	2513.015192
422.344686	2439.918462
422.723444	2482.768269
423.102141	2472.685962
423.480777	2467.644808
423.859352	2586.111923
424.237866	2520.576923
424.616319	2500.412308
424.994712	2460.083077
425.373044	2432.356731
425.751314	2452.521346
426.129524	2515.535769
426.507673	2591.153077
426.885762	2510.494615
427.263789	2470.165385
427.641756	2480.247692
428.019662	2513.015192
428.397508	2510.494615
428.775292	2505.453462
429.153016	2470.165385
429.530679	2505.453462
429.908282	2450.000769
430.285824	2480.247692
430.663305	2533.179808
431.040726	2369.342308
431.418086	2457.562500
431.795385	2429.836154
432.172624	2500.412308
432.549802	2444.959615
432.926920	2510.494615
433.303977	2482.768269
433.680974	2414.712692
434.057910	2495.371154
434.434786	2492.850577
434.811601	2465.124231
435.188355	2485.288846
435.565050	2523.097500
435.941683	2457.562500
436.318257	2434.877308
436.694770	2417.233269
437.071222	2563.426731
437.447614	2444.959615
437.823946	2412.192115
438.200218	2452.521346
438.576429	2437.397885
438.952580	2520.576923
439.328670	2487.809423
439.704700	2520.576923
440.080670	2475.206538
440.456580	2487.809423
440.832429	2515.535769
441.208218	2457.562500
441.583947	2525.618077
441.959616	2568.467885
442.335224	2543.262115
442.710773	2487.809423
443.086261	2437.397885
443.461689	2457.562500
443.837057	2477.727115
444.212365	2495.371154
444.587612	2427.315577
444.962800	2492.850577
445.337927	2472.685962
445.712995	2447.480192
446.088002	2452.521346
446.462949	2487.809423
446.837837	2424.795000
447.212664	2545.782692
447.587431	2452.521346
447.962139	2470.165385
448.336786	2462.603654
448.711374	2568.467885
449.085901	2452.521346
449.460369	2525.618077
449.834776	2535.700385
450.209124	2495.371154
450.583412	2482.768269
450.957640	2495.371154
451.331808	2477.727115
451.705917	2442.439038
452.079965	2507.974038
452.453954	2414.712692
452.827883	2518.056346
453.201752	2482.768269
453.575562	2389.506923
453.949311	2407.150962
454.323001	2447.480192
454.696632	2442.439038
455.070202	2495.371154
455.443713	2510.494615
455.817164	2422.274423
456.190556	2462.603654
456.563888	2540.741538
456.937160	2472.685962
457.310373	2515.535769
457.683526	2470.165385
458.056619	2565.947308
458.429653	2540.741538
458.802628	2540.741538
459.175542	2538.220962
459.548398	2525.618077
459.921194	2447.480192
460.293930	2465.124231
460.666607	2495.371154
461.039224	2462.603654
461.411782	2472.685962
461.784280	2442.439038
462.156719	2518.056346
462.529099	2432.356731
462.901419	2576.029615
463.273680	2565.947308
463.645882	2439.918462
464.018024	2437.397885
464.390106	2439.918462
464.762130	2477.727115
465.134094	2477.727115
465.505999	2419.753846
465.877845	2538.220962
466.249631	2429.836154
466.621358	2482.768269
466.993026	2518.056346
467.364634	2505.453462
467.736184	2543.262115
468.107674	2530.659231
468.479105	2455.041923
468.850477	2507.974038
469.221790	2392.027500
469.593043	2540.741538
469.964238	2450.000769
470.335373	2502.932885
470.706449	2447.480192
471.077467	2409.671538
471.448425	2505.453462
471.819324	2495.371154
472.190164	2515.535769
472.560945	2533.179808
472.931667	2530.659231
473.302330	2467.644808
473.672934	2548.303269
474.043479	2518.056346
474.413965	2570.988462
474.784393	2515.535769
475.154761	2437.397885
475.525070	2482.768269
475.895321	2467.644808
476.265513	2520.576923
476.635645	2507.974038
477.005719	2482.768269
477.375734	2495.371154
477.745691	2523.097500
478.115588	2389.506923
478.485427	2558.385577
478.855207	2540.741538
479.224928	2457.562500
479.594591	2520.576923
479.964194	2424.795000
480.333739	2563.426731
480.703226	2581.070769
481.072653	2502.932885
481.442022	2424.795000
481.811333	2492.850577
482.180584	2520.576923
482.549777	2490.330000
482.918912	2525.618077
483.287988	2447.480192
483.657005	2485.288846
484.025964	2505.453462
484.394864	2490.330000
484.763706	2543.262115
485.132489	2472.685962
485.501213	2502.932885
485.869879	2502.932885
486.238487	2545.782692
486.607036	2515.535769
486.975527	2495.371154
487.343959	2581.070769
487.712333	2470.165385
488.080648	2432.356731
488.448905	2553.344423
488.817104	2457.562500
489.185244	2520.576923
489.553326	2490.330000
489.921350	2434.877308
490.289315	2434.877308
490.657222	2492.850577
491.025070	2570.988462
491.392861	2530.659231
491.760593	2543.262115
492.128267	2407.150962
492.495883	2540.741538
492.863440	2510.494615
493.230939	2470.165385
493.598380	2495.371154
493.965763	2518.056346
494.333088	2490.330000
494.700354	2500.412308
495.067563	2510.494615
495.434713	2452.521346
495.801805	2492.850577
496.168839	2530.659231
496.535815	2525.618077
496.902733	2419.753846
497.269593	2495.371154
497.636395	2444.959615
498.003139	2434.877308
498.369825	2543.262115
498.736453	2525.618077
499.103023	2392.027500
499.469535	2573.509038
499.835989	2467.644808
500.202385	2520.576923
500.568723	2457.562500
500.935003	2555.865000
501.301226	2560.906154
501.667390	2523.097500
502.033497	2450.000769
502.399546	2507.974038
502.765537	2513.015192
503.131470	2450.000769
503.497345	2434.877308
503.863163	2444.959615
504.228923	2568.467885
504.594625	2480.247692
504.960269	2455.041923
505.325856	2442.439038
505.691385	2457.562500
506.056856	2472.685962
506.422270	2490.330000
506.787625	2538.220962
507.152924	2439.918462
507.518164	2467.644808
507.883347	2495.371154
508.248472	2545.782692
508.613540	2452.521346
508.978550	2525.618077
509.343503	2528.138654
509.708398	2492.850577
510.073236	2543.262115
510.438016	2520.576923
510.802738	2558.385577
511.167403	2427.315577
511.532010	2475.206538
511.896561	2470.165385
512.261053	2490.330000
512.625488	2482.768269
512.989866	2497.891731
513.354186	2513.015192
513.718449	2500.412308
514.082655	2510.494615
514.446803	2495.371154
514.810894	2507.974038
515.174927	2485.288846
515.538904	2530.659231
515.902822	2455.041923
516.266684	2513.015192
516.630488	2573.509038
516.994235	2497.891731
517.357925	2444.959615
517.721558	2427.315577
518.085133	2510.494615
518.448651	2550.823846
518.812112	2513.015192
519.175516	2533.179808
519.538863	2482.768269
519.902152	2500.412308
520.265385	2490.330000
520.628560	2540.741538
520.991678	2450.000769
521.354739	2505.453462
521.717743	2495.371154
522.080690	2540.741538
522.443580	2470.165385
522.806413	2389.506923
523.169189	2422.274423
523.531908	2492.850577
523.894569	2495.371154
524.257174	2460.083077
524.619722	2434.877308
524.982213	2545.782692
525.344647	2530.659231
525.707025	2492.850577
526.069345	2500.412308
526.431608	2482.768269
526.793815	2603.755962
527.155964	2535.700385
527.518057	2545.782692
527.880093	2455.041923
528.242072	2545.782692
528.603995	2525.618077
528.965860	2467.644808
529.327669	2482.768269
529.689421	2583.591346
530.051117	2437.397885
530.412755	2553.344423
530.774337	2523.097500
531.135862	2535.700385
531.497331	2455.041923
531.858743	2442.439038
532.220098	2455.041923
532.581396	2500.412308
532.942638	2538.220962
533.303824	2427.315577
533.664953	2510.494615
534.026025	2553.344423
534.387040	2475.206538
534.747999	2518.056346
535.108902	2573.509038
535.469748	2439.918462
535.830537	2470.165385
536.191270	2467.644808
536.551947	2507.974038
536.912567	2455.041923
537.273131	2510.494615
537.633638	2520.576923
537.994089	2548.303269
538.354483	2558.385577
538.714821	2507.974038
539.075103	2465.124231
539.435328	2510.494615
539.795497	2518.056346
540.155609	2477.727115
540.515665	2452.521346
540.875665	2523.097500
541.235609	2465.124231
541.595496	2447.480192
541.955328	2563.426731
542.315102	2414.712692
542.674821	2510.494615
543.034483	2427.315577
543.394090	2492.850577
543.753640	2419.753846
544.113134	2513.015192
544.472571	2540.741538
544.831953	2523.097500
545.191278	2530.659231
545.550548	2470.165385
545.909761	2535.700385
546.268918	2581.070769
546.628019	2500.412308
546.987064	2505.453462
547.346053	2470.165385
547.704986	2447.480192
548.063863	2525.618077
548.422684	2515.535769
548.781449	2563.426731
549.140158	2565.947308
549.498811	2563.426731
549.857408	2568.467885
550.215949	2497.891731
550.574434	2460.083077
550.932864	2593.673654
551.291237	2510.494615
551.649555	2507.974038
552.007817	2513.015192
552.366022	2515.535769
552.724173	2515.535769
553.082267	2434.877308
553.440305	2548.303269
553.798288	2450.000769
554.156215	2417.233269
554.514086	2457.562500
554.871902	2578.550192
555.229661	2467.644808
555.587365	2520.576923
555.945014	2518.056346
556.302606	2502.932885
556.660143	2523.097500
557.017625	2528.138654
557.375050	2429.836154
557.732421	2573.509038
558.089735	2475.206538
558.446994	2485.288846
558.804197	2492.850577
559.161345	2490.330000
559.518437	2500.412308
559.875474	2507.974038
560.232455	2543.262115
560.589381	2384.465769
560.946251	2581.070769
561.303065	2505.453462
561.659825	2513.015192
562.016528	2384.465769
562.373177	2497.891731
562.729770	2439.918462
563.086307	2568.467885
563.442789	2490.330000
563.799216	2507.974038
564.155587	2472.685962
564.511904	2475.206538
564.868164	2477.727115
565.224370	2465.124231
565.580520	2568.467885
565.936615	2505.453462
566.292654	2492.850577
566.648638	2477.727115
567.004567	2452.521346
567.360441	2482.768269
567.716260	2452.521346
568.072023	2555.865000
568.427732	2533.179808
568.783385	2480.247692
569.138982	2540.741538
569.494525	2470.165385
569.850013	2513.015192
570.205445	2535.700385
570.560823	2515.535769
570.916145	2485.288846
571.271412	2540.741538
571.626625	2490.330000
571.981782	2482.768269
572.336884	2482.768269
572.691931	2558.385577
573.046923	2470.165385
573.401860	2505.453462
573.756743	2586.111923
574.111570	2500.412308
574.466342	2467.644808
574.821059	2490.330000
575.175722	2507.974038
575.530330	2462.603654
575.884882	2611.317692
576.239380	2548.303269
576.593823	2535.700385
576.948211	2523.097500
577.302544	2535.700385
577.656823	2465.124231
578.011047	2513.015192
578.365216	2513.015192
578.719330	2429.836154
579.073389	2492.850577
579.427394	2523.097500
579.781344	2550.823846
580.135239	2424.795000
580.489080	2520.576923
580.842866	2555.865000
581.196597	2570.988462
581.550273	2576.029615
581.903895	2538.220962
582.257463	2535.700385
582.610975	2513.015192
582.964434	2480.247692
583.317837	2422.274423
583.671186	2518.056346
584.024481	2487.809423
584.377721	2460.083077
584.730906	2424.795000
585.084037	2565.947308
585.437113	2528.138654
585.790135	2497.891731
586.143103	2510.494615
586.496016	2452.521346
586.848874	2548.303269
587.201679	2507.974038
587.554428	2497.891731
587.907124	2540.741538
588.259765	2475.206538
588.612352	2442.439038
588.964884	2392.027500
589.317362	2593.673654
589.669786	2555.865000
590.022155	2533.179808
590.374470	2540.741538
590.726731	2470.165385
591.078937	2470.165385
591.431090	2442.439038
591.783188	2570.988462
592.135232	2475.206538
592.487222	2535.700385
592.839157	2485.288846
593.191038	2419.753846
593.542866	2525.618077
593.894639	2452.521346
594.246358	2533.179808
594.598022	2457.562500
594.949633	2510.494615
595.301190	2482.768269
595.652692	2550.823846
596.004141	2485.288846
596.355535	2513.015192
596.706876	2495.371154
597.058162	2530.659231
597.409395	2450.000769
597.760573	2528.138654
598.111698	2495.371154
598.462768	2432.356731
598.813785	2444.959615
599.164748	2535.700385
599.515657	2518.056346
599.866511	2442.439038
600.217312	2510.494615
600.568060	2553.344423
600.918753	2472.685962
601.269392	2568.467885
601.619978	2500.412308
601.970510	2565.947308
602.320988	2475.206538
602.671412	2545.782692
603.021783	2497.891731
603.372100	2520.576923
603.722363	2573.509038
604.072572	2477.727115
604.422728	2472.685962
604.772830	2492.850577
605.122878	2515.535769
605.472872	2475.206538
605.822813	2523.097500
606.172701	2535.700385
606.522534	2455.041923
606.872314	2518.056346
607.222041	2492.850577
607.571714	2480.247692
607.921333	2543.262115
608.270899	2573.509038
608.620411	2477.727115
608.969870	2510.494615
609.319276	2485.288846
609.668627	2470.165385
610.017926	2465.124231
610.367171	2513.015192
610.716362	2455.041923
611.065500	2472.685962
611.414585	2560.906154
611.763616	2477.727115
612.112594	2505.453462
612.461518	2487.809423
612.810389	2465.124231
613.159207	2530.659231
613.507971	2507.974038
613.856682	2477.727115
614.205340	2528.138654
614.553945	2462.603654
614.902496	2560.906154
615.250994	2452.521346
615.599439	2543.262115
615.947830	2568.467885
616.296169	2520.576923
616.644454	2576.029615
616.992686	2480.247692
617.340864	2510.494615
617.688990	2442.439038
618.037063	2460.083077
618.385082	2472.685962
618.733048	2490.330000
619.080961	2505.453462
619.428821	2495.371154
619.776628	2490.330000
620.124382	2450.000769
620.472083	2505.453462
620.819731	2462.603654
621.167326	2528.138654
621.514868	2505.453462
621.862357	2439.918462
622.209793	2492.850577
622.557176	2470.165385
622.904506	2513.015192
623.251783	2386.986346
623.599007	2439.918462
623.946179	2505.453462
624.293297	2429.836154
624.640363	2591.153077
624.987376	2437.397885
625.334336	2419.753846
625.681243	2497.891731
626.028097	2434.877308
626.374899	2505.453462
626.721647	2472.685962
627.068343	2500.412308
627.414987	2477.727115
627.761577	2563.426731
628.108115	2467.644808
628.454600	2495.371154
628.801032	2550.823846
629.147412	2538.220962
629.493739	2384.465769
629.840014	2513.015192
630.186236	2553.344423
630.532405	2475.206538
630.878521	2442.439038
631.224585	2407.150962
631.570597	2540.741538
631.916556	2450.000769
632.262462	2507.974038
632.608316	2414.712692
632.954117	2518.056346
633.299866	2500.412308
633.645562	2434.877308
633.991206	2462.603654
634.336797	2523.097500
634.682336	2472.685962
635.027823	2505.453462
635.373257	2518.056346
635.718639	2480.247692
636.063968	2465.124231
636.409245	2475.206538
636.754470	2477.727115
637.099642	2568.467885
637.444762	2515.535769
637.789829	2472.685962
638.134845	2477.727115
638.479808	2457.562500
638.824719	2452.521346
639.169577	2482.768269
639.514383	2525.618077
639.859137	2598.714808
640.203839	2482.768269
640.548489	2480.247692
640.893086	2470.165385
641.237632	2578.550192
641.582125	2442.439038
641.926566	2465.124231
642.270955	2429.836154
642.615292	2550.823846
642.959576	2462.603654
643.303809	2535.700385
643.647990	2518.056346
643.992118	2455.041923
644.336195	2429.836154
644.680219	2535.700385
645.024192	2548.303269
645.368112	2583.591346
645.711981	2507.974038
646.055797	2434.877308
646.399562	2548.303269
646.743274	2472.685962
647.086935	2485.288846
647.430544	2523.097500
647.774101	2578.550192
648.117606	2442.439038
648.461059	2570.988462
648.804460	2482.768269
649.147810	2555.865000
649.491108	2432.356731
649.834354	2460.083077
650.177548	2424.795000
650.520690	2540.741538
650.863781	2462.603654
651.206820	2500.412308
651.549807	2450.000769
651.892742	2412.192115
652.235626	2465.124231
652.578458	2515.535769
652.921238	2455.041923
653.263967	2465.124231
653.606644	2525.618077
653.949269	2553.344423
654.291843	2513.015192
654.634365	2507.974038
654.976836	2482.768269
655.319255	2543.262115
655.661622	2520.576923
656.003938	2465.124231
656.346203	2533.179808
656.688416	2490.330000
657.030577	2414.712692
657.372687	2485.288846
657.714746	2467.644808
658.056753	2576.029615
658.398708	2535.700385
658.740612	2553.344423
659.082465	2518.056346
659.424266	2467.644808
659.766016	2543.262115
660.107715	2482.768269
660.449362	2500.412308
660.790958	2497.891731
661.132503	2397.068654
661.473996	2550.823846
661.815438	2550.823846
662.156829	2535.700385
662.498168	2528.138654
662.839456	2407.150962
663.180693	2570.988462
663.521879	2470.165385
663.863013	2518.056346
664.204097	2467.644808
664.545129	2437.397885
664.886110	2581.070769
665.227040	2581.070769
665.567918	2447.480192
665.908746	2507.974038
666.249522	2452.521346
666.590248	2505.453462
666.930922	2525.618077
667.271545	2528.138654
667.612118	2543.262115
667.952639	2570.988462
668.293109	2513.015192
668.633528	2492.850577
668.973896	2427.315577
669.314213	2480.247692
669.654480	2465.124231
669.994695	2480.247692
670.334859	2560.906154
670.674973	2492.850577
671.015035	2601.235385
671.355047	2467.644808
671.695008	2560.906154
672.034918	2510.494615
672.374777	2480.247692
672.714585	2490.330000
673.054342	2538.220962
673.394049	2500.412308
673.733705	2485.288846
674.073310	2444.959615
674.412864	2505.453462
674.752368	2563.426731
675.091820	2540.741538
675.431223	2513.015192
675.770574	2563.426731
676.109875	2507.974038
676.449125	2520.576923
676.788324	2455.041923
677.127473	2520.576923
677.466571	2540.741538
677.805619	2518.056346
678.144616	2500.412308
678.483562	2497.891731
678.822458	2510.494615
679.161303	2465.124231
679.500098	2588.632500
679.838842	2621.400000
680.177535	2497.891731
680.516179	2530.659231
680.854771	2548.303269
681.193314	2462.603654
681.531805	2465.124231
681.870247	2472.685962
682.208638	2550.823846
682.546978	2462.603654
682.885268	2560.906154
683.223508	2447.480192
683.561697	2530.659231
683.899836	2555.865000
684.237925	2550.823846
684.575963	2500.412308
684.913951	2477.727115
685.251889	2495.371154
685.589776	2538.220962
685.927614	2510.494615
686.265401	2500.412308
686.603137	2452.521346
686.940824	2497.891731
687.278460	2487.809423
687.616046	2444.959615
687.953582	2550.823846
688.291068	2570.988462
688.628504	2412.192115
688.965889	2553.344423
689.303224	2442.439038
689.640510	2465.124231
689.977745	2510.494615
690.314930	2535.700385
690.652065	2520.576923
690.989150	2485.288846
691.326185	2402.109808
691.663170	2510.494615
692.000105	2447.480192
692.336990	2465.124231
692.673825	2513.015192
693.010610	2480.247692
693.347345	2480.247692
693.684030	2513.015192
694.020665	2553.344423
694.357251	2500.412308
694.693786	2450.000769
695.030272	2591.153077
695.366707	2450.000769
695.703093	2520.576923
696.039429	2621.400000
696.375716	2414.712692
696.711952	2525.618077
697.048139	2460.083077
697.384276	2384.465769
697.720363	2500.412308
698.056400	2462.603654
698.392388	2533.179808
698.728326	2601.235385
699.064214	2507.974038
699.400053	2434.877308
699.735842	2570.988462
700.071581	2475.206538
700.407270	2520.576923
700.742910	2502.932885
701.078501	2548.303269
701.414042	2465.124231
701.749533	2578.550192
702.084974	2555.865000
702.420366	2465.124231
702.755709	2528.138654
703.091002	2457.562500
703.426246	2467.644808
703.761440	2553.344423
704.096584	2553.344423
704.431679	2518.056346
704.766725	2507.974038
705.101721	2513.015192
705.436668	2475.206538
705.771565	2480.247692
706.106413	2477.727115
706.441212	2573.509038
706.775961	2530.659231
707.110661	2528.138654
707.445311	2495.371154
707.779913	2583.591346
708.114465	2475.206538
708.448967	2384.465769
708.783421	2482.768269
709.117825	2402.109808
709.452180	2485.288846
709.786485	2417.233269
710.120742	2528.138654
710.454949	2545.782692
710.789107	2485.288846
711.123216	2553.344423
711.457275	2533.179808
711.791286	2477.727115
712.125247	2533.179808
712.459159	2427.315577
712.793023	2495.371154
713.126837	2560.906154
713.460602	2452.521346
713.794318	2500.412308
714.127985	2507.974038
714.461602	2497.891731
714.795171	2419.753846
715.128691	2535.700385
715.462162	2485.288846
715.795584	2518.056346
716.128957	2477.727115
716.462281	2570.988462
716.795556	2447.480192
717.128782	2543.262115
717.461960	2502.932885
717.795088	2497.891731
718.128167	2495.371154
718.461198	2502.932885
718.794180	2460.083077
719.127113	2555.865000
719.459997	2437.397885
719.792833	2523.097500
720.125619	2576.029615
720.458357	2434.877308
720.791046	2513.015192
721.123686	2533.179808
721.456278	2500.412308
721.788821	2553.344423
722.121315	2518.056346
722.453761	2525.618077
722.786158	2475.206538
723.118506	2480.247692
723.450805	2495.371154
723.783056	2533.179808
724.115259	2477.727115
724.447412	2573.509038
724.779518	2535.700385
725.111574	2507.974038
725.443582	2439.918462
725.775542	2437.397885
726.107453	2500.412308
726.439315	2558.385577
726.771129	2513.015192
727.102895	2505.453462
727.434612	2447.480192
727.766281	2555.865000
728.097901	2497.891731
728.429473	2460.083077
728.760996	2523.097500
729.092471	2538.220962
729.423897	2442.439038
729.755276	2513.015192
730.086606	2510.494615
730.417887	2480.247692
730.749120	2497.891731
731.080305	2490.330000
731.411442	2450.000769
731.742530	2510.494615
732.073570	2450.000769
732.404562	2538.220962
732.735506	2444.959615
733.066401	2535.700385
733.397249	2540.741538
733.728048	2530.659231
734.058798	2502.932885
734.389501	2513.015192
734.720156	2427.315577
735.050762	2460.083077
735.381320	2475.206538
735.711831	2480.247692
736.042293	2520.576923
736.372707	2507.974038
736.703073	2535.700385
737.033391	2447.480192
737.363661	2510.494615
737.693883	2444.959615
738.024056	2422.274423
738.354182	2528.138654
738.684260	2447.480192
739.014290	2550.823846
739.344272	2518.056346
739.674207	2470.165385
740.004093	2603.755962
740.333931	2533.179808
740.663722	2429.836154
740.993464	2513.015192
741.323159	2439.918462
741.652806	2434.877308
741.982405	2510.494615
742.311956	2475.206538
742.641460	2490.330000
742.970915	2439.918462
743.300323	2437.397885
743.629683	2525.618077
743.958996	2543.262115
744.288260	2490.330000
744.617477	2500.412308
744.946647	2427.315577
745.275768	2533.179808
745.604842	2470.165385
745.933869	2555.865000
746.262847	2485.288846
746.591778	2487.809423
746.920662	2419.753846
747.249498	2505.453462
747.578286	2502.932885
747.907027	2467.644808
748.235720	2397.068654
748.564365	2424.795000
748.892963	2513.015192
749.221514	2465.124231
749.550017	2523.097500
749.878473	2482.768269
750.206881	2487.809423
750.535242	2475.206538
750.863555	2513.015192
751.191821	2515.535769
751.520039	2540.741538
751.848210	2422.274423
752.176334	2381.945192
752.504411	2515.535769
752.832440	2507.974038
753.160421	2475.206538
753.488356	2530.659231
753.816243	2439.918462
754.144082	2523.097500
754.471875	2437.397885
754.799620	2553.344423
755.127318	2429.836154
755.454969	2495.371154
755.782572	2550.823846
756.110129	2462.603654
756.437638	2485.288846
756.765100	2450.000769
757.092515	2487.809423
757.419882	2545.782692
757.747203	2520.576923
758.074477	2518.056346
758.401703	2535.700385
758.728882	2442.439038
759.056014	2437.397885
759.383099	2470.165385
759.710138	2482.768269
760.037129	2513.015192
760.364073	2490.330000
760.690970	2523.097500
761.017820	2530.659231
761.344623	2450.000769
761.671379	2439.918462
761.998088	2485.288846
762.324751	2404.630385
762.651366	2424.795000
762.977935	2576.029615
763.304456	2515.535769
763.630931	2437.397885
763.957359	2507.974038
764.283740	2543.262115
764.610074	2487.809423
764.936362	2588.632500
765.262602	2487.809423
765.588796	2548.303269
765.914943	2444.959615
766.241044	2507.974038
766.567097	2482.768269
766.893104	2538.220962
767.219064	2502.932885
767.544978	2447.480192
767.870845	2487.809423
768.196665	2444.959615
768.522438	2507.974038
768.848165	2475.206538
769.173846	2573.509038
769.499479	2654.167500
769.825066	2492.850577
770.150607	2578.550192
770.476101	2447.480192
770.801548	2505.453462
771.126949	2414.712692
771.452303	2399.589231
771.777611	2558.385577
772.102872	2518.056346
772.428087	2492.850577
772.753256	2487.809423
773.078378	2515.535769
773.403453	2528.138654
773.728482	2482.768269
774.053465	2495.371154
774.378401	2563.426731
774.703291	2462.603654
775.028135	2528.138654
775.352932	2510.494615
775.677683	2457.562500
776.002388	2515.535769
776.327046	2530.659231
776.651658	2533.179808
776.976224	2470.165385
777.300743	2533.179808
777.625216	2502.932885
777.949643	2490.330000
778.274024	2485.288846
778.598359	2490.330000
778.922647	2525.618077
779.246889	2505.453462
779.571086	2424.795000
779.895236	2497.891731
780.219339	2434.877308
780.543397	2442.439038
780.867409	2472.685962
781.191374	2558.385577
781.515294	2472.685962
781.839167	2487.809423
782.162995	2434.877308
782.486776	2515.535769
782.810511	2432.356731
783.134201	2475.206538
783.457844	2558.385577
783.781441	2523.097500
784.104993	2472.685962
784.428498	2505.453462
784.751958	2598.714808
785.075372	2507.974038
785.398739	2601.235385
785.722061	2565.947308
786.045337	2462.603654
786.368568	2467.644808
786.691752	2502.932885
787.014891	2576.029615
787.337983	2437.397885
787.661030	2490.330000
787.984031	2462.603654
788.306987	2485.288846
788.629897	2457.562500
788.952760	2472.685962
789.275579	2586.111923
789.598351	2470.165385
789.921078	2533.179808
790.243759	2528.138654
790.566395	2535.700385
790.888984	2518.056346
791.211529	2500.412308
791.534027	2465.124231
791.856480	2513.015192
792.178888	2442.439038
792.501249	2442.439038
792.823566	2465.124231
793.145836	2432.356731
793.468062	2510.494615
793.790241	2480.247692
794.112375	2470.165385
794.434464	2447.480192
794.756507	2485.288846
795.078505	2460.083077
795.400457	2515.535769
795.722364	2480.247692
796.044226	2447.480192
796.366042	2507.974038
796.687812	2470.165385
797.009538	2467.644808
797.331218	2586.111923
797.652852	2533.179808
797.974442	2513.015192
798.295986	2510.494615
798.617484	2518.056346
798.938938	2513.015192
799.260346	2505.453462
799.581709	2510.494615
799.903026	2530.659231
800.224299	2558.385577
800.545526	2505.453462
800.866708	2472.685962
801.187845	2535.700385
801.508936	2520.576923
801.829983	2492.850577
802.150984	2528.138654
802.471940	2434.877308
802.792851	2472.685962
803.113717	2520.576923
803.434538	2525.618077
803.755314	2518.056346
804.076045	2467.644808
804.396731	2455.041923
804.717372	2525.618077
805.037967	2462.603654
805.358518	2502.932885
805.679024	2492.850577
805.999485	2487.809423
806.319901	2502.932885
806.640272	2510.494615
806.960598	2545.782692
807.280879	2424.795000
807.601115	2513.015192
807.921306	2515.535769
808.241453	2444.959615
808.561554	2492.850577
808.881611	2487.809423
809.201623	2465.124231
809.521590	2482.768269
809.841513	2467.644808
810.161390	2480.247692
810.481223	2437.397885
810.801011	2533.179808
811.120755	2530.659231
811.440453	2497.891731
811.760107	2555.865000
812.079716	2492.850577
812.399281	2490.330000
812.718801	2500.412308
813.038276	2452.521346
813.357707	2447.480192
813.677093	2535.700385
813.996434	2545.782692
814.315731	2550.823846
814.634983	2555.865000
814.954191	2507.974038
815.273354	2477.727115
815.592473	2447.480192
815.911547	2535.700385
816.230577	2487.809423
816.549562	2487.809423
816.868502	2518.056346
817.187399	2553.344423
817.506250	2452.521346
817.825058	2482.768269
818.143821	2538.220962
818.462539	2507.974038
818.781213	2530.659231
819.099843	2465.124231
819.418429	2470.165385
819.736970	2462.603654
820.055466	2568.467885
820.373919	2470.165385
820.692327	2492.850577
821.010691	2550.823846
821.329011	2510.494615
821.647286	2497.891731
821.965517	2495.371154
822.283704	2550.823846
822.601847	2475.206538
822.919945	2465.124231
823.237999	2427.315577
823.556010	2578.550192
823.873976	2505.453462
824.191897	2523.097500
824.509775	2442.439038
824.827609	2402.109808
825.145398	2492.850577
825.463144	2533.179808
825.780845	2455.041923
826.098502	2576.029615
826.416116	2560.906154
826.733685	2485.288846
827.051210	2555.865000
827.368692	2447.480192
827.686129	2487.809423
828.003522	2450.000769
828.320872	2588.632500
828.638177	2502.932885
828.955439	2492.850577
829.272656	2457.562500
829.589830	2606.276538
829.906960	2487.809423
830.224046	2460.083077
830.541088	2434.877308
830.858086	2538.220962
831.175041	2482.768269
831.491952	2492.850577
831.808819	2450.000769
832.125642	2417.233269
832.442421	2497.891731
832.759157	2540.741538
833.075849	2510.494615
833.392497	2515.535769
833.709101	2477.727115
834.025662	2497.891731
834.342179	2470.165385
834.658653	2475.206538
834.975083	2492.850577
835.291469	2548.303269
835.607811	2543.262115
835.924110	2475.206538
836.240366	2497.891731
836.556578	2540.741538
836.872746	2502.932885
837.188871	2560.906154
837.504952	2497.891731
837.820990	2528.138654
838.136984	2515.535769
838.452935	2510.494615
838.768842	2530.659231
839.084706	2492.850577
839.400526	2452.521346
839.716303	2477.727115
840.032037	2500.412308
840.347727	2515.535769
840.663373	2480.247692
840.978977	2399.589231
841.294537	2472.685962
841.610054	2475.206538
841.925527	2462.603654
842.240957	2480.247692
842.556344	2520.576923
842.871687	2560.906154
843.186987	2417.233269
843.502244	2465.124231
843.817458	2470.165385
844.132629	2490.330000
844.447756	2490.330000
844.762840	2472.685962
845.077881	2412.192115
845.392879	2490.330000
845.707833	2419.753846
846.022745	2490.330000
846.337613	2465.124231
846.652438	2510.494615
846.967221	2455.041923
847.281960	2520.576923
847.596656	2500.412308
847.911309	2507.974038
848.225919	2470.165385
848.540485	2523.097500
848.855009	2455.041923
849.169490	2465.124231
849.483928	2412.192115
849.798323	2465.124231
850.112675	2480.247692
850.426984	2472.685962
850.741251	2457.562500
851.055474	2560.906154
851.369654	2452.521346
851.683792	2515.535769
851.997887	2465.124231
852.311938	2558.385577
852.625947	2505.453462
852.939914	2586.111923
853.253837	2492.850577
853.567718	2548.303269
853.881555	2452.521346
854.195350	2543.262115
854.509103	2447.480192
854.822812	2535.700385
855.136479	2457.562500
855.450103	2505.453462
855.763685	2515.535769
856.077224	2593.673654
856.390720	2407.150962
856.704173	2518.056346
857.017584	2452.521346
857.330953	2528.138654
857.644278	2465.124231
857.957561	2568.467885
858.270802	2487.809423
858.584000	2444.959615
858.897155	2492.850577
859.210268	2533.179808
859.523339	2487.809423
859.836367	2538.220962
860.149352	2462.603654
860.462295	2515.535769
860.775195	2530.659231
861.088054	2538.220962
861.400869	2467.644808
861.713642	2470.165385
862.026373	2452.521346
862.339062	2475.206538
862.651708	2528.138654
862.964312	2523.097500
863.276873	2515.535769
863.589392	2455.041923
863.901869	2518.056346
864.214303	2467.644808
864.526696	2535.700385
864.839045	2492.850577
865.151353	2467.644808
865.463619	2447.480192
865.775842	2452.521346
866.088023	2543.262115
866.400162	2434.877308
866.712258	2482.768269
867.024313	2467.644808
867.336325	2434.877308
867.648296	2460.083077
867.960224	2543.262115
868.272110	2444.959615
868.583954	2507.974038
868.895755	2442.439038
869.207515	2505.453462
869.519233	2570.988462
869.830909	2507.974038
870.142542	2497.891731
870.454134	2515.535769
870.765684	2472.685962
871.077191	2475.206538
871.388657	2487.809423
871.700081	2432.356731
872.011463	2487.809423
872.322803	2475.206538
872.634101	2427.315577
872.945357	2432.356731
873.256571	2485.288846
873.567744	2528.138654
873.878874	2472.685962
874.189963	2538.220962
874.501010	2545.782692
874.812015	2482.768269
875.122979	2568.467885
875.433900	2470.165385
875.744780	2467.644808
876.055618	2407.150962
876.366415	2500.412308
876.677169	2462.603654
876.987882	2495.371154
877.298554	2502.932885
877.609183	2502.932885
877.919771	2475.206538
878.230317	2475.206538
878.540822	2397.068654
878.851285	2495.371154
879.161707	2434.877308
879.472087	2472.685962
879.782425	2442.439038
880.092722	2427.315577
880.402977	2568.467885
880.713191	2538.220962
881.023363	2465.124231
881.333494	2465.124231
881.643583	2477.727115
881.953631	2407.150962
882.263637	2513.015192
882.573602	2502.932885
882.883526	2518.056346
883.193408	2528.138654
883.503248	2442.439038
883.813048	2606.276538
884.122806	2535.700385
884.432522	2417.233269
884.742197	2578.550192
885.051831	2460.083077
885.361424	2533.179808
885.670975	2497.891731
885.980485	2437.397885
886.289954	2492.850577
886.599382	2429.836154
886.908768	2475.206538
887.218113	2472.685962
887.527417	2533.179808
887.836680	2424.795000
888.145901	2606.276538
888.455082	2568.467885
888.764221	2505.453462
889.073319	2480.247692
889.382376	2432.356731
889.691392	2427.315577
890.000366	2482.768269
890.309300	2457.562500
890.618193	2475.206538
890.927044	2485.288846
891.235855	2452.521346
891.544625	2555.865000
891.853353	2452.521346
892.162041	2432.356731
892.470687	2518.056346
892.779293	2450.000769
893.087858	2518.056346
893.396381	2419.753846
893.704864	2525.618077
894.013306	2447.480192
894.321707	2545.782692
894.630068	2487.809423
894.938387	2550.823846
895.246665	2472.685962
895.554903	2386.986346
895.863100	2472.685962
896.171256	2523.097500
896.479371	2475.206538
896.787446	2525.618077
897.095480	2462.603654
897.403473	2485.288846
897.711425	2480.247692
898.019336	2422.274423
898.327207	2487.809423
898.635038	2540.741538
898.942827	2507.974038
899.250576	2525.618077
899.558284	2455.041923
899.865952	2513.015192
900.173579	2550.823846
900.481165	2452.521346
900.788711	2518.056346
901.096216	2472.685962
901.403681	2455.041923
901.711105	2500.412308
902.018489	2510.494615
902.325832	2507.974038
902.633135	2515.535769
902.940397	2528.138654
903.247619	2444.959615
903.554800	2460.083077
903.861941	2518.056346
904.169041	2467.644808
904.476101	2482.768269
904.783121	2507.974038
905.090100	2525.618077
905.397039	2497.891731
905.703938	2523.097500
906.010796	2475.206538
906.317614	2412.192115
906.624391	2513.015192
906.931129	2432.356731
907.237826	2490.330000
907.544483	2412.192115
907.851099	2455.041923
908.157675	2480.247692
908.464211	2389.506923
908.770707	2485.288846
909.077163	2384.465769
909.383578	2523.097500
909.689954	2500.412308
909.996289	2455.041923
910.302584	2442.439038
910.608839	2467.644808
910.915054	2475.206538
911.221229	2505.453462
911.527363	2457.562500
911.833458	2525.618077
912.139513	2462.603654
912.445527	2523.097500
912.751502	2477.727115
913.057436	2492.850577
913.363331	2507.974038
913.669186	2550.823846
913.975000	2505.453462
914.280775	2507.974038
914.586510	2510.494615
914.892205	2507.974038
915.197859	2525.618077
915.503475	2528.138654
915.809050	2462.603654
916.114585	2465.124231
916.420081	2482.768269
916.725536	2507.974038
917.030952	2397.068654
917.336328	2450.000769
917.641665	2467.644808
917.946961	2550.823846
918.252218	2518.056346
918.557435	2518.056346
918.862612	2520.576923
919.167750	2472.685962
919.472848	2465.124231
919.777906	2528.138654
920.082925	2533.179808
920.387904	2470.165385
920.692843	2429.836154
920.997743	2558.385577
921.302603	2467.644808
921.607423	2505.453462
921.912204	2495.371154
922.216946	2429.836154
922.521647	2533.179808
922.826310	2427.315577
923.130932	2573.509038
923.435516	2462.603654
923.740059	2545.782692
924.044564	2434.877308
924.349028	2528.138654
924.653454	2500.412308
924.957840	2470.165385
925.262186	2538.220962
925.566493	2588.632500
925.870761	2432.356731
926.174989	2525.618077
926.479178	2460.083077
926.783328	2467.644808
927.087438	2492.850577
927.391509	2490.330000
927.695541	2432.356731
927.999533	2510.494615
928.303486	2462.603654
928.607400	2505.453462
928.911275	2470.165385
929.215110	2490.330000
929.518906	2515.535769
929.822663	2485.288846
930.126381	2437.397885
930.430060	2475.206538
930.733699	2510.494615
931.037299	2472.685962
931.340861	2412.192115
931.644383	2432.356731
931.947866	2528.138654
932.251309	2520.576923
932.554714	2444.959615
932.858080	2465.124231
933.161407	2510.494615
933.464694	2553.344423
933.767943	2510.494615
934.071153	2507.974038
934.374323	2492.850577
934.677455	2485.288846
934.980548	2555.865000
935.283602	2480.247692
935.586617	2477.727115
935.889593	2465.124231
936.192530	2528.138654
936.495428	2462.603654
936.798287	2520.576923
937.101108	2497.891731
937.403890	2563.426731
937.706632	2533.179808
938.009336	2510.494615
938.312002	2485.288846
938.614628	2412.192115
938.917216	2475.206538
939.219765	2429.836154
939.522275	2505.453462
939.824747	2477.727115
940.127179	2500.412308
940.429573	2482.768269
940.731929	2490.330000
941.034246	2437.397885
941.336524	2381.945192
941.638763	2485.288846
941.940964	2515.535769
942.243126	2535.700385
942.545250	2487.809423
942.847335	2480.247692
943.149381	2502.932885
943.451389	2523.097500
943.753359	2467.644808
944.055290	2376.904038
944.357182	2505.453462
944.659036	2419.753846
944.960851	2500.412308
945.262628	2548.303269
945.564367	2513.015192
945.866067	2462.603654
946.167729	2490.330000
946.469352	2495.371154
946.770937	2497.891731
947.072484	2500.412308
947.373992	2480.247692
947.675462	2490.330000
947.976893	2518.056346
948.278286	2392.027500
948.579641	2515.535769
948.880958	2460.083077
949.182236	2465.124231
949.483476	2452.521346
949.784678	2520.576923
950.085841	2432.356731
950.386967	2581.070769
950.688054	2472.685962
950.989103	2540.741538
951.290114	2419.753846
951.591087	2530.659231
951.892021	2404.630385
952.192917	2465.124231
952.493776	2465.124231
952.794596	2450.000769
953.095378	2439.918462
953.396122	2452.521346
953.696828	2518.056346
953.997496	2502.932885
954.298126	2611.317692
954.598718	2480.247692
954.899272	2434.877308
955.199788	2452.521346
955.500266	2530.659231
955.800706	2530.659231
956.101108	2399.589231
956.401472	2437.397885
956.701798	2450.000769
957.002087	2444.959615
957.302337	2525.618077
957.602550	2485.288846
957.902724	2467.644808
958.202861	2455.041923
958.502960	2492.850577
958.803022	2442.439038
959.103045	2442.439038
959.403031	2523.097500
959.702979	2452.521346
960.002889	2601.235385
960.302762	2490.330000
960.602596	2485.288846
960.902393	2525.618077
961.202153	2470.165385
961.501875	2550.823846
961.801559	2485.288846
962.101205	2487.809423
962.400814	2472.685962
962.700385	2455.041923
962.999918	2490.330000
963.299414	2477.727115
963.598873	2452.521346
963.898293	2465.124231
964.197677	2533.179808
964.497022	2465.124231
964.796331	2507.974038
965.095601	2520.576923
965.394835	2482.768269
965.694030	2470.165385
965.993189	2528.138654
966.292309	2437.397885
966.591393	2525.618077
966.890439	2444.959615
967.189447	2500.412308
967.488419	2442.439038
967.787353	2558.385577
968.086249	2492.850577
968.385108	2528.138654
968.683930	2480.247692
968.982714	2475.206538
969.281462	2477.727115
969.580172	2480.247692
969.878844	2462.603654
970.177480	2570.988462
970.476078	2482.768269
970.774639	2513.015192
971.073162	2500.412308
971.371649	2424.795000
971.670098	2414.712692
971.968510	2490.330000
972.266885	2520.576923
972.565223	2460.083077
972.863524	2472.685962
973.161788	2452.521346
973.460014	2525.618077
973.758204	2439.918462
974.056356	2419.753846
974.354471	2404.630385
974.652550	2485.288846
974.950591	2432.356731
975.248595	2510.494615
975.546563	2470.165385
975.844493	2477.727115
976.142386	2457.562500
976.440243	2490.330000
976.738062	2480.247692
977.035845	2495.371154
977.333590	2457.562500
977.631299	2507.974038
977.928971	2540.741538
978.226606	2611.317692
978.524204	2528.138654
978.821765	2523.097500
979.119290	2573.509038
979.416777	2424.795000
979.714228	2596.194231
980.011642	2432.356731
980.309020	2515.535769
980.606360	2545.782692
980.903664	2457.562500
981.200931	2492.850577
981.498162	2515.535769
981.795356	2513.015192
982.092513	2462.603654
982.389633	2462.603654
982.686717	2490.330000
982.983764	2538.220962
983.280775	2520.576923
983.577749	2515.535769
983.874686	2429.836154
984.171587	2379.424615
984.468451	2553.344423
984.765279	2550.823846
985.062070	2548.303269
985.358824	2495.371154
985.655543	2505.453462
985.952224	2475.206538
986.248869	2490.330000
986.545478	2477.727115
986.842050	2497.891731
987.138586	2518.056346
987.435086	2543.262115
987.731549	2450.000769
988.027975	2548.303269
988.324366	2543.262115
988.620719	2447.480192
988.917037	2500.412308
989.213318	2505.453462
989.509563	2492.850577
989.805772	2485.288846
990.101944	2502.932885
990.398080	2540.741538
990.694180	2528.138654
990.990244	2530.659231
991.286271	2457.562500
991.582262	2480.247692
991.878217	2530.659231
992.174136	2513.015192
992.470019	2555.865000
992.765865	2513.015192
993.061676	2565.947308
993.357450	2525.618077
993.653188	2581.070769
993.948890	2523.097500
994.244556	2500.412308
994.540186	2487.809423
994.835780	2548.303269
995.131337	2480.247692
995.426859	2510.494615
995.722345	2490.330000
996.017795	2553.344423
996.313208	2452.521346
996.608586	2560.906154
996.903928	2515.535769
997.199234	2525.618077
997.494504	2525.618077
997.789738	2540.741538
998.084936	2460.083077
998.380099	2497.891731
998.675225	2482.768269
998.970316	2533.179808
999.265371	2525.618077
999.560390	2470.165385
999.855373	2507.974038
1000.150320	2414.712692
1000.445232	2540.741538
1000.740108	2442.439038
1001.034948	2550.823846
1001.329752	2482.768269
1001.624521	2568.467885
1001.919254	2429.836154
1002.213951	2570.988462
1002.508613	2465.124231
1002.803239	2505.453462
1003.097829	2548.303269
1003.392384	2560.906154
1003.686903	2470.165385
1003.981386	2573.509038
1004.275834	2462.603654
1004.570246	2513.015192
1004.864623	2555.865000
1005.158964	2565.947308
1005.453270	2495.371154
1005.747540	2495.371154
1006.041775	2515.535769
1006.335974	2482.768269
1006.630138	2427.315577
1006.924266	2497.891731
1007.218359	2533.179808
1007.512416	2492.850577
1007.806438	2515.535769
1008.100425	2482.768269
1008.394376	2507.974038
1008.688292	2525.618077
1008.982172	2404.630385
1009.276017	2513.015192
1009.569827	2490.330000
1009.863602	2502.932885
1010.157341	2492.850577
1010.451045	2462.603654
1010.744714	2535.700385
1011.038347	2565.947308
1011.331945	2450.000769
1011.625508	2500.412308
1011.919036	2480.247692
1012.212528	2528.138654
1012.505986	2477.727115
1012.799408	2570.988462
1013.092795	2465.124231
1013.386147	2485.288846
1013.679464	2487.809423
1013.972745	2543.262115
1014.265992	2545.782692
1014.559204	2538.220962
1014.852380	2452.521346
1015.145521	2467.644808
1015.438628	2540.741538
1015.731699	2513.015192
1016.024736	2543.262115
1016.317737	2419.753846
1016.610703	2518.056346
1016.903635	2515.535769
1017.196531	2450.000769
1017.489393	2389.506923
1017.782219	2444.959615
1018.075011	2482.768269
1018.367768	2523.097500
1018.660490	2510.494615
1018.953177	2510.494615
1019.245829	2510.494615
