Dividing Wavelength (nm)	Counts (n)	Blue Motor Position (mm): 0.000000	Red Motor Position (mm): 1.600000	
326.493990	2112.243462
326.888308	2112.243462
327.282561	2112.243462
327.676750	2092.078846
328.070874	2104.681731
328.464933	2054.270192
328.858929	2076.955385
329.252859	2107.202308
329.646726	2155.093269
330.040528	2059.311346
330.434265	2139.969808
330.827938	2182.819615
331.221547	2192.901923
331.615091	2109.722885
332.008571	2142.490385
332.401986	2273.560385
332.795338	2145.010962
333.188625	2235.751731
333.581847	2223.148846
333.975006	2316.410192
334.368100	2296.245577
334.761129	2336.574808
335.154095	2276.080962
335.546996	2276.080962
335.939833	2351.698269
336.332606	2417.233269
336.725315	2392.027500
337.117960	2371.862885
337.510540	2392.027500
337.903056	2540.741538
338.295508	2417.233269
338.687896	2384.465769
339.080220	2475.206538
339.472480	2485.288846
339.864676	2520.576923
340.256807	2417.233269
340.648875	2497.891731
341.040879	2518.056346
341.432818	2502.932885
341.824694	2535.700385
342.216506	2407.150962
342.608253	2437.397885
342.999937	2487.809423
343.391557	2495.371154
343.783113	2538.220962
344.174605	2467.644808
344.566033	2452.521346
344.957397	2457.562500
345.348697	2462.603654
345.739934	2457.562500
346.131106	2492.850577
346.522215	2455.041923
346.913260	2482.768269
347.304241	2429.836154
347.695159	2533.179808
348.086012	2465.124231
348.476802	2472.685962
348.867528	2384.465769
349.258191	2414.712692
349.648789	2470.165385
350.039324	2472.685962
350.429796	2384.465769
350.820203	2437.397885
351.210548	2462.603654
351.600828	2515.535769
351.991045	2495.371154
352.381198	2437.397885
352.771288	2518.056346
353.161314	2429.836154
353.551276	2487.809423
353.941175	2472.685962
354.331010	2402.109808
354.720782	2513.015192
355.110490	2429.836154
355.500135	2472.685962
355.889717	2394.548077
356.279235	2389.506923
356.668689	2429.836154
357.058080	2444.959615
357.447408	2429.836154
357.836672	2477.727115
358.225873	2394.548077
358.615010	2298.766154
359.004084	2346.657115
359.393095	2500.412308
359.782043	2427.315577
360.170927	2407.150962
360.559748	2465.124231
360.948505	2452.521346
361.337199	2434.877308
361.725830	2402.109808
362.114398	2427.315577
362.502903	2523.097500
362.891344	2424.795000
363.279722	2482.768269
363.668037	2414.712692
364.056289	2518.056346
364.444478	2439.918462
364.832603	2417.233269
365.220665	2414.712692
365.608665	2437.397885
365.996601	2386.986346
366.384474	2439.918462
366.772284	2366.821731
367.160031	2457.562500
367.547715	2427.315577
367.935336	2422.274423
368.322893	2450.000769
368.710388	2427.315577
369.097820	2502.932885
369.485189	2502.932885
369.872495	2505.453462
370.259738	2419.753846
370.646918	2381.945192
371.034035	2439.918462
371.421090	2490.330000
371.808081	2442.439038
372.195010	2460.083077
372.581875	2384.465769
372.968678	2424.795000
373.355418	2424.795000
373.742096	2424.795000
374.128710	2460.083077
374.515262	2457.562500
374.901751	2432.356731
375.288177	2457.562500
375.674540	2528.138654
376.060841	2399.589231
376.447079	2442.439038
376.833254	2419.753846
377.219367	2477.727115
377.605417	2528.138654
377.991404	2495.371154
378.377329	2424.795000
378.763191	2475.206538
379.148991	2487.809423
379.534727	2533.179808
379.920402	2437.397885
380.306013	2386.986346
380.691563	2457.562500
381.077049	2402.109808
381.462474	2510.494615
381.847835	2462.603654
382.233134	2548.303269
382.618371	2422.274423
383.003545	2475.206538
383.388657	2490.330000
383.773706	2490.330000
384.158693	2427.315577
384.543618	2475.206538
384.928480	2543.262115
385.313280	2460.083077
385.698017	2409.671538
386.082692	2462.603654
386.467305	2432.356731
386.851856	2485.288846
387.236344	2455.041923
387.620770	2404.630385
388.005133	2460.083077
388.389435	2485.288846
388.773674	2447.480192
389.157851	2523.097500
389.541965	2492.850577
389.926018	2460.083077
390.310008	2523.097500
390.693936	2412.192115
391.077802	2414.712692
391.461606	2480.247692
391.845348	2460.083077
392.229027	2404.630385
392.612645	2545.782692
392.996200	2462.603654
393.379694	2465.124231
393.763125	2460.083077
394.146494	2513.015192
394.529801	2427.315577
394.913047	2394.548077
395.296230	2492.850577
395.679351	2470.165385
396.062410	2470.165385
396.445408	2432.356731
396.828343	2407.150962
397.211217	2455.041923
397.594028	2495.371154
397.976778	2450.000769
398.359466	2399.589231
398.742092	2386.986346
399.124656	2497.891731
399.507158	2422.274423
399.889598	2535.700385
400.271977	2515.535769
400.654294	2568.467885
401.036549	2472.685962
401.418742	2444.959615
401.800874	2497.891731
402.182944	2442.439038
402.564952	2437.397885
402.946898	2475.206538
403.328783	2361.780577
403.710606	2477.727115
404.092367	2540.741538
404.474067	2513.015192
404.855705	2467.644808
405.237282	2429.836154
405.618797	2502.932885
406.000250	2490.330000
406.381642	2500.412308
406.762972	2452.521346
407.144240	2434.877308
407.525447	2490.330000
407.906593	2475.206538
408.287677	2475.206538
408.668700	2505.453462
409.049661	2492.850577
409.430560	2460.083077
409.811399	2528.138654
410.192176	2497.891731
410.572891	2467.644808
410.953545	2495.371154
411.334138	2525.618077
411.714669	2386.986346
412.095139	2427.315577
412.475547	2422.274423
412.855894	2558.385577
413.236180	2467.644808
413.616405	2507.974038
413.996568	2467.644808
414.376670	2439.918462
414.756711	2487.809423
415.136691	2427.315577
415.516609	2492.850577
415.896466	2507.974038
416.276262	2480.247692
416.655997	2497.891731
417.035670	2472.685962
417.415283	2409.671538
417.794834	2452.521346
418.174324	2596.194231
418.553753	2492.850577
418.933121	2470.165385
419.312428	2465.124231
419.691674	2495.371154
420.070859	2477.727115
420.449983	2434.877308
420.829045	2520.576923
421.208047	2447.480192
421.586988	2447.480192
421.965867	2432.356731
422.344686	2376.904038
422.723444	2490.330000
423.102141	2497.891731
423.480777	2477.727115
423.859352	2495.371154
424.237866	2437.397885
424.616319	2429.836154
424.994712	2422.274423
425.373044	2452.521346
425.751314	2457.562500
426.129524	2442.439038
426.507673	2530.659231
426.885762	2384.465769
427.263789	2505.453462
427.641756	2366.821731
428.019662	2490.330000
428.397508	2429.836154
428.775292	2467.644808
429.153016	2492.850577
429.530679	2477.727115
429.908282	2475.206538
430.285824	2576.029615
430.663305	2457.562500
431.040726	2530.659231
431.418086	2502.932885
431.795385	2497.891731
432.172624	2412.192115
432.549802	2487.809423
432.926920	2490.330000
433.303977	2520.576923
433.680974	2502.932885
434.057910	2520.576923
434.434786	2538.220962
434.811601	2505.453462
435.188355	2455.041923
435.565050	2429.836154
435.941683	2540.741538
436.318257	2412.192115
436.694770	2452.521346
437.071222	2447.480192
437.447614	2616.358846
437.823946	2419.753846
438.200218	2384.465769
438.576429	2450.000769
438.952580	2467.644808
439.328670	2392.027500
439.704700	2470.165385
440.080670	2477.727115
440.456580	2535.700385
440.832429	2563.426731
441.208218	2510.494615
441.583947	2414.712692
441.959616	2472.685962
442.335224	2467.644808
442.710773	2510.494615
443.086261	2450.000769
443.461689	2492.850577
443.837057	2429.836154
444.212365	2472.685962
444.587612	2510.494615
444.962800	2505.453462
445.337927	2419.753846
445.712995	2470.165385
446.088002	2525.618077
446.462949	2626.441154
446.837837	2523.097500
447.212664	2530.659231
447.587431	2450.000769
447.962139	2487.809423
448.336786	2507.974038
448.711374	2500.412308
449.085901	2505.453462
449.460369	2439.918462
449.834776	2538.220962
450.209124	2558.385577
450.583412	2470.165385
450.957640	2502.932885
451.331808	2596.194231
451.705917	2482.768269
452.079965	2497.891731
452.453954	2535.700385
452.827883	2545.782692
453.201752	2523.097500
453.575562	2455.041923
453.949311	2497.891731
454.323001	2518.056346
454.696632	2502.932885
455.070202	2485.288846
455.443713	2513.015192
455.817164	2482.768269
456.190556	2492.850577
456.563888	2570.988462
456.937160	2467.644808
457.310373	2515.535769
457.683526	2490.330000
458.056619	2500.412308
458.429653	2475.206538
458.802628	2518.056346
459.175542	2492.850577
459.548398	2515.535769
459.921194	2444.959615
460.293930	2513.015192
460.666607	2518.056346
461.039224	2470.165385
461.411782	2533.179808
461.784280	2487.809423
462.156719	2465.124231
462.529099	2533.179808
462.901419	2490.330000
463.273680	2485.288846
463.645882	2462.603654
464.018024	2467.644808
464.390106	2530.659231
464.762130	2485.288846
465.134094	2462.603654
465.505999	2510.494615
465.877845	2437.397885
466.249631	2520.576923
466.621358	2417.233269
466.993026	2490.330000
467.364634	2465.124231
467.736184	2538.220962
468.107674	2414.712692
468.479105	2518.056346
468.850477	2505.453462
469.221790	2482.768269
469.593043	2437.397885
469.964238	2477.727115
470.335373	2523.097500
470.706449	2487.809423
471.077467	2470.165385
471.448425	2447.480192
471.819324	2528.138654
472.190164	2591.153077
472.560945	2502.932885
472.931667	2530.659231
473.302330	2472.685962
473.672934	2578.550192
474.043479	2465.124231
474.413965	2535.700385
474.784393	2450.000769
475.154761	2510.494615
475.525070	2432.356731
475.895321	2518.056346
476.265513	2462.603654
476.635645	2444.959615
477.005719	2455.041923
477.375734	2500.412308
477.745691	2487.809423
478.115588	2434.877308
478.485427	2417.233269
478.855207	2538.220962
479.224928	2450.000769
479.594591	2412.192115
479.964194	2548.303269
480.333739	2477.727115
480.703226	2533.179808
481.072653	2520.576923
481.442022	2515.535769
481.811333	2482.768269
482.180584	2502.932885
482.549777	2500.412308
482.918912	2550.823846
483.287988	2492.850577
483.657005	2540.741538
484.025964	2460.083077
484.394864	2505.453462
484.763706	2540.741538
485.132489	2455.041923
485.501213	2434.877308
485.869879	2475.206538
486.238487	2497.891731
486.607036	2460.083077
486.975527	2497.891731
487.343959	2482.768269
487.712333	2482.768269
488.080648	2507.974038
488.448905	2510.494615
488.817104	2447.480192
489.185244	2490.330000
489.553326	2384.465769
489.921350	2487.809423
490.289315	2434.877308
490.657222	2462.603654
491.025070	2495.371154
491.392861	2487.809423
491.760593	2417.233269
492.128267	2518.056346
492.495883	2510.494615
492.863440	2518.056346
493.230939	2533.179808
493.598380	2447.480192
493.965763	2523.097500
494.333088	2424.795000
494.700354	2472.685962
495.067563	2535.700385
495.434713	2523.097500
495.801805	2576.029615
496.168839	2528.138654
496.535815	2455.041923
496.902733	2563.426731
497.269593	2530.659231
497.636395	2472.685962
498.003139	2518.056346
498.369825	2502.932885
498.736453	2560.906154
499.103023	2434.877308
499.469535	2394.548077
499.835989	2553.344423
500.202385	2394.548077
500.568723	2520.576923
500.935003	2497.891731
501.301226	2523.097500
501.667390	2520.576923
502.033497	2553.344423
502.399546	2570.988462
502.765537	2482.768269
503.131470	2530.659231
503.497345	2540.741538
503.863163	2490.330000
504.228923	2475.206538
504.594625	2419.753846
504.960269	2480.247692
505.325856	2540.741538
505.691385	2520.576923
506.056856	2432.356731
506.422270	2485.288846
506.787625	2535.700385
507.152924	2606.276538
507.518164	2540.741538
507.883347	2475.206538
508.248472	2528.138654
508.613540	2432.356731
508.978550	2412.192115
509.343503	2560.906154
509.708398	2447.480192
510.073236	2482.768269
510.438016	2495.371154
510.802738	2495.371154
511.167403	2475.206538
511.532010	2487.809423
511.896561	2495.371154
512.261053	2502.932885
512.625488	2497.891731
512.989866	2538.220962
513.354186	2482.768269
513.718449	2427.315577
514.082655	2545.782692
514.446803	2553.344423
514.810894	2492.850577
515.174927	2510.494615
515.538904	2492.850577
515.902822	2558.385577
516.266684	2495.371154
516.630488	2565.947308
516.994235	2480.247692
517.357925	2429.836154
517.721558	2523.097500
518.085133	2437.397885
518.448651	2472.685962
518.812112	2384.465769
519.175516	2389.506923
519.538863	2525.618077
519.902152	2467.644808
520.265385	2439.918462
520.628560	2407.150962
520.991678	2455.041923
521.354739	2518.056346
521.717743	2518.056346
522.080690	2545.782692
522.443580	2477.727115
522.806413	2502.932885
523.169189	2452.521346
523.531908	2528.138654
523.894569	2502.932885
524.257174	2563.426731
524.619722	2450.000769
524.982213	2500.412308
525.344647	2422.274423
525.707025	2510.494615
526.069345	2460.083077
526.431608	2495.371154
526.793815	2510.494615
527.155964	2460.083077
527.518057	2470.165385
527.880093	2505.453462
528.242072	2548.303269
528.603995	2525.618077
528.965860	2505.453462
529.327669	2439.918462
529.689421	2507.974038
530.051117	2437.397885
530.412755	2497.891731
530.774337	2543.262115
531.135862	2570.988462
531.497331	2477.727115
531.858743	2518.056346
532.220098	2457.562500
532.581396	2510.494615
532.942638	2434.877308
533.303824	2397.068654
533.664953	2497.891731
534.026025	2518.056346
534.387040	2510.494615
534.747999	2447.480192
535.108902	2538.220962
535.469748	2553.344423
535.830537	2502.932885
536.191270	2480.247692
536.551947	2523.097500
536.912567	2497.891731
537.273131	2500.412308
537.633638	2444.959615
537.994089	2475.206538
538.354483	2470.165385
538.714821	2502.932885
539.075103	2419.753846
539.435328	2417.233269
539.795497	2482.768269
540.155609	2470.165385
540.515665	2480.247692
540.875665	2606.276538
541.235609	2427.315577
541.595496	2389.506923
541.955328	2525.618077
542.315102	2530.659231
542.674821	2507.974038
543.034483	2467.644808
543.394090	2616.358846
543.753640	2543.262115
544.113134	2550.823846
544.472571	2507.974038
544.831953	2462.603654
545.191278	2487.809423
545.550548	2550.823846
545.909761	2414.712692
546.268918	2467.644808
546.628019	2540.741538
546.987064	2523.097500
547.346053	2460.083077
547.704986	2487.809423
548.063863	2427.315577
548.422684	2581.070769
548.781449	2570.988462
549.140158	2540.741538
549.498811	2467.644808
549.857408	2427.315577
550.215949	2490.330000
550.574434	2470.165385
550.932864	2535.700385
551.291237	2482.768269
551.649555	2553.344423
552.007817	2500.412308
552.366022	2475.206538
552.724173	2487.809423
553.082267	2510.494615
553.440305	2490.330000
553.798288	2500.412308
554.156215	2518.056346
554.514086	2457.562500
554.871902	2490.330000
555.229661	2550.823846
555.587365	2601.235385
555.945014	2462.603654
556.302606	2548.303269
556.660143	2500.412308
557.017625	2540.741538
557.375050	2540.741538
557.732421	2439.918462
558.089735	2447.480192
558.446994	2520.576923
558.804197	2515.535769
559.161345	2545.782692
559.518437	2465.124231
559.875474	2593.673654
560.232455	2490.330000
560.589381	2502.932885
560.946251	2457.562500
561.303065	2543.262115
561.659825	2450.000769
562.016528	2520.576923
562.373177	2500.412308
562.729770	2518.056346
563.086307	2460.083077
563.442789	2490.330000
563.799216	2495.371154
564.155587	2500.412308
564.511904	2518.056346
564.868164	2485.288846
565.224370	2490.330000
565.580520	2558.385577
565.936615	2520.576923
566.292654	2457.562500
566.648638	2432.356731
567.004567	2495.371154
567.360441	2492.850577
567.716260	2591.153077
568.072023	2482.768269
568.427732	2470.165385
568.783385	2442.439038
569.138982	2545.782692
569.494525	2576.029615
569.850013	2560.906154
570.205445	2495.371154
570.560823	2470.165385
570.916145	2538.220962
571.271412	2528.138654
571.626625	2485.288846
571.981782	2507.974038
572.336884	2520.576923
572.691931	2417.233269
573.046923	2467.644808
573.401860	2538.220962
573.756743	2452.521346
574.111570	2490.330000
574.466342	2502.932885
574.821059	2513.015192
575.175722	2583.591346
575.530330	2505.453462
575.884882	2510.494615
576.239380	2455.041923
576.593823	2424.795000
576.948211	2560.906154
577.302544	2472.685962
577.656823	2475.206538
578.011047	2477.727115
578.365216	2523.097500
578.719330	2530.659231
579.073389	2515.535769
579.427394	2523.097500
579.781344	2528.138654
580.135239	2470.165385
580.489080	2455.041923
580.842866	2487.809423
581.196597	2480.247692
581.550273	2361.780577
581.903895	2490.330000
582.257463	2513.015192
582.610975	2518.056346
582.964434	2525.618077
583.317837	2439.918462
583.671186	2565.947308
584.024481	2591.153077
584.377721	2528.138654
584.730906	2558.385577
585.084037	2470.165385
585.437113	2386.986346
585.790135	2480.247692
586.143103	2487.809423
586.496016	2482.768269
586.848874	2565.947308
587.201679	2558.385577
587.554428	2480.247692
587.907124	2462.603654
588.259765	2439.918462
588.612352	2447.480192
588.964884	2386.986346
589.317362	2470.165385
589.669786	2460.083077
590.022155	2475.206538
590.374470	2492.850577
590.726731	2573.509038
591.078937	2545.782692
591.431090	2535.700385
591.783188	2523.097500
592.135232	2510.494615
592.487222	2485.288846
592.839157	2548.303269
593.191038	2457.562500
593.542866	2480.247692
593.894639	2581.070769
594.246358	2543.262115
594.598022	2482.768269
594.949633	2538.220962
595.301190	2586.111923
595.652692	2480.247692
596.004141	2470.165385
596.355535	2510.494615
596.706876	2482.768269
597.058162	2548.303269
597.409395	2550.823846
597.760573	2515.535769
598.111698	2465.124231
598.462768	2515.535769
598.813785	2467.644808
599.164748	2540.741538
599.515657	2477.727115
599.866511	2442.439038
600.217312	2518.056346
600.568060	2462.603654
600.918753	2490.330000
601.269392	2452.521346
601.619978	2439.918462
601.970510	2513.015192
602.320988	2475.206538
602.671412	2500.412308
603.021783	2500.412308
603.372100	2505.453462
603.722363	2470.165385
604.072572	2513.015192
604.422728	2525.618077
604.772830	2550.823846
605.122878	2407.150962
605.472872	2560.906154
605.822813	2465.124231
606.172701	2412.192115
606.522534	2515.535769
606.872314	2492.850577
607.222041	2505.453462
607.571714	2613.838269
607.921333	2439.918462
608.270899	2523.097500
608.620411	2515.535769
608.969870	2543.262115
609.319276	2515.535769
609.668627	2475.206538
610.017926	2500.412308
610.367171	2518.056346
610.716362	2596.194231
611.065500	2437.397885
611.414585	2507.974038
611.763616	2495.371154
612.112594	2518.056346
612.461518	2507.974038
612.810389	2533.179808
613.159207	2482.768269
613.507971	2553.344423
613.856682	2533.179808
614.205340	2492.850577
614.553945	2429.836154
614.902496	2530.659231
615.250994	2540.741538
615.599439	2505.453462
615.947830	2530.659231
616.296169	2510.494615
616.644454	2535.700385
616.992686	2470.165385
617.340864	2558.385577
617.688990	2565.947308
618.037063	2434.877308
618.385082	2538.220962
618.733048	2439.918462
619.080961	2548.303269
619.428821	2417.233269
619.776628	2528.138654
620.124382	2588.632500
620.472083	2500.412308
620.819731	2482.768269
621.167326	2492.850577
621.514868	2608.797115
621.862357	2467.644808
622.209793	2495.371154
622.557176	2455.041923
622.904506	2485.288846
623.251783	2492.850577
623.599007	2548.303269
623.946179	2417.233269
624.293297	2548.303269
624.640363	2487.809423
624.987376	2450.000769
625.334336	2407.150962
625.681243	2442.439038
626.028097	2497.891731
626.374899	2553.344423
626.721647	2414.712692
627.068343	2548.303269
627.414987	2460.083077
627.761577	2558.385577
628.108115	2550.823846
628.454600	2482.768269
628.801032	2502.932885
629.147412	2460.083077
629.493739	2563.426731
629.840014	2530.659231
630.186236	2505.453462
630.532405	2394.548077
630.878521	2450.000769
631.224585	2505.453462
631.570597	2576.029615
631.916556	2412.192115
632.262462	2447.480192
632.608316	2470.165385
632.954117	2487.809423
633.299866	2502.932885
633.645562	2450.000769
633.991206	2442.439038
634.336797	2550.823846
634.682336	2437.397885
635.027823	2465.124231
635.373257	2465.124231
635.718639	2581.070769
636.063968	2485.288846
636.409245	2442.439038
636.754470	2497.891731
637.099642	2477.727115
637.444762	2525.618077
637.789829	2513.015192
638.134845	2500.412308
638.479808	2528.138654
638.824719	2518.056346
639.169577	2538.220962
639.514383	2535.700385
639.859137	2465.124231
640.203839	2442.439038
640.548489	2573.509038
640.893086	2472.685962
641.237632	2528.138654
641.582125	2502.932885
641.926566	2505.453462
642.270955	2470.165385
642.615292	2399.589231
642.959576	2543.262115
643.303809	2419.753846
643.647990	2507.974038
643.992118	2470.165385
644.336195	2560.906154
644.680219	2485.288846
645.024192	2470.165385
645.368112	2412.192115
645.711981	2601.235385
646.055797	2424.795000
646.399562	2412.192115
646.743274	2429.836154
647.086935	2455.041923
647.430544	2545.782692
647.774101	2462.603654
648.117606	2510.494615
648.461059	2550.823846
648.804460	2422.274423
649.147810	2477.727115
649.491108	2439.918462
649.834354	2570.988462
650.177548	2515.535769
650.520690	2540.741538
650.863781	2467.644808
651.206820	2530.659231
651.549807	2495.371154
651.892742	2568.467885
652.235626	2555.865000
652.578458	2477.727115
652.921238	2565.947308
653.263967	2482.768269
653.606644	2482.768269
653.949269	2427.315577
654.291843	2437.397885
654.634365	2507.974038
654.976836	2540.741538
655.319255	2495.371154
655.661622	2563.426731
656.003938	2462.603654
656.346203	2518.056346
656.688416	2550.823846
657.030577	2538.220962
657.372687	2495.371154
657.714746	2465.124231
658.056753	2497.891731
658.398708	2500.412308
658.740612	2593.673654
659.082465	2543.262115
659.424266	2487.809423
659.766016	2613.838269
660.107715	2505.453462
660.449362	2394.548077
660.790958	2510.494615
661.132503	2442.439038
661.473996	2444.959615
661.815438	2533.179808
662.156829	2502.932885
662.498168	2470.165385
662.839456	2465.124231
663.180693	2492.850577
663.521879	2434.877308
663.863013	2475.206538
664.204097	2374.383462
664.545129	2452.521346
664.886110	2475.206538
665.227040	2553.344423
665.567918	2487.809423
665.908746	2422.274423
666.249522	2540.741538
666.590248	2502.932885
666.930922	2460.083077
667.271545	2397.068654
667.612118	2510.494615
667.952639	2505.453462
668.293109	2505.453462
668.633528	2540.741538
668.973896	2507.974038
669.314213	2515.535769
669.654480	2558.385577
669.994695	2513.015192
670.334859	2530.659231
670.674973	2507.974038
671.015035	2513.015192
671.355047	2467.644808
671.695008	2530.659231
672.034918	2490.330000
672.374777	2608.797115
672.714585	2490.330000
673.054342	2502.932885
673.394049	2550.823846
673.733705	2515.535769
674.073310	2472.685962
674.412864	2515.535769
674.752368	2429.836154
675.091820	2545.782692
675.431223	2513.015192
675.770574	2485.288846
676.109875	2477.727115
676.449125	2495.371154
676.788324	2437.397885
677.127473	2510.494615
677.466571	2442.439038
677.805619	2381.945192
678.144616	2518.056346
678.483562	2397.068654
678.822458	2480.247692
679.161303	2500.412308
679.500098	2505.453462
679.838842	2397.068654
680.177535	2487.809423
680.516179	2576.029615
680.854771	2510.494615
681.193314	2462.603654
681.531805	2588.632500
681.870247	2492.850577
682.208638	2482.768269
682.546978	2530.659231
682.885268	2480.247692
683.223508	2523.097500
683.561697	2495.371154
683.899836	2530.659231
684.237925	2505.453462
684.575963	2409.671538
684.913951	2500.412308
685.251889	2502.932885
685.589776	2530.659231
685.927614	2553.344423
686.265401	2404.630385
686.603137	2581.070769
686.940824	2444.959615
687.278460	2520.576923
687.616046	2490.330000
687.953582	2497.891731
688.291068	2520.576923
688.628504	2523.097500
688.965889	2515.535769
689.303224	2586.111923
689.640510	2497.891731
689.977745	2429.836154
690.314930	2424.795000
690.652065	2507.974038
690.989150	2392.027500
691.326185	2507.974038
691.663170	2460.083077
692.000105	2513.015192
692.336990	2487.809423
692.673825	2480.247692
693.010610	2477.727115
693.347345	2525.618077
693.684030	2389.506923
694.020665	2467.644808
694.357251	2470.165385
694.693786	2492.850577
695.030272	2467.644808
695.366707	2414.712692
695.703093	2528.138654
696.039429	2475.206538
696.375716	2424.795000
696.711952	2492.850577
697.048139	2502.932885
697.384276	2553.344423
697.720363	2518.056346
698.056400	2477.727115
698.392388	2455.041923
698.728326	2515.535769
699.064214	2450.000769
699.400053	2578.550192
699.735842	2457.562500
700.071581	2467.644808
700.407270	2482.768269
700.742910	2515.535769
701.078501	2467.644808
701.414042	2518.056346
701.749533	2472.685962
702.084974	2515.535769
702.420366	2407.150962
702.755709	2492.850577
703.091002	2472.685962
703.426246	2404.630385
703.761440	2447.480192
704.096584	2533.179808
704.431679	2550.823846
704.766725	2460.083077
705.101721	2613.838269
705.436668	2513.015192
705.771565	2500.412308
706.106413	2465.124231
706.441212	2570.988462
706.775961	2455.041923
707.110661	2444.959615
707.445311	2500.412308
707.779913	2462.603654
708.114465	2444.959615
708.448967	2467.644808
708.783421	2513.015192
709.117825	2550.823846
709.452180	2424.795000
709.786485	2538.220962
710.120742	2518.056346
710.454949	2520.576923
710.789107	2475.206538
711.123216	2462.603654
711.457275	2376.904038
711.791286	2553.344423
712.125247	2500.412308
712.459159	2528.138654
712.793023	2485.288846
713.126837	2518.056346
713.460602	2540.741538
713.794318	2525.618077
714.127985	2492.850577
714.461602	2487.809423
714.795171	2497.891731
715.128691	2500.412308
715.462162	2528.138654
715.795584	2520.576923
716.128957	2457.562500
716.462281	2502.932885
716.795556	2465.124231
717.128782	2523.097500
717.461960	2550.823846
717.795088	2482.768269
718.128167	2495.371154
718.461198	2523.097500
718.794180	2520.576923
719.127113	2530.659231
719.459997	2444.959615
719.792833	2578.550192
720.125619	2560.906154
720.458357	2560.906154
720.791046	2439.918462
721.123686	2507.974038
721.456278	2412.192115
721.788821	2490.330000
722.121315	2525.618077
722.453761	2515.535769
722.786158	2518.056346
723.118506	2510.494615
723.450805	2500.412308
723.783056	2533.179808
724.115259	2513.015192
724.447412	2472.685962
724.779518	2495.371154
725.111574	2439.918462
725.443582	2480.247692
725.775542	2485.288846
726.107453	2424.795000
726.439315	2462.603654
726.771129	2429.836154
727.102895	2470.165385
727.434612	2487.809423
727.766281	2502.932885
728.097901	2419.753846
728.429473	2429.836154
728.760996	2535.700385
729.092471	2447.480192
729.423897	2495.371154
729.755276	2510.494615
730.086606	2550.823846
730.417887	2492.850577
730.749120	2513.015192
731.080305	2462.603654
731.411442	2525.618077
731.742530	2495.371154
732.073570	2510.494615
732.404562	2535.700385
732.735506	2515.535769
733.066401	2507.974038
733.397249	2563.426731
733.728048	2616.358846
734.058798	2502.932885
734.389501	2462.603654
734.720156	2523.097500
735.050762	2475.206538
735.381320	2538.220962
735.711831	2439.918462
736.042293	2490.330000
736.372707	2560.906154
736.703073	2452.521346
737.033391	2593.673654
737.363661	2429.836154
737.693883	2490.330000
738.024056	2545.782692
738.354182	2455.041923
738.684260	2520.576923
739.014290	2510.494615
739.344272	2444.959615
739.674207	2477.727115
740.004093	2507.974038
740.333931	2530.659231
740.663722	2570.988462
740.993464	2407.150962
741.323159	2513.015192
741.652806	2417.233269
741.982405	2480.247692
742.311956	2480.247692
742.641460	2412.192115
742.970915	2465.124231
743.300323	2482.768269
743.629683	2419.753846
743.958996	2515.535769
744.288260	2495.371154
744.617477	2507.974038
744.946647	2525.618077
745.275768	2500.412308
745.604842	2543.262115
745.933869	2407.150962
746.262847	2462.603654
746.591778	2588.632500
746.920662	2470.165385
747.249498	2500.412308
747.578286	2462.603654
747.907027	2581.070769
748.235720	2538.220962
748.564365	2475.206538
748.892963	2460.083077
749.221514	2500.412308
749.550017	2515.535769
749.878473	2573.509038
750.206881	2402.109808
750.535242	2545.782692
750.863555	2465.124231
751.191821	2518.056346
751.520039	2520.576923
751.848210	2399.589231
752.176334	2548.303269
752.504411	2513.015192
752.832440	2462.603654
753.160421	2525.618077
753.488356	2515.535769
753.816243	2422.274423
754.144082	2480.247692
754.471875	2455.041923
754.799620	2583.591346
755.127318	2447.480192
755.454969	2530.659231
755.782572	2480.247692
756.110129	2578.550192
756.437638	2490.330000
756.765100	2477.727115
757.092515	2485.288846
757.419882	2525.618077
757.747203	2507.974038
758.074477	2490.330000
758.401703	2432.356731
758.728882	2523.097500
759.056014	2452.521346
759.383099	2598.714808
759.710138	2545.782692
760.037129	2525.618077
760.364073	2465.124231
760.690970	2439.918462
761.017820	2447.480192
761.344623	2482.768269
761.671379	2518.056346
761.998088	2417.233269
762.324751	2530.659231
762.651366	2422.274423
762.977935	2485.288846
763.304456	2467.644808
763.630931	2548.303269
763.957359	2470.165385
764.283740	2414.712692
764.610074	2563.426731
764.936362	2578.550192
765.262602	2432.356731
765.588796	2439.918462
765.914943	2513.015192
766.241044	2485.288846
766.567097	2553.344423
766.893104	2439.918462
767.219064	2450.000769
767.544978	2525.618077
767.870845	2513.015192
768.196665	2485.288846
768.522438	2601.235385
768.848165	2490.330000
769.173846	2477.727115
769.499479	2404.630385
769.825066	2492.850577
770.150607	2576.029615
770.476101	2510.494615
770.801548	2603.755962
771.126949	2462.603654
771.452303	2535.700385
771.777611	2533.179808
772.102872	2570.988462
772.428087	2429.836154
772.753256	2495.371154
773.078378	2523.097500
773.403453	2530.659231
773.728482	2424.795000
774.053465	2455.041923
774.378401	2432.356731
774.703291	2480.247692
775.028135	2465.124231
775.352932	2533.179808
775.677683	2502.932885
776.002388	2495.371154
776.327046	2465.124231
776.651658	2502.932885
776.976224	2444.959615
777.300743	2455.041923
777.625216	2523.097500
777.949643	2437.397885
778.274024	2530.659231
778.598359	2482.768269
778.922647	2407.150962
779.246889	2485.288846
779.571086	2472.685962
779.895236	2510.494615
780.219339	2424.795000
780.543397	2538.220962
780.867409	2558.385577
781.191374	2500.412308
781.515294	2495.371154
781.839167	2482.768269
782.162995	2497.891731
782.486776	2548.303269
782.810511	2555.865000
783.134201	2487.809423
783.457844	2480.247692
783.781441	2497.891731
784.104993	2447.480192
784.428498	2507.974038
784.751958	2457.562500
785.075372	2465.124231
785.398739	2402.109808
785.722061	2548.303269
786.045337	2528.138654
786.368568	2472.685962
786.691752	2447.480192
787.014891	2540.741538
787.337983	2497.891731
787.661030	2462.603654
787.984031	2460.083077
788.306987	2613.838269
788.629897	2515.535769
788.952760	2482.768269
789.275579	2429.836154
789.598351	2515.535769
789.921078	2520.576923
790.243759	2457.562500
790.566395	2520.576923
790.888984	2505.453462
791.211529	2507.974038
791.534027	2540.741538
791.856480	2528.138654
792.178888	2455.041923
792.501249	2482.768269
792.823566	2548.303269
793.145836	2485.288846
793.468062	2558.385577
793.790241	2457.562500
794.112375	2439.918462
794.434464	2513.015192
794.756507	2543.262115
795.078505	2457.562500
795.400457	2492.850577
795.722364	2470.165385
796.044226	2525.618077
796.366042	2565.947308
796.687812	2558.385577
797.009538	2495.371154
797.331218	2530.659231
797.652852	2482.768269
797.974442	2533.179808
798.295986	2497.891731
798.617484	2538.220962
798.938938	2485.288846
799.260346	2565.947308
799.581709	2475.206538
799.903026	2507.974038
800.224299	2518.056346
800.545526	2462.603654
800.866708	2497.891731
801.187845	2462.603654
801.508936	2432.356731
801.829983	2452.521346
802.150984	2530.659231
802.471940	2507.974038
802.792851	2475.206538
803.113717	2505.453462
803.434538	2450.000769
803.755314	2429.836154
804.076045	2538.220962
804.396731	2492.850577
804.717372	2472.685962
805.037967	2530.659231
805.358518	2490.330000
805.679024	2462.603654
805.999485	2419.753846
806.319901	2495.371154
806.640272	2495.371154
806.960598	2404.630385
807.280879	2485.288846
807.601115	2429.836154
807.921306	2447.480192
808.241453	2432.356731
808.561554	2497.891731
808.881611	2482.768269
809.201623	2545.782692
809.521590	2533.179808
809.841513	2500.412308
810.161390	2462.603654
810.481223	2540.741538
810.801011	2492.850577
811.120755	2545.782692
811.440453	2525.618077
811.760107	2525.618077
812.079716	2510.494615
812.399281	2515.535769
812.718801	2497.891731
813.038276	2497.891731
813.357707	2432.356731
813.677093	2520.576923
813.996434	2553.344423
814.315731	2477.727115
814.634983	2452.521346
814.954191	2555.865000
815.273354	2480.247692
815.592473	2490.330000
815.911547	2513.015192
816.230577	2601.235385
816.549562	2563.426731
816.868502	2434.877308
817.187399	2530.659231
817.506250	2475.206538
817.825058	2455.041923
818.143821	2480.247692
818.462539	2502.932885
818.781213	2450.000769
819.099843	2513.015192
819.418429	2497.891731
819.736970	2515.535769
820.055466	2450.000769
820.373919	2520.576923
820.692327	2480.247692
821.010691	2523.097500
821.329011	2442.439038
821.647286	2444.959615
821.965517	2379.424615
822.283704	2490.330000
822.601847	2515.535769
822.919945	2490.330000
823.237999	2467.644808
823.556010	2444.959615
823.873976	2530.659231
824.191897	2528.138654
824.509775	2460.083077
824.827609	2538.220962
825.145398	2528.138654
825.463144	2570.988462
825.780845	2502.932885
826.098502	2485.288846
826.416116	2502.932885
826.733685	2502.932885
827.051210	2505.453462
827.368692	2480.247692
827.686129	2523.097500
828.003522	2465.124231
828.320872	2515.535769
828.638177	2381.945192
828.955439	2485.288846
829.272656	2505.453462
829.589830	2467.644808
829.906960	2568.467885
830.224046	2470.165385
830.541088	2548.303269
830.858086	2457.562500
831.175041	2497.891731
831.491952	2462.603654
831.808819	2470.165385
832.125642	2457.562500
832.442421	2467.644808
832.759157	2402.109808
833.075849	2455.041923
833.392497	2455.041923
833.709101	2528.138654
834.025662	2548.303269
834.342179	2525.618077
834.658653	2538.220962
834.975083	2528.138654
835.291469	2482.768269
835.607811	2497.891731
835.924110	2578.550192
836.240366	2558.385577
836.556578	2543.262115
836.872746	2515.535769
837.188871	2502.932885
837.504952	2447.480192
837.820990	2477.727115
838.136984	2480.247692
838.452935	2492.850577
838.768842	2530.659231
839.084706	2407.150962
839.400526	2492.850577
839.716303	2404.630385
840.032037	2465.124231
840.347727	2535.700385
840.663373	2482.768269
840.978977	2545.782692
841.294537	2518.056346
841.610054	2558.385577
841.925527	2457.562500
842.240957	2540.741538
842.556344	2407.150962
842.871687	2487.809423
843.186987	2422.274423
843.502244	2492.850577
843.817458	2525.618077
844.132629	2472.685962
844.447756	2442.439038
844.762840	2495.371154
845.077881	2596.194231
845.392879	2603.755962
845.707833	2490.330000
846.022745	2460.083077
846.337613	2407.150962
846.652438	2533.179808
846.967221	2404.630385
847.281960	2510.494615
847.596656	2560.906154
847.911309	2487.809423
848.225919	2555.865000
848.540485	2432.356731
848.855009	2535.700385
849.169490	2530.659231
849.483928	2558.385577
849.798323	2457.562500
850.112675	2535.700385
850.426984	2523.097500
850.741251	2455.041923
851.055474	2528.138654
851.369654	2477.727115
851.683792	2477.727115
851.997887	2550.823846
852.311938	2447.480192
852.625947	2533.179808
852.939914	2472.685962
853.253837	2472.685962
853.567718	2535.700385
853.881555	2492.850577
854.195350	2510.494615
854.509103	2515.535769
854.822812	2404.630385
855.136479	2452.521346
855.450103	2414.712692
855.763685	2505.453462
856.077224	2492.850577
856.390720	2462.603654
856.704173	2485.288846
857.017584	2492.850577
857.330953	2432.356731
857.644278	2475.206538
857.957561	2495.371154
858.270802	2442.439038
858.584000	2475.206538
858.897155	2581.070769
859.210268	2427.315577
859.523339	2482.768269
859.836367	2475.206538
860.149352	2462.603654
860.462295	2500.412308
860.775195	2487.809423
861.088054	2455.041923
861.400869	2457.562500
861.713642	2490.330000
862.026373	2505.453462
862.339062	2397.068654
862.651708	2427.315577
862.964312	2487.809423
863.276873	2500.412308
863.589392	2548.303269
863.901869	2528.138654
864.214303	2518.056346
864.526696	2457.562500
864.839045	2510.494615
865.151353	2457.562500
865.463619	2477.727115
865.775842	2492.850577
866.088023	2502.932885
866.400162	2490.330000
866.712258	2462.603654
867.024313	2402.109808
867.336325	2505.453462
867.648296	2475.206538
867.960224	2540.741538
868.272110	2460.083077
868.583954	2490.330000
868.895755	2558.385577
869.207515	2558.385577
869.519233	2439.918462
869.830909	2495.371154
870.142542	2480.247692
870.454134	2467.644808
870.765684	2487.809423
871.077191	2530.659231
871.388657	2548.303269
871.700081	2460.083077
872.011463	2548.303269
872.322803	2447.480192
872.634101	2495.371154
872.945357	2513.015192
873.256571	2510.494615
873.567744	2487.809423
873.878874	2538.220962
874.189963	2482.768269
874.501010	2470.165385
874.812015	2596.194231
875.122979	2432.356731
875.433900	2432.356731
875.744780	2470.165385
876.055618	2419.753846
876.366415	2497.891731
876.677169	2455.041923
876.987882	2500.412308
877.298554	2429.836154
877.609183	2485.288846
877.919771	2497.891731
878.230317	2427.315577
878.540822	2510.494615
878.851285	2450.000769
879.161707	2518.056346
879.472087	2492.850577
879.782425	2623.920577
880.092722	2429.836154
880.402977	2485.288846
880.713191	2492.850577
881.023363	2434.877308
881.333494	2520.576923
881.643583	2434.877308
881.953631	2497.891731
882.263637	2434.877308
882.573602	2553.344423
882.883526	2465.124231
883.193408	2371.862885
883.503248	2442.439038
883.813048	2558.385577
884.122806	2510.494615
884.432522	2467.644808
884.742197	2470.165385
885.051831	2510.494615
885.361424	2452.521346
885.670975	2530.659231
885.980485	2518.056346
886.289954	2565.947308
886.599382	2434.877308
886.908768	2480.247692
887.218113	2490.330000
887.527417	2507.974038
887.836680	2543.262115
888.145901	2452.521346
888.455082	2510.494615
888.764221	2404.630385
889.073319	2492.850577
889.382376	2490.330000
889.691392	2434.877308
890.000366	2520.576923
890.309300	2487.809423
890.618193	2465.124231
890.927044	2555.865000
891.235855	2543.262115
891.544625	2560.906154
891.853353	2397.068654
892.162041	2523.097500
892.470687	2548.303269
892.779293	2520.576923
893.087858	2550.823846
893.396381	2462.603654
893.704864	2560.906154
894.013306	2492.850577
894.321707	2545.782692
894.630068	2525.618077
894.938387	2455.041923
895.246665	2419.753846
895.554903	2419.753846
895.863100	2538.220962
896.171256	2497.891731
896.479371	2548.303269
896.787446	2465.124231
897.095480	2540.741538
897.403473	2507.974038
897.711425	2502.932885
898.019336	2523.097500
898.327207	2432.356731
898.635038	2495.371154
898.942827	2487.809423
899.250576	2470.165385
899.558284	2500.412308
899.865952	2495.371154
900.173579	2502.932885
900.481165	2568.467885
900.788711	2485.288846
901.096216	2530.659231
901.403681	2523.097500
901.711105	2419.753846
902.018489	2482.768269
902.325832	2553.344423
902.633135	2455.041923
902.940397	2490.330000
903.247619	2419.753846
903.554800	2565.947308
903.861941	2409.671538
904.169041	2497.891731
904.476101	2500.412308
904.783121	2455.041923
905.090100	2482.768269
905.397039	2510.494615
905.703938	2432.356731
906.010796	2485.288846
906.317614	2482.768269
906.624391	2565.947308
906.931129	2465.124231
907.237826	2500.412308
907.544483	2568.467885
907.851099	2465.124231
908.157675	2502.932885
908.464211	2442.439038
908.770707	2455.041923
909.077163	2518.056346
909.383578	2513.015192
909.689954	2465.124231
909.996289	2525.618077
910.302584	2437.397885
910.608839	2417.233269
910.915054	2450.000769
911.221229	2513.015192
911.527363	2523.097500
911.833458	2452.521346
912.139513	2487.809423
912.445527	2520.576923
912.751502	2490.330000
913.057436	2475.206538
913.363331	2460.083077
913.669186	2487.809423
913.975000	2444.959615
914.280775	2525.618077
914.586510	2528.138654
914.892205	2525.618077
915.197859	2502.932885
915.503475	2467.644808
915.809050	2442.439038
916.114585	2487.809423
916.420081	2457.562500
916.725536	2515.535769
917.030952	2452.521346
917.336328	2495.371154
917.641665	2533.179808
917.946961	2603.755962
918.252218	2513.015192
918.557435	2515.535769
918.862612	2553.344423
919.167750	2505.453462
919.472848	2525.618077
919.777906	2465.124231
920.082925	2518.056346
920.387904	2429.836154
920.692843	2507.974038
920.997743	2513.015192
921.302603	2487.809423
921.607423	2447.480192
921.912204	2439.918462
922.216946	2558.385577
922.521647	2490.330000
922.826310	2462.603654
923.130932	2437.397885
923.435516	2510.494615
923.740059	2492.850577
924.044564	2525.618077
924.349028	2490.330000
924.653454	2507.974038
924.957840	2560.906154
925.262186	2490.330000
925.566493	2497.891731
925.870761	2601.235385
926.174989	2457.562500
926.479178	2510.494615
926.783328	2444.959615
927.087438	2482.768269
927.391509	2434.877308
927.695541	2472.685962
927.999533	2510.494615
928.303486	2477.727115
928.607400	2535.700385
928.911275	2487.809423
929.215110	2470.165385
929.518906	2465.124231
929.822663	2447.480192
930.126381	2407.150962
930.430060	2407.150962
930.733699	2424.795000
931.037299	2497.891731
931.340861	2402.109808
931.644383	2593.673654
931.947866	2467.644808
932.251309	2457.562500
932.554714	2497.891731
932.858080	2500.412308
933.161407	2480.247692
933.464694	2442.439038
933.767943	2452.521346
934.071153	2472.685962
934.374323	2429.836154
934.677455	2455.041923
934.980548	2475.206538
935.283602	2480.247692
935.586617	2480.247692
935.889593	2470.165385
936.192530	2497.891731
936.495428	2467.644808
936.798287	2429.836154
937.101108	2475.206538
937.403890	2434.877308
937.706632	2487.809423
938.009336	2462.603654
938.312002	2480.247692
938.614628	2538.220962
938.917216	2513.015192
939.219765	2472.685962
939.522275	2510.494615
939.824747	2510.494615
940.127179	2482.768269
940.429573	2495.371154
940.731929	2485.288846
941.034246	2414.712692
941.336524	2500.412308
941.638763	2460.083077
941.940964	2437.397885
942.243126	2502.932885
942.545250	2482.768269
942.847335	2480.247692
943.149381	2490.330000
943.451389	2477.727115
943.753359	2515.535769
944.055290	2545.782692
944.357182	2460.083077
944.659036	2490.330000
944.960851	2553.344423
945.262628	2477.727115
945.564367	2518.056346
945.866067	2444.959615
946.167729	2470.165385
946.469352	2505.453462
946.770937	2417.233269
947.072484	2462.603654
947.373992	2472.685962
947.675462	2439.918462
947.976893	2513.015192
948.278286	2452.521346
948.579641	2525.618077
948.880958	2404.630385
949.182236	2475.206538
949.483476	2540.741538
949.784678	2505.453462
950.085841	2452.521346
950.386967	2482.768269
950.688054	2553.344423
950.989103	2460.083077
951.290114	2462.603654
951.591087	2500.412308
951.892021	2460.083077
952.192917	2591.153077
952.493776	2369.342308
952.794596	2560.906154
953.095378	2505.453462
953.396122	2525.618077
953.696828	2495.371154
953.997496	2470.165385
954.298126	2520.576923
954.598718	2558.385577
954.899272	2568.467885
955.199788	2422.274423
955.500266	2520.576923
955.800706	2490.330000
956.101108	2563.426731
956.401472	2457.562500
956.701798	2480.247692
957.002087	2475.206538
957.302337	2470.165385
957.602550	2455.041923
957.902724	2518.056346
958.202861	2475.206538
958.502960	2457.562500
958.803022	2505.453462
959.103045	2437.397885
959.403031	2518.056346
959.702979	2573.509038
960.002889	2442.439038
960.302762	2543.262115
960.602596	2452.521346
960.902393	2523.097500
961.202153	2525.618077
961.501875	2379.424615
961.801559	2465.124231
962.101205	2581.070769
962.400814	2429.836154
962.700385	2447.480192
962.999918	2560.906154
963.299414	2507.974038
963.598873	2530.659231
963.898293	2470.165385
964.197677	2462.603654
964.497022	2455.041923
964.796331	2371.862885
965.095601	2465.124231
965.394835	2586.111923
965.694030	2485.288846
965.993189	2548.303269
966.292309	2450.000769
966.591393	2462.603654
966.890439	2442.439038
967.189447	2447.480192
967.488419	2538.220962
967.787353	2500.412308
968.086249	2465.124231
968.385108	2439.918462
968.683930	2553.344423
968.982714	2477.727115
969.281462	2525.618077
969.580172	2427.315577
969.878844	2520.576923
970.177480	2470.165385
970.476078	2467.644808
970.774639	2492.850577
971.073162	2492.850577
971.371649	2485.288846
971.670098	2419.753846
971.968510	2467.644808
972.266885	2500.412308
972.565223	2565.947308
972.863524	2523.097500
973.161788	2450.000769
973.460014	2432.356731
973.758204	2540.741538
974.056356	2442.439038
974.354471	2455.041923
974.652550	2545.782692
974.950591	2460.083077
975.248595	2505.453462
975.546563	2505.453462
975.844493	2492.850577
976.142386	2422.274423
976.440243	2450.000769
976.738062	2472.685962
977.035845	2457.562500
977.333590	2414.712692
977.631299	2495.371154
977.928971	2434.877308
978.226606	2394.548077
978.524204	2502.932885
978.821765	2442.439038
979.119290	2553.344423
979.416777	2462.603654
979.714228	2618.879423
980.011642	2540.741538
980.309020	2485.288846
980.606360	2455.041923
980.903664	2500.412308
981.200931	2563.426731
981.498162	2505.453462
981.795356	2538.220962
982.092513	2558.385577
982.389633	2525.618077
982.686717	2470.165385
982.983764	2472.685962
983.280775	2467.644808
983.577749	2543.262115
983.874686	2442.439038
984.171587	2520.576923
984.468451	2424.795000
984.765279	2558.385577
985.062070	2540.741538
985.358824	2429.836154
985.655543	2540.741538
985.952224	2518.056346
986.248869	2502.932885
986.545478	2465.124231
986.842050	2550.823846
987.138586	2515.535769
987.435086	2497.891731
987.731549	2540.741538
988.027975	2397.068654
988.324366	2439.918462
988.620719	2533.179808
988.917037	2417.233269
989.213318	2530.659231
989.509563	2402.109808
989.805772	2414.712692
990.101944	2444.959615
990.398080	2467.644808
990.694180	2460.083077
990.990244	2530.659231
991.286271	2432.356731
991.582262	2447.480192
991.878217	2462.603654
992.174136	2530.659231
992.470019	2460.083077
992.765865	2485.288846
993.061676	2452.521346
993.357450	2409.671538
993.653188	2530.659231
993.948890	2565.947308
994.244556	2507.974038
994.540186	2555.865000
994.835780	2490.330000
995.131337	2434.877308
995.426859	2427.315577
995.722345	2437.397885
996.017795	2497.891731
996.313208	2404.630385
996.608586	2412.192115
996.903928	2462.603654
997.199234	2452.521346
997.494504	2432.356731
997.789738	2482.768269
998.084936	2530.659231
998.380099	2475.206538
998.675225	2384.465769
998.970316	2510.494615
999.265371	2540.741538
999.560390	2495.371154
999.855373	2497.891731
1000.150320	2422.274423
1000.445232	2540.741538
1000.740108	2510.494615
1001.034948	2452.521346
1001.329752	2492.850577
1001.624521	2535.700385
1001.919254	2444.959615
1002.213951	2520.576923
1002.508613	2485.288846
1002.803239	2596.194231
1003.097829	2462.603654
1003.392384	2452.521346
1003.686903	2460.083077
1003.981386	2598.714808
1004.275834	2467.644808
1004.570246	2424.795000
1004.864623	2450.000769
1005.158964	2560.906154
1005.453270	2467.644808
1005.747540	2472.685962
1006.041775	2447.480192
1006.335974	2530.659231
1006.630138	2505.453462
1006.924266	2523.097500
1007.218359	2480.247692
1007.512416	2457.562500
1007.806438	2465.124231
1008.100425	2472.685962
1008.394376	2480.247692
1008.688292	2505.453462
1008.982172	2427.315577
1009.276017	2487.809423
1009.569827	2495.371154
1009.863602	2510.494615
1010.157341	2452.521346
1010.451045	2472.685962
1010.744714	2482.768269
1011.038347	2482.768269
1011.331945	2540.741538
1011.625508	2500.412308
1011.919036	2414.712692
1012.212528	2444.959615
1012.505986	2470.165385
1012.799408	2560.906154
1013.092795	2510.494615
1013.386147	2543.262115
1013.679464	2447.480192
1013.972745	2545.782692
1014.265992	2490.330000
1014.559204	2485.288846
1014.852380	2460.083077
1015.145521	2477.727115
1015.438628	2472.685962
1015.731699	2450.000769
1016.024736	2487.809423
1016.317737	2470.165385
1016.610703	2462.603654
1016.903635	2560.906154
1017.196531	2485.288846
1017.489393	2528.138654
1017.782219	2535.700385
1018.075011	2465.124231
1018.367768	2490.330000
1018.660490	2472.685962
1018.953177	2472.685962
1019.245829	2472.685962
