Dividing Wavelength (nm)	Counts (n)	Blue Motor Position (mm): 0.000000	Red Motor Position (mm): 0.600000	
326.493990	2081.996538
326.888308	2081.996538
327.282561	2081.996538
327.676750	1983.694038
328.070874	2139.969808
328.464933	2064.352500
328.858929	2066.873077
329.252859	2003.858654
329.646726	2049.229038
330.040528	2076.955385
330.434265	2195.422500
330.827938	2177.778462
331.221547	2160.134423
331.615091	2187.860769
332.008571	2157.613846
332.401986	2220.628269
332.795338	2177.778462
333.188625	2258.436923
333.581847	2233.231154
333.975006	2278.601538
334.368100	2278.601538
334.761129	2288.683846
335.154095	2308.848462
335.546996	2361.780577
335.939833	2465.124231
336.332606	2414.712692
336.725315	2344.136538
337.117960	2414.712692
337.510540	2399.589231
337.903056	2492.850577
338.295508	2422.274423
338.687896	2417.233269
339.080220	2366.821731
339.472480	2495.371154
339.864676	2465.124231
340.256807	2510.494615
340.648875	2477.727115
341.040879	2477.727115
341.432818	2497.891731
341.824694	2437.397885
342.216506	2520.576923
342.608253	2437.397885
342.999937	2507.974038
343.391557	2523.097500
343.783113	2447.480192
344.174605	2384.465769
344.566033	2492.850577
344.957397	2492.850577
345.348697	2530.659231
345.739934	2457.562500
346.131106	2442.439038
346.522215	2470.165385
346.913260	2460.083077
347.304241	2369.342308
347.695159	2432.356731
348.086012	2460.083077
348.476802	2384.465769
348.867528	2450.000769
349.258191	2364.301154
349.648789	2465.124231
350.039324	2490.330000
350.429796	2397.068654
350.820203	2470.165385
351.210548	2447.480192
351.600828	2467.644808
351.991045	2485.288846
352.381198	2447.480192
352.771288	2374.383462
353.161314	2497.891731
353.551276	2351.698269
353.941175	2452.521346
354.331010	2371.862885
354.720782	2477.727115
355.110490	2507.974038
355.500135	2359.260000
355.889717	2354.218846
356.279235	2475.206538
356.668689	2477.727115
357.058080	2442.439038
357.447408	2525.618077
357.836672	2442.439038
358.225873	2457.562500
358.615010	2386.986346
359.004084	2485.288846
359.393095	2492.850577
359.782043	2470.165385
360.170927	2447.480192
360.559748	2513.015192
360.948505	2487.809423
361.337199	2475.206538
361.725830	2404.630385
362.114398	2442.439038
362.502903	2419.753846
362.891344	2452.521346
363.279722	2462.603654
363.668037	2432.356731
364.056289	2354.218846
364.444478	2525.618077
364.832603	2394.548077
365.220665	2389.506923
365.608665	2480.247692
365.996601	2417.233269
366.384474	2412.192115
366.772284	2513.015192
367.160031	2485.288846
367.547715	2369.342308
367.935336	2412.192115
368.322893	2480.247692
368.710388	2414.712692
369.097820	2417.233269
369.485189	2480.247692
369.872495	2444.959615
370.259738	2339.095385
370.646918	2513.015192
371.034035	2452.521346
371.421090	2429.836154
371.808081	2397.068654
372.195010	2505.453462
372.581875	2429.836154
372.968678	2460.083077
373.355418	2419.753846
373.742096	2513.015192
374.128710	2392.027500
374.515262	2535.700385
374.901751	2525.618077
375.288177	2374.383462
375.674540	2434.877308
376.060841	2414.712692
376.447079	2507.974038
376.833254	2402.109808
377.219367	2482.768269
377.605417	2462.603654
377.991404	2497.891731
378.377329	2407.150962
378.763191	2460.083077
379.148991	2434.877308
379.534727	2510.494615
379.920402	2417.233269
380.306013	2422.274423
380.691563	2439.918462
381.077049	2427.315577
381.462474	2470.165385
381.847835	2472.685962
382.233134	2545.782692
382.618371	2555.865000
383.003545	2432.356731
383.388657	2439.918462
383.773706	2409.671538
384.158693	2548.303269
384.543618	2477.727115
384.928480	2414.712692
385.313280	2570.988462
385.698017	2450.000769
386.082692	2402.109808
386.467305	2472.685962
386.851856	2422.274423
387.236344	2465.124231
387.620770	2424.795000
388.005133	2470.165385
388.389435	2409.671538
388.773674	2429.836154
389.157851	2538.220962
389.541965	2457.562500
389.926018	2485.288846
390.310008	2475.206538
390.693936	2434.877308
391.077802	2452.521346
391.461606	2447.480192
391.845348	2482.768269
392.229027	2482.768269
392.612645	2482.768269
392.996200	2419.753846
393.379694	2472.685962
393.763125	2480.247692
394.146494	2409.671538
394.529801	2520.576923
394.913047	2434.877308
395.296230	2485.288846
395.679351	2470.165385
396.062410	2510.494615
396.445408	2455.041923
396.828343	2452.521346
397.211217	2482.768269
397.594028	2490.330000
397.976778	2530.659231
398.359466	2452.521346
398.742092	2444.959615
399.124656	2505.453462
399.507158	2439.918462
399.889598	2535.700385
400.271977	2460.083077
400.654294	2497.891731
401.036549	2432.356731
401.418742	2495.371154
401.800874	2437.397885
402.182944	2545.782692
402.564952	2417.233269
402.946898	2434.877308
403.328783	2543.262115
403.710606	2472.685962
404.092367	2467.644808
404.474067	2381.945192
404.855705	2447.480192
405.237282	2434.877308
405.618797	2444.959615
406.000250	2462.603654
406.381642	2475.206538
406.762972	2386.986346
407.144240	2412.192115
407.525447	2502.932885
407.906593	2535.700385
408.287677	2376.904038
408.668700	2472.685962
409.049661	2460.083077
409.430560	2480.247692
409.811399	2492.850577
410.192176	2538.220962
410.572891	2490.330000
410.953545	2505.453462
411.334138	2535.700385
411.714669	2429.836154
412.095139	2381.945192
412.475547	2475.206538
412.855894	2427.315577
413.236180	2573.509038
413.616405	2424.795000
413.996568	2349.177692
414.376670	2472.685962
414.756711	2417.233269
415.136691	2455.041923
415.516609	2447.480192
415.896466	2460.083077
416.276262	2495.371154
416.655997	2492.850577
417.035670	2467.644808
417.415283	2402.109808
417.794834	2530.659231
418.174324	2407.150962
418.553753	2530.659231
418.933121	2467.644808
419.312428	2490.330000
419.691674	2485.288846
420.070859	2467.644808
420.449983	2480.247692
420.829045	2417.233269
421.208047	2510.494615
421.586988	2487.809423
421.965867	2497.891731
422.344686	2460.083077
422.723444	2447.480192
423.102141	2505.453462
423.480777	2482.768269
423.859352	2422.274423
424.237866	2510.494615
424.616319	2457.562500
424.994712	2523.097500
425.373044	2450.000769
425.751314	2500.412308
426.129524	2515.535769
426.507673	2518.056346
426.885762	2455.041923
427.263789	2490.330000
427.641756	2540.741538
428.019662	2452.521346
428.397508	2386.986346
428.775292	2528.138654
429.153016	2414.712692
429.530679	2470.165385
429.908282	2429.836154
430.285824	2437.397885
430.663305	2477.727115
431.040726	2417.233269
431.418086	2364.301154
431.795385	2555.865000
432.172624	2472.685962
432.549802	2492.850577
432.926920	2502.932885
433.303977	2518.056346
433.680974	2457.562500
434.057910	2540.741538
434.434786	2500.412308
434.811601	2560.906154
435.188355	2492.850577
435.565050	2422.274423
435.941683	2500.412308
436.318257	2439.918462
436.694770	2490.330000
437.071222	2510.494615
437.447614	2550.823846
437.823946	2450.000769
438.200218	2480.247692
438.576429	2475.206538
438.952580	2530.659231
439.328670	2450.000769
439.704700	2515.535769
440.080670	2515.535769
440.456580	2402.109808
440.832429	2540.741538
441.208218	2439.918462
441.583947	2462.603654
441.959616	2462.603654
442.335224	2505.453462
442.710773	2470.165385
443.086261	2429.836154
443.461689	2475.206538
443.837057	2505.453462
444.212365	2518.056346
444.587612	2495.371154
444.962800	2424.795000
445.337927	2497.891731
445.712995	2437.397885
446.088002	2437.397885
446.462949	2397.068654
446.837837	2492.850577
447.212664	2598.714808
447.587431	2487.809423
447.962139	2487.809423
448.336786	2533.179808
448.711374	2485.288846
449.085901	2492.850577
449.460369	2472.685962
449.834776	2457.562500
450.209124	2485.288846
450.583412	2462.603654
450.957640	2434.877308
451.331808	2475.206538
451.705917	2487.809423
452.079965	2523.097500
452.453954	2439.918462
452.827883	2548.303269
453.201752	2397.068654
453.575562	2427.315577
453.949311	2384.465769
454.323001	2565.947308
454.696632	2386.986346
455.070202	2543.262115
455.443713	2447.480192
455.817164	2397.068654
456.190556	2472.685962
456.563888	2502.932885
456.937160	2465.124231
457.310373	2553.344423
457.683526	2518.056346
458.056619	2535.700385
458.429653	2540.741538
458.802628	2467.644808
459.175542	2485.288846
459.548398	2548.303269
459.921194	2472.685962
460.293930	2470.165385
460.666607	2492.850577
461.039224	2487.809423
461.411782	2573.509038
461.784280	2490.330000
462.156719	2475.206538
462.529099	2455.041923
462.901419	2507.974038
463.273680	2470.165385
463.645882	2495.371154
464.018024	2548.303269
464.390106	2507.974038
464.762130	2452.521346
465.134094	2475.206538
465.505999	2457.562500
465.877845	2402.109808
466.249631	2477.727115
466.621358	2525.618077
466.993026	2487.809423
467.364634	2437.397885
467.736184	2480.247692
468.107674	2442.439038
468.479105	2462.603654
468.850477	2452.521346
469.221790	2583.591346
469.593043	2444.959615
469.964238	2535.700385
470.335373	2535.700385
470.706449	2530.659231
471.077467	2550.823846
471.448425	2452.521346
471.819324	2568.467885
472.190164	2578.550192
472.560945	2450.000769
472.931667	2550.823846
473.302330	2444.959615
473.672934	2538.220962
474.043479	2477.727115
474.413965	2505.453462
474.784393	2465.124231
475.154761	2543.262115
475.525070	2497.891731
475.895321	2462.603654
476.265513	2422.274423
476.635645	2482.768269
477.005719	2444.959615
477.375734	2467.644808
477.745691	2530.659231
478.115588	2460.083077
478.485427	2460.083077
478.855207	2513.015192
479.224928	2523.097500
479.594591	2450.000769
479.964194	2460.083077
480.333739	2460.083077
480.703226	2495.371154
481.072653	2429.836154
481.442022	2535.700385
481.811333	2399.589231
482.180584	2450.000769
482.549777	2528.138654
482.918912	2515.535769
483.287988	2502.932885
483.657005	2455.041923
484.025964	2530.659231
484.394864	2528.138654
484.763706	2351.698269
485.132489	2480.247692
485.501213	2412.192115
485.869879	2475.206538
486.238487	2513.015192
486.607036	2429.836154
486.975527	2535.700385
487.343959	2414.712692
487.712333	2477.727115
488.080648	2495.371154
488.448905	2525.618077
488.817104	2442.439038
489.185244	2518.056346
489.553326	2583.591346
489.921350	2452.521346
490.289315	2538.220962
490.657222	2505.453462
491.025070	2523.097500
491.392861	2515.535769
491.760593	2505.453462
492.128267	2492.850577
492.495883	2432.356731
492.863440	2510.494615
493.230939	2487.809423
493.598380	2462.603654
493.965763	2429.836154
494.333088	2515.535769
494.700354	2465.124231
495.067563	2528.138654
495.434713	2349.177692
495.801805	2439.918462
496.168839	2447.480192
496.535815	2497.891731
496.902733	2482.768269
497.269593	2465.124231
497.636395	2480.247692
498.003139	2548.303269
498.369825	2457.562500
498.736453	2429.836154
499.103023	2487.809423
499.469535	2525.618077
499.835989	2477.727115
500.202385	2477.727115
500.568723	2490.330000
500.935003	2482.768269
501.301226	2462.603654
501.667390	2467.644808
502.033497	2457.562500
502.399546	2404.630385
502.765537	2550.823846
503.131470	2419.753846
503.497345	2492.850577
503.863163	2462.603654
504.228923	2497.891731
504.594625	2480.247692
504.960269	2455.041923
505.325856	2485.288846
505.691385	2520.576923
506.056856	2442.439038
506.422270	2495.371154
506.787625	2558.385577
507.152924	2447.480192
507.518164	2545.782692
507.883347	2520.576923
508.248472	2548.303269
508.613540	2482.768269
508.978550	2412.192115
509.343503	2533.179808
509.708398	2460.083077
510.073236	2482.768269
510.438016	2490.330000
510.802738	2570.988462
511.167403	2500.412308
511.532010	2480.247692
511.896561	2545.782692
512.261053	2490.330000
512.625488	2525.618077
512.989866	2429.836154
513.354186	2505.453462
513.718449	2477.727115
514.082655	2530.659231
514.446803	2477.727115
514.810894	2480.247692
515.174927	2513.015192
515.538904	2528.138654
515.902822	2500.412308
516.266684	2477.727115
516.630488	2490.330000
516.994235	2515.535769
517.357925	2553.344423
517.721558	2485.288846
518.085133	2447.480192
518.448651	2485.288846
518.812112	2538.220962
519.175516	2555.865000
519.538863	2507.974038
519.902152	2513.015192
520.265385	2427.315577
520.628560	2543.262115
520.991678	2442.439038
521.354739	2553.344423
521.717743	2455.041923
522.080690	2487.809423
522.443580	2434.877308
522.806413	2409.671538
523.169189	2465.124231
523.531908	2548.303269
523.894569	2497.891731
524.257174	2523.097500
524.619722	2460.083077
524.982213	2422.274423
525.344647	2472.685962
525.707025	2412.192115
526.069345	2495.371154
526.431608	2409.671538
526.793815	2485.288846
527.155964	2515.535769
527.518057	2576.029615
527.880093	2502.932885
528.242072	2455.041923
528.603995	2472.685962
528.965860	2558.385577
529.327669	2563.426731
529.689421	2540.741538
530.051117	2533.179808
530.412755	2460.083077
530.774337	2432.356731
531.135862	2475.206538
531.497331	2444.959615
531.858743	2500.412308
532.220098	2439.918462
532.581396	2490.330000
532.942638	2533.179808
533.303824	2487.809423
533.664953	2555.865000
534.026025	2530.659231
534.387040	2465.124231
534.747999	2450.000769
535.108902	2568.467885
535.469748	2472.685962
535.830537	2520.576923
536.191270	2467.644808
536.551947	2480.247692
536.912567	2523.097500
537.273131	2419.753846
537.633638	2505.453462
537.994089	2523.097500
538.354483	2535.700385
538.714821	2475.206538
539.075103	2570.988462
539.435328	2462.603654
539.795497	2515.535769
540.155609	2492.850577
540.515665	2482.768269
540.875665	2485.288846
541.235609	2470.165385
541.595496	2482.768269
541.955328	2505.453462
542.315102	2444.959615
542.674821	2492.850577
543.034483	2419.753846
543.394090	2439.918462
543.753640	2558.385577
544.113134	2518.056346
544.472571	2455.041923
544.831953	2505.453462
545.191278	2480.247692
545.550548	2442.439038
545.909761	2538.220962
546.268918	2502.932885
546.628019	2487.809423
546.987064	2455.041923
547.346053	2550.823846
547.704986	2507.974038
548.063863	2465.124231
548.422684	2447.480192
548.781449	2487.809423
549.140158	2545.782692
549.498811	2467.644808
549.857408	2467.644808
550.215949	2523.097500
550.574434	2548.303269
550.932864	2442.439038
551.291237	2482.768269
551.649555	2513.015192
552.007817	2409.671538
552.366022	2482.768269
552.724173	2555.865000
553.082267	2540.741538
553.440305	2460.083077
553.798288	2485.288846
554.156215	2495.371154
554.514086	2593.673654
554.871902	2455.041923
555.229661	2545.782692
555.587365	2578.550192
555.945014	2467.644808
556.302606	2500.412308
556.660143	2437.397885
557.017625	2528.138654
557.375050	2528.138654
557.732421	2497.891731
558.089735	2581.070769
558.446994	2477.727115
558.804197	2442.439038
559.161345	2528.138654
559.518437	2523.097500
559.875474	2505.453462
560.232455	2528.138654
560.589381	2429.836154
560.946251	2548.303269
561.303065	2495.371154
561.659825	2477.727115
562.016528	2482.768269
562.373177	2545.782692
562.729770	2487.809423
563.086307	2477.727115
563.442789	2442.439038
563.799216	2495.371154
564.155587	2472.685962
564.511904	2487.809423
564.868164	2588.632500
565.224370	2560.906154
565.580520	2538.220962
565.936615	2520.576923
566.292654	2497.891731
566.648638	2462.603654
567.004567	2540.741538
567.360441	2432.356731
567.716260	2480.247692
568.072023	2447.480192
568.427732	2555.865000
568.783385	2535.700385
569.138982	2424.795000
569.494525	2439.918462
569.850013	2432.356731
570.205445	2447.480192
570.560823	2518.056346
570.916145	2553.344423
571.271412	2450.000769
571.626625	2434.877308
571.981782	2543.262115
572.336884	2502.932885
572.691931	2555.865000
573.046923	2505.453462
573.401860	2497.891731
573.756743	2510.494615
574.111570	2500.412308
574.466342	2492.850577
574.821059	2507.974038
575.175722	2502.932885
575.530330	2485.288846
575.884882	2500.412308
576.239380	2450.000769
576.593823	2513.015192
576.948211	2384.465769
577.302544	2513.015192
577.656823	2500.412308
578.011047	2465.124231
578.365216	2450.000769
578.719330	2528.138654
579.073389	2460.083077
579.427394	2525.618077
579.781344	2487.809423
580.135239	2555.865000
580.489080	2639.044038
580.842866	2450.000769
581.196597	2533.179808
581.550273	2432.356731
581.903895	2553.344423
582.257463	2523.097500
582.610975	2500.412308
582.964434	2586.111923
583.317837	2470.165385
583.671186	2540.741538
584.024481	2465.124231
584.377721	2480.247692
584.730906	2432.356731
585.084037	2525.618077
585.437113	2465.124231
585.790135	2447.480192
586.143103	2515.535769
586.496016	2490.330000
586.848874	2482.768269
587.201679	2492.850577
587.554428	2528.138654
587.907124	2462.603654
588.259765	2545.782692
588.612352	2510.494615
588.964884	2460.083077
589.317362	2482.768269
589.669786	2515.535769
590.022155	2477.727115
590.374470	2535.700385
590.726731	2480.247692
591.078937	2444.959615
591.431090	2497.891731
591.783188	2518.056346
592.135232	2457.562500
592.487222	2545.782692
592.839157	2457.562500
593.191038	2563.426731
593.542866	2492.850577
593.894639	2528.138654
594.246358	2462.603654
594.598022	2563.426731
594.949633	2530.659231
595.301190	2510.494615
595.652692	2538.220962
596.004141	2480.247692
596.355535	2450.000769
596.706876	2434.877308
597.058162	2470.165385
597.409395	2472.685962
597.760573	2520.576923
598.111698	2550.823846
598.462768	2381.945192
598.813785	2555.865000
599.164748	2465.124231
599.515657	2480.247692
599.866511	2495.371154
600.217312	2525.618077
600.568060	2477.727115
600.918753	2583.591346
601.269392	2409.671538
601.619978	2548.303269
601.970510	2427.315577
602.320988	2467.644808
602.671412	2409.671538
603.021783	2545.782692
603.372100	2452.521346
603.722363	2366.821731
604.072572	2437.397885
604.422728	2525.618077
604.772830	2538.220962
605.122878	2525.618077
605.472872	2482.768269
605.822813	2467.644808
606.172701	2487.809423
606.522534	2452.521346
606.872314	2442.439038
607.222041	2576.029615
607.571714	2568.467885
607.921333	2477.727115
608.270899	2490.330000
608.620411	2460.083077
608.969870	2543.262115
609.319276	2608.797115
609.668627	2492.850577
610.017926	2460.083077
610.367171	2500.412308
610.716362	2475.206538
611.065500	2513.015192
611.414585	2399.589231
611.763616	2555.865000
612.112594	2530.659231
612.461518	2437.397885
612.810389	2555.865000
613.159207	2550.823846
613.507971	2477.727115
613.856682	2545.782692
614.205340	2518.056346
614.553945	2432.356731
614.902496	2525.618077
615.250994	2442.439038
615.599439	2452.521346
615.947830	2432.356731
616.296169	2460.083077
616.644454	2452.521346
616.992686	2560.906154
617.340864	2495.371154
617.688990	2535.700385
618.037063	2490.330000
618.385082	2450.000769
618.733048	2475.206538
619.080961	2386.986346
619.428821	2568.467885
619.776628	2515.535769
620.124382	2530.659231
620.472083	2487.809423
620.819731	2507.974038
621.167326	2528.138654
621.514868	2397.068654
621.862357	2470.165385
622.209793	2543.262115
622.557176	2467.644808
622.904506	2502.932885
623.251783	2518.056346
623.599007	2510.494615
623.946179	2505.453462
624.293297	2457.562500
624.640363	2465.124231
624.987376	2543.262115
625.334336	2560.906154
625.681243	2507.974038
626.028097	2482.768269
626.374899	2518.056346
626.721647	2510.494615
627.068343	2450.000769
627.414987	2497.891731
627.761577	2450.000769
628.108115	2487.809423
628.454600	2515.535769
628.801032	2550.823846
629.147412	2457.562500
629.493739	2550.823846
629.840014	2502.932885
630.186236	2518.056346
630.532405	2555.865000
630.878521	2492.850577
631.224585	2520.576923
631.570597	2510.494615
631.916556	2578.550192
632.262462	2482.768269
632.608316	2480.247692
632.954117	2510.494615
633.299866	2515.535769
633.645562	2487.809423
633.991206	2530.659231
634.336797	2490.330000
634.682336	2505.453462
635.027823	2507.974038
635.373257	2558.385577
635.718639	2560.906154
636.063968	2485.288846
636.409245	2538.220962
636.754470	2528.138654
637.099642	2462.603654
637.444762	2475.206538
637.789829	2538.220962
638.134845	2513.015192
638.479808	2467.644808
638.824719	2480.247692
639.169577	2513.015192
639.514383	2644.085192
639.859137	2444.959615
640.203839	2507.974038
640.548489	2500.412308
640.893086	2379.424615
641.237632	2470.165385
641.582125	2427.315577
641.926566	2472.685962
642.270955	2424.795000
642.615292	2530.659231
642.959576	2450.000769
643.303809	2442.439038
643.647990	2455.041923
643.992118	2507.974038
644.336195	2540.741538
644.680219	2439.918462
645.024192	2535.700385
645.368112	2477.727115
645.711981	2578.550192
646.055797	2465.124231
646.399562	2621.400000
646.743274	2487.809423
647.086935	2502.932885
647.430544	2482.768269
647.774101	2492.850577
648.117606	2586.111923
648.461059	2553.344423
648.804460	2480.247692
649.147810	2540.741538
649.491108	2394.548077
649.834354	2513.015192
650.177548	2520.576923
650.520690	2475.206538
650.863781	2510.494615
651.206820	2422.274423
651.549807	2419.753846
651.892742	2495.371154
652.235626	2452.521346
652.578458	2565.947308
652.921238	2510.494615
653.263967	2540.741538
653.606644	2477.727115
653.949269	2500.412308
654.291843	2477.727115
654.634365	2490.330000
654.976836	2485.288846
655.319255	2523.097500
655.661622	2490.330000
656.003938	2538.220962
656.346203	2444.959615
656.688416	2412.192115
657.030577	2520.576923
657.372687	2414.712692
657.714746	2477.727115
658.056753	2518.056346
658.398708	2485.288846
658.740612	2505.453462
659.082465	2482.768269
659.424266	2472.685962
659.766016	2457.562500
660.107715	2543.262115
660.449362	2573.509038
660.790958	2555.865000
661.132503	2455.041923
661.473996	2518.056346
661.815438	2490.330000
662.156829	2490.330000
662.498168	2472.685962
662.839456	2452.521346
663.180693	2447.480192
663.521879	2465.124231
663.863013	2540.741538
664.204097	2465.124231
664.545129	2450.000769
664.886110	2518.056346
665.227040	2472.685962
665.567918	2450.000769
665.908746	2618.879423
666.249522	2565.947308
666.590248	2513.015192
666.930922	2460.083077
667.271545	2475.206538
667.612118	2528.138654
667.952639	2457.562500
668.293109	2485.288846
668.633528	2510.494615
668.973896	2452.521346
669.314213	2492.850577
669.654480	2472.685962
669.994695	2482.768269
670.334859	2455.041923
670.674973	2560.906154
671.015035	2500.412308
671.355047	2545.782692
671.695008	2505.453462
672.034918	2543.262115
672.374777	2591.153077
672.714585	2500.412308
673.054342	2457.562500
673.394049	2518.056346
673.733705	2500.412308
674.073310	2495.371154
674.412864	2510.494615
674.752368	2558.385577
675.091820	2573.509038
675.431223	2480.247692
675.770574	2457.562500
676.109875	2480.247692
676.449125	2543.262115
676.788324	2510.494615
677.127473	2485.288846
677.466571	2538.220962
677.805619	2470.165385
678.144616	2485.288846
678.483562	2475.206538
678.822458	2507.974038
679.161303	2593.673654
679.500098	2565.947308
679.838842	2472.685962
680.177535	2523.097500
680.516179	2563.426731
680.854771	2399.589231
681.193314	2578.550192
681.531805	2535.700385
681.870247	2550.823846
682.208638	2450.000769
682.546978	2510.494615
682.885268	2497.891731
683.223508	2507.974038
683.561697	2565.947308
683.899836	2606.276538
684.237925	2490.330000
684.575963	2472.685962
684.913951	2472.685962
685.251889	2497.891731
685.589776	2528.138654
685.927614	2555.865000
686.265401	2520.576923
686.603137	2460.083077
686.940824	2518.056346
687.278460	2553.344423
687.616046	2457.562500
687.953582	2530.659231
688.291068	2535.700385
688.628504	2573.509038
688.965889	2510.494615
689.303224	2467.644808
689.640510	2480.247692
689.977745	2472.685962
690.314930	2560.906154
690.652065	2480.247692
690.989150	2492.850577
691.326185	2535.700385
691.663170	2439.918462
692.000105	2490.330000
692.336990	2429.836154
692.673825	2510.494615
693.010610	2543.262115
693.347345	2439.918462
693.684030	2460.083077
694.020665	2560.906154
694.357251	2444.959615
694.693786	2495.371154
695.030272	2480.247692
695.366707	2510.494615
695.703093	2450.000769
696.039429	2573.509038
696.375716	2477.727115
696.711952	2505.453462
697.048139	2465.124231
697.384276	2505.453462
697.720363	2470.165385
698.056400	2528.138654
698.392388	2518.056346
698.728326	2513.015192
699.064214	2507.974038
699.400053	2495.371154
699.735842	2523.097500
700.071581	2447.480192
700.407270	2485.288846
700.742910	2437.397885
701.078501	2497.891731
701.414042	2465.124231
701.749533	2462.603654
702.084974	2472.685962
702.420366	2437.397885
702.755709	2563.426731
703.091002	2502.932885
703.426246	2545.782692
703.761440	2520.576923
704.096584	2533.179808
704.431679	2570.988462
704.766725	2495.371154
705.101721	2422.274423
705.436668	2495.371154
705.771565	2384.465769
706.106413	2485.288846
706.441212	2618.879423
706.775961	2455.041923
707.110661	2447.480192
707.445311	2467.644808
707.779913	2457.562500
708.114465	2482.768269
708.448967	2477.727115
708.783421	2497.891731
709.117825	2492.850577
709.452180	2533.179808
709.786485	2414.712692
710.120742	2507.974038
710.454949	2528.138654
710.789107	2475.206538
711.123216	2475.206538
711.457275	2528.138654
711.791286	2492.850577
712.125247	2492.850577
712.459159	2518.056346
712.793023	2502.932885
713.126837	2487.809423
713.460602	2480.247692
713.794318	2535.700385
714.127985	2558.385577
714.461602	2576.029615
714.795171	2528.138654
715.128691	2555.865000
715.462162	2523.097500
715.795584	2507.974038
716.128957	2467.644808
716.462281	2487.809423
716.795556	2462.603654
717.128782	2535.700385
717.461960	2442.439038
717.795088	2613.838269
718.128167	2497.891731
718.461198	2525.618077
718.794180	2528.138654
719.127113	2560.906154
719.459997	2480.247692
719.792833	2497.891731
720.125619	2457.562500
720.458357	2381.945192
720.791046	2520.576923
721.123686	2500.412308
721.456278	2628.961731
721.788821	2523.097500
722.121315	2434.877308
722.453761	2455.041923
722.786158	2450.000769
723.118506	2518.056346
723.450805	2555.865000
723.783056	2573.509038
724.115259	2462.603654
724.447412	2515.535769
724.779518	2492.850577
725.111574	2518.056346
725.443582	2475.206538
725.775542	2540.741538
726.107453	2462.603654
726.439315	2540.741538
726.771129	2482.768269
727.102895	2538.220962
727.434612	2480.247692
727.766281	2525.618077
728.097901	2560.906154
728.429473	2379.424615
728.760996	2482.768269
729.092471	2495.371154
729.423897	2462.603654
729.755276	2485.288846
730.086606	2455.041923
730.417887	2525.618077
730.749120	2507.974038
731.080305	2545.782692
731.411442	2422.274423
731.742530	2437.397885
732.073570	2467.644808
732.404562	2543.262115
732.735506	2487.809423
733.066401	2404.630385
733.397249	2533.179808
733.728048	2502.932885
734.058798	2505.453462
734.389501	2492.850577
734.720156	2497.891731
735.050762	2439.918462
735.381320	2480.247692
735.711831	2477.727115
736.042293	2520.576923
736.372707	2573.509038
736.703073	2545.782692
737.033391	2480.247692
737.363661	2477.727115
737.693883	2570.988462
738.024056	2515.535769
738.354182	2548.303269
738.684260	2520.576923
739.014290	2558.385577
739.344272	2465.124231
739.674207	2518.056346
740.004093	2457.562500
740.333931	2515.535769
740.663722	2427.315577
740.993464	2502.932885
741.323159	2457.562500
741.652806	2558.385577
741.982405	2492.850577
742.311956	2533.179808
742.641460	2495.371154
742.970915	2447.480192
743.300323	2538.220962
743.629683	2434.877308
743.958996	2465.124231
744.288260	2588.632500
744.617477	2543.262115
744.946647	2513.015192
745.275768	2523.097500
745.604842	2568.467885
745.933869	2457.562500
746.262847	2535.700385
746.591778	2606.276538
746.920662	2429.836154
747.249498	2437.397885
747.578286	2588.632500
747.907027	2528.138654
748.235720	2513.015192
748.564365	2535.700385
748.892963	2568.467885
749.221514	2507.974038
749.550017	2563.426731
749.878473	2414.712692
750.206881	2492.850577
750.535242	2482.768269
750.863555	2457.562500
751.191821	2515.535769
751.520039	2467.644808
751.848210	2540.741538
752.176334	2520.576923
752.504411	2482.768269
752.832440	2523.097500
753.160421	2553.344423
753.488356	2510.494615
753.816243	2475.206538
754.144082	2601.235385
754.471875	2455.041923
754.799620	2455.041923
755.127318	2500.412308
755.454969	2573.509038
755.782572	2495.371154
756.110129	2487.809423
756.437638	2472.685962
756.765100	2591.153077
757.092515	2485.288846
757.419882	2533.179808
757.747203	2467.644808
758.074477	2414.712692
758.401703	2480.247692
758.728882	2412.192115
759.056014	2379.424615
759.383099	2543.262115
759.710138	2523.097500
760.037129	2535.700385
760.364073	2465.124231
760.690970	2545.782692
761.017820	2450.000769
761.344623	2434.877308
761.671379	2432.356731
761.998088	2397.068654
762.324751	2528.138654
762.651366	2480.247692
762.977935	2487.809423
763.304456	2540.741538
763.630931	2528.138654
763.957359	2452.521346
764.283740	2495.371154
764.610074	2507.974038
764.936362	2450.000769
765.262602	2548.303269
765.588796	2444.959615
765.914943	2482.768269
766.241044	2492.850577
766.567097	2525.618077
766.893104	2457.562500
767.219064	2502.932885
767.544978	2510.494615
767.870845	2530.659231
768.196665	2482.768269
768.522438	2477.727115
768.848165	2490.330000
769.173846	2510.494615
769.499479	2525.618077
769.825066	2576.029615
770.150607	2457.562500
770.476101	2530.659231
770.801548	2520.576923
771.126949	2492.850577
771.452303	2543.262115
771.777611	2518.056346
772.102872	2455.041923
772.428087	2545.782692
772.753256	2455.041923
773.078378	2555.865000
773.403453	2492.850577
773.728482	2518.056346
774.053465	2583.591346
774.378401	2558.385577
774.703291	2472.685962
775.028135	2490.330000
775.352932	2528.138654
775.677683	2490.330000
776.002388	2437.397885
776.327046	2515.535769
776.651658	2515.535769
776.976224	2472.685962
777.300743	2520.576923
777.625216	2422.274423
777.949643	2553.344423
778.274024	2502.932885
778.598359	2475.206538
778.922647	2490.330000
779.246889	2540.741538
779.571086	2470.165385
779.895236	2434.877308
780.219339	2528.138654
780.543397	2500.412308
780.867409	2535.700385
781.191374	2439.918462
781.515294	2553.344423
781.839167	2543.262115
782.162995	2485.288846
782.486776	2447.480192
782.810511	2495.371154
783.134201	2540.741538
783.457844	2485.288846
783.781441	2472.685962
784.104993	2452.521346
784.428498	2553.344423
784.751958	2409.671538
785.075372	2507.974038
785.398739	2434.877308
785.722061	2520.576923
786.045337	2465.124231
786.368568	2495.371154
786.691752	2482.768269
787.014891	2482.768269
787.337983	2510.494615
787.661030	2538.220962
787.984031	2447.480192
788.306987	2490.330000
788.629897	2525.618077
788.952760	2550.823846
789.275579	2412.192115
789.598351	2482.768269
789.921078	2470.165385
790.243759	2502.932885
790.566395	2545.782692
790.888984	2490.330000
791.211529	2455.041923
791.534027	2439.918462
791.856480	2555.865000
792.178888	2462.603654
792.501249	2550.823846
792.823566	2548.303269
793.145836	2414.712692
793.468062	2497.891731
793.790241	2475.206538
794.112375	2530.659231
794.434464	2502.932885
794.756507	2462.603654
795.078505	2482.768269
795.400457	2497.891731
795.722364	2515.535769
796.044226	2450.000769
796.366042	2505.453462
796.687812	2540.741538
797.009538	2528.138654
797.331218	2538.220962
797.652852	2480.247692
797.974442	2548.303269
798.295986	2460.083077
798.617484	2583.591346
798.938938	2452.521346
799.260346	2520.576923
799.581709	2487.809423
799.903026	2596.194231
800.224299	2510.494615
800.545526	2510.494615
800.866708	2434.877308
801.187845	2452.521346
801.508936	2462.603654
801.829983	2490.330000
802.150984	2555.865000
802.471940	2462.603654
802.792851	2500.412308
803.113717	2475.206538
803.434538	2555.865000
803.755314	2482.768269
804.076045	2601.235385
804.396731	2515.535769
804.717372	2447.480192
805.037967	2497.891731
805.358518	2439.918462
805.679024	2485.288846
805.999485	2422.274423
806.319901	2497.891731
806.640272	2513.015192
806.960598	2490.330000
807.280879	2467.644808
807.601115	2480.247692
807.921306	2487.809423
808.241453	2455.041923
808.561554	2475.206538
808.881611	2603.755962
809.201623	2520.576923
809.521590	2507.974038
809.841513	2477.727115
810.161390	2467.644808
810.481223	2460.083077
810.801011	2434.877308
811.120755	2523.097500
811.440453	2457.562500
811.760107	2472.685962
812.079716	2500.412308
812.399281	2502.932885
812.718801	2434.877308
813.038276	2492.850577
813.357707	2530.659231
813.677093	2550.823846
813.996434	2576.029615
814.315731	2437.397885
814.634983	2485.288846
814.954191	2450.000769
815.273354	2555.865000
815.592473	2492.850577
815.911547	2513.015192
816.230577	2462.603654
816.549562	2485.288846
816.868502	2482.768269
817.187399	2520.576923
817.506250	2530.659231
817.825058	2545.782692
818.143821	2492.850577
818.462539	2500.412308
818.781213	2540.741538
819.099843	2545.782692
819.418429	2492.850577
819.736970	2470.165385
820.055466	2586.111923
820.373919	2424.795000
820.692327	2452.521346
821.010691	2540.741538
821.329011	2520.576923
821.647286	2482.768269
821.965517	2482.768269
822.283704	2485.288846
822.601847	2460.083077
822.919945	2444.959615
823.237999	2480.247692
823.556010	2570.988462
823.873976	2507.974038
824.191897	2444.959615
824.509775	2381.945192
824.827609	2520.576923
825.145398	2455.041923
825.463144	2538.220962
825.780845	2533.179808
826.098502	2450.000769
826.416116	2475.206538
826.733685	2518.056346
827.051210	2497.891731
827.368692	2530.659231
827.686129	2475.206538
828.003522	2402.109808
828.320872	2462.603654
828.638177	2497.891731
828.955439	2515.535769
829.272656	2502.932885
829.589830	2505.453462
829.906960	2500.412308
830.224046	2492.850577
830.541088	2457.562500
830.858086	2515.535769
831.175041	2482.768269
831.491952	2455.041923
831.808819	2490.330000
832.125642	2518.056346
832.442421	2533.179808
832.759157	2404.630385
833.075849	2543.262115
833.392497	2555.865000
833.709101	2492.850577
834.025662	2480.247692
834.342179	2513.015192
834.658653	2455.041923
834.975083	2492.850577
835.291469	2495.371154
835.607811	2545.782692
835.924110	2480.247692
836.240366	2538.220962
836.556578	2475.206538
836.872746	2492.850577
837.188871	2447.480192
837.504952	2455.041923
837.820990	2482.768269
838.136984	2528.138654
838.452935	2485.288846
838.768842	2502.932885
839.084706	2543.262115
839.400526	2439.918462
839.716303	2492.850577
840.032037	2513.015192
840.347727	2460.083077
840.663373	2500.412308
840.978977	2444.959615
841.294537	2480.247692
841.610054	2500.412308
841.925527	2515.535769
842.240957	2480.247692
842.556344	2507.974038
842.871687	2515.535769
843.186987	2505.453462
843.502244	2497.891731
843.817458	2434.877308
844.132629	2558.385577
844.447756	2558.385577
844.762840	2507.974038
845.077881	2467.644808
845.392879	2467.644808
845.707833	2447.480192
846.022745	2462.603654
846.337613	2543.262115
846.652438	2538.220962
846.967221	2457.562500
847.281960	2417.233269
847.596656	2535.700385
847.911309	2560.906154
848.225919	2497.891731
848.540485	2477.727115
848.855009	2497.891731
849.169490	2447.480192
849.483928	2429.836154
849.798323	2487.809423
850.112675	2603.755962
850.426984	2417.233269
850.741251	2568.467885
851.055474	2475.206538
851.369654	2457.562500
851.683792	2475.206538
851.997887	2467.644808
852.311938	2528.138654
852.625947	2568.467885
852.939914	2472.685962
853.253837	2462.603654
853.567718	2548.303269
853.881555	2482.768269
854.195350	2422.274423
854.509103	2515.535769
854.822812	2490.330000
855.136479	2497.891731
855.450103	2475.206538
855.763685	2500.412308
856.077224	2507.974038
856.390720	2520.576923
856.704173	2538.220962
857.017584	2502.932885
857.330953	2530.659231
857.644278	2477.727115
857.957561	2530.659231
858.270802	2487.809423
858.584000	2455.041923
858.897155	2465.124231
859.210268	2497.891731
859.523339	2444.959615
859.836367	2452.521346
860.149352	2432.356731
860.462295	2538.220962
860.775195	2447.480192
861.088054	2467.644808
861.400869	2374.383462
861.713642	2485.288846
862.026373	2462.603654
862.339062	2497.891731
862.651708	2467.644808
862.964312	2487.809423
863.276873	2452.521346
863.589392	2540.741538
863.901869	2442.439038
864.214303	2518.056346
864.526696	2487.809423
864.839045	2424.795000
865.151353	2429.836154
865.463619	2495.371154
865.775842	2553.344423
866.088023	2407.150962
866.400162	2457.562500
866.712258	2460.083077
867.024313	2402.109808
867.336325	2495.371154
867.648296	2523.097500
867.960224	2492.850577
868.272110	2475.206538
868.583954	2505.453462
868.895755	2452.521346
869.207515	2545.782692
869.519233	2465.124231
869.830909	2402.109808
870.142542	2513.015192
870.454134	2429.836154
870.765684	2523.097500
871.077191	2553.344423
871.388657	2460.083077
871.700081	2540.741538
872.011463	2470.165385
872.322803	2525.618077
872.634101	2409.671538
872.945357	2419.753846
873.256571	2545.782692
873.567744	2485.288846
873.878874	2432.356731
874.189963	2515.535769
874.501010	2565.947308
874.812015	2507.974038
875.122979	2518.056346
875.433900	2450.000769
875.744780	2568.467885
876.055618	2477.727115
876.366415	2518.056346
876.677169	2457.562500
876.987882	2550.823846
877.298554	2502.932885
877.609183	2497.891731
877.919771	2397.068654
878.230317	2427.315577
878.540822	2485.288846
878.851285	2495.371154
879.161707	2502.932885
879.472087	2528.138654
879.782425	2548.303269
880.092722	2477.727115
880.402977	2502.932885
880.713191	2465.124231
881.023363	2528.138654
881.333494	2477.727115
881.643583	2422.274423
881.953631	2414.712692
882.263637	2402.109808
882.573602	2427.315577
882.883526	2548.303269
883.193408	2490.330000
883.503248	2407.150962
883.813048	2500.412308
884.122806	2442.439038
884.432522	2437.397885
884.742197	2470.165385
885.051831	2462.603654
885.361424	2515.535769
885.670975	2434.877308
885.980485	2502.932885
886.289954	2444.959615
886.599382	2414.712692
886.908768	2553.344423
887.218113	2422.274423
887.527417	2525.618077
887.836680	2457.562500
888.145901	2513.015192
888.455082	2429.836154
888.764221	2495.371154
889.073319	2543.262115
889.382376	2492.850577
889.691392	2535.700385
890.000366	2606.276538
890.309300	2457.562500
890.618193	2460.083077
890.927044	2485.288846
891.235855	2558.385577
891.544625	2477.727115
891.853353	2507.974038
892.162041	2515.535769
892.470687	2543.262115
892.779293	2447.480192
893.087858	2548.303269
893.396381	2497.891731
893.704864	2548.303269
894.013306	2450.000769
894.321707	2477.727115
894.630068	2563.426731
894.938387	2548.303269
895.246665	2462.603654
895.554903	2545.782692
895.863100	2538.220962
896.171256	2505.453462
896.479371	2528.138654
896.787446	2470.165385
897.095480	2492.850577
897.403473	2543.262115
897.711425	2427.315577
898.019336	2407.150962
898.327207	2480.247692
898.635038	2475.206538
898.942827	2414.712692
899.250576	2412.192115
899.558284	2437.397885
899.865952	2485.288846
900.173579	2482.768269
900.481165	2417.233269
900.788711	2439.918462
901.096216	2528.138654
901.403681	2462.603654
901.711105	2470.165385
902.018489	2543.262115
902.325832	2480.247692
902.633135	2568.467885
902.940397	2460.083077
903.247619	2545.782692
903.554800	2409.671538
903.861941	2470.165385
904.169041	2543.262115
904.476101	2429.836154
904.783121	2583.591346
905.090100	2475.206538
905.397039	2515.535769
905.703938	2434.877308
906.010796	2515.535769
906.317614	2444.959615
906.624391	2447.480192
906.931129	2578.550192
907.237826	2487.809423
907.544483	2422.274423
907.851099	2462.603654
908.157675	2523.097500
908.464211	2487.809423
908.770707	2502.932885
909.077163	2525.618077
909.383578	2581.070769
909.689954	2465.124231
909.996289	2553.344423
910.302584	2490.330000
910.608839	2578.550192
910.915054	2409.671538
911.221229	2538.220962
911.527363	2576.029615
911.833458	2490.330000
912.139513	2533.179808
912.445527	2530.659231
912.751502	2548.303269
913.057436	2467.644808
913.363331	2535.700385
913.669186	2475.206538
913.975000	2515.535769
914.280775	2502.932885
914.586510	2452.521346
914.892205	2502.932885
915.197859	2492.850577
915.503475	2528.138654
915.809050	2520.576923
916.114585	2450.000769
916.420081	2510.494615
916.725536	2429.836154
917.030952	2497.891731
917.336328	2455.041923
917.641665	2535.700385
917.946961	2500.412308
918.252218	2515.535769
918.557435	2487.809423
918.862612	2502.932885
919.167750	2482.768269
919.472848	2520.576923
919.777906	2462.603654
920.082925	2563.426731
920.387904	2495.371154
920.692843	2505.453462
920.997743	2450.000769
921.302603	2500.412308
921.607423	2429.836154
921.912204	2467.644808
922.216946	2492.850577
922.521647	2485.288846
922.826310	2444.959615
923.130932	2500.412308
923.435516	2487.809423
923.740059	2460.083077
924.044564	2442.439038
924.349028	2502.932885
924.653454	2429.836154
924.957840	2477.727115
925.262186	2434.877308
925.566493	2515.535769
925.870761	2470.165385
926.174989	2510.494615
926.479178	2528.138654
926.783328	2477.727115
927.087438	2502.932885
927.391509	2550.823846
927.695541	2465.124231
927.999533	2472.685962
928.303486	2472.685962
928.607400	2510.494615
928.911275	2414.712692
929.215110	2533.179808
929.518906	2455.041923
929.822663	2424.795000
930.126381	2535.700385
930.430060	2573.509038
930.733699	2384.465769
931.037299	2492.850577
931.340861	2487.809423
931.644383	2502.932885
931.947866	2439.918462
932.251309	2502.932885
932.554714	2389.506923
932.858080	2523.097500
933.161407	2505.453462
933.464694	2439.918462
933.767943	2424.795000
934.071153	2470.165385
934.374323	2535.700385
934.677455	2457.562500
934.980548	2515.535769
935.283602	2422.274423
935.586617	2480.247692
935.889593	2447.480192
936.192530	2462.603654
936.495428	2487.809423
936.798287	2480.247692
937.101108	2429.836154
937.403890	2437.397885
937.706632	2480.247692
938.009336	2462.603654
938.312002	2439.918462
938.614628	2505.453462
938.917216	2482.768269
939.219765	2515.535769
939.522275	2465.124231
939.824747	2550.823846
940.127179	2437.397885
940.429573	2490.330000
940.731929	2502.932885
941.034246	2492.850577
941.336524	2455.041923
941.638763	2523.097500
941.940964	2490.330000
942.243126	2389.506923
942.545250	2475.206538
942.847335	2518.056346
943.149381	2490.330000
943.451389	2490.330000
943.753359	2505.453462
944.055290	2447.480192
944.357182	2477.727115
944.659036	2495.371154
944.960851	2530.659231
945.262628	2563.426731
945.564367	2487.809423
945.866067	2523.097500
946.167729	2588.632500
946.469352	2444.959615
946.770937	2495.371154
947.072484	2563.426731
947.373992	2485.288846
947.675462	2472.685962
947.976893	2492.850577
948.278286	2467.644808
948.579641	2485.288846
948.880958	2482.768269
949.182236	2480.247692
949.483476	2540.741538
949.784678	2558.385577
950.085841	2462.603654
950.386967	2525.618077
950.688054	2480.247692
950.989103	2520.576923
951.290114	2548.303269
951.591087	2500.412308
951.892021	2482.768269
952.192917	2485.288846
952.493776	2495.371154
952.794596	2482.768269
953.095378	2485.288846
953.396122	2520.576923
953.696828	2462.603654
953.997496	2467.644808
954.298126	2460.083077
954.598718	2507.974038
954.899272	2515.535769
955.199788	2460.083077
955.500266	2467.644808
955.800706	2379.424615
956.101108	2533.179808
956.401472	2432.356731
956.701798	2465.124231
957.002087	2482.768269
957.302337	2419.753846
957.602550	2515.535769
957.902724	2545.782692
958.202861	2487.809423
958.502960	2505.453462
958.803022	2444.959615
959.103045	2462.603654
959.403031	2598.714808
959.702979	2528.138654
960.002889	2472.685962
960.302762	2427.315577
960.602596	2485.288846
960.902393	2437.397885
961.202153	2492.850577
961.501875	2455.041923
961.801559	2538.220962
962.101205	2548.303269
962.400814	2472.685962
962.700385	2515.535769
962.999918	2492.850577
963.299414	2502.932885
963.598873	2457.562500
963.898293	2515.535769
964.197677	2497.891731
964.497022	2581.070769
964.796331	2520.576923
965.095601	2578.550192
965.394835	2447.480192
965.694030	2472.685962
965.993189	2434.877308
966.292309	2505.453462
966.591393	2447.480192
966.890439	2417.233269
967.189447	2485.288846
967.488419	2492.850577
967.787353	2573.509038
968.086249	2477.727115
968.385108	2538.220962
968.683930	2502.932885
968.982714	2500.412308
969.281462	2535.700385
969.580172	2482.768269
969.878844	2336.574808
970.177480	2515.535769
970.476078	2550.823846
970.774639	2573.509038
971.073162	2570.988462
971.371649	2492.850577
971.670098	2467.644808
971.968510	2510.494615
972.266885	2424.795000
972.565223	2495.371154
972.863524	2485.288846
973.161788	2392.027500
973.460014	2495.371154
973.758204	2427.315577
974.056356	2523.097500
974.354471	2462.603654
974.652550	2455.041923
974.950591	2513.015192
975.248595	2558.385577
975.546563	2500.412308
975.844493	2495.371154
976.142386	2507.974038
976.440243	2540.741538
976.738062	2477.727115
977.035845	2444.959615
977.333590	2402.109808
977.631299	2442.439038
977.928971	2505.453462
978.226606	2492.850577
978.524204	2558.385577
978.821765	2460.083077
979.119290	2515.535769
979.416777	2502.932885
979.714228	2490.330000
980.011642	2457.562500
980.309020	2535.700385
980.606360	2507.974038
980.903664	2450.000769
981.200931	2505.453462
981.498162	2427.315577
981.795356	2452.521346
982.092513	2472.685962
982.389633	2470.165385
982.686717	2487.809423
982.983764	2477.727115
983.280775	2485.288846
983.577749	2576.029615
983.874686	2555.865000
984.171587	2533.179808
984.468451	2417.233269
984.765279	2578.550192
985.062070	2472.685962
985.358824	2442.439038
985.655543	2560.906154
985.952224	2472.685962
986.248869	2457.562500
986.545478	2444.959615
986.842050	2419.753846
987.138586	2460.083077
987.435086	2399.589231
987.731549	2507.974038
988.027975	2518.056346
988.324366	2495.371154
988.620719	2439.918462
988.917037	2490.330000
989.213318	2492.850577
989.509563	2543.262115
989.805772	2513.015192
990.101944	2465.124231
990.398080	2465.124231
990.694180	2450.000769
990.990244	2505.453462
991.286271	2455.041923
991.582262	2548.303269
991.878217	2412.192115
992.174136	2450.000769
992.470019	2538.220962
992.765865	2442.439038
993.061676	2482.768269
993.357450	2535.700385
993.653188	2460.083077
993.948890	2553.344423
994.244556	2379.424615
994.540186	2530.659231
994.835780	2452.521346
995.131337	2429.836154
995.426859	2510.494615
995.722345	2460.083077
996.017795	2515.535769
996.313208	2424.795000
996.608586	2429.836154
996.903928	2510.494615
997.199234	2444.959615
997.494504	2568.467885
997.789738	2467.644808
998.084936	2490.330000
998.380099	2450.000769
998.675225	2533.179808
998.970316	2507.974038
999.265371	2497.891731
999.560390	2444.959615
999.855373	2505.453462
1000.150320	2465.124231
1000.445232	2548.303269
1000.740108	2563.426731
1001.034948	2497.891731
1001.329752	2507.974038
1001.624521	2548.303269
1001.919254	2386.986346
1002.213951	2495.371154
1002.508613	2462.603654
1002.803239	2462.603654
1003.097829	2437.397885
1003.392384	2553.344423
1003.686903	2518.056346
1003.981386	2550.823846
1004.275834	2480.247692
1004.570246	2492.850577
1004.864623	2490.330000
1005.158964	2452.521346
1005.453270	2510.494615
1005.747540	2581.070769
1006.041775	2560.906154
1006.335974	2414.712692
1006.630138	2515.535769
1006.924266	2414.712692
1007.218359	2540.741538
1007.512416	2404.630385
1007.806438	2497.891731
1008.100425	2442.439038
1008.394376	2518.056346
1008.688292	2424.795000
1008.982172	2472.685962
1009.276017	2412.192115
1009.569827	2505.453462
1009.863602	2477.727115
1010.157341	2513.015192
1010.451045	2480.247692
1010.744714	2505.453462
1011.038347	2402.109808
1011.331945	2528.138654
1011.625508	2555.865000
1011.919036	2545.782692
1012.212528	2507.974038
1012.505986	2475.206538
1012.799408	2422.274423
1013.092795	2513.015192
1013.386147	2513.015192
1013.679464	2563.426731
1013.972745	2467.644808
1014.265992	2545.782692
1014.559204	2515.535769
1014.852380	2495.371154
1015.145521	2444.959615
1015.438628	2447.480192
1015.731699	2492.850577
1016.024736	2467.644808
1016.317737	2492.850577
1016.610703	2588.632500
1016.903635	2472.685962
1017.196531	2485.288846
1017.489393	2528.138654
1017.782219	2540.741538
1018.075011	2467.644808
1018.367768	2460.083077
1018.660490	2497.891731
1018.953177	2497.891731
1019.245829	2497.891731
