Dividing Wavelength (nm)	Counts (n)	Blue Motor Position (mm): 0.000000	Red Motor Position (mm): 3.000000	
326.493990	2172.737308
326.888308	2172.737308
327.282561	2172.737308
327.676750	2061.831923
328.070874	2031.585000
328.464933	1988.735192
328.858929	2074.434808
329.252859	2099.640577
329.646726	2044.187885
330.040528	2145.010962
330.434265	2092.078846
330.827938	2170.216731
331.221547	2157.613846
331.615091	2139.969808
332.008571	2195.422500
332.401986	2150.052115
332.795338	2313.889615
333.188625	2238.272308
333.581847	2273.560385
333.975006	2306.327885
334.368100	2334.054231
334.761129	2361.780577
335.154095	2313.889615
335.546996	2321.451346
335.939833	2381.945192
336.332606	2417.233269
336.725315	2414.712692
337.117960	2361.780577
337.510540	2434.877308
337.903056	2439.918462
338.295508	2422.274423
338.687896	2447.480192
339.080220	2470.165385
339.472480	2442.439038
339.864676	2460.083077
340.256807	2480.247692
340.648875	2502.932885
341.040879	2394.548077
341.432818	2500.412308
341.824694	2480.247692
342.216506	2450.000769
342.608253	2465.124231
342.999937	2472.685962
343.391557	2419.753846
343.783113	2535.700385
344.174605	2520.576923
344.566033	2487.809423
344.957397	2505.453462
345.348697	2490.330000
345.739934	2397.068654
346.131106	2485.288846
346.522215	2452.521346
346.913260	2427.315577
347.304241	2515.535769
347.695159	2457.562500
348.086012	2528.138654
348.476802	2460.083077
348.867528	2518.056346
349.258191	2437.397885
349.648789	2462.603654
350.039324	2407.150962
350.429796	2444.959615
350.820203	2432.356731
351.210548	2432.356731
351.600828	2434.877308
351.991045	2447.480192
352.381198	2487.809423
352.771288	2475.206538
353.161314	2460.083077
353.551276	2427.315577
353.941175	2457.562500
354.331010	2366.821731
354.720782	2447.480192
355.110490	2394.548077
355.500135	2417.233269
355.889717	2477.727115
356.279235	2402.109808
356.668689	2467.644808
357.058080	2422.274423
357.447408	2457.562500
357.836672	2366.821731
358.225873	2444.959615
358.615010	2487.809423
359.004084	2394.548077
359.393095	2457.562500
359.782043	2422.274423
360.170927	2437.397885
360.559748	2432.356731
360.948505	2452.521346
361.337199	2457.562500
361.725830	2379.424615
362.114398	2467.644808
362.502903	2404.630385
362.891344	2470.165385
363.279722	2467.644808
363.668037	2455.041923
364.056289	2477.727115
364.444478	2407.150962
364.832603	2399.589231
365.220665	2437.397885
365.608665	2392.027500
365.996601	2412.192115
366.384474	2356.739423
366.772284	2470.165385
367.160031	2376.904038
367.547715	2404.630385
367.935336	2515.535769
368.322893	2442.439038
368.710388	2465.124231
369.097820	2472.685962
369.485189	2507.974038
369.872495	2457.562500
370.259738	2394.548077
370.646918	2472.685962
371.034035	2444.959615
371.421090	2487.809423
371.808081	2518.056346
372.195010	2477.727115
372.581875	2429.836154
372.968678	2437.397885
373.355418	2492.850577
373.742096	2497.891731
374.128710	2392.027500
374.515262	2455.041923
374.901751	2507.974038
375.288177	2455.041923
375.674540	2543.262115
376.060841	2475.206538
376.447079	2472.685962
376.833254	2462.603654
377.219367	2477.727115
377.605417	2439.918462
377.991404	2422.274423
378.377329	2465.124231
378.763191	2450.000769
379.148991	2492.850577
379.534727	2374.383462
379.920402	2444.959615
380.306013	2412.192115
380.691563	2475.206538
381.077049	2399.589231
381.462474	2528.138654
381.847835	2452.521346
382.233134	2379.424615
382.618371	2462.603654
383.003545	2439.918462
383.388657	2417.233269
383.773706	2530.659231
384.158693	2490.330000
384.543618	2465.124231
384.928480	2450.000769
385.313280	2457.562500
385.698017	2495.371154
386.082692	2434.877308
386.467305	2477.727115
386.851856	2505.453462
387.236344	2437.397885
387.620770	2497.891731
388.005133	2397.068654
388.389435	2513.015192
388.773674	2437.397885
389.157851	2467.644808
389.541965	2361.780577
389.926018	2553.344423
390.310008	2450.000769
390.693936	2407.150962
391.077802	2543.262115
391.461606	2535.700385
391.845348	2500.412308
392.229027	2485.288846
392.612645	2507.974038
392.996200	2525.618077
393.379694	2477.727115
393.763125	2460.083077
394.146494	2457.562500
394.529801	2432.356731
394.913047	2407.150962
395.296230	2507.974038
395.679351	2515.535769
396.062410	2447.480192
396.445408	2495.371154
396.828343	2392.027500
397.211217	2437.397885
397.594028	2507.974038
397.976778	2447.480192
398.359466	2482.768269
398.742092	2530.659231
399.124656	2533.179808
399.507158	2518.056346
399.889598	2482.768269
400.271977	2500.412308
400.654294	2389.506923
401.036549	2465.124231
401.418742	2432.356731
401.800874	2434.877308
402.182944	2439.918462
402.564952	2515.535769
402.946898	2452.521346
403.328783	2520.576923
403.710606	2417.233269
404.092367	2349.177692
404.474067	2477.727115
404.855705	2465.124231
405.237282	2500.412308
405.618797	2447.480192
406.000250	2505.453462
406.381642	2492.850577
406.762972	2502.932885
407.144240	2490.330000
407.525447	2492.850577
407.906593	2402.109808
408.287677	2374.383462
408.668700	2455.041923
409.049661	2510.494615
409.430560	2450.000769
409.811399	2525.618077
410.192176	2472.685962
410.572891	2492.850577
410.953545	2480.247692
411.334138	2500.412308
411.714669	2558.385577
412.095139	2495.371154
412.475547	2495.371154
412.855894	2429.836154
413.236180	2485.288846
413.616405	2437.397885
413.996568	2447.480192
414.376670	2487.809423
414.756711	2455.041923
415.136691	2513.015192
415.516609	2482.768269
415.896466	2467.644808
416.276262	2437.397885
416.655997	2472.685962
417.035670	2550.823846
417.415283	2525.618077
417.794834	2492.850577
418.174324	2518.056346
418.553753	2455.041923
418.933121	2465.124231
419.312428	2502.932885
419.691674	2475.206538
420.070859	2422.274423
420.449983	2502.932885
420.829045	2492.850577
421.208047	2510.494615
421.586988	2497.891731
421.965867	2465.124231
422.344686	2450.000769
422.723444	2505.453462
423.102141	2455.041923
423.480777	2492.850577
423.859352	2533.179808
424.237866	2414.712692
424.616319	2392.027500
424.994712	2518.056346
425.373044	2409.671538
425.751314	2515.535769
426.129524	2518.056346
426.507673	2550.823846
426.885762	2457.562500
427.263789	2439.918462
427.641756	2442.439038
428.019662	2568.467885
428.397508	2439.918462
428.775292	2497.891731
429.153016	2399.589231
429.530679	2475.206538
429.908282	2482.768269
430.285824	2540.741538
430.663305	2507.974038
431.040726	2555.865000
431.418086	2518.056346
431.795385	2485.288846
432.172624	2500.412308
432.549802	2417.233269
432.926920	2417.233269
433.303977	2452.521346
433.680974	2452.521346
434.057910	2490.330000
434.434786	2376.904038
434.811601	2518.056346
435.188355	2565.947308
435.565050	2470.165385
435.941683	2475.206538
436.318257	2467.644808
436.694770	2437.397885
437.071222	2523.097500
437.447614	2490.330000
437.823946	2523.097500
438.200218	2502.932885
438.576429	2467.644808
438.952580	2505.453462
439.328670	2399.589231
439.704700	2510.494615
440.080670	2525.618077
440.456580	2462.603654
440.832429	2477.727115
441.208218	2545.782692
441.583947	2565.947308
441.959616	2513.015192
442.335224	2500.412308
442.710773	2462.603654
443.086261	2543.262115
443.461689	2513.015192
443.837057	2470.165385
444.212365	2495.371154
444.587612	2485.288846
444.962800	2500.412308
445.337927	2439.918462
445.712995	2450.000769
446.088002	2593.673654
446.462949	2427.315577
446.837837	2510.494615
447.212664	2490.330000
447.587431	2515.535769
447.962139	2470.165385
448.336786	2558.385577
448.711374	2495.371154
449.085901	2500.412308
449.460369	2437.397885
449.834776	2460.083077
450.209124	2412.192115
450.583412	2472.685962
450.957640	2419.753846
451.331808	2477.727115
451.705917	2485.288846
452.079965	2555.865000
452.453954	2419.753846
452.827883	2439.918462
453.201752	2447.480192
453.575562	2442.439038
453.949311	2543.262115
454.323001	2576.029615
454.696632	2581.070769
455.070202	2497.891731
455.443713	2475.206538
455.817164	2475.206538
456.190556	2497.891731
456.563888	2480.247692
456.937160	2447.480192
457.310373	2487.809423
457.683526	2437.397885
458.056619	2402.109808
458.429653	2455.041923
458.802628	2492.850577
459.175542	2497.891731
459.548398	2432.356731
459.921194	2510.494615
460.293930	2593.673654
460.666607	2490.330000
461.039224	2533.179808
461.411782	2535.700385
461.784280	2455.041923
462.156719	2505.453462
462.529099	2586.111923
462.901419	2576.029615
463.273680	2452.521346
463.645882	2497.891731
464.018024	2502.932885
464.390106	2356.739423
464.762130	2381.945192
465.134094	2515.535769
465.505999	2497.891731
465.877845	2530.659231
466.249631	2442.439038
466.621358	2475.206538
466.993026	2482.768269
467.364634	2533.179808
467.736184	2490.330000
468.107674	2525.618077
468.479105	2513.015192
468.850477	2565.947308
469.221790	2495.371154
469.593043	2510.494615
469.964238	2533.179808
470.335373	2470.165385
470.706449	2518.056346
471.077467	2578.550192
471.448425	2490.330000
471.819324	2384.465769
472.190164	2500.412308
472.560945	2513.015192
472.931667	2472.685962
473.302330	2490.330000
473.672934	2417.233269
474.043479	2465.124231
474.413965	2480.247692
474.784393	2505.453462
475.154761	2485.288846
475.525070	2497.891731
475.895321	2482.768269
476.265513	2460.083077
476.635645	2457.562500
477.005719	2492.850577
477.375734	2487.809423
477.745691	2485.288846
478.115588	2520.576923
478.485427	2533.179808
478.855207	2429.836154
479.224928	2392.027500
479.594591	2538.220962
479.964194	2444.959615
480.333739	2470.165385
480.703226	2515.535769
481.072653	2520.576923
481.442022	2447.480192
481.811333	2583.591346
482.180584	2439.918462
482.549777	2477.727115
482.918912	2444.959615
483.287988	2497.891731
483.657005	2520.576923
484.025964	2399.589231
484.394864	2573.509038
484.763706	2477.727115
485.132489	2477.727115
485.501213	2480.247692
485.869879	2485.288846
486.238487	2545.782692
486.607036	2472.685962
486.975527	2583.591346
487.343959	2525.618077
487.712333	2472.685962
488.080648	2533.179808
488.448905	2444.959615
488.817104	2505.453462
489.185244	2543.262115
489.553326	2540.741538
489.921350	2480.247692
490.289315	2487.809423
490.657222	2447.480192
491.025070	2460.083077
491.392861	2510.494615
491.760593	2500.412308
492.128267	2442.439038
492.495883	2392.027500
492.863440	2470.165385
493.230939	2450.000769
493.598380	2495.371154
493.965763	2455.041923
494.333088	2515.535769
494.700354	2505.453462
495.067563	2530.659231
495.434713	2477.727115
495.801805	2507.974038
496.168839	2447.480192
496.535815	2507.974038
496.902733	2429.836154
497.269593	2487.809423
497.636395	2472.685962
498.003139	2533.179808
498.369825	2472.685962
498.736453	2500.412308
499.103023	2437.397885
499.469535	2460.083077
499.835989	2409.671538
500.202385	2394.548077
500.568723	2515.535769
500.935003	2427.315577
501.301226	2495.371154
501.667390	2480.247692
502.033497	2523.097500
502.399546	2583.591346
502.765537	2507.974038
503.131470	2583.591346
503.497345	2505.453462
503.863163	2586.111923
504.228923	2450.000769
504.594625	2417.233269
504.960269	2470.165385
505.325856	2477.727115
505.691385	2502.932885
506.056856	2394.548077
506.422270	2533.179808
506.787625	2475.206538
507.152924	2482.768269
507.518164	2434.877308
507.883347	2497.891731
508.248472	2485.288846
508.613540	2502.932885
508.978550	2460.083077
509.343503	2477.727115
509.708398	2452.521346
510.073236	2492.850577
510.438016	2550.823846
510.802738	2460.083077
511.167403	2518.056346
511.532010	2500.412308
511.896561	2455.041923
512.261053	2475.206538
512.625488	2545.782692
512.989866	2462.603654
513.354186	2520.576923
513.718449	2452.521346
514.082655	2492.850577
514.446803	2553.344423
514.810894	2490.330000
515.174927	2460.083077
515.538904	2429.836154
515.902822	2555.865000
516.266684	2540.741538
516.630488	2470.165385
516.994235	2480.247692
517.357925	2545.782692
517.721558	2528.138654
518.085133	2485.288846
518.448651	2490.330000
518.812112	2475.206538
519.175516	2573.509038
519.538863	2507.974038
519.902152	2492.850577
520.265385	2465.124231
520.628560	2432.356731
520.991678	2429.836154
521.354739	2533.179808
521.717743	2540.741538
522.080690	2507.974038
522.443580	2485.288846
522.806413	2394.548077
523.169189	2505.453462
523.531908	2515.535769
523.894569	2502.932885
524.257174	2477.727115
524.619722	2548.303269
524.982213	2513.015192
525.344647	2583.591346
525.707025	2399.589231
526.069345	2472.685962
526.431608	2482.768269
526.793815	2525.618077
527.155964	2450.000769
527.518057	2530.659231
527.880093	2450.000769
528.242072	2490.330000
528.603995	2523.097500
528.965860	2505.453462
529.327669	2530.659231
529.689421	2505.453462
530.051117	2520.576923
530.412755	2581.070769
530.774337	2422.274423
531.135862	2434.877308
531.497331	2497.891731
531.858743	2470.165385
532.220098	2414.712692
532.581396	2414.712692
532.942638	2497.891731
533.303824	2492.850577
533.664953	2470.165385
534.026025	2568.467885
534.387040	2487.809423
534.747999	2533.179808
535.108902	2545.782692
535.469748	2555.865000
535.830537	2603.755962
536.191270	2568.467885
536.551947	2505.453462
536.912567	2502.932885
537.273131	2467.644808
537.633638	2470.165385
537.994089	2492.850577
538.354483	2528.138654
538.714821	2450.000769
539.075103	2533.179808
539.435328	2429.836154
539.795497	2424.795000
540.155609	2528.138654
540.515665	2455.041923
540.875665	2490.330000
541.235609	2530.659231
541.595496	2563.426731
541.955328	2437.397885
542.315102	2583.591346
542.674821	2485.288846
543.034483	2545.782692
543.394090	2495.371154
543.753640	2538.220962
544.113134	2465.124231
544.472571	2507.974038
544.831953	2477.727115
545.191278	2507.974038
545.550548	2492.850577
545.909761	2497.891731
546.268918	2467.644808
546.628019	2538.220962
546.987064	2568.467885
547.346053	2520.576923
547.704986	2472.685962
548.063863	2472.685962
548.422684	2502.932885
548.781449	2482.768269
549.140158	2480.247692
549.498811	2570.988462
549.857408	2520.576923
550.215949	2455.041923
550.574434	2439.918462
550.932864	2434.877308
551.291237	2550.823846
551.649555	2394.548077
552.007817	2507.974038
552.366022	2505.453462
552.724173	2538.220962
553.082267	2535.700385
553.440305	2432.356731
553.798288	2487.809423
554.156215	2518.056346
554.514086	2523.097500
554.871902	2437.397885
555.229661	2470.165385
555.587365	2543.262115
555.945014	2543.262115
556.302606	2485.288846
556.660143	2507.974038
557.017625	2485.288846
557.375050	2576.029615
557.732421	2485.288846
558.089735	2392.027500
558.446994	2497.891731
558.804197	2482.768269
559.161345	2543.262115
559.518437	2472.685962
559.875474	2535.700385
560.232455	2553.344423
560.589381	2535.700385
560.946251	2495.371154
561.303065	2560.906154
561.659825	2538.220962
562.016528	2485.288846
562.373177	2477.727115
562.729770	2477.727115
563.086307	2439.918462
563.442789	2558.385577
563.799216	2492.850577
564.155587	2502.932885
564.511904	2452.521346
564.868164	2581.070769
565.224370	2497.891731
565.580520	2505.453462
565.936615	2470.165385
566.292654	2485.288846
566.648638	2550.823846
567.004567	2477.727115
567.360441	2523.097500
567.716260	2510.494615
568.072023	2518.056346
568.427732	2470.165385
568.783385	2477.727115
569.138982	2535.700385
569.494525	2586.111923
569.850013	2417.233269
570.205445	2601.235385
570.560823	2437.397885
570.916145	2442.439038
571.271412	2528.138654
571.626625	2543.262115
571.981782	2444.959615
572.336884	2442.439038
572.691931	2495.371154
573.046923	2482.768269
573.401860	2490.330000
573.756743	2518.056346
574.111570	2495.371154
574.466342	2452.521346
574.821059	2510.494615
575.175722	2429.836154
575.530330	2518.056346
575.884882	2477.727115
576.239380	2545.782692
576.593823	2520.576923
576.948211	2495.371154
577.302544	2533.179808
577.656823	2457.562500
578.011047	2502.932885
578.365216	2545.782692
578.719330	2533.179808
579.073389	2550.823846
579.427394	2523.097500
579.781344	2480.247692
580.135239	2513.015192
580.489080	2490.330000
580.842866	2450.000769
581.196597	2515.535769
581.550273	2475.206538
581.903895	2550.823846
582.257463	2495.371154
582.610975	2500.412308
582.964434	2472.685962
583.317837	2482.768269
583.671186	2530.659231
584.024481	2543.262115
584.377721	2460.083077
584.730906	2505.453462
585.084037	2550.823846
585.437113	2500.412308
585.790135	2439.918462
586.143103	2550.823846
586.496016	2513.015192
586.848874	2525.618077
587.201679	2530.659231
587.554428	2545.782692
587.907124	2434.877308
588.259765	2485.288846
588.612352	2497.891731
588.964884	2470.165385
589.317362	2482.768269
589.669786	2487.809423
590.022155	2578.550192
590.374470	2553.344423
590.726731	2525.618077
591.078937	2520.576923
591.431090	2618.879423
591.783188	2518.056346
592.135232	2565.947308
592.487222	2462.603654
592.839157	2505.453462
593.191038	2518.056346
593.542866	2482.768269
593.894639	2507.974038
594.246358	2485.288846
594.598022	2482.768269
594.949633	2487.809423
595.301190	2460.083077
595.652692	2598.714808
596.004141	2482.768269
596.355535	2465.124231
596.706876	2482.768269
597.058162	2500.412308
597.409395	2497.891731
597.760573	2550.823846
598.111698	2447.480192
598.462768	2485.288846
598.813785	2470.165385
599.164748	2543.262115
599.515657	2535.700385
599.866511	2492.850577
600.217312	2482.768269
600.568060	2465.124231
600.918753	2545.782692
601.269392	2507.974038
601.619978	2545.782692
601.970510	2455.041923
602.320988	2518.056346
602.671412	2487.809423
603.021783	2533.179808
603.372100	2452.521346
603.722363	2492.850577
604.072572	2583.591346
604.422728	2533.179808
604.772830	2495.371154
605.122878	2455.041923
605.472872	2475.206538
605.822813	2500.412308
606.172701	2485.288846
606.522534	2447.480192
606.872314	2543.262115
607.222041	2528.138654
607.571714	2515.535769
607.921333	2407.150962
608.270899	2507.974038
608.620411	2470.165385
608.969870	2543.262115
609.319276	2477.727115
609.668627	2518.056346
610.017926	2538.220962
610.367171	2545.782692
610.716362	2570.988462
611.065500	2533.179808
611.414585	2452.521346
611.763616	2477.727115
612.112594	2477.727115
612.461518	2389.506923
612.810389	2530.659231
613.159207	2470.165385
613.507971	2502.932885
613.856682	2518.056346
614.205340	2525.618077
614.553945	2444.959615
614.902496	2485.288846
615.250994	2455.041923
615.599439	2492.850577
615.947830	2518.056346
616.296169	2573.509038
616.644454	2523.097500
616.992686	2437.397885
617.340864	2550.823846
617.688990	2523.097500
618.037063	2565.947308
618.385082	2550.823846
618.733048	2513.015192
619.080961	2500.412308
619.428821	2480.247692
619.776628	2462.603654
620.124382	2525.618077
620.472083	2560.906154
620.819731	2510.494615
621.167326	2475.206538
621.514868	2490.330000
621.862357	2492.850577
622.209793	2429.836154
622.557176	2535.700385
622.904506	2467.644808
623.251783	2510.494615
623.599007	2414.712692
623.946179	2520.576923
624.293297	2417.233269
624.640363	2538.220962
624.987376	2455.041923
625.334336	2528.138654
625.681243	2535.700385
626.028097	2507.974038
626.374899	2538.220962
626.721647	2502.932885
627.068343	2497.891731
627.414987	2497.891731
627.761577	2492.850577
628.108115	2497.891731
628.454600	2465.124231
628.801032	2477.727115
629.147412	2497.891731
629.493739	2515.535769
629.840014	2523.097500
630.186236	2502.932885
630.532405	2523.097500
630.878521	2467.644808
631.224585	2407.150962
631.570597	2510.494615
631.916556	2500.412308
632.262462	2444.959615
632.608316	2492.850577
632.954117	2437.397885
633.299866	2485.288846
633.645562	2455.041923
633.991206	2558.385577
634.336797	2530.659231
634.682336	2497.891731
635.027823	2477.727115
635.373257	2568.467885
635.718639	2427.315577
636.063968	2555.865000
636.409245	2432.356731
636.754470	2548.303269
637.099642	2548.303269
637.444762	2442.439038
637.789829	2533.179808
638.134845	2460.083077
638.479808	2462.603654
638.824719	2513.015192
639.169577	2535.700385
639.514383	2470.165385
639.859137	2505.453462
640.203839	2465.124231
640.548489	2530.659231
640.893086	2487.809423
641.237632	2460.083077
641.582125	2447.480192
641.926566	2502.932885
642.270955	2495.371154
642.615292	2538.220962
642.959576	2510.494615
643.303809	2487.809423
643.647990	2424.795000
643.992118	2523.097500
644.336195	2457.562500
644.680219	2475.206538
645.024192	2518.056346
645.368112	2482.768269
645.711981	2460.083077
646.055797	2477.727115
646.399562	2518.056346
646.743274	2533.179808
647.086935	2455.041923
647.430544	2480.247692
647.774101	2467.644808
648.117606	2538.220962
648.461059	2495.371154
648.804460	2392.027500
649.147810	2460.083077
649.491108	2482.768269
649.834354	2432.356731
650.177548	2507.974038
650.520690	2505.453462
650.863781	2525.618077
651.206820	2535.700385
651.549807	2485.288846
651.892742	2397.068654
652.235626	2437.397885
652.578458	2452.521346
652.921238	2502.932885
653.263967	2492.850577
653.606644	2457.562500
653.949269	2482.768269
654.291843	2505.453462
654.634365	2515.535769
654.976836	2500.412308
655.319255	2462.603654
655.661622	2424.795000
656.003938	2563.426731
656.346203	2502.932885
656.688416	2450.000769
657.030577	2520.576923
657.372687	2477.727115
657.714746	2460.083077
658.056753	2510.494615
658.398708	2429.836154
658.740612	2505.453462
659.082465	2518.056346
659.424266	2535.700385
659.766016	2545.782692
660.107715	2480.247692
660.449362	2563.426731
660.790958	2502.932885
661.132503	2482.768269
661.473996	2487.809423
661.815438	2480.247692
662.156829	2545.782692
662.498168	2555.865000
662.839456	2530.659231
663.180693	2487.809423
663.521879	2545.782692
663.863013	2477.727115
664.204097	2502.932885
664.545129	2545.782692
664.886110	2553.344423
665.227040	2447.480192
665.567918	2578.550192
665.908746	2540.741538
666.249522	2502.932885
666.590248	2520.576923
666.930922	2482.768269
667.271545	2427.315577
667.612118	2490.330000
667.952639	2450.000769
668.293109	2530.659231
668.633528	2444.959615
668.973896	2513.015192
669.314213	2555.865000
669.654480	2450.000769
669.994695	2545.782692
670.334859	2477.727115
670.674973	2535.700385
671.015035	2386.986346
671.355047	2500.412308
671.695008	2513.015192
672.034918	2457.562500
672.374777	2573.509038
672.714585	2543.262115
673.054342	2515.535769
673.394049	2465.124231
673.733705	2553.344423
674.073310	2429.836154
674.412864	2465.124231
674.752368	2502.932885
675.091820	2528.138654
675.431223	2485.288846
675.770574	2480.247692
676.109875	2462.603654
676.449125	2515.535769
676.788324	2422.274423
677.127473	2563.426731
677.466571	2560.906154
677.805619	2434.877308
678.144616	2543.262115
678.483562	2495.371154
678.822458	2560.906154
679.161303	2540.741538
679.500098	2477.727115
679.838842	2424.795000
680.177535	2437.397885
680.516179	2495.371154
680.854771	2490.330000
681.193314	2558.385577
681.531805	2442.439038
681.870247	2558.385577
682.208638	2447.480192
682.546978	2460.083077
682.885268	2518.056346
683.223508	2424.795000
683.561697	2432.356731
683.899836	2417.233269
684.237925	2495.371154
684.575963	2568.467885
684.913951	2462.603654
685.251889	2480.247692
685.589776	2558.385577
685.927614	2563.426731
686.265401	2492.850577
686.603137	2565.947308
686.940824	2455.041923
687.278460	2502.932885
687.616046	2429.836154
687.953582	2404.630385
688.291068	2452.521346
688.628504	2507.974038
688.965889	2470.165385
689.303224	2439.918462
689.640510	2528.138654
689.977745	2505.453462
690.314930	2558.385577
690.652065	2565.947308
690.989150	2535.700385
691.326185	2457.562500
691.663170	2548.303269
692.000105	2472.685962
692.336990	2513.015192
692.673825	2452.521346
693.010610	2507.974038
693.347345	2568.467885
693.684030	2495.371154
694.020665	2465.124231
694.357251	2530.659231
694.693786	2467.644808
695.030272	2412.192115
695.366707	2528.138654
695.703093	2548.303269
696.039429	2500.412308
696.375716	2442.439038
696.711952	2475.206538
697.048139	2518.056346
697.384276	2452.521346
697.720363	2520.576923
698.056400	2505.453462
698.392388	2558.385577
698.728326	2518.056346
699.064214	2515.535769
699.400053	2500.412308
699.735842	2472.685962
700.071581	2492.850577
700.407270	2432.356731
700.742910	2563.426731
701.078501	2540.741538
701.414042	2535.700385
701.749533	2550.823846
702.084974	2576.029615
702.420366	2550.823846
702.755709	2510.494615
703.091002	2487.809423
703.426246	2535.700385
703.761440	2533.179808
704.096584	2485.288846
704.431679	2460.083077
704.766725	2518.056346
705.101721	2502.932885
705.436668	2444.959615
705.771565	2563.426731
706.106413	2480.247692
706.441212	2507.974038
706.775961	2470.165385
707.110661	2533.179808
707.445311	2429.836154
707.779913	2475.206538
708.114465	2528.138654
708.448967	2565.947308
708.783421	2460.083077
709.117825	2455.041923
709.452180	2442.439038
709.786485	2543.262115
710.120742	2548.303269
710.454949	2444.959615
710.789107	2513.015192
711.123216	2495.371154
711.457275	2505.453462
711.791286	2442.439038
712.125247	2502.932885
712.459159	2460.083077
712.793023	2482.768269
713.126837	2634.002885
713.460602	2424.795000
713.794318	2475.206538
714.127985	2586.111923
714.461602	2485.288846
714.795171	2460.083077
715.128691	2462.603654
715.462162	2533.179808
715.795584	2432.356731
716.128957	2553.344423
716.462281	2535.700385
716.795556	2560.906154
717.128782	2444.959615
717.461960	2515.535769
717.795088	2500.412308
718.128167	2407.150962
718.461198	2545.782692
718.794180	2467.644808
719.127113	2528.138654
719.459997	2560.906154
719.792833	2392.027500
720.125619	2447.480192
720.458357	2427.315577
720.791046	2502.932885
721.123686	2480.247692
721.456278	2510.494615
721.788821	2528.138654
722.121315	2452.521346
722.453761	2520.576923
722.786158	2439.918462
723.118506	2495.371154
723.450805	2497.891731
723.783056	2530.659231
724.115259	2475.206538
724.447412	2490.330000
724.779518	2477.727115
725.111574	2447.480192
725.443582	2525.618077
725.775542	2477.727115
726.107453	2419.753846
726.439315	2427.315577
726.771129	2462.603654
727.102895	2513.015192
727.434612	2518.056346
727.766281	2520.576923
728.097901	2497.891731
728.429473	2520.576923
728.760996	2439.918462
729.092471	2442.439038
729.423897	2455.041923
729.755276	2538.220962
730.086606	2419.753846
730.417887	2470.165385
730.749120	2540.741538
731.080305	2477.727115
731.411442	2457.562500
731.742530	2480.247692
732.073570	2460.083077
732.404562	2434.877308
732.735506	2513.015192
733.066401	2548.303269
733.397249	2540.741538
733.728048	2495.371154
734.058798	2533.179808
734.389501	2565.947308
734.720156	2457.562500
735.050762	2505.453462
735.381320	2502.932885
735.711831	2480.247692
736.042293	2447.480192
736.372707	2513.015192
736.703073	2462.603654
737.033391	2439.918462
737.363661	2495.371154
737.693883	2533.179808
738.024056	2439.918462
738.354182	2510.494615
738.684260	2520.576923
739.014290	2507.974038
739.344272	2470.165385
739.674207	2555.865000
740.004093	2596.194231
740.333931	2570.988462
740.663722	2553.344423
740.993464	2439.918462
741.323159	2482.768269
741.652806	2492.850577
741.982405	2495.371154
742.311956	2540.741538
742.641460	2520.576923
742.970915	2570.988462
743.300323	2495.371154
743.629683	2457.562500
743.958996	2505.453462
744.288260	2530.659231
744.617477	2530.659231
744.946647	2548.303269
745.275768	2457.562500
745.604842	2502.932885
745.933869	2535.700385
746.262847	2510.494615
746.591778	2457.562500
746.920662	2432.356731
747.249498	2495.371154
747.578286	2578.550192
747.907027	2450.000769
748.235720	2523.097500
748.564365	2535.700385
748.892963	2507.974038
749.221514	2513.015192
749.550017	2606.276538
749.878473	2545.782692
750.206881	2452.521346
750.535242	2502.932885
750.863555	2530.659231
751.191821	2573.509038
751.520039	2452.521346
751.848210	2550.823846
752.176334	2434.877308
752.504411	2500.412308
752.832440	2485.288846
753.160421	2424.795000
753.488356	2490.330000
753.816243	2371.862885
754.144082	2450.000769
754.471875	2462.603654
754.799620	2497.891731
755.127318	2485.288846
755.454969	2500.412308
755.782572	2596.194231
756.110129	2540.741538
756.437638	2417.233269
756.765100	2598.714808
757.092515	2485.288846
757.419882	2447.480192
757.747203	2560.906154
758.074477	2422.274423
758.401703	2538.220962
758.728882	2477.727115
759.056014	2548.303269
759.383099	2560.906154
759.710138	2475.206538
760.037129	2452.521346
760.364073	2588.632500
760.690970	2457.562500
761.017820	2480.247692
761.344623	2462.603654
761.671379	2505.453462
761.998088	2492.850577
762.324751	2523.097500
762.651366	2555.865000
762.977935	2576.029615
763.304456	2452.521346
763.630931	2429.836154
763.957359	2565.947308
764.283740	2513.015192
764.610074	2518.056346
764.936362	2540.741538
765.262602	2530.659231
765.588796	2447.480192
765.914943	2530.659231
766.241044	2442.439038
766.567097	2480.247692
766.893104	2465.124231
767.219064	2553.344423
767.544978	2490.330000
767.870845	2465.124231
768.196665	2565.947308
768.522438	2523.097500
768.848165	2525.618077
769.173846	2515.535769
769.499479	2528.138654
769.825066	2507.974038
770.150607	2560.906154
770.476101	2548.303269
770.801548	2513.015192
771.126949	2487.809423
771.452303	2447.480192
771.777611	2409.671538
772.102872	2442.439038
772.428087	2465.124231
772.753256	2507.974038
773.078378	2467.644808
773.403453	2485.288846
773.728482	2450.000769
774.053465	2482.768269
774.378401	2397.068654
774.703291	2457.562500
775.028135	2538.220962
775.352932	2470.165385
775.677683	2495.371154
776.002388	2558.385577
776.327046	2457.562500
776.651658	2462.603654
776.976224	2525.618077
777.300743	2492.850577
777.625216	2487.809423
777.949643	2462.603654
778.274024	2389.506923
778.598359	2578.550192
778.922647	2515.535769
779.246889	2513.015192
779.571086	2505.453462
779.895236	2570.988462
780.219339	2573.509038
780.543397	2518.056346
780.867409	2540.741538
781.191374	2482.768269
781.515294	2485.288846
781.839167	2530.659231
782.162995	2452.521346
782.486776	2490.330000
782.810511	2525.618077
783.134201	2578.550192
783.457844	2560.906154
783.781441	2460.083077
784.104993	2424.795000
784.428498	2432.356731
784.751958	2543.262115
785.075372	2510.494615
785.398739	2444.959615
785.722061	2518.056346
786.045337	2550.823846
786.368568	2495.371154
786.691752	2465.124231
787.014891	2563.426731
787.337983	2578.550192
787.661030	2505.453462
787.984031	2447.480192
788.306987	2568.467885
788.629897	2495.371154
788.952760	2417.233269
789.275579	2538.220962
789.598351	2492.850577
789.921078	2533.179808
790.243759	2523.097500
790.566395	2497.891731
790.888984	2482.768269
791.211529	2545.782692
791.534027	2404.630385
791.856480	2525.618077
792.178888	2442.439038
792.501249	2520.576923
792.823566	2412.192115
793.145836	2518.056346
793.468062	2417.233269
793.790241	2576.029615
794.112375	2475.206538
794.434464	2475.206538
794.756507	2487.809423
795.078505	2462.603654
795.400457	2548.303269
795.722364	2467.644808
796.044226	2507.974038
796.366042	2467.644808
796.687812	2419.753846
797.009538	2492.850577
797.331218	2553.344423
797.652852	2472.685962
797.974442	2507.974038
798.295986	2520.576923
798.617484	2465.124231
798.938938	2510.494615
799.260346	2490.330000
799.581709	2432.356731
799.903026	2429.836154
800.224299	2492.850577
800.545526	2530.659231
800.866708	2460.083077
801.187845	2505.453462
801.508936	2475.206538
801.829983	2525.618077
802.150984	2470.165385
802.471940	2545.782692
802.792851	2487.809423
803.113717	2452.521346
803.434538	2558.385577
803.755314	2550.823846
804.076045	2533.179808
804.396731	2583.591346
804.717372	2434.877308
805.037967	2513.015192
805.358518	2485.288846
805.679024	2490.330000
805.999485	2520.576923
806.319901	2568.467885
806.640272	2510.494615
806.960598	2528.138654
807.280879	2525.618077
807.601115	2565.947308
807.921306	2528.138654
808.241453	2520.576923
808.561554	2492.850577
808.881611	2472.685962
809.201623	2543.262115
809.521590	2447.480192
809.841513	2485.288846
810.161390	2465.124231
810.481223	2565.947308
810.801011	2490.330000
811.120755	2548.303269
811.440453	2472.685962
811.760107	2492.850577
812.079716	2528.138654
812.399281	2490.330000
812.718801	2513.015192
813.038276	2455.041923
813.357707	2535.700385
813.677093	2477.727115
813.996434	2470.165385
814.315731	2424.795000
814.634983	2432.356731
814.954191	2427.315577
815.273354	2563.426731
815.592473	2450.000769
815.911547	2613.838269
816.230577	2475.206538
816.549562	2513.015192
816.868502	2429.836154
817.187399	2359.260000
817.506250	2495.371154
817.825058	2502.932885
818.143821	2455.041923
818.462539	2480.247692
818.781213	2515.535769
819.099843	2528.138654
819.418429	2444.959615
819.736970	2548.303269
820.055466	2485.288846
820.373919	2523.097500
820.692327	2432.356731
821.010691	2492.850577
821.329011	2548.303269
821.647286	2402.109808
821.965517	2530.659231
822.283704	2470.165385
822.601847	2434.877308
822.919945	2492.850577
823.237999	2460.083077
823.556010	2535.700385
823.873976	2545.782692
824.191897	2472.685962
824.509775	2480.247692
824.827609	2515.535769
825.145398	2492.850577
825.463144	2502.932885
825.780845	2450.000769
826.098502	2485.288846
826.416116	2462.603654
826.733685	2535.700385
827.051210	2545.782692
827.368692	2500.412308
827.686129	2492.850577
828.003522	2520.576923
828.320872	2543.262115
828.638177	2487.809423
828.955439	2596.194231
829.272656	2450.000769
829.589830	2480.247692
829.906960	2444.959615
830.224046	2467.644808
830.541088	2497.891731
830.858086	2480.247692
831.175041	2444.959615
831.491952	2482.768269
831.808819	2518.056346
832.125642	2477.727115
832.442421	2545.782692
832.759157	2472.685962
833.075849	2490.330000
833.392497	2558.385577
833.709101	2482.768269
834.025662	2447.480192
834.342179	2545.782692
834.658653	2450.000769
834.975083	2502.932885
835.291469	2515.535769
835.607811	2502.932885
835.924110	2482.768269
836.240366	2495.371154
836.556578	2460.083077
836.872746	2477.727115
837.188871	2439.918462
837.504952	2369.342308
837.820990	2392.027500
838.136984	2555.865000
838.452935	2492.850577
838.768842	2480.247692
839.084706	2576.029615
839.400526	2460.083077
839.716303	2533.179808
840.032037	2480.247692
840.347727	2485.288846
840.663373	2588.632500
840.978977	2570.988462
841.294537	2545.782692
841.610054	2414.712692
841.925527	2472.685962
842.240957	2457.562500
842.556344	2505.453462
842.871687	2497.891731
843.186987	2457.562500
843.502244	2505.453462
843.817458	2523.097500
844.132629	2472.685962
844.447756	2497.891731
844.762840	2492.850577
845.077881	2513.015192
845.392879	2505.453462
845.707833	2565.947308
846.022745	2457.562500
846.337613	2475.206538
846.652438	2515.535769
846.967221	2452.521346
847.281960	2432.356731
847.596656	2412.192115
847.911309	2477.727115
848.225919	2507.974038
848.540485	2364.301154
848.855009	2465.124231
849.169490	2404.630385
849.483928	2487.809423
849.798323	2523.097500
850.112675	2588.632500
850.426984	2397.068654
850.741251	2513.015192
851.055474	2472.685962
851.369654	2485.288846
851.683792	2558.385577
851.997887	2497.891731
852.311938	2576.029615
852.625947	2470.165385
852.939914	2573.509038
853.253837	2518.056346
853.567718	2528.138654
853.881555	2432.356731
854.195350	2409.671538
854.509103	2550.823846
854.822812	2553.344423
855.136479	2603.755962
855.450103	2460.083077
855.763685	2475.206538
856.077224	2424.795000
856.390720	2515.535769
856.704173	2510.494615
857.017584	2485.288846
857.330953	2497.891731
857.644278	2427.315577
857.957561	2523.097500
858.270802	2495.371154
858.584000	2533.179808
858.897155	2502.932885
859.210268	2497.891731
859.523339	2490.330000
859.836367	2603.755962
860.149352	2495.371154
860.462295	2500.412308
860.775195	2386.986346
861.088054	2510.494615
861.400869	2490.330000
861.713642	2528.138654
862.026373	2404.630385
862.339062	2497.891731
862.651708	2520.576923
862.964312	2560.906154
863.276873	2482.768269
863.589392	2492.850577
863.901869	2528.138654
864.214303	2475.206538
864.526696	2570.988462
864.839045	2520.576923
865.151353	2465.124231
865.463619	2392.027500
865.775842	2437.397885
866.088023	2485.288846
866.400162	2505.453462
866.712258	2548.303269
867.024313	2525.618077
867.336325	2548.303269
867.648296	2502.932885
867.960224	2502.932885
868.272110	2437.397885
868.583954	2487.809423
868.895755	2523.097500
869.207515	2510.494615
869.519233	2570.988462
869.830909	2523.097500
870.142542	2563.426731
870.454134	2455.041923
870.765684	2510.494615
871.077191	2530.659231
871.388657	2525.618077
871.700081	2470.165385
872.011463	2558.385577
872.322803	2434.877308
872.634101	2560.906154
872.945357	2558.385577
873.256571	2480.247692
873.567744	2457.562500
873.878874	2507.974038
874.189963	2475.206538
874.501010	2533.179808
874.812015	2510.494615
875.122979	2528.138654
875.433900	2513.015192
875.744780	2467.644808
876.055618	2550.823846
876.366415	2520.576923
876.677169	2447.480192
876.987882	2515.535769
877.298554	2573.509038
877.609183	2495.371154
877.919771	2525.618077
878.230317	2568.467885
878.540822	2467.644808
878.851285	2500.412308
879.161707	2447.480192
879.472087	2558.385577
879.782425	2467.644808
880.092722	2533.179808
880.402977	2601.235385
880.713191	2447.480192
881.023363	2432.356731
881.333494	2523.097500
881.643583	2490.330000
881.953631	2485.288846
882.263637	2518.056346
882.573602	2470.165385
882.883526	2520.576923
883.193408	2565.947308
883.503248	2457.562500
883.813048	2492.850577
884.122806	2465.124231
884.432522	2515.535769
884.742197	2518.056346
885.051831	2523.097500
885.361424	2505.453462
885.670975	2412.192115
885.980485	2447.480192
886.289954	2467.644808
886.599382	2530.659231
886.908768	2523.097500
887.218113	2480.247692
887.527417	2518.056346
887.836680	2518.056346
888.145901	2475.206538
888.455082	2460.083077
888.764221	2460.083077
889.073319	2502.932885
889.382376	2467.644808
889.691392	2492.850577
890.000366	2515.535769
890.309300	2500.412308
890.618193	2555.865000
890.927044	2528.138654
891.235855	2485.288846
891.544625	2482.768269
891.853353	2510.494615
892.162041	2518.056346
892.470687	2482.768269
892.779293	2502.932885
893.087858	2384.465769
893.396381	2525.618077
893.704864	2502.932885
894.013306	2480.247692
894.321707	2480.247692
894.630068	2533.179808
894.938387	2533.179808
895.246665	2570.988462
895.554903	2540.741538
895.863100	2480.247692
896.171256	2470.165385
896.479371	2485.288846
896.787446	2490.330000
897.095480	2460.083077
897.403473	2581.070769
897.711425	2434.877308
898.019336	2513.015192
898.327207	2439.918462
898.635038	2540.741538
898.942827	2475.206538
899.250576	2467.644808
899.558284	2424.795000
899.865952	2545.782692
900.173579	2581.070769
900.481165	2497.891731
900.788711	2533.179808
901.096216	2523.097500
901.403681	2477.727115
901.711105	2444.959615
902.018489	2618.879423
902.325832	2424.795000
902.633135	2475.206538
902.940397	2447.480192
903.247619	2452.521346
903.554800	2427.315577
903.861941	2497.891731
904.169041	2502.932885
904.476101	2432.356731
904.783121	2434.877308
905.090100	2467.644808
905.397039	2432.356731
905.703938	2490.330000
906.010796	2500.412308
906.317614	2533.179808
906.624391	2507.974038
906.931129	2490.330000
907.237826	2515.535769
907.544483	2540.741538
907.851099	2455.041923
908.157675	2518.056346
908.464211	2500.412308
908.770707	2563.426731
909.077163	2545.782692
909.383578	2467.644808
909.689954	2507.974038
909.996289	2419.753846
910.302584	2495.371154
910.608839	2477.727115
910.915054	2487.809423
911.221229	2442.439038
911.527363	2444.959615
911.833458	2492.850577
912.139513	2548.303269
912.445527	2492.850577
912.751502	2490.330000
913.057436	2457.562500
913.363331	2490.330000
913.669186	2477.727115
913.975000	2399.589231
914.280775	2540.741538
914.586510	2523.097500
914.892205	2555.865000
915.197859	2528.138654
915.503475	2530.659231
915.809050	2384.465769
916.114585	2500.412308
916.420081	2513.015192
916.725536	2553.344423
917.030952	2505.453462
917.336328	2507.974038
917.641665	2490.330000
917.946961	2480.247692
918.252218	2535.700385
918.557435	2452.521346
918.862612	2563.426731
919.167750	2540.741538
919.472848	2374.383462
919.777906	2467.644808
920.082925	2434.877308
920.387904	2460.083077
920.692843	2450.000769
920.997743	2437.397885
921.302603	2502.932885
921.607423	2472.685962
921.912204	2409.671538
922.216946	2515.535769
922.521647	2427.315577
922.826310	2500.412308
923.130932	2495.371154
923.435516	2480.247692
923.740059	2533.179808
924.044564	2523.097500
924.349028	2434.877308
924.653454	2513.015192
924.957840	2455.041923
925.262186	2475.206538
925.566493	2465.124231
925.870761	2573.509038
926.174989	2490.330000
926.479178	2502.932885
926.783328	2513.015192
927.087438	2563.426731
927.391509	2429.836154
927.695541	2485.288846
927.999533	2505.453462
928.303486	2444.959615
928.607400	2540.741538
928.911275	2480.247692
929.215110	2553.344423
929.518906	2518.056346
929.822663	2497.891731
930.126381	2399.589231
930.430060	2485.288846
930.733699	2450.000769
931.037299	2472.685962
931.340861	2507.974038
931.644383	2540.741538
931.947866	2487.809423
932.251309	2500.412308
932.554714	2470.165385
932.858080	2462.603654
933.161407	2470.165385
933.464694	2447.480192
933.767943	2555.865000
934.071153	2434.877308
934.374323	2520.576923
934.677455	2510.494615
934.980548	2553.344423
935.283602	2452.521346
935.586617	2492.850577
935.889593	2490.330000
936.192530	2389.506923
936.495428	2480.247692
936.798287	2495.371154
937.101108	2576.029615
937.403890	2540.741538
937.706632	2555.865000
938.009336	2455.041923
938.312002	2407.150962
938.614628	2472.685962
938.917216	2359.260000
939.219765	2457.562500
939.522275	2492.850577
939.824747	2457.562500
940.127179	2470.165385
940.429573	2591.153077
940.731929	2502.932885
941.034246	2530.659231
941.336524	2422.274423
941.638763	2429.836154
941.940964	2565.947308
942.243126	2515.535769
942.545250	2404.630385
942.847335	2485.288846
943.149381	2515.535769
943.451389	2462.603654
943.753359	2432.356731
944.055290	2528.138654
944.357182	2477.727115
944.659036	2507.974038
944.960851	2369.342308
945.262628	2530.659231
945.564367	2563.426731
945.866067	2397.068654
946.167729	2507.974038
946.469352	2560.906154
946.770937	2419.753846
947.072484	2535.700385
947.373992	2533.179808
947.675462	2538.220962
947.976893	2515.535769
948.278286	2434.877308
948.579641	2442.439038
948.880958	2429.836154
949.182236	2452.521346
949.483476	2437.397885
949.784678	2497.891731
950.085841	2550.823846
950.386967	2429.836154
950.688054	2394.548077
950.989103	2513.015192
951.290114	2442.439038
951.591087	2510.494615
951.892021	2540.741538
952.192917	2482.768269
952.493776	2500.412308
952.794596	2550.823846
953.095378	2444.959615
953.396122	2399.589231
953.696828	2545.782692
953.997496	2576.029615
954.298126	2470.165385
954.598718	2437.397885
954.899272	2490.330000
955.199788	2543.262115
955.500266	2412.192115
955.800706	2450.000769
956.101108	2381.945192
956.401472	2470.165385
956.701798	2434.877308
957.002087	2429.836154
957.302337	2455.041923
957.602550	2535.700385
957.902724	2475.206538
958.202861	2543.262115
958.502960	2444.959615
958.803022	2518.056346
959.103045	2437.397885
959.403031	2568.467885
959.702979	2409.671538
960.002889	2497.891731
960.302762	2422.274423
960.602596	2538.220962
960.902393	2457.562500
961.202153	2505.453462
961.501875	2543.262115
961.801559	2414.712692
962.101205	2452.521346
962.400814	2548.303269
962.700385	2457.562500
962.999918	2505.453462
963.299414	2553.344423
963.598873	2576.029615
963.898293	2502.932885
964.197677	2558.385577
964.497022	2412.192115
964.796331	2490.330000
965.095601	2437.397885
965.394835	2525.618077
965.694030	2452.521346
965.993189	2525.618077
966.292309	2520.576923
966.591393	2487.809423
966.890439	2442.439038
967.189447	2530.659231
967.488419	2497.891731
967.787353	2540.741538
968.086249	2472.685962
968.385108	2414.712692
968.683930	2500.412308
968.982714	2492.850577
969.281462	2555.865000
969.580172	2500.412308
969.878844	2442.439038
970.177480	2545.782692
970.476078	2419.753846
970.774639	2402.109808
971.073162	2490.330000
971.371649	2434.877308
971.670098	2487.809423
971.968510	2520.576923
972.266885	2465.124231
972.565223	2475.206538
972.863524	2432.356731
973.161788	2482.768269
973.460014	2540.741538
973.758204	2528.138654
974.056356	2407.150962
974.354471	2495.371154
974.652550	2414.712692
974.950591	2384.465769
975.248595	2548.303269
975.546563	2477.727115
975.844493	2518.056346
976.142386	2417.233269
976.440243	2477.727115
976.738062	2437.397885
977.035845	2497.891731
977.333590	2568.467885
977.631299	2412.192115
977.928971	2523.097500
978.226606	2492.850577
978.524204	2467.644808
978.821765	2477.727115
979.119290	2414.712692
979.416777	2465.124231
979.714228	2500.412308
980.011642	2492.850577
980.309020	2563.426731
980.606360	2482.768269
980.903664	2533.179808
981.200931	2465.124231
981.498162	2555.865000
981.795356	2606.276538
982.092513	2495.371154
982.389633	2475.206538
982.686717	2497.891731
982.983764	2407.150962
983.280775	2477.727115
983.577749	2477.727115
983.874686	2467.644808
984.171587	2402.109808
984.468451	2573.509038
984.765279	2472.685962
985.062070	2462.603654
985.358824	2533.179808
985.655543	2460.083077
985.952224	2515.535769
986.248869	2439.918462
986.545478	2480.247692
986.842050	2500.412308
987.138586	2485.288846
987.435086	2427.315577
987.731549	2520.576923
988.027975	2480.247692
988.324366	2439.918462
988.620719	2437.397885
988.917037	2467.644808
989.213318	2495.371154
989.509563	2465.124231
989.805772	2545.782692
990.101944	2457.562500
990.398080	2568.467885
990.694180	2462.603654
990.990244	2482.768269
991.286271	2452.521346
991.582262	2457.562500
991.878217	2497.891731
992.174136	2475.206538
992.470019	2460.083077
992.765865	2475.206538
993.061676	2538.220962
993.357450	2502.932885
993.653188	2533.179808
993.948890	2429.836154
994.244556	2477.727115
994.540186	2462.603654
994.835780	2450.000769
995.131337	2500.412308
995.426859	2500.412308
995.722345	2432.356731
996.017795	2434.877308
996.313208	2465.124231
996.608586	2485.288846
996.903928	2525.618077
997.199234	2470.165385
997.494504	2502.932885
997.789738	2492.850577
998.084936	2422.274423
998.380099	2492.850577
998.675225	2480.247692
998.970316	2500.412308
999.265371	2394.548077
999.560390	2515.535769
999.855373	2576.029615
1000.150320	2490.330000
1000.445232	2439.918462
1000.740108	2523.097500
1001.034948	2487.809423
1001.329752	2457.562500
1001.624521	2460.083077
1001.919254	2404.630385
1002.213951	2465.124231
1002.508613	2513.015192
1002.803239	2533.179808
1003.097829	2490.330000
1003.392384	2487.809423
1003.686903	2422.274423
1003.981386	2540.741538
1004.275834	2570.988462
1004.570246	2535.700385
1004.864623	2538.220962
1005.158964	2475.206538
1005.453270	2455.041923
1005.747540	2470.165385
1006.041775	2563.426731
1006.335974	2543.262115
1006.630138	2513.015192
1006.924266	2492.850577
1007.218359	2470.165385
1007.512416	2510.494615
1007.806438	2500.412308
1008.100425	2434.877308
1008.394376	2455.041923
1008.688292	2455.041923
1008.982172	2455.041923
1009.276017	2490.330000
1009.569827	2543.262115
1009.863602	2523.097500
1010.157341	2397.068654
1010.451045	2497.891731
1010.744714	2439.918462
1011.038347	2581.070769
1011.331945	2490.330000
1011.625508	2472.685962
1011.919036	2477.727115
1012.212528	2560.906154
1012.505986	2379.424615
1012.799408	2550.823846
1013.092795	2505.453462
1013.386147	2467.644808
1013.679464	2444.959615
1013.972745	2535.700385
1014.265992	2444.959615
1014.559204	2563.426731
1014.852380	2462.603654
1015.145521	2543.262115
1015.438628	2497.891731
1015.731699	2492.850577
1016.024736	2490.330000
1016.317737	2379.424615
1016.610703	2419.753846
1016.903635	2482.768269
1017.196531	2485.288846
1017.489393	2450.000769
1017.782219	2530.659231
1018.075011	2444.959615
1018.367768	2560.906154
1018.660490	2507.974038
1018.953177	2507.974038
1019.245829	2507.974038
