Dividing Wavelength (nm)	Counts (n)	Blue Motor Position (mm): 0.000000	Red Motor Position (mm): 6.700000	
326.493990	2114.764038
326.888308	2114.764038
327.282561	2114.764038
327.676750	2066.873077
328.070874	1968.570577
328.464933	2018.982115
328.858929	2046.708462
329.252859	1996.296923
329.646726	2132.408077
330.040528	2112.243462
330.434265	2152.572692
330.827938	2122.325769
331.221547	2071.914231
331.615091	2180.299038
332.008571	2225.669423
332.401986	2225.669423
332.795338	2200.463654
333.188625	2286.163269
333.581847	2283.642692
333.975006	2230.710577
334.368100	2371.862885
334.761129	2278.601538
335.154095	2326.492500
335.546996	2255.916346
335.939833	2379.424615
336.332606	2359.260000
336.725315	2414.712692
337.117960	2326.492500
337.510540	2518.056346
337.903056	2394.548077
338.295508	2419.753846
338.687896	2442.439038
339.080220	2422.274423
339.472480	2397.068654
339.864676	2487.809423
340.256807	2490.330000
340.648875	2535.700385
341.040879	2485.288846
341.432818	2487.809423
341.824694	2407.150962
342.216506	2414.712692
342.608253	2447.480192
342.999937	2543.262115
343.391557	2422.274423
343.783113	2523.097500
344.174605	2462.603654
344.566033	2497.891731
344.957397	2409.671538
345.348697	2414.712692
345.739934	2409.671538
346.131106	2429.836154
346.522215	2376.904038
346.913260	2530.659231
347.304241	2412.192115
347.695159	2490.330000
348.086012	2510.494615
348.476802	2513.015192
348.867528	2434.877308
349.258191	2465.124231
349.648789	2404.630385
350.039324	2399.589231
350.429796	2394.548077
350.820203	2457.562500
351.210548	2457.562500
351.600828	2482.768269
351.991045	2399.589231
352.381198	2351.698269
352.771288	2437.397885
353.161314	2442.439038
353.551276	2374.383462
353.941175	2439.918462
354.331010	2490.330000
354.720782	2407.150962
355.110490	2384.465769
355.500135	2477.727115
355.889717	2444.959615
356.279235	2450.000769
356.668689	2386.986346
357.058080	2487.809423
357.447408	2422.274423
357.836672	2543.262115
358.225873	2379.424615
358.615010	2492.850577
359.004084	2437.397885
359.393095	2404.630385
359.782043	2429.836154
360.170927	2480.247692
360.559748	2500.412308
360.948505	2442.439038
361.337199	2442.439038
361.725830	2465.124231
362.114398	2409.671538
362.502903	2399.589231
362.891344	2394.548077
363.279722	2495.371154
363.668037	2281.122115
364.056289	2480.247692
364.444478	2414.712692
364.832603	2482.768269
365.220665	2437.397885
365.608665	2515.535769
365.996601	2455.041923
366.384474	2422.274423
366.772284	2480.247692
367.160031	2518.056346
367.547715	2492.850577
367.935336	2472.685962
368.322893	2455.041923
368.710388	2429.836154
369.097820	2412.192115
369.485189	2424.795000
369.872495	2364.301154
370.259738	2472.685962
370.646918	2505.453462
371.034035	2505.453462
371.421090	2437.397885
371.808081	2502.932885
372.195010	2465.124231
372.581875	2402.109808
372.968678	2467.644808
373.355418	2437.397885
373.742096	2540.741538
374.128710	2437.397885
374.515262	2510.494615
374.901751	2513.015192
375.288177	2432.356731
375.674540	2434.877308
376.060841	2518.056346
376.447079	2394.548077
376.833254	2485.288846
377.219367	2374.383462
377.605417	2427.315577
377.991404	2477.727115
378.377329	2482.768269
378.763191	2417.233269
379.148991	2487.809423
379.534727	2497.891731
379.920402	2442.439038
380.306013	2550.823846
380.691563	2467.644808
381.077049	2502.932885
381.462474	2371.862885
381.847835	2444.959615
382.233134	2525.618077
382.618371	2427.315577
383.003545	2540.741538
383.388657	2414.712692
383.773706	2422.274423
384.158693	2513.015192
384.543618	2412.192115
384.928480	2480.247692
385.313280	2477.727115
385.698017	2424.795000
386.082692	2465.124231
386.467305	2485.288846
386.851856	2500.412308
387.236344	2487.809423
387.620770	2467.644808
388.005133	2452.521346
388.389435	2462.603654
388.773674	2480.247692
389.157851	2417.233269
389.541965	2467.644808
389.926018	2475.206538
390.310008	2424.795000
390.693936	2439.918462
391.077802	2553.344423
391.461606	2422.274423
391.845348	2386.986346
392.229027	2502.932885
392.612645	2465.124231
392.996200	2460.083077
393.379694	2424.795000
393.763125	2543.262115
394.146494	2460.083077
394.529801	2462.603654
394.913047	2444.959615
395.296230	2412.192115
395.679351	2475.206538
396.062410	2495.371154
396.445408	2485.288846
396.828343	2513.015192
397.211217	2419.753846
397.594028	2482.768269
397.976778	2442.439038
398.359466	2533.179808
398.742092	2485.288846
399.124656	2429.836154
399.507158	2510.494615
399.889598	2429.836154
400.271977	2439.918462
400.654294	2518.056346
401.036549	2460.083077
401.418742	2429.836154
401.800874	2379.424615
402.182944	2530.659231
402.564952	2437.397885
402.946898	2480.247692
403.328783	2429.836154
403.710606	2465.124231
404.092367	2540.741538
404.474067	2447.480192
404.855705	2480.247692
405.237282	2530.659231
405.618797	2412.192115
406.000250	2460.083077
406.381642	2457.562500
406.762972	2485.288846
407.144240	2510.494615
407.525447	2485.288846
407.906593	2465.124231
408.287677	2543.262115
408.668700	2397.068654
409.049661	2540.741538
409.430560	2568.467885
409.811399	2477.727115
410.192176	2540.741538
410.572891	2386.986346
410.953545	2470.165385
411.334138	2477.727115
411.714669	2457.562500
412.095139	2414.712692
412.475547	2386.986346
412.855894	2460.083077
413.236180	2472.685962
413.616405	2457.562500
413.996568	2492.850577
414.376670	2608.797115
414.756711	2490.330000
415.136691	2520.576923
415.516609	2457.562500
415.896466	2444.959615
416.276262	2497.891731
416.655997	2475.206538
417.035670	2545.782692
417.415283	2462.603654
417.794834	2422.274423
418.174324	2427.315577
418.553753	2407.150962
418.933121	2497.891731
419.312428	2520.576923
419.691674	2399.589231
420.070859	2437.397885
420.449983	2452.521346
420.829045	2548.303269
421.208047	2560.906154
421.586988	2480.247692
421.965867	2507.974038
422.344686	2444.959615
422.723444	2381.945192
423.102141	2439.918462
423.480777	2525.618077
423.859352	2568.467885
424.237866	2543.262115
424.616319	2450.000769
424.994712	2545.782692
425.373044	2467.644808
425.751314	2442.439038
426.129524	2439.918462
426.507673	2384.465769
426.885762	2492.850577
427.263789	2533.179808
427.641756	2470.165385
428.019662	2450.000769
428.397508	2558.385577
428.775292	2525.618077
429.153016	2389.506923
429.530679	2550.823846
429.908282	2475.206538
430.285824	2507.974038
430.663305	2462.603654
431.040726	2364.301154
431.418086	2550.823846
431.795385	2457.562500
432.172624	2482.768269
432.549802	2555.865000
432.926920	2563.426731
433.303977	2455.041923
433.680974	2603.755962
434.057910	2455.041923
434.434786	2432.356731
434.811601	2495.371154
435.188355	2427.315577
435.565050	2495.371154
435.941683	2482.768269
436.318257	2565.947308
436.694770	2482.768269
437.071222	2432.356731
437.447614	2497.891731
437.823946	2439.918462
438.200218	2407.150962
438.576429	2429.836154
438.952580	2444.959615
439.328670	2538.220962
439.704700	2480.247692
440.080670	2462.603654
440.456580	2439.918462
440.832429	2533.179808
441.208218	2462.603654
441.583947	2480.247692
441.959616	2530.659231
442.335224	2510.494615
442.710773	2439.918462
443.086261	2510.494615
443.461689	2535.700385
443.837057	2560.906154
444.212365	2369.342308
444.587612	2424.795000
444.962800	2500.412308
445.337927	2568.467885
445.712995	2576.029615
446.088002	2475.206538
446.462949	2492.850577
446.837837	2439.918462
447.212664	2553.344423
447.587431	2437.397885
447.962139	2437.397885
448.336786	2450.000769
448.711374	2439.918462
449.085901	2606.276538
449.460369	2467.644808
449.834776	2538.220962
450.209124	2394.548077
450.583412	2515.535769
450.957640	2427.315577
451.331808	2407.150962
451.705917	2462.603654
452.079965	2487.809423
452.453954	2548.303269
452.827883	2588.632500
453.201752	2528.138654
453.575562	2419.753846
453.949311	2487.809423
454.323001	2563.426731
454.696632	2543.262115
455.070202	2482.768269
455.443713	2540.741538
455.817164	2502.932885
456.190556	2490.330000
456.563888	2465.124231
456.937160	2490.330000
457.310373	2465.124231
457.683526	2470.165385
458.056619	2439.918462
458.429653	2477.727115
458.802628	2495.371154
459.175542	2507.974038
459.548398	2465.124231
459.921194	2581.070769
460.293930	2427.315577
460.666607	2497.891731
461.039224	2492.850577
461.411782	2477.727115
461.784280	2490.330000
462.156719	2548.303269
462.529099	2513.015192
462.901419	2495.371154
463.273680	2563.426731
463.645882	2424.795000
464.018024	2487.809423
464.390106	2535.700385
464.762130	2462.603654
465.134094	2515.535769
465.505999	2412.192115
465.877845	2492.850577
466.249631	2447.480192
466.621358	2475.206538
466.993026	2472.685962
467.364634	2470.165385
467.736184	2434.877308
468.107674	2593.673654
468.479105	2507.974038
468.850477	2424.795000
469.221790	2455.041923
469.593043	2548.303269
469.964238	2601.235385
470.335373	2462.603654
470.706449	2462.603654
471.077467	2533.179808
471.448425	2482.768269
471.819324	2450.000769
472.190164	2525.618077
472.560945	2560.906154
472.931667	2520.576923
473.302330	2434.877308
473.672934	2510.494615
474.043479	2507.974038
474.413965	2555.865000
474.784393	2500.412308
475.154761	2518.056346
475.525070	2500.412308
475.895321	2407.150962
476.265513	2457.562500
476.635645	2429.836154
477.005719	2538.220962
477.375734	2480.247692
477.745691	2497.891731
478.115588	2502.932885
478.485427	2510.494615
478.855207	2452.521346
479.224928	2495.371154
479.594591	2437.397885
479.964194	2455.041923
480.333739	2460.083077
480.703226	2535.700385
481.072653	2568.467885
481.442022	2598.714808
481.811333	2548.303269
482.180584	2480.247692
482.549777	2507.974038
482.918912	2457.562500
483.287988	2528.138654
483.657005	2452.521346
484.025964	2480.247692
484.394864	2497.891731
484.763706	2477.727115
485.132489	2507.974038
485.501213	2470.165385
485.869879	2460.083077
486.238487	2513.015192
486.607036	2568.467885
486.975527	2432.356731
487.343959	2520.576923
487.712333	2480.247692
488.080648	2500.412308
488.448905	2553.344423
488.817104	2465.124231
489.185244	2495.371154
489.553326	2399.589231
489.921350	2495.371154
490.289315	2510.494615
490.657222	2477.727115
491.025070	2548.303269
491.392861	2500.412308
491.760593	2502.932885
492.128267	2450.000769
492.495883	2507.974038
492.863440	2533.179808
493.230939	2470.165385
493.598380	2510.494615
493.965763	2510.494615
494.333088	2472.685962
494.700354	2490.330000
495.067563	2465.124231
495.434713	2434.877308
495.801805	2470.165385
496.168839	2495.371154
496.535815	2515.535769
496.902733	2523.097500
497.269593	2472.685962
497.636395	2444.959615
498.003139	2467.644808
498.369825	2523.097500
498.736453	2500.412308
499.103023	2485.288846
499.469535	2457.562500
499.835989	2492.850577
500.202385	2490.330000
500.568723	2470.165385
500.935003	2578.550192
501.301226	2487.809423
501.667390	2510.494615
502.033497	2455.041923
502.399546	2505.453462
502.765537	2417.233269
503.131470	2502.932885
503.497345	2490.330000
503.863163	2467.644808
504.228923	2497.891731
504.594625	2447.480192
504.960269	2505.453462
505.325856	2550.823846
505.691385	2457.562500
506.056856	2553.344423
506.422270	2477.727115
506.787625	2513.015192
507.152924	2485.288846
507.518164	2482.768269
507.883347	2485.288846
508.248472	2442.439038
508.613540	2480.247692
508.978550	2482.768269
509.343503	2520.576923
509.708398	2588.632500
510.073236	2434.877308
510.438016	2525.618077
510.802738	2419.753846
511.167403	2480.247692
511.532010	2462.603654
511.896561	2447.480192
512.261053	2502.932885
512.625488	2490.330000
512.989866	2565.947308
513.354186	2601.235385
513.718449	2487.809423
514.082655	2419.753846
514.446803	2540.741538
514.810894	2482.768269
515.174927	2540.741538
515.538904	2412.192115
515.902822	2510.494615
516.266684	2429.836154
516.630488	2424.795000
516.994235	2480.247692
517.357925	2505.453462
517.721558	2419.753846
518.085133	2500.412308
518.448651	2523.097500
518.812112	2460.083077
519.175516	2442.439038
519.538863	2591.153077
519.902152	2520.576923
520.265385	2475.206538
520.628560	2465.124231
520.991678	2475.206538
521.354739	2505.453462
521.717743	2540.741538
522.080690	2513.015192
522.443580	2507.974038
522.806413	2543.262115
523.169189	2528.138654
523.531908	2515.535769
523.894569	2475.206538
524.257174	2477.727115
524.619722	2530.659231
524.982213	2477.727115
525.344647	2563.426731
525.707025	2553.344423
526.069345	2558.385577
526.431608	2510.494615
526.793815	2528.138654
527.155964	2545.782692
527.518057	2455.041923
527.880093	2548.303269
528.242072	2419.753846
528.603995	2513.015192
528.965860	2492.850577
529.327669	2467.644808
529.689421	2502.932885
530.051117	2540.741538
530.412755	2555.865000
530.774337	2485.288846
531.135862	2442.439038
531.497331	2485.288846
531.858743	2500.412308
532.220098	2397.068654
532.581396	2432.356731
532.942638	2424.795000
533.303824	2553.344423
533.664953	2465.124231
534.026025	2507.974038
534.387040	2535.700385
534.747999	2533.179808
535.108902	2455.041923
535.469748	2442.439038
535.830537	2518.056346
536.191270	2462.603654
536.551947	2490.330000
536.912567	2482.768269
537.273131	2570.988462
537.633638	2558.385577
537.994089	2505.453462
538.354483	2525.618077
538.714821	2500.412308
539.075103	2535.700385
539.435328	2497.891731
539.795497	2553.344423
540.155609	2492.850577
540.515665	2490.330000
540.875665	2502.932885
541.235609	2482.768269
541.595496	2450.000769
541.955328	2455.041923
542.315102	2460.083077
542.674821	2500.412308
543.034483	2525.618077
543.394090	2490.330000
543.753640	2553.344423
544.113134	2470.165385
544.472571	2545.782692
544.831953	2492.850577
545.191278	2455.041923
545.550548	2490.330000
545.909761	2439.918462
546.268918	2533.179808
546.628019	2480.247692
546.987064	2507.974038
547.346053	2394.548077
547.704986	2545.782692
548.063863	2470.165385
548.422684	2520.576923
548.781449	2417.233269
549.140158	2538.220962
549.498811	2457.562500
549.857408	2460.083077
550.215949	2525.618077
550.574434	2487.809423
550.932864	2467.644808
551.291237	2507.974038
551.649555	2455.041923
552.007817	2482.768269
552.366022	2553.344423
552.724173	2427.315577
553.082267	2402.109808
553.440305	2462.603654
553.798288	2444.959615
554.156215	2460.083077
554.514086	2467.644808
554.871902	2419.753846
555.229661	2480.247692
555.587365	2543.262115
555.945014	2419.753846
556.302606	2523.097500
556.660143	2505.453462
557.017625	2520.576923
557.375050	2520.576923
557.732421	2500.412308
558.089735	2475.206538
558.446994	2397.068654
558.804197	2439.918462
559.161345	2465.124231
559.518437	2434.877308
559.875474	2502.932885
560.232455	2502.932885
560.589381	2545.782692
560.946251	2457.562500
561.303065	2447.480192
561.659825	2525.618077
562.016528	2485.288846
562.373177	2452.521346
562.729770	2472.685962
563.086307	2417.233269
563.442789	2422.274423
563.799216	2518.056346
564.155587	2535.700385
564.511904	2470.165385
564.868164	2457.562500
565.224370	2505.453462
565.580520	2502.932885
565.936615	2523.097500
566.292654	2419.753846
566.648638	2507.974038
567.004567	2467.644808
567.360441	2495.371154
567.716260	2414.712692
568.072023	2500.412308
568.427732	2608.797115
568.783385	2513.015192
569.138982	2513.015192
569.494525	2558.385577
569.850013	2525.618077
570.205445	2583.591346
570.560823	2530.659231
570.916145	2535.700385
571.271412	2568.467885
571.626625	2502.932885
571.981782	2515.535769
572.336884	2545.782692
572.691931	2437.397885
573.046923	2447.480192
573.401860	2505.453462
573.756743	2502.932885
574.111570	2634.002885
574.466342	2492.850577
574.821059	2553.344423
575.175722	2502.932885
575.530330	2485.288846
575.884882	2581.070769
576.239380	2545.782692
576.593823	2510.494615
576.948211	2495.371154
577.302544	2487.809423
577.656823	2530.659231
578.011047	2437.397885
578.365216	2530.659231
578.719330	2507.974038
579.073389	2523.097500
579.427394	2555.865000
579.781344	2518.056346
580.135239	2535.700385
580.489080	2482.768269
580.842866	2424.795000
581.196597	2477.727115
581.550273	2513.015192
581.903895	2492.850577
582.257463	2560.906154
582.610975	2437.397885
582.964434	2538.220962
583.317837	2520.576923
583.671186	2495.371154
584.024481	2570.988462
584.377721	2472.685962
584.730906	2452.521346
585.084037	2485.288846
585.437113	2487.809423
585.790135	2515.535769
586.143103	2480.247692
586.496016	2510.494615
586.848874	2513.015192
587.201679	2462.603654
587.554428	2518.056346
587.907124	2450.000769
588.259765	2530.659231
588.612352	2565.947308
588.964884	2525.618077
589.317362	2457.562500
589.669786	2540.741538
590.022155	2540.741538
590.374470	2553.344423
590.726731	2533.179808
591.078937	2467.644808
591.431090	2545.782692
591.783188	2500.412308
592.135232	2535.700385
592.487222	2460.083077
592.839157	2502.932885
593.191038	2472.685962
593.542866	2480.247692
593.894639	2523.097500
594.246358	2510.494615
594.598022	2500.412308
594.949633	2404.630385
595.301190	2460.083077
595.652692	2576.029615
596.004141	2505.453462
596.355535	2455.041923
596.706876	2472.685962
597.058162	2470.165385
597.409395	2502.932885
597.760573	2432.356731
598.111698	2402.109808
598.462768	2465.124231
598.813785	2530.659231
599.164748	2480.247692
599.515657	2495.371154
599.866511	2394.548077
600.217312	2513.015192
600.568060	2455.041923
600.918753	2500.412308
601.269392	2518.056346
601.619978	2467.644808
601.970510	2545.782692
602.320988	2467.644808
602.671412	2460.083077
603.021783	2477.727115
603.372100	2452.521346
603.722363	2457.562500
604.072572	2452.521346
604.422728	2429.836154
604.772830	2392.027500
605.122878	2540.741538
605.472872	2447.480192
605.822813	2565.947308
606.172701	2460.083077
606.522534	2596.194231
606.872314	2495.371154
607.222041	2487.809423
607.571714	2533.179808
607.921333	2485.288846
608.270899	2497.891731
608.620411	2533.179808
608.969870	2422.274423
609.319276	2505.453462
609.668627	2543.262115
610.017926	2548.303269
610.367171	2510.494615
610.716362	2525.618077
611.065500	2462.603654
611.414585	2480.247692
611.763616	2523.097500
612.112594	2475.206538
612.461518	2502.932885
612.810389	2465.124231
613.159207	2419.753846
613.507971	2510.494615
613.856682	2507.974038
614.205340	2455.041923
614.553945	2477.727115
614.902496	2460.083077
615.250994	2510.494615
615.599439	2487.809423
615.947830	2507.974038
616.296169	2477.727115
616.644454	2510.494615
616.992686	2485.288846
617.340864	2538.220962
617.688990	2502.932885
618.037063	2523.097500
618.385082	2530.659231
618.733048	2502.932885
619.080961	2487.809423
619.428821	2510.494615
619.776628	2450.000769
620.124382	2465.124231
620.472083	2500.412308
620.819731	2533.179808
621.167326	2455.041923
621.514868	2434.877308
621.862357	2462.603654
622.209793	2540.741538
622.557176	2520.576923
622.904506	2452.521346
623.251783	2497.891731
623.599007	2520.576923
623.946179	2510.494615
624.293297	2560.906154
624.640363	2434.877308
624.987376	2477.727115
625.334336	2485.288846
625.681243	2429.836154
626.028097	2510.494615
626.374899	2427.315577
626.721647	2472.685962
627.068343	2487.809423
627.414987	2515.535769
627.761577	2495.371154
628.108115	2477.727115
628.454600	2505.453462
628.801032	2487.809423
629.147412	2472.685962
629.493739	2507.974038
629.840014	2533.179808
630.186236	2412.192115
630.532405	2447.480192
630.878521	2439.918462
631.224585	2477.727115
631.570597	2455.041923
631.916556	2540.741538
632.262462	2533.179808
632.608316	2530.659231
632.954117	2513.015192
633.299866	2513.015192
633.645562	2470.165385
633.991206	2434.877308
634.336797	2444.959615
634.682336	2490.330000
635.027823	2485.288846
635.373257	2480.247692
635.718639	2548.303269
636.063968	2538.220962
636.409245	2495.371154
636.754470	2553.344423
637.099642	2485.288846
637.444762	2482.768269
637.789829	2528.138654
638.134845	2538.220962
638.479808	2485.288846
638.824719	2462.603654
639.169577	2555.865000
639.514383	2467.644808
639.859137	2462.603654
640.203839	2482.768269
640.548489	2434.877308
640.893086	2487.809423
641.237632	2518.056346
641.582125	2530.659231
641.926566	2490.330000
642.270955	2538.220962
642.615292	2528.138654
642.959576	2482.768269
643.303809	2460.083077
643.647990	2525.618077
643.992118	2502.932885
644.336195	2482.768269
644.680219	2475.206538
645.024192	2450.000769
645.368112	2472.685962
645.711981	2525.618077
646.055797	2540.741538
646.399562	2502.932885
646.743274	2565.947308
647.086935	2414.712692
647.430544	2497.891731
647.774101	2490.330000
648.117606	2485.288846
648.461059	2442.439038
648.804460	2472.685962
649.147810	2502.932885
649.491108	2490.330000
649.834354	2477.727115
650.177548	2480.247692
650.520690	2555.865000
650.863781	2439.918462
651.206820	2475.206538
651.549807	2528.138654
651.892742	2515.535769
652.235626	2538.220962
652.578458	2475.206538
652.921238	2497.891731
653.263967	2487.809423
653.606644	2518.056346
653.949269	2417.233269
654.291843	2518.056346
654.634365	2523.097500
654.976836	2533.179808
655.319255	2402.109808
655.661622	2507.974038
656.003938	2502.932885
656.346203	2475.206538
656.688416	2480.247692
657.030577	2555.865000
657.372687	2502.932885
657.714746	2555.865000
658.056753	2563.426731
658.398708	2429.836154
658.740612	2472.685962
659.082465	2525.618077
659.424266	2533.179808
659.766016	2525.618077
660.107715	2485.288846
660.449362	2465.124231
660.790958	2558.385577
661.132503	2475.206538
661.473996	2467.644808
661.815438	2457.562500
662.156829	2523.097500
662.498168	2472.685962
662.839456	2513.015192
663.180693	2452.521346
663.521879	2507.974038
663.863013	2550.823846
664.204097	2500.412308
664.545129	2570.988462
664.886110	2510.494615
665.227040	2533.179808
665.567918	2570.988462
665.908746	2505.453462
666.249522	2520.576923
666.590248	2510.494615
666.930922	2525.618077
667.271545	2490.330000
667.612118	2437.397885
667.952639	2500.412308
668.293109	2525.618077
668.633528	2487.809423
668.973896	2515.535769
669.314213	2518.056346
669.654480	2460.083077
669.994695	2513.015192
670.334859	2513.015192
670.674973	2497.891731
671.015035	2452.521346
671.355047	2495.371154
671.695008	2495.371154
672.034918	2550.823846
672.374777	2467.644808
672.714585	2535.700385
673.054342	2457.562500
673.394049	2513.015192
673.733705	2555.865000
674.073310	2598.714808
674.412864	2417.233269
674.752368	2528.138654
675.091820	2419.753846
675.431223	2462.603654
675.770574	2492.850577
676.109875	2568.467885
676.449125	2502.932885
676.788324	2535.700385
677.127473	2530.659231
677.466571	2419.753846
677.805619	2482.768269
678.144616	2540.741538
678.483562	2497.891731
678.822458	2419.753846
679.161303	2434.877308
679.500098	2505.453462
679.838842	2525.618077
680.177535	2568.467885
680.516179	2540.741538
680.854771	2513.015192
681.193314	2437.397885
681.531805	2497.891731
681.870247	2432.356731
682.208638	2444.959615
682.546978	2450.000769
682.885268	2361.780577
683.223508	2563.426731
683.561697	2480.247692
683.899836	2477.727115
684.237925	2439.918462
684.575963	2510.494615
684.913951	2485.288846
685.251889	2470.165385
685.589776	2518.056346
685.927614	2530.659231
686.265401	2545.782692
686.603137	2452.521346
686.940824	2465.124231
687.278460	2563.426731
687.616046	2475.206538
687.953582	2492.850577
688.291068	2540.741538
688.628504	2548.303269
688.965889	2540.741538
689.303224	2518.056346
689.640510	2485.288846
689.977745	2470.165385
690.314930	2497.891731
690.652065	2480.247692
690.989150	2467.644808
691.326185	2563.426731
691.663170	2475.206538
692.000105	2558.385577
692.336990	2434.877308
692.673825	2467.644808
693.010610	2460.083077
693.347345	2513.015192
693.684030	2523.097500
694.020665	2513.015192
694.357251	2462.603654
694.693786	2500.412308
695.030272	2470.165385
695.366707	2460.083077
695.703093	2455.041923
696.039429	2455.041923
696.375716	2545.782692
696.711952	2520.576923
697.048139	2465.124231
697.384276	2507.974038
697.720363	2518.056346
698.056400	2392.027500
698.392388	2550.823846
698.728326	2533.179808
699.064214	2482.768269
699.400053	2548.303269
699.735842	2460.083077
700.071581	2535.700385
700.407270	2490.330000
700.742910	2470.165385
701.078501	2472.685962
701.414042	2555.865000
701.749533	2467.644808
702.084974	2515.535769
702.420366	2434.877308
702.755709	2485.288846
703.091002	2472.685962
703.426246	2543.262115
703.761440	2432.356731
704.096584	2523.097500
704.431679	2447.480192
704.766725	2525.618077
705.101721	2530.659231
705.436668	2540.741538
705.771565	2490.330000
706.106413	2523.097500
706.441212	2518.056346
706.775961	2570.988462
707.110661	2525.618077
707.445311	2450.000769
707.779913	2470.165385
708.114465	2518.056346
708.448967	2429.836154
708.783421	2482.768269
709.117825	2510.494615
709.452180	2520.576923
709.786485	2538.220962
710.120742	2434.877308
710.454949	2570.988462
710.789107	2450.000769
711.123216	2540.741538
711.457275	2417.233269
711.791286	2513.015192
712.125247	2480.247692
712.459159	2525.618077
712.793023	2450.000769
713.126837	2502.932885
713.460602	2525.618077
713.794318	2409.671538
714.127985	2487.809423
714.461602	2530.659231
714.795171	2480.247692
715.128691	2487.809423
715.462162	2505.453462
715.795584	2497.891731
716.128957	2515.535769
716.462281	2500.412308
716.795556	2487.809423
717.128782	2442.439038
717.461960	2533.179808
717.795088	2437.397885
718.128167	2470.165385
718.461198	2513.015192
718.794180	2560.906154
719.127113	2515.535769
719.459997	2507.974038
719.792833	2535.700385
720.125619	2545.782692
720.458357	2545.782692
720.791046	2528.138654
721.123686	2507.974038
721.456278	2442.439038
721.788821	2573.509038
722.121315	2457.562500
722.453761	2528.138654
722.786158	2492.850577
723.118506	2480.247692
723.450805	2555.865000
723.783056	2533.179808
724.115259	2518.056346
724.447412	2490.330000
724.779518	2485.288846
725.111574	2548.303269
725.443582	2565.947308
725.775542	2608.797115
726.107453	2490.330000
726.439315	2553.344423
726.771129	2502.932885
727.102895	2492.850577
727.434612	2437.397885
727.766281	2475.206538
728.097901	2495.371154
728.429473	2555.865000
728.760996	2450.000769
729.092471	2533.179808
729.423897	2507.974038
729.755276	2502.932885
730.086606	2477.727115
730.417887	2419.753846
730.749120	2404.630385
731.080305	2548.303269
731.411442	2510.494615
731.742530	2563.426731
732.073570	2429.836154
732.404562	2417.233269
732.735506	2543.262115
733.066401	2455.041923
733.397249	2490.330000
733.728048	2510.494615
734.058798	2533.179808
734.389501	2555.865000
734.720156	2381.945192
735.050762	2450.000769
735.381320	2591.153077
735.711831	2505.453462
736.042293	2472.685962
736.372707	2450.000769
736.703073	2495.371154
737.033391	2505.453462
737.363661	2472.685962
737.693883	2500.412308
738.024056	2540.741538
738.354182	2507.974038
738.684260	2528.138654
739.014290	2520.576923
739.344272	2460.083077
739.674207	2470.165385
740.004093	2507.974038
740.333931	2513.015192
740.663722	2530.659231
740.993464	2485.288846
741.323159	2570.988462
741.652806	2533.179808
741.982405	2525.618077
742.311956	2515.535769
742.641460	2432.356731
742.970915	2500.412308
743.300323	2495.371154
743.629683	2528.138654
743.958996	2437.397885
744.288260	2510.494615
744.617477	2434.877308
744.946647	2472.685962
745.275768	2513.015192
745.604842	2523.097500
745.933869	2450.000769
746.262847	2427.315577
746.591778	2530.659231
746.920662	2540.741538
747.249498	2480.247692
747.578286	2535.700385
747.907027	2558.385577
748.235720	2455.041923
748.564365	2525.618077
748.892963	2485.288846
749.221514	2578.550192
749.550017	2502.932885
749.878473	2507.974038
750.206881	2513.015192
750.535242	2487.809423
750.863555	2513.015192
751.191821	2530.659231
751.520039	2543.262115
751.848210	2505.453462
752.176334	2492.850577
752.504411	2414.712692
752.832440	2480.247692
753.160421	2475.206538
753.488356	2472.685962
753.816243	2475.206538
754.144082	2507.974038
754.471875	2450.000769
754.799620	2462.603654
755.127318	2450.000769
755.454969	2462.603654
755.782572	2518.056346
756.110129	2565.947308
756.437638	2515.535769
756.765100	2470.165385
757.092515	2515.535769
757.419882	2533.179808
757.747203	2422.274423
758.074477	2543.262115
758.401703	2495.371154
758.728882	2482.768269
759.056014	2470.165385
759.383099	2495.371154
759.710138	2490.330000
760.037129	2563.426731
760.364073	2530.659231
760.690970	2500.412308
761.017820	2502.932885
761.344623	2535.700385
761.671379	2424.795000
761.998088	2450.000769
762.324751	2460.083077
762.651366	2505.453462
762.977935	2482.768269
763.304456	2482.768269
763.630931	2550.823846
763.957359	2540.741538
764.283740	2477.727115
764.610074	2570.988462
764.936362	2596.194231
765.262602	2510.494615
765.588796	2581.070769
765.914943	2487.809423
766.241044	2434.877308
766.567097	2538.220962
766.893104	2565.947308
767.219064	2444.959615
767.544978	2472.685962
767.870845	2457.562500
768.196665	2507.974038
768.522438	2563.426731
768.848165	2502.932885
769.173846	2545.782692
769.499479	2442.439038
769.825066	2538.220962
770.150607	2535.700385
770.476101	2606.276538
770.801548	2573.509038
771.126949	2455.041923
771.452303	2603.755962
771.777611	2518.056346
772.102872	2422.274423
772.428087	2510.494615
772.753256	2497.891731
773.078378	2475.206538
773.403453	2533.179808
773.728482	2419.753846
774.053465	2505.453462
774.378401	2437.397885
774.703291	2432.356731
775.028135	2475.206538
775.352932	2455.041923
775.677683	2457.562500
776.002388	2472.685962
776.327046	2475.206538
776.651658	2427.315577
776.976224	2523.097500
777.300743	2487.809423
777.625216	2470.165385
777.949643	2523.097500
778.274024	2467.644808
778.598359	2419.753846
778.922647	2472.685962
779.246889	2399.589231
779.571086	2465.124231
779.895236	2437.397885
780.219339	2470.165385
780.543397	2535.700385
780.867409	2510.494615
781.191374	2477.727115
781.515294	2482.768269
781.839167	2535.700385
782.162995	2518.056346
782.486776	2475.206538
782.810511	2553.344423
783.134201	2470.165385
783.457844	2457.562500
783.781441	2447.480192
784.104993	2548.303269
784.428498	2394.548077
784.751958	2470.165385
785.075372	2528.138654
785.398739	2528.138654
785.722061	2477.727115
786.045337	2467.644808
786.368568	2530.659231
786.691752	2472.685962
787.014891	2472.685962
787.337983	2497.891731
787.661030	2487.809423
787.984031	2520.576923
788.306987	2510.494615
788.629897	2480.247692
788.952760	2513.015192
789.275579	2487.809423
789.598351	2490.330000
789.921078	2520.576923
790.243759	2419.753846
790.566395	2505.453462
790.888984	2492.850577
791.211529	2439.918462
791.534027	2475.206538
791.856480	2550.823846
792.178888	2407.150962
792.501249	2475.206538
792.823566	2419.753846
793.145836	2548.303269
793.468062	2450.000769
793.790241	2422.274423
794.112375	2502.932885
794.434464	2520.576923
794.756507	2573.509038
795.078505	2505.453462
795.400457	2550.823846
795.722364	2450.000769
796.044226	2525.618077
796.366042	2480.247692
796.687812	2487.809423
797.009538	2525.618077
797.331218	2470.165385
797.652852	2502.932885
797.974442	2485.288846
798.295986	2457.562500
798.617484	2447.480192
798.938938	2485.288846
799.260346	2520.576923
799.581709	2447.480192
799.903026	2447.480192
800.224299	2497.891731
800.545526	2492.850577
800.866708	2525.618077
801.187845	2452.521346
801.508936	2487.809423
801.829983	2477.727115
802.150984	2550.823846
802.471940	2477.727115
802.792851	2515.535769
803.113717	2447.480192
803.434538	2477.727115
803.755314	2550.823846
804.076045	2487.809423
804.396731	2518.056346
804.717372	2533.179808
805.037967	2538.220962
805.358518	2359.260000
805.679024	2533.179808
805.999485	2558.385577
806.319901	2500.412308
806.640272	2487.809423
806.960598	2475.206538
807.280879	2500.412308
807.601115	2492.850577
807.921306	2455.041923
808.241453	2513.015192
808.561554	2452.521346
808.881611	2515.535769
809.201623	2354.218846
809.521590	2447.480192
809.841513	2364.301154
810.161390	2530.659231
810.481223	2548.303269
810.801011	2502.932885
811.120755	2578.550192
811.440453	2538.220962
811.760107	2444.959615
812.079716	2578.550192
812.399281	2540.741538
812.718801	2457.562500
813.038276	2487.809423
813.357707	2538.220962
813.677093	2452.521346
813.996434	2596.194231
814.315731	2497.891731
814.634983	2543.262115
814.954191	2477.727115
815.273354	2424.795000
815.592473	2457.562500
815.911547	2407.150962
816.230577	2439.918462
816.549562	2472.685962
816.868502	2538.220962
817.187399	2432.356731
817.506250	2417.233269
817.825058	2540.741538
818.143821	2500.412308
818.462539	2437.397885
818.781213	2480.247692
819.099843	2608.797115
819.418429	2570.988462
819.736970	2455.041923
820.055466	2497.891731
820.373919	2480.247692
820.692327	2553.344423
821.010691	2565.947308
821.329011	2497.891731
821.647286	2507.974038
821.965517	2444.959615
822.283704	2596.194231
822.601847	2462.603654
822.919945	2538.220962
823.237999	2462.603654
823.556010	2513.015192
823.873976	2457.562500
824.191897	2555.865000
824.509775	2513.015192
824.827609	2490.330000
825.145398	2465.124231
825.463144	2518.056346
825.780845	2497.891731
826.098502	2540.741538
826.416116	2520.576923
826.733685	2492.850577
827.051210	2518.056346
827.368692	2467.644808
827.686129	2560.906154
828.003522	2495.371154
828.320872	2450.000769
828.638177	2563.426731
828.955439	2497.891731
829.272656	2434.877308
829.589830	2462.603654
829.906960	2576.029615
830.224046	2510.494615
830.541088	2417.233269
830.858086	2487.809423
831.175041	2419.753846
831.491952	2518.056346
831.808819	2550.823846
832.125642	2437.397885
832.442421	2533.179808
832.759157	2550.823846
833.075849	2452.521346
833.392497	2540.741538
833.709101	2462.603654
834.025662	2510.494615
834.342179	2439.918462
834.658653	2475.206538
834.975083	2465.124231
835.291469	2460.083077
835.607811	2525.618077
835.924110	2465.124231
836.240366	2523.097500
836.556578	2447.480192
836.872746	2545.782692
837.188871	2482.768269
837.504952	2553.344423
837.820990	2485.288846
838.136984	2437.397885
838.452935	2467.644808
838.768842	2450.000769
839.084706	2550.823846
839.400526	2553.344423
839.716303	2457.562500
840.032037	2462.603654
840.347727	2485.288846
840.663373	2475.206538
840.978977	2555.865000
841.294537	2447.480192
841.610054	2520.576923
841.925527	2472.685962
842.240957	2437.397885
842.556344	2507.974038
842.871687	2528.138654
843.186987	2414.712692
843.502244	2515.535769
843.817458	2548.303269
844.132629	2487.809423
844.447756	2492.850577
844.762840	2437.397885
845.077881	2452.521346
845.392879	2472.685962
845.707833	2462.603654
846.022745	2450.000769
846.337613	2502.932885
846.652438	2480.247692
846.967221	2444.959615
847.281960	2439.918462
847.596656	2404.630385
847.911309	2480.247692
848.225919	2525.618077
848.540485	2533.179808
848.855009	2540.741538
849.169490	2497.891731
849.483928	2550.823846
849.798323	2482.768269
850.112675	2596.194231
850.426984	2495.371154
850.741251	2447.480192
851.055474	2505.453462
851.369654	2490.330000
851.683792	2457.562500
851.997887	2523.097500
852.311938	2497.891731
852.625947	2553.344423
852.939914	2465.124231
853.253837	2487.809423
853.567718	2555.865000
853.881555	2563.426731
854.195350	2485.288846
854.509103	2402.109808
854.822812	2523.097500
855.136479	2553.344423
855.450103	2500.412308
855.763685	2497.891731
856.077224	2505.453462
856.390720	2455.041923
856.704173	2555.865000
857.017584	2495.371154
857.330953	2482.768269
857.644278	2513.015192
857.957561	2467.644808
858.270802	2603.755962
858.584000	2467.644808
858.897155	2530.659231
859.210268	2560.906154
859.523339	2482.768269
859.836367	2510.494615
860.149352	2507.974038
860.462295	2480.247692
860.775195	2530.659231
861.088054	2455.041923
861.400869	2490.330000
861.713642	2417.233269
862.026373	2550.823846
862.339062	2545.782692
862.651708	2513.015192
862.964312	2450.000769
863.276873	2543.262115
863.589392	2545.782692
863.901869	2407.150962
864.214303	2480.247692
864.526696	2500.412308
864.839045	2465.124231
865.151353	2447.480192
865.463619	2593.673654
865.775842	2530.659231
866.088023	2485.288846
866.400162	2482.768269
866.712258	2457.562500
867.024313	2460.083077
867.336325	2505.453462
867.648296	2518.056346
867.960224	2515.535769
868.272110	2467.644808
868.583954	2409.671538
868.895755	2472.685962
869.207515	2492.850577
869.519233	2573.509038
869.830909	2447.480192
870.142542	2510.494615
870.454134	2480.247692
870.765684	2439.918462
871.077191	2525.618077
871.388657	2543.262115
871.700081	2485.288846
872.011463	2490.330000
872.322803	2485.288846
872.634101	2492.850577
872.945357	2485.288846
873.256571	2457.562500
873.567744	2510.494615
873.878874	2492.850577
874.189963	2500.412308
874.501010	2497.891731
874.812015	2492.850577
875.122979	2465.124231
875.433900	2429.836154
875.744780	2439.918462
876.055618	2432.356731
876.366415	2525.618077
876.677169	2432.356731
876.987882	2596.194231
877.298554	2515.535769
877.609183	2500.412308
877.919771	2442.439038
878.230317	2525.618077
878.540822	2513.015192
878.851285	2553.344423
879.161707	2530.659231
879.472087	2490.330000
879.782425	2482.768269
880.092722	2555.865000
880.402977	2424.795000
880.713191	2500.412308
881.023363	2450.000769
881.333494	2510.494615
881.643583	2528.138654
881.953631	2462.603654
882.263637	2550.823846
882.573602	2485.288846
882.883526	2530.659231
883.193408	2422.274423
883.503248	2465.124231
883.813048	2530.659231
884.122806	2518.056346
884.432522	2475.206538
884.742197	2480.247692
885.051831	2467.644808
885.361424	2485.288846
885.670975	2397.068654
885.980485	2573.509038
886.289954	2535.700385
886.599382	2538.220962
886.908768	2432.356731
887.218113	2513.015192
887.527417	2455.041923
887.836680	2523.097500
888.145901	2472.685962
888.455082	2520.576923
888.764221	2525.618077
889.073319	2457.562500
889.382376	2495.371154
889.691392	2525.618077
890.000366	2505.453462
890.309300	2548.303269
890.618193	2497.891731
890.927044	2523.097500
891.235855	2447.480192
891.544625	2518.056346
891.853353	2447.480192
892.162041	2477.727115
892.470687	2409.671538
892.779293	2442.439038
893.087858	2487.809423
893.396381	2618.879423
893.704864	2538.220962
894.013306	2490.330000
894.321707	2455.041923
894.630068	2447.480192
894.938387	2447.480192
895.246665	2422.274423
895.554903	2500.412308
895.863100	2543.262115
896.171256	2533.179808
896.479371	2467.644808
896.787446	2505.453462
897.095480	2515.535769
897.403473	2606.276538
897.711425	2500.412308
898.019336	2518.056346
898.327207	2447.480192
898.635038	2543.262115
898.942827	2518.056346
899.250576	2500.412308
899.558284	2472.685962
899.865952	2578.550192
900.173579	2450.000769
900.481165	2492.850577
900.788711	2429.836154
901.096216	2525.618077
901.403681	2548.303269
901.711105	2530.659231
902.018489	2510.494615
902.325832	2480.247692
902.633135	2442.439038
902.940397	2518.056346
903.247619	2480.247692
903.554800	2540.741538
903.861941	2530.659231
904.169041	2495.371154
904.476101	2371.862885
904.783121	2475.206538
905.090100	2424.795000
905.397039	2515.535769
905.703938	2528.138654
906.010796	2490.330000
906.317614	2447.480192
906.624391	2507.974038
906.931129	2417.233269
907.237826	2497.891731
907.544483	2570.988462
907.851099	2502.932885
908.157675	2513.015192
908.464211	2427.315577
908.770707	2533.179808
909.077163	2520.576923
909.383578	2535.700385
909.689954	2510.494615
909.996289	2487.809423
910.302584	2555.865000
910.608839	2460.083077
910.915054	2472.685962
911.221229	2444.959615
911.527363	2452.521346
911.833458	2457.562500
912.139513	2550.823846
912.445527	2485.288846
912.751502	2422.274423
913.057436	2475.206538
913.363331	2538.220962
913.669186	2389.506923
913.975000	2518.056346
914.280775	2550.823846
914.586510	2492.850577
914.892205	2482.768269
915.197859	2460.083077
915.503475	2548.303269
915.809050	2465.124231
916.114585	2475.206538
916.420081	2505.453462
916.725536	2530.659231
917.030952	2528.138654
917.336328	2568.467885
917.641665	2482.768269
917.946961	2447.480192
918.252218	2465.124231
918.557435	2442.439038
918.862612	2523.097500
919.167750	2470.165385
919.472848	2543.262115
919.777906	2462.603654
920.082925	2465.124231
920.387904	2475.206538
920.692843	2505.453462
920.997743	2480.247692
921.302603	2565.947308
921.607423	2553.344423
921.912204	2477.727115
922.216946	2442.439038
922.521647	2540.741538
922.826310	2502.932885
923.130932	2485.288846
923.435516	2472.685962
923.740059	2434.877308
924.044564	2465.124231
924.349028	2505.453462
924.653454	2477.727115
924.957840	2545.782692
925.262186	2467.644808
925.566493	2462.603654
925.870761	2462.603654
926.174989	2467.644808
926.479178	2477.727115
926.783328	2502.932885
927.087438	2409.671538
927.391509	2470.165385
927.695541	2482.768269
927.999533	2487.809423
928.303486	2470.165385
928.607400	2480.247692
928.911275	2429.836154
929.215110	2555.865000
929.518906	2432.356731
929.822663	2520.576923
930.126381	2444.959615
930.430060	2520.576923
930.733699	2447.480192
931.037299	2560.906154
931.340861	2495.371154
931.644383	2477.727115
931.947866	2495.371154
932.251309	2533.179808
932.554714	2470.165385
932.858080	2497.891731
933.161407	2492.850577
933.464694	2467.644808
933.767943	2510.494615
934.071153	2460.083077
934.374323	2507.974038
934.677455	2409.671538
934.980548	2477.727115
935.283602	2475.206538
935.586617	2379.424615
935.889593	2513.015192
936.192530	2444.959615
936.495428	2457.562500
936.798287	2437.397885
937.101108	2485.288846
937.403890	2500.412308
937.706632	2462.603654
938.009336	2492.850577
938.312002	2568.467885
938.614628	2482.768269
938.917216	2500.412308
939.219765	2520.576923
939.522275	2555.865000
939.824747	2447.480192
940.127179	2500.412308
940.429573	2570.988462
940.731929	2485.288846
941.034246	2427.315577
941.336524	2477.727115
941.638763	2480.247692
941.940964	2535.700385
942.243126	2437.397885
942.545250	2492.850577
942.847335	2447.480192
943.149381	2530.659231
943.451389	2472.685962
943.753359	2518.056346
944.055290	2510.494615
944.357182	2492.850577
944.659036	2480.247692
944.960851	2470.165385
945.262628	2497.891731
945.564367	2525.618077
945.866067	2490.330000
946.167729	2460.083077
946.469352	2500.412308
946.770937	2548.303269
947.072484	2533.179808
947.373992	2505.453462
947.675462	2460.083077
947.976893	2480.247692
948.278286	2472.685962
948.579641	2606.276538
948.880958	2558.385577
949.182236	2555.865000
949.483476	2555.865000
949.784678	2450.000769
950.085841	2518.056346
950.386967	2538.220962
950.688054	2477.727115
950.989103	2427.315577
951.290114	2581.070769
951.591087	2497.891731
951.892021	2523.097500
952.192917	2462.603654
952.493776	2528.138654
952.794596	2470.165385
953.095378	2543.262115
953.396122	2470.165385
953.696828	2565.947308
953.997496	2462.603654
954.298126	2520.576923
954.598718	2616.358846
954.899272	2500.412308
955.199788	2472.685962
955.500266	2470.165385
955.800706	2460.083077
956.101108	2507.974038
956.401472	2460.083077
956.701798	2565.947308
957.002087	2576.029615
957.302337	2530.659231
957.602550	2507.974038
957.902724	2500.412308
958.202861	2467.644808
958.502960	2573.509038
958.803022	2535.700385
959.103045	2538.220962
959.403031	2384.465769
959.702979	2558.385577
960.002889	2490.330000
960.302762	2452.521346
960.602596	2447.480192
960.902393	2457.562500
961.202153	2487.809423
961.501875	2495.371154
961.801559	2525.618077
962.101205	2573.509038
962.400814	2487.809423
962.700385	2543.262115
962.999918	2437.397885
963.299414	2442.439038
963.598873	2545.782692
963.898293	2477.727115
964.197677	2495.371154
964.497022	2533.179808
964.796331	2439.918462
965.095601	2422.274423
965.394835	2533.179808
965.694030	2427.315577
965.993189	2450.000769
966.292309	2525.618077
966.591393	2409.671538
966.890439	2550.823846
967.189447	2507.974038
967.488419	2510.494615
967.787353	2452.521346
968.086249	2394.548077
968.385108	2465.124231
968.683930	2432.356731
968.982714	2485.288846
969.281462	2601.235385
969.580172	2502.932885
969.878844	2563.426731
970.177480	2540.741538
970.476078	2487.809423
970.774639	2429.836154
971.073162	2520.576923
971.371649	2460.083077
971.670098	2480.247692
971.968510	2477.727115
972.266885	2460.083077
972.565223	2495.371154
972.863524	2470.165385
973.161788	2510.494615
973.460014	2477.727115
973.758204	2495.371154
974.056356	2528.138654
974.354471	2475.206538
974.652550	2545.782692
974.950591	2412.192115
975.248595	2507.974038
975.546563	2437.397885
975.844493	2533.179808
976.142386	2437.397885
976.440243	2480.247692
976.738062	2427.315577
977.035845	2523.097500
977.333590	2434.877308
977.631299	2528.138654
977.928971	2490.330000
978.226606	2477.727115
978.524204	2581.070769
978.821765	2487.809423
979.119290	2573.509038
979.416777	2550.823846
979.714228	2467.644808
980.011642	2485.288846
980.309020	2513.015192
980.606360	2460.083077
980.903664	2475.206538
981.200931	2467.644808
981.498162	2603.755962
981.795356	2475.206538
982.092513	2424.795000
982.389633	2427.315577
982.686717	2457.562500
982.983764	2530.659231
983.280775	2482.768269
983.577749	2472.685962
983.874686	2452.521346
984.171587	2457.562500
984.468451	2525.618077
984.765279	2475.206538
985.062070	2500.412308
985.358824	2550.823846
985.655543	2472.685962
985.952224	2507.974038
986.248869	2528.138654
986.545478	2409.671538
986.842050	2525.618077
987.138586	2510.494615
987.435086	2528.138654
987.731549	2472.685962
988.027975	2475.206538
988.324366	2497.891731
988.620719	2545.782692
988.917037	2502.932885
989.213318	2384.465769
989.509563	2442.439038
989.805772	2563.426731
990.101944	2462.603654
990.398080	2475.206538
990.694180	2523.097500
990.990244	2500.412308
991.286271	2470.165385
991.582262	2560.906154
991.878217	2553.344423
992.174136	2480.247692
992.470019	2460.083077
992.765865	2530.659231
993.061676	2414.712692
993.357450	2545.782692
993.653188	2530.659231
993.948890	2520.576923
994.244556	2399.589231
994.540186	2482.768269
994.835780	2528.138654
995.131337	2510.494615
995.426859	2570.988462
995.722345	2565.947308
996.017795	2389.506923
996.313208	2568.467885
996.608586	2530.659231
996.903928	2500.412308
997.199234	2417.233269
997.494504	2515.535769
997.789738	2513.015192
998.084936	2555.865000
998.380099	2495.371154
998.675225	2588.632500
998.970316	2487.809423
999.265371	2495.371154
999.560390	2492.850577
999.855373	2523.097500
1000.150320	2467.644808
1000.445232	2533.179808
1000.740108	2502.932885
1001.034948	2414.712692
1001.329752	2389.506923
1001.624521	2507.974038
1001.919254	2364.301154
1002.213951	2576.029615
1002.508613	2437.397885
1002.803239	2470.165385
1003.097829	2502.932885
1003.392384	2447.480192
1003.686903	2407.150962
1003.981386	2472.685962
1004.275834	2475.206538
1004.570246	2545.782692
1004.864623	2477.727115
1005.158964	2553.344423
1005.453270	2455.041923
1005.747540	2518.056346
1006.041775	2472.685962
1006.335974	2513.015192
1006.630138	2455.041923
1006.924266	2477.727115
1007.218359	2487.809423
1007.512416	2424.795000
1007.806438	2404.630385
1008.100425	2462.603654
1008.394376	2487.809423
1008.688292	2533.179808
1008.982172	2507.974038
1009.276017	2553.344423
1009.569827	2560.906154
1009.863602	2528.138654
1010.157341	2550.823846
1010.451045	2477.727115
1010.744714	2455.041923
1011.038347	2465.124231
1011.331945	2482.768269
1011.625508	2460.083077
1011.919036	2518.056346
1012.212528	2447.480192
1012.505986	2497.891731
1012.799408	2439.918462
1013.092795	2495.371154
1013.386147	2553.344423
1013.679464	2502.932885
1013.972745	2417.233269
1014.265992	2455.041923
1014.559204	2472.685962
1014.852380	2535.700385
1015.145521	2520.576923
1015.438628	2573.509038
1015.731699	2442.439038
1016.024736	2505.453462
1016.317737	2487.809423
1016.610703	2444.959615
1016.903635	2439.918462
1017.196531	2465.124231
1017.489393	2513.015192
1017.782219	2472.685962
1018.075011	2502.932885
1018.367768	2465.124231
1018.660490	2533.179808
1018.953177	2533.179808
1019.245829	2533.179808
