Dividing Wavelength (nm)	Counts (n)	Blue Motor Position (mm): 0.000000	Red Motor Position (mm): 9.400000	
326.493990	2094.599423
326.888308	2094.599423
327.282561	2094.599423
327.676750	2071.914231
328.070874	2076.955385
328.464933	2064.352500
328.858929	2071.914231
329.252859	2089.558269
329.646726	2175.257885
330.040528	2097.120000
330.434265	2139.969808
330.827938	2099.640577
331.221547	2192.901923
331.615091	2114.764038
332.008571	2137.449231
332.401986	2182.819615
332.795338	2298.766154
333.188625	2286.163269
333.581847	2235.751731
333.975006	2258.436923
334.368100	2331.533654
334.761129	2318.930769
335.154095	2356.739423
335.546996	2346.657115
335.939833	2379.424615
336.332606	2293.725000
336.725315	2354.218846
337.117960	2376.904038
337.510540	2467.644808
337.903056	2384.465769
338.295508	2366.821731
338.687896	2452.521346
339.080220	2407.150962
339.472480	2442.439038
339.864676	2543.262115
340.256807	2452.521346
340.648875	2495.371154
341.040879	2437.397885
341.432818	2460.083077
341.824694	2490.330000
342.216506	2434.877308
342.608253	2376.904038
342.999937	2523.097500
343.391557	2560.906154
343.783113	2439.918462
344.174605	2442.439038
344.566033	2507.974038
344.957397	2424.795000
345.348697	2434.877308
345.739934	2470.165385
346.131106	2455.041923
346.522215	2528.138654
346.913260	2497.891731
347.304241	2462.603654
347.695159	2424.795000
348.086012	2432.356731
348.476802	2487.809423
348.867528	2553.344423
349.258191	2359.260000
349.648789	2442.439038
350.039324	2515.535769
350.429796	2452.521346
350.820203	2404.630385
351.210548	2500.412308
351.600828	2434.877308
351.991045	2482.768269
352.381198	2399.589231
352.771288	2397.068654
353.161314	2510.494615
353.551276	2452.521346
353.941175	2470.165385
354.331010	2470.165385
354.720782	2437.397885
355.110490	2364.301154
355.500135	2439.918462
355.889717	2409.671538
356.279235	2394.548077
356.668689	2482.768269
357.058080	2422.274423
357.447408	2369.342308
357.836672	2485.288846
358.225873	2513.015192
358.615010	2389.506923
359.004084	2465.124231
359.393095	2450.000769
359.782043	2392.027500
360.170927	2429.836154
360.559748	2369.342308
360.948505	2477.727115
361.337199	2374.383462
361.725830	2515.535769
362.114398	2384.465769
362.502903	2450.000769
362.891344	2487.809423
363.279722	2442.439038
363.668037	2442.439038
364.056289	2518.056346
364.444478	2419.753846
364.832603	2477.727115
365.220665	2384.465769
365.608665	2414.712692
365.996601	2462.603654
366.384474	2530.659231
366.772284	2457.562500
367.160031	2457.562500
367.547715	2578.550192
367.935336	2404.630385
368.322893	2384.465769
368.710388	2422.274423
369.097820	2376.904038
369.485189	2462.603654
369.872495	2452.521346
370.259738	2472.685962
370.646918	2455.041923
371.034035	2422.274423
371.421090	2455.041923
371.808081	2389.506923
372.195010	2455.041923
372.581875	2477.727115
372.968678	2414.712692
373.355418	2492.850577
373.742096	2444.959615
374.128710	2472.685962
374.515262	2442.439038
374.901751	2563.426731
375.288177	2485.288846
375.674540	2412.192115
376.060841	2480.247692
376.447079	2555.865000
376.833254	2455.041923
377.219367	2452.521346
377.605417	2414.712692
377.991404	2510.494615
378.377329	2477.727115
378.763191	2472.685962
379.148991	2490.330000
379.534727	2417.233269
379.920402	2570.988462
380.306013	2472.685962
380.691563	2480.247692
381.077049	2455.041923
381.462474	2492.850577
381.847835	2460.083077
382.233134	2545.782692
382.618371	2460.083077
383.003545	2528.138654
383.388657	2419.753846
383.773706	2500.412308
384.158693	2477.727115
384.543618	2465.124231
384.928480	2376.904038
385.313280	2429.836154
385.698017	2535.700385
386.082692	2477.727115
386.467305	2472.685962
386.851856	2472.685962
387.236344	2429.836154
387.620770	2397.068654
388.005133	2467.644808
388.389435	2465.124231
388.773674	2525.618077
389.157851	2439.918462
389.541965	2442.439038
389.926018	2538.220962
390.310008	2447.480192
390.693936	2437.397885
391.077802	2455.041923
391.461606	2581.070769
391.845348	2502.932885
392.229027	2518.056346
392.612645	2467.644808
392.996200	2452.521346
393.379694	2520.576923
393.763125	2419.753846
394.146494	2518.056346
394.529801	2407.150962
394.913047	2475.206538
395.296230	2439.918462
395.679351	2480.247692
396.062410	2432.356731
396.445408	2482.768269
396.828343	2462.603654
397.211217	2475.206538
397.594028	2490.330000
397.976778	2530.659231
398.359466	2434.877308
398.742092	2470.165385
399.124656	2513.015192
399.507158	2404.630385
399.889598	2480.247692
400.271977	2442.439038
400.654294	2495.371154
401.036549	2389.506923
401.418742	2477.727115
401.800874	2460.083077
402.182944	2450.000769
402.564952	2472.685962
402.946898	2470.165385
403.328783	2543.262115
403.710606	2500.412308
404.092367	2520.576923
404.474067	2470.165385
404.855705	2495.371154
405.237282	2535.700385
405.618797	2450.000769
406.000250	2444.959615
406.381642	2505.453462
406.762972	2457.562500
407.144240	2507.974038
407.525447	2414.712692
407.906593	2497.891731
408.287677	2447.480192
408.668700	2447.480192
409.049661	2487.809423
409.430560	2477.727115
409.811399	2452.521346
410.192176	2442.439038
410.572891	2467.644808
410.953545	2432.356731
411.334138	2487.809423
411.714669	2495.371154
412.095139	2475.206538
412.475547	2386.986346
412.855894	2535.700385
413.236180	2472.685962
413.616405	2492.850577
413.996568	2477.727115
414.376670	2538.220962
414.756711	2588.632500
415.136691	2450.000769
415.516609	2475.206538
415.896466	2397.068654
416.276262	2437.397885
416.655997	2457.562500
417.035670	2485.288846
417.415283	2386.986346
417.794834	2497.891731
418.174324	2482.768269
418.553753	2462.603654
418.933121	2427.315577
419.312428	2457.562500
419.691674	2502.932885
420.070859	2344.136538
420.449983	2439.918462
420.829045	2548.303269
421.208047	2497.891731
421.586988	2419.753846
421.965867	2492.850577
422.344686	2565.947308
422.723444	2462.603654
423.102141	2563.426731
423.480777	2530.659231
423.859352	2485.288846
424.237866	2477.727115
424.616319	2480.247692
424.994712	2475.206538
425.373044	2455.041923
425.751314	2457.562500
426.129524	2437.397885
426.507673	2500.412308
426.885762	2462.603654
427.263789	2497.891731
427.641756	2462.603654
428.019662	2528.138654
428.397508	2515.535769
428.775292	2480.247692
429.153016	2482.768269
429.530679	2535.700385
429.908282	2427.315577
430.285824	2513.015192
430.663305	2485.288846
431.040726	2525.618077
431.418086	2487.809423
431.795385	2432.356731
432.172624	2429.836154
432.549802	2392.027500
432.926920	2528.138654
433.303977	2497.891731
433.680974	2455.041923
434.057910	2570.988462
434.434786	2485.288846
434.811601	2513.015192
435.188355	2492.850577
435.565050	2386.986346
435.941683	2444.959615
436.318257	2452.521346
436.694770	2424.795000
437.071222	2515.535769
437.447614	2432.356731
437.823946	2477.727115
438.200218	2500.412308
438.576429	2477.727115
438.952580	2457.562500
439.328670	2485.288846
439.704700	2492.850577
440.080670	2429.836154
440.456580	2442.439038
440.832429	2452.521346
441.208218	2462.603654
441.583947	2480.247692
441.959616	2460.083077
442.335224	2490.330000
442.710773	2444.959615
443.086261	2490.330000
443.461689	2485.288846
443.837057	2545.782692
444.212365	2470.165385
444.587612	2518.056346
444.962800	2485.288846
445.337927	2487.809423
445.712995	2457.562500
446.088002	2515.535769
446.462949	2462.603654
446.837837	2533.179808
447.212664	2487.809423
447.587431	2553.344423
447.962139	2462.603654
448.336786	2450.000769
448.711374	2540.741538
449.085901	2487.809423
449.460369	2424.795000
449.834776	2485.288846
450.209124	2495.371154
450.583412	2424.795000
450.957640	2543.262115
451.331808	2507.974038
451.705917	2392.027500
452.079965	2548.303269
452.453954	2437.397885
452.827883	2525.618077
453.201752	2437.397885
453.575562	2439.918462
453.949311	2528.138654
454.323001	2497.891731
454.696632	2502.932885
455.070202	2492.850577
455.443713	2525.618077
455.817164	2497.891731
456.190556	2528.138654
456.563888	2450.000769
456.937160	2525.618077
457.310373	2442.439038
457.683526	2513.015192
458.056619	2412.192115
458.429653	2444.959615
458.802628	2437.397885
459.175542	2500.412308
459.548398	2394.548077
459.921194	2419.753846
460.293930	2452.521346
460.666607	2487.809423
461.039224	2450.000769
461.411782	2437.397885
461.784280	2409.671538
462.156719	2485.288846
462.529099	2507.974038
462.901419	2404.630385
463.273680	2533.179808
463.645882	2505.453462
464.018024	2533.179808
464.390106	2442.439038
464.762130	2502.932885
465.134094	2525.618077
465.505999	2492.850577
465.877845	2495.371154
466.249631	2399.589231
466.621358	2520.576923
466.993026	2472.685962
467.364634	2434.877308
467.736184	2568.467885
468.107674	2470.165385
468.479105	2565.947308
468.850477	2444.959615
469.221790	2487.809423
469.593043	2543.262115
469.964238	2520.576923
470.335373	2492.850577
470.706449	2467.644808
471.077467	2533.179808
471.448425	2510.494615
471.819324	2485.288846
472.190164	2470.165385
472.560945	2467.644808
472.931667	2470.165385
473.302330	2510.494615
473.672934	2487.809423
474.043479	2470.165385
474.413965	2573.509038
474.784393	2525.618077
475.154761	2480.247692
475.525070	2432.356731
475.895321	2520.576923
476.265513	2535.700385
476.635645	2457.562500
477.005719	2465.124231
477.375734	2460.083077
477.745691	2520.576923
478.115588	2432.356731
478.485427	2492.850577
478.855207	2523.097500
479.224928	2535.700385
479.594591	2465.124231
479.964194	2505.453462
480.333739	2424.795000
480.703226	2540.741538
481.072653	2392.027500
481.442022	2457.562500
481.811333	2487.809423
482.180584	2427.315577
482.549777	2565.947308
482.918912	2444.959615
483.287988	2497.891731
483.657005	2417.233269
484.025964	2482.768269
484.394864	2482.768269
484.763706	2392.027500
485.132489	2523.097500
485.501213	2482.768269
485.869879	2460.083077
486.238487	2439.918462
486.607036	2535.700385
486.975527	2475.206538
487.343959	2470.165385
487.712333	2510.494615
488.080648	2490.330000
488.448905	2487.809423
488.817104	2492.850577
489.185244	2520.576923
489.553326	2505.453462
489.921350	2399.589231
490.289315	2482.768269
490.657222	2444.959615
491.025070	2495.371154
491.392861	2427.315577
491.760593	2475.206538
492.128267	2470.165385
492.495883	2462.603654
492.863440	2563.426731
493.230939	2538.220962
493.598380	2497.891731
493.965763	2444.959615
494.333088	2465.124231
494.700354	2389.506923
495.067563	2472.685962
495.434713	2467.644808
495.801805	2513.015192
496.168839	2492.850577
496.535815	2450.000769
496.902733	2545.782692
497.269593	2457.562500
497.636395	2505.453462
498.003139	2576.029615
498.369825	2495.371154
498.736453	2477.727115
499.103023	2543.262115
499.469535	2502.932885
499.835989	2578.550192
500.202385	2543.262115
500.568723	2462.603654
500.935003	2510.494615
501.301226	2510.494615
501.667390	2432.356731
502.033497	2510.494615
502.399546	2444.959615
502.765537	2631.482308
503.131470	2450.000769
503.497345	2535.700385
503.863163	2576.029615
504.228923	2467.644808
504.594625	2560.906154
504.960269	2450.000769
505.325856	2482.768269
505.691385	2523.097500
506.056856	2528.138654
506.422270	2475.206538
506.787625	2535.700385
507.152924	2490.330000
507.518164	2490.330000
507.883347	2457.562500
508.248472	2568.467885
508.613540	2497.891731
508.978550	2510.494615
509.343503	2475.206538
509.708398	2457.562500
510.073236	2447.480192
510.438016	2593.673654
510.802738	2475.206538
511.167403	2477.727115
511.532010	2467.644808
511.896561	2442.439038
512.261053	2520.576923
512.625488	2533.179808
512.989866	2452.521346
513.354186	2502.932885
513.718449	2535.700385
514.082655	2460.083077
514.446803	2460.083077
514.810894	2399.589231
515.174927	2439.918462
515.538904	2482.768269
515.902822	2535.700385
516.266684	2460.083077
516.630488	2540.741538
516.994235	2530.659231
517.357925	2444.959615
517.721558	2386.986346
518.085133	2500.412308
518.448651	2500.412308
518.812112	2535.700385
519.175516	2568.467885
519.538863	2513.015192
519.902152	2530.659231
520.265385	2490.330000
520.628560	2523.097500
520.991678	2608.797115
521.354739	2444.959615
521.717743	2520.576923
522.080690	2455.041923
522.443580	2485.288846
522.806413	2553.344423
523.169189	2487.809423
523.531908	2475.206538
523.894569	2533.179808
524.257174	2548.303269
524.619722	2525.618077
524.982213	2533.179808
525.344647	2462.603654
525.707025	2460.083077
526.069345	2497.891731
526.431608	2543.262115
526.793815	2495.371154
527.155964	2419.753846
527.518057	2555.865000
527.880093	2472.685962
528.242072	2480.247692
528.603995	2447.480192
528.965860	2480.247692
529.327669	2462.603654
529.689421	2525.618077
530.051117	2485.288846
530.412755	2497.891731
530.774337	2465.124231
531.135862	2525.618077
531.497331	2457.562500
531.858743	2457.562500
532.220098	2528.138654
532.581396	2528.138654
532.942638	2427.315577
533.303824	2482.768269
533.664953	2513.015192
534.026025	2533.179808
534.387040	2467.644808
534.747999	2573.509038
535.108902	2591.153077
535.469748	2550.823846
535.830537	2490.330000
536.191270	2548.303269
536.551947	2465.124231
536.912567	2495.371154
537.273131	2495.371154
537.633638	2505.453462
537.994089	2482.768269
538.354483	2533.179808
538.714821	2528.138654
539.075103	2447.480192
539.435328	2548.303269
539.795497	2495.371154
540.155609	2414.712692
540.515665	2507.974038
540.875665	2528.138654
541.235609	2472.685962
541.595496	2472.685962
541.955328	2563.426731
542.315102	2442.439038
542.674821	2538.220962
543.034483	2576.029615
543.394090	2480.247692
543.753640	2535.700385
544.113134	2439.918462
544.472571	2543.262115
544.831953	2502.932885
545.191278	2535.700385
545.550548	2477.727115
545.909761	2500.412308
546.268918	2450.000769
546.628019	2545.782692
546.987064	2513.015192
547.346053	2603.755962
547.704986	2515.535769
548.063863	2495.371154
548.422684	2497.891731
548.781449	2505.453462
549.140158	2470.165385
549.498811	2583.591346
549.857408	2462.603654
550.215949	2507.974038
550.574434	2513.015192
550.932864	2450.000769
551.291237	2565.947308
551.649555	2576.029615
552.007817	2492.850577
552.366022	2576.029615
552.724173	2419.753846
553.082267	2442.439038
553.440305	2432.356731
553.798288	2515.535769
554.156215	2492.850577
554.514086	2485.288846
554.871902	2525.618077
555.229661	2424.795000
555.587365	2528.138654
555.945014	2510.494615
556.302606	2583.591346
556.660143	2497.891731
557.017625	2422.274423
557.375050	2482.768269
557.732421	2480.247692
558.089735	2460.083077
558.446994	2497.891731
558.804197	2555.865000
559.161345	2455.041923
559.518437	2480.247692
559.875474	2495.371154
560.232455	2528.138654
560.589381	2432.356731
560.946251	2497.891731
561.303065	2500.412308
561.659825	2513.015192
562.016528	2477.727115
562.373177	2490.330000
562.729770	2497.891731
563.086307	2581.070769
563.442789	2576.029615
563.799216	2442.439038
564.155587	2500.412308
564.511904	2497.891731
564.868164	2535.700385
565.224370	2467.644808
565.580520	2530.659231
565.936615	2495.371154
566.292654	2472.685962
566.648638	2482.768269
567.004567	2563.426731
567.360441	2500.412308
567.716260	2518.056346
568.072023	2555.865000
568.427732	2535.700385
568.783385	2495.371154
569.138982	2490.330000
569.494525	2558.385577
569.850013	2497.891731
570.205445	2457.562500
570.560823	2523.097500
570.916145	2550.823846
571.271412	2543.262115
571.626625	2502.932885
571.981782	2497.891731
572.336884	2525.618077
572.691931	2621.400000
573.046923	2540.741538
573.401860	2510.494615
573.756743	2407.150962
574.111570	2563.426731
574.466342	2545.782692
574.821059	2439.918462
575.175722	2505.453462
575.530330	2472.685962
575.884882	2500.412308
576.239380	2472.685962
576.593823	2495.371154
576.948211	2523.097500
577.302544	2495.371154
577.656823	2475.206538
578.011047	2520.576923
578.365216	2482.768269
578.719330	2470.165385
579.073389	2462.603654
579.427394	2447.480192
579.781344	2470.165385
580.135239	2581.070769
580.489080	2505.453462
580.842866	2520.576923
581.196597	2472.685962
581.550273	2550.823846
581.903895	2525.618077
582.257463	2462.603654
582.610975	2510.494615
582.964434	2510.494615
583.317837	2540.741538
583.671186	2548.303269
584.024481	2510.494615
584.377721	2490.330000
584.730906	2565.947308
585.084037	2510.494615
585.437113	2457.562500
585.790135	2505.453462
586.143103	2550.823846
586.496016	2573.509038
586.848874	2606.276538
587.201679	2482.768269
587.554428	2518.056346
587.907124	2545.782692
588.259765	2616.358846
588.612352	2538.220962
588.964884	2444.959615
589.317362	2523.097500
589.669786	2513.015192
590.022155	2477.727115
590.374470	2477.727115
590.726731	2482.768269
591.078937	2525.618077
591.431090	2510.494615
591.783188	2457.562500
592.135232	2467.644808
592.487222	2525.618077
592.839157	2497.891731
593.191038	2560.906154
593.542866	2427.315577
593.894639	2518.056346
594.246358	2593.673654
594.598022	2447.480192
594.949633	2545.782692
595.301190	2543.262115
595.652692	2477.727115
596.004141	2500.412308
596.355535	2558.385577
596.706876	2548.303269
597.058162	2490.330000
597.409395	2523.097500
597.760573	2424.795000
598.111698	2472.685962
598.462768	2528.138654
598.813785	2465.124231
599.164748	2429.836154
599.515657	2502.932885
599.866511	2455.041923
600.217312	2523.097500
600.568060	2467.644808
600.918753	2611.317692
601.269392	2515.535769
601.619978	2538.220962
601.970510	2565.947308
602.320988	2487.809423
602.671412	2576.029615
603.021783	2457.562500
603.372100	2507.974038
603.722363	2412.192115
604.072572	2533.179808
604.422728	2487.809423
604.772830	2598.714808
605.122878	2523.097500
605.472872	2515.535769
605.822813	2505.453462
606.172701	2523.097500
606.522534	2427.315577
606.872314	2485.288846
607.222041	2472.685962
607.571714	2477.727115
607.921333	2505.453462
608.270899	2583.591346
608.620411	2452.521346
608.969870	2530.659231
609.319276	2538.220962
609.668627	2543.262115
610.017926	2586.111923
610.367171	2535.700385
610.716362	2565.947308
611.065500	2507.974038
611.414585	2520.576923
611.763616	2482.768269
612.112594	2528.138654
612.461518	2523.097500
612.810389	2427.315577
613.159207	2586.111923
613.507971	2444.959615
613.856682	2538.220962
614.205340	2394.548077
614.553945	2538.220962
614.902496	2457.562500
615.250994	2507.974038
615.599439	2497.891731
615.947830	2477.727115
616.296169	2492.850577
616.644454	2502.932885
616.992686	2523.097500
617.340864	2497.891731
617.688990	2583.591346
618.037063	2555.865000
618.385082	2490.330000
618.733048	2444.959615
619.080961	2502.932885
619.428821	2520.576923
619.776628	2538.220962
620.124382	2475.206538
620.472083	2442.439038
620.819731	2515.535769
621.167326	2500.412308
621.514868	2417.233269
621.862357	2417.233269
622.209793	2515.535769
622.557176	2497.891731
622.904506	2555.865000
623.251783	2447.480192
623.599007	2518.056346
623.946179	2462.603654
624.293297	2392.027500
624.640363	2553.344423
624.987376	2502.932885
625.334336	2427.315577
625.681243	2429.836154
626.028097	2560.906154
626.374899	2480.247692
626.721647	2429.836154
627.068343	2548.303269
627.414987	2505.453462
627.761577	2540.741538
628.108115	2485.288846
628.454600	2505.453462
628.801032	2533.179808
629.147412	2462.603654
629.493739	2455.041923
629.840014	2553.344423
630.186236	2528.138654
630.532405	2545.782692
630.878521	2515.535769
631.224585	2477.727115
631.570597	2510.494615
631.916556	2502.932885
632.262462	2553.344423
632.608316	2528.138654
632.954117	2492.850577
633.299866	2485.288846
633.645562	2535.700385
633.991206	2460.083077
634.336797	2558.385577
634.682336	2480.247692
635.027823	2573.509038
635.373257	2477.727115
635.718639	2576.029615
636.063968	2457.562500
636.409245	2576.029615
636.754470	2510.494615
637.099642	2447.480192
637.444762	2507.974038
637.789829	2513.015192
638.134845	2507.974038
638.479808	2520.576923
638.824719	2497.891731
639.169577	2492.850577
639.514383	2500.412308
639.859137	2563.426731
640.203839	2490.330000
640.548489	2538.220962
640.893086	2450.000769
641.237632	2495.371154
641.582125	2576.029615
641.926566	2485.288846
642.270955	2563.426731
642.615292	2535.700385
642.959576	2588.632500
643.303809	2412.192115
643.647990	2482.768269
643.992118	2444.959615
644.336195	2513.015192
644.680219	2497.891731
645.024192	2444.959615
645.368112	2434.877308
645.711981	2558.385577
646.055797	2470.165385
646.399562	2472.685962
646.743274	2553.344423
647.086935	2447.480192
647.430544	2472.685962
647.774101	2475.206538
648.117606	2439.918462
648.461059	2485.288846
648.804460	2482.768269
649.147810	2485.288846
649.491108	2523.097500
649.834354	2429.836154
650.177548	2558.385577
650.520690	2545.782692
650.863781	2548.303269
651.206820	2470.165385
651.549807	2555.865000
651.892742	2497.891731
652.235626	2422.274423
652.578458	2538.220962
652.921238	2510.494615
653.263967	2497.891731
653.606644	2513.015192
653.949269	2550.823846
654.291843	2523.097500
654.634365	2490.330000
654.976836	2568.467885
655.319255	2530.659231
655.661622	2510.494615
656.003938	2450.000769
656.346203	2470.165385
656.688416	2462.603654
657.030577	2530.659231
657.372687	2465.124231
657.714746	2505.453462
658.056753	2490.330000
658.398708	2540.741538
658.740612	2460.083077
659.082465	2497.891731
659.424266	2528.138654
659.766016	2475.206538
660.107715	2495.371154
660.449362	2480.247692
660.790958	2513.015192
661.132503	2492.850577
661.473996	2568.467885
661.815438	2472.685962
662.156829	2434.877308
662.498168	2530.659231
662.839456	2586.111923
663.180693	2467.644808
663.521879	2540.741538
663.863013	2487.809423
664.204097	2495.371154
664.545129	2548.303269
664.886110	2442.439038
665.227040	2480.247692
665.567918	2548.303269
665.908746	2442.439038
666.249522	2513.015192
666.590248	2530.659231
666.930922	2480.247692
667.271545	2492.850577
667.612118	2525.618077
667.952639	2460.083077
668.293109	2490.330000
668.633528	2450.000769
668.973896	2510.494615
669.314213	2447.480192
669.654480	2510.494615
669.994695	2490.330000
670.334859	2470.165385
670.674973	2475.206538
671.015035	2528.138654
671.355047	2515.535769
671.695008	2515.535769
672.034918	2510.494615
672.374777	2462.603654
672.714585	2513.015192
673.054342	2457.562500
673.394049	2507.974038
673.733705	2555.865000
674.073310	2419.753846
674.412864	2515.535769
674.752368	2518.056346
675.091820	2513.015192
675.431223	2487.809423
675.770574	2576.029615
676.109875	2482.768269
676.449125	2528.138654
676.788324	2480.247692
677.127473	2518.056346
677.466571	2538.220962
677.805619	2530.659231
678.144616	2482.768269
678.483562	2581.070769
678.822458	2502.932885
679.161303	2538.220962
679.500098	2500.412308
679.838842	2439.918462
680.177535	2530.659231
680.516179	2591.153077
680.854771	2412.192115
681.193314	2520.576923
681.531805	2500.412308
681.870247	2515.535769
682.208638	2485.288846
682.546978	2505.453462
682.885268	2475.206538
683.223508	2444.959615
683.561697	2477.727115
683.899836	2568.467885
684.237925	2492.850577
684.575963	2472.685962
684.913951	2427.315577
685.251889	2407.150962
685.589776	2482.768269
685.927614	2480.247692
686.265401	2465.124231
686.603137	2432.356731
686.940824	2538.220962
687.278460	2495.371154
687.616046	2500.412308
687.953582	2528.138654
688.291068	2555.865000
688.628504	2457.562500
688.965889	2457.562500
689.303224	2500.412308
689.640510	2492.850577
689.977745	2492.850577
690.314930	2477.727115
690.652065	2548.303269
690.989150	2424.795000
691.326185	2555.865000
691.663170	2500.412308
692.000105	2472.685962
692.336990	2427.315577
692.673825	2482.768269
693.010610	2477.727115
693.347345	2399.589231
693.684030	2576.029615
694.020665	2457.562500
694.357251	2520.576923
694.693786	2447.480192
695.030272	2515.535769
695.366707	2457.562500
695.703093	2568.467885
696.039429	2470.165385
696.375716	2528.138654
696.711952	2533.179808
697.048139	2513.015192
697.384276	2533.179808
697.720363	2550.823846
698.056400	2482.768269
698.392388	2540.741538
698.728326	2525.618077
699.064214	2409.671538
699.400053	2450.000769
699.735842	2505.453462
700.071581	2505.453462
700.407270	2533.179808
700.742910	2540.741538
701.078501	2460.083077
701.414042	2457.562500
701.749533	2447.480192
702.084974	2515.535769
702.420366	2555.865000
702.755709	2500.412308
703.091002	2487.809423
703.426246	2442.439038
703.761440	2528.138654
704.096584	2573.509038
704.431679	2505.453462
704.766725	2502.932885
705.101721	2495.371154
705.436668	2578.550192
705.771565	2545.782692
706.106413	2502.932885
706.441212	2465.124231
706.775961	2497.891731
707.110661	2568.467885
707.445311	2543.262115
707.779913	2465.124231
708.114465	2523.097500
708.448967	2482.768269
708.783421	2523.097500
709.117825	2470.165385
709.452180	2543.262115
709.786485	2475.206538
710.120742	2550.823846
710.454949	2505.453462
710.789107	2490.330000
711.123216	2500.412308
711.457275	2422.274423
711.791286	2500.412308
712.125247	2603.755962
712.459159	2490.330000
712.793023	2515.535769
713.126837	2611.317692
713.460602	2500.412308
713.794318	2515.535769
714.127985	2455.041923
714.461602	2462.603654
714.795171	2631.482308
715.128691	2505.453462
715.462162	2482.768269
715.795584	2467.644808
716.128957	2490.330000
716.462281	2485.288846
716.795556	2447.480192
717.128782	2540.741538
717.461960	2487.809423
717.795088	2470.165385
718.128167	2472.685962
718.461198	2558.385577
718.794180	2490.330000
719.127113	2558.385577
719.459997	2485.288846
719.792833	2565.947308
720.125619	2492.850577
720.458357	2545.782692
720.791046	2457.562500
721.123686	2407.150962
721.456278	2412.192115
721.788821	2535.700385
722.121315	2502.932885
722.453761	2386.986346
722.786158	2467.644808
723.118506	2439.918462
723.450805	2502.932885
723.783056	2439.918462
724.115259	2518.056346
724.447412	2487.809423
724.779518	2505.453462
725.111574	2439.918462
725.443582	2465.124231
725.775542	2407.150962
726.107453	2407.150962
726.439315	2492.850577
726.771129	2455.041923
727.102895	2523.097500
727.434612	2603.755962
727.766281	2477.727115
728.097901	2485.288846
728.429473	2462.603654
728.760996	2490.330000
729.092471	2545.782692
729.423897	2412.192115
729.755276	2502.932885
730.086606	2455.041923
730.417887	2515.535769
730.749120	2452.521346
731.080305	2439.918462
731.411442	2450.000769
731.742530	2442.439038
732.073570	2502.932885
732.404562	2550.823846
732.735506	2475.206538
733.066401	2525.618077
733.397249	2540.741538
733.728048	2581.070769
734.058798	2404.630385
734.389501	2472.685962
734.720156	2477.727115
735.050762	2545.782692
735.381320	2490.330000
735.711831	2538.220962
736.042293	2500.412308
736.372707	2528.138654
736.703073	2528.138654
737.033391	2555.865000
737.363661	2538.220962
737.693883	2510.494615
738.024056	2447.480192
738.354182	2492.850577
738.684260	2533.179808
739.014290	2477.727115
739.344272	2455.041923
739.674207	2487.809423
740.004093	2500.412308
740.333931	2460.083077
740.663722	2447.480192
740.993464	2523.097500
741.323159	2487.809423
741.652806	2505.453462
741.982405	2470.165385
742.311956	2457.562500
742.641460	2555.865000
742.970915	2497.891731
743.300323	2452.521346
743.629683	2490.330000
743.958996	2507.974038
744.288260	2462.603654
744.617477	2558.385577
744.946647	2510.494615
745.275768	2465.124231
745.604842	2432.356731
745.933869	2485.288846
746.262847	2477.727115
746.591778	2510.494615
746.920662	2533.179808
747.249498	2460.083077
747.578286	2513.015192
747.907027	2407.150962
748.235720	2444.959615
748.564365	2500.412308
748.892963	2465.124231
749.221514	2414.712692
749.550017	2457.562500
749.878473	2528.138654
750.206881	2560.906154
750.535242	2492.850577
750.863555	2492.850577
751.191821	2447.480192
751.520039	2528.138654
751.848210	2470.165385
752.176334	2530.659231
752.504411	2581.070769
752.832440	2502.932885
753.160421	2513.015192
753.488356	2485.288846
753.816243	2505.453462
754.144082	2520.576923
754.471875	2500.412308
754.799620	2475.206538
755.127318	2492.850577
755.454969	2502.932885
755.782572	2505.453462
756.110129	2535.700385
756.437638	2507.974038
756.765100	2429.836154
757.092515	2505.453462
757.419882	2482.768269
757.747203	2381.945192
758.074477	2533.179808
758.401703	2480.247692
758.728882	2462.603654
759.056014	2555.865000
759.383099	2470.165385
759.710138	2480.247692
760.037129	2495.371154
760.364073	2465.124231
760.690970	2553.344423
761.017820	2540.741538
761.344623	2475.206538
761.671379	2513.015192
761.998088	2457.562500
762.324751	2505.453462
762.651366	2455.041923
762.977935	2558.385577
763.304456	2540.741538
763.630931	2432.356731
763.957359	2553.344423
764.283740	2457.562500
764.610074	2563.426731
764.936362	2414.712692
765.262602	2581.070769
765.588796	2444.959615
765.914943	2447.480192
766.241044	2540.741538
766.567097	2497.891731
766.893104	2565.947308
767.219064	2487.809423
767.544978	2482.768269
767.870845	2465.124231
768.196665	2492.850577
768.522438	2578.550192
768.848165	2477.727115
769.173846	2540.741538
769.499479	2417.233269
769.825066	2530.659231
770.150607	2507.974038
770.476101	2472.685962
770.801548	2550.823846
771.126949	2442.439038
771.452303	2460.083077
771.777611	2518.056346
772.102872	2520.576923
772.428087	2460.083077
772.753256	2520.576923
773.078378	2495.371154
773.403453	2467.644808
773.728482	2505.453462
774.053465	2495.371154
774.378401	2530.659231
774.703291	2533.179808
775.028135	2487.809423
775.352932	2513.015192
775.677683	2573.509038
776.002388	2505.453462
776.327046	2525.618077
776.651658	2437.397885
776.976224	2540.741538
777.300743	2500.412308
777.625216	2533.179808
777.949643	2477.727115
778.274024	2553.344423
778.598359	2515.535769
778.922647	2470.165385
779.246889	2485.288846
779.571086	2467.644808
779.895236	2520.576923
780.219339	2422.274423
780.543397	2510.494615
780.867409	2543.262115
781.191374	2447.480192
781.515294	2631.482308
781.839167	2490.330000
782.162995	2495.371154
782.486776	2515.535769
782.810511	2467.644808
783.134201	2565.947308
783.457844	2540.741538
783.781441	2482.768269
784.104993	2543.262115
784.428498	2492.850577
784.751958	2533.179808
785.075372	2601.235385
785.398739	2485.288846
785.722061	2419.753846
786.045337	2480.247692
786.368568	2510.494615
786.691752	2495.371154
787.014891	2397.068654
787.337983	2500.412308
787.661030	2470.165385
787.984031	2455.041923
788.306987	2583.591346
788.629897	2487.809423
788.952760	2475.206538
789.275579	2495.371154
789.598351	2402.109808
789.921078	2419.753846
790.243759	2518.056346
790.566395	2563.426731
790.888984	2492.850577
791.211529	2510.494615
791.534027	2535.700385
791.856480	2528.138654
792.178888	2535.700385
792.501249	2480.247692
792.823566	2505.453462
793.145836	2558.385577
793.468062	2452.521346
793.790241	2513.015192
794.112375	2399.589231
794.434464	2427.315577
794.756507	2563.426731
795.078505	2555.865000
795.400457	2565.947308
795.722364	2540.741538
796.044226	2477.727115
796.366042	2399.589231
796.687812	2492.850577
797.009538	2502.932885
797.331218	2455.041923
797.652852	2457.562500
797.974442	2525.618077
798.295986	2480.247692
798.617484	2490.330000
798.938938	2412.192115
799.260346	2502.932885
799.581709	2422.274423
799.903026	2414.712692
800.224299	2505.453462
800.545526	2495.371154
800.866708	2540.741538
801.187845	2510.494615
801.508936	2351.698269
801.829983	2457.562500
802.150984	2502.932885
802.471940	2515.535769
802.792851	2434.877308
803.113717	2465.124231
803.434538	2472.685962
803.755314	2535.700385
804.076045	2573.509038
804.396731	2472.685962
804.717372	2502.932885
805.037967	2450.000769
805.358518	2523.097500
805.679024	2540.741538
805.999485	2510.494615
806.319901	2495.371154
806.640272	2485.288846
806.960598	2510.494615
807.280879	2470.165385
807.601115	2560.906154
807.921306	2523.097500
808.241453	2634.002885
808.561554	2601.235385
808.881611	2540.741538
809.201623	2576.029615
809.521590	2510.494615
809.841513	2404.630385
810.161390	2480.247692
810.481223	2470.165385
810.801011	2487.809423
811.120755	2460.083077
811.440453	2477.727115
811.760107	2550.823846
812.079716	2525.618077
812.399281	2477.727115
812.718801	2485.288846
813.038276	2507.974038
813.357707	2550.823846
813.677093	2442.439038
813.996434	2538.220962
814.315731	2452.521346
814.634983	2502.932885
814.954191	2475.206538
815.273354	2354.218846
815.592473	2507.974038
815.911547	2555.865000
816.230577	2460.083077
816.549562	2487.809423
816.868502	2543.262115
817.187399	2462.603654
817.506250	2437.397885
817.825058	2424.795000
818.143821	2447.480192
818.462539	2510.494615
818.781213	2550.823846
819.099843	2563.426731
819.418429	2568.467885
819.736970	2502.932885
820.055466	2495.371154
820.373919	2490.330000
820.692327	2480.247692
821.010691	2487.809423
821.329011	2545.782692
821.647286	2477.727115
821.965517	2535.700385
822.283704	2450.000769
822.601847	2553.344423
822.919945	2538.220962
823.237999	2543.262115
823.556010	2477.727115
823.873976	2530.659231
824.191897	2485.288846
824.509775	2467.644808
824.827609	2500.412308
825.145398	2472.685962
825.463144	2439.918462
825.780845	2472.685962
826.098502	2523.097500
826.416116	2540.741538
826.733685	2455.041923
827.051210	2480.247692
827.368692	2470.165385
827.686129	2404.630385
828.003522	2475.206538
828.320872	2523.097500
828.638177	2439.918462
828.955439	2414.712692
829.272656	2482.768269
829.589830	2523.097500
829.906960	2505.453462
830.224046	2565.947308
830.541088	2432.356731
830.858086	2550.823846
831.175041	2460.083077
831.491952	2507.974038
831.808819	2507.974038
832.125642	2439.918462
832.442421	2490.330000
832.759157	2485.288846
833.075849	2487.809423
833.392497	2437.397885
833.709101	2520.576923
834.025662	2475.206538
834.342179	2497.891731
834.658653	2467.644808
834.975083	2482.768269
835.291469	2505.453462
835.607811	2442.439038
835.924110	2487.809423
836.240366	2427.315577
836.556578	2505.453462
836.872746	2548.303269
837.188871	2520.576923
837.504952	2467.644808
837.820990	2523.097500
838.136984	2513.015192
838.452935	2432.356731
838.768842	2510.494615
839.084706	2457.562500
839.400526	2520.576923
839.716303	2505.453462
840.032037	2480.247692
840.347727	2480.247692
840.663373	2563.426731
840.978977	2495.371154
841.294537	2558.385577
841.610054	2470.165385
841.925527	2570.988462
842.240957	2485.288846
842.556344	2472.685962
842.871687	2533.179808
843.186987	2485.288846
843.502244	2470.165385
843.817458	2558.385577
844.132629	2460.083077
844.447756	2434.877308
844.762840	2492.850577
845.077881	2434.877308
845.392879	2563.426731
845.707833	2444.959615
846.022745	2513.015192
846.337613	2505.453462
846.652438	2462.603654
846.967221	2560.906154
847.281960	2467.644808
847.596656	2520.576923
847.911309	2543.262115
848.225919	2429.836154
848.540485	2525.618077
848.855009	2543.262115
849.169490	2495.371154
849.483928	2455.041923
849.798323	2485.288846
850.112675	2447.480192
850.426984	2495.371154
850.741251	2442.439038
851.055474	2492.850577
851.369654	2502.932885
851.683792	2442.439038
851.997887	2482.768269
852.311938	2490.330000
852.625947	2500.412308
852.939914	2500.412308
853.253837	2530.659231
853.567718	2500.412308
853.881555	2424.795000
854.195350	2545.782692
854.509103	2434.877308
854.822812	2535.700385
855.136479	2611.317692
855.450103	2513.015192
855.763685	2417.233269
856.077224	2472.685962
856.390720	2497.891731
856.704173	2520.576923
857.017584	2495.371154
857.330953	2487.809423
857.644278	2450.000769
857.957561	2492.850577
858.270802	2470.165385
858.584000	2507.974038
858.897155	2467.644808
859.210268	2515.535769
859.523339	2485.288846
859.836367	2475.206538
860.149352	2558.385577
860.462295	2507.974038
860.775195	2442.439038
861.088054	2502.932885
861.400869	2432.356731
861.713642	2477.727115
862.026373	2462.603654
862.339062	2500.412308
862.651708	2545.782692
862.964312	2515.535769
863.276873	2513.015192
863.589392	2480.247692
863.901869	2439.918462
864.214303	2518.056346
864.526696	2487.809423
864.839045	2530.659231
865.151353	2439.918462
865.463619	2510.494615
865.775842	2482.768269
866.088023	2402.109808
866.400162	2495.371154
866.712258	2525.618077
867.024313	2505.453462
867.336325	2495.371154
867.648296	2550.823846
867.960224	2573.509038
868.272110	2513.015192
868.583954	2533.179808
868.895755	2457.562500
869.207515	2505.453462
869.519233	2505.453462
869.830909	2460.083077
870.142542	2465.124231
870.454134	2482.768269
870.765684	2442.439038
871.077191	2432.356731
871.388657	2510.494615
871.700081	2467.644808
872.011463	2419.753846
872.322803	2510.494615
872.634101	2404.630385
872.945357	2475.206538
873.256571	2502.932885
873.567744	2470.165385
873.878874	2540.741538
874.189963	2497.891731
874.501010	2492.850577
874.812015	2520.576923
875.122979	2480.247692
875.433900	2565.947308
875.744780	2432.356731
876.055618	2540.741538
876.366415	2439.918462
876.677169	2480.247692
876.987882	2497.891731
877.298554	2450.000769
877.609183	2505.453462
877.919771	2500.412308
878.230317	2515.535769
878.540822	2452.521346
878.851285	2545.782692
879.161707	2538.220962
879.472087	2495.371154
879.782425	2513.015192
880.092722	2394.548077
880.402977	2492.850577
880.713191	2482.768269
881.023363	2482.768269
881.333494	2444.959615
881.643583	2467.644808
881.953631	2550.823846
882.263637	2480.247692
882.573602	2586.111923
882.883526	2578.550192
883.193408	2462.603654
883.503248	2455.041923
883.813048	2500.412308
884.122806	2538.220962
884.432522	2452.521346
884.742197	2419.753846
885.051831	2452.521346
885.361424	2540.741538
885.670975	2361.780577
885.980485	2475.206538
886.289954	2480.247692
886.599382	2500.412308
886.908768	2404.630385
887.218113	2409.671538
887.527417	2507.974038
887.836680	2510.494615
888.145901	2490.330000
888.455082	2452.521346
888.764221	2455.041923
889.073319	2482.768269
889.382376	2555.865000
889.691392	2510.494615
890.000366	2525.618077
890.309300	2427.315577
890.618193	2500.412308
890.927044	2361.780577
891.235855	2470.165385
891.544625	2437.397885
891.853353	2482.768269
892.162041	2525.618077
892.470687	2485.288846
892.779293	2490.330000
893.087858	2497.891731
893.396381	2465.124231
893.704864	2457.562500
894.013306	2417.233269
894.321707	2429.836154
894.630068	2502.932885
894.938387	2518.056346
895.246665	2502.932885
895.554903	2412.192115
895.863100	2485.288846
896.171256	2520.576923
896.479371	2502.932885
896.787446	2490.330000
897.095480	2465.124231
897.403473	2477.727115
897.711425	2470.165385
898.019336	2480.247692
898.327207	2540.741538
898.635038	2447.480192
898.942827	2513.015192
899.250576	2505.453462
899.558284	2475.206538
899.865952	2555.865000
900.173579	2417.233269
900.481165	2480.247692
900.788711	2487.809423
901.096216	2482.768269
901.403681	2452.521346
901.711105	2477.727115
902.018489	2485.288846
902.325832	2467.644808
902.633135	2505.453462
902.940397	2434.877308
903.247619	2507.974038
903.554800	2442.439038
903.861941	2452.521346
904.169041	2502.932885
904.476101	2477.727115
904.783121	2482.768269
905.090100	2480.247692
905.397039	2500.412308
905.703938	2444.959615
906.010796	2462.603654
906.317614	2495.371154
906.624391	2490.330000
906.931129	2495.371154
907.237826	2422.274423
907.544483	2414.712692
907.851099	2553.344423
908.157675	2444.959615
908.464211	2477.727115
908.770707	2460.083077
909.077163	2523.097500
909.383578	2424.795000
909.689954	2538.220962
909.996289	2518.056346
910.302584	2520.576923
910.608839	2450.000769
910.915054	2563.426731
911.221229	2432.356731
911.527363	2518.056346
911.833458	2525.618077
912.139513	2520.576923
912.445527	2530.659231
912.751502	2434.877308
913.057436	2502.932885
913.363331	2442.439038
913.669186	2570.988462
913.975000	2510.494615
914.280775	2482.768269
914.586510	2470.165385
914.892205	2439.918462
915.197859	2525.618077
915.503475	2424.795000
915.809050	2470.165385
916.114585	2444.959615
916.420081	2550.823846
916.725536	2563.426731
917.030952	2563.426731
917.336328	2510.494615
917.641665	2442.439038
917.946961	2455.041923
918.252218	2500.412308
918.557435	2500.412308
918.862612	2444.959615
919.167750	2550.823846
919.472848	2477.727115
919.777906	2565.947308
920.082925	2495.371154
920.387904	2553.344423
920.692843	2555.865000
920.997743	2538.220962
921.302603	2457.562500
921.607423	2538.220962
921.912204	2490.330000
922.216946	2523.097500
922.521647	2467.644808
922.826310	2487.809423
923.130932	2492.850577
923.435516	2515.535769
923.740059	2470.165385
924.044564	2558.385577
924.349028	2457.562500
924.653454	2419.753846
924.957840	2477.727115
925.262186	2545.782692
925.566493	2477.727115
925.870761	2487.809423
926.174989	2429.836154
926.479178	2497.891731
926.783328	2452.521346
927.087438	2513.015192
927.391509	2518.056346
927.695541	2515.535769
927.999533	2381.945192
928.303486	2475.206538
928.607400	2470.165385
928.911275	2533.179808
929.215110	2487.809423
929.518906	2409.671538
929.822663	2477.727115
930.126381	2434.877308
930.430060	2439.918462
930.733699	2533.179808
931.037299	2465.124231
931.340861	2457.562500
931.644383	2487.809423
931.947866	2455.041923
932.251309	2480.247692
932.554714	2538.220962
932.858080	2492.850577
933.161407	2507.974038
933.464694	2432.356731
933.767943	2485.288846
934.071153	2427.315577
934.374323	2550.823846
934.677455	2447.480192
934.980548	2515.535769
935.283602	2492.850577
935.586617	2558.385577
935.889593	2505.453462
936.192530	2588.632500
936.495428	2452.521346
936.798287	2455.041923
937.101108	2397.068654
937.403890	2472.685962
937.706632	2588.632500
938.009336	2470.165385
938.312002	2482.768269
938.614628	2467.644808
938.917216	2409.671538
939.219765	2518.056346
939.522275	2540.741538
939.824747	2470.165385
940.127179	2492.850577
940.429573	2591.153077
940.731929	2477.727115
941.034246	2505.453462
941.336524	2444.959615
941.638763	2555.865000
941.940964	2525.618077
942.243126	2548.303269
942.545250	2518.056346
942.847335	2533.179808
943.149381	2513.015192
943.451389	2497.891731
943.753359	2518.056346
944.055290	2568.467885
944.357182	2475.206538
944.659036	2520.576923
944.960851	2487.809423
945.262628	2528.138654
945.564367	2548.303269
945.866067	2543.262115
946.167729	2369.342308
946.469352	2528.138654
946.770937	2573.509038
947.072484	2397.068654
947.373992	2429.836154
947.675462	2510.494615
947.976893	2432.356731
948.278286	2515.535769
948.579641	2447.480192
948.880958	2434.877308
949.182236	2475.206538
949.483476	2540.741538
949.784678	2492.850577
950.085841	2457.562500
950.386967	2371.862885
950.688054	2523.097500
950.989103	2465.124231
951.290114	2500.412308
951.591087	2397.068654
951.892021	2465.124231
952.192917	2520.576923
952.493776	2553.344423
952.794596	2510.494615
953.095378	2528.138654
953.396122	2558.385577
953.696828	2450.000769
953.997496	2439.918462
954.298126	2465.124231
954.598718	2452.521346
954.899272	2523.097500
955.199788	2480.247692
955.500266	2460.083077
955.800706	2497.891731
956.101108	2540.741538
956.401472	2510.494615
956.701798	2535.700385
957.002087	2535.700385
957.302337	2427.315577
957.602550	2565.947308
957.902724	2525.618077
958.202861	2492.850577
958.502960	2477.727115
958.803022	2568.467885
959.103045	2482.768269
959.403031	2371.862885
959.702979	2540.741538
960.002889	2442.439038
960.302762	2366.821731
960.602596	2389.506923
960.902393	2475.206538
961.202153	2475.206538
961.501875	2455.041923
961.801559	2482.768269
962.101205	2565.947308
962.400814	2392.027500
962.700385	2548.303269
962.999918	2518.056346
963.299414	2515.535769
963.598873	2492.850577
963.898293	2470.165385
964.197677	2477.727115
964.497022	2427.315577
964.796331	2573.509038
965.095601	2455.041923
965.394835	2545.782692
965.694030	2447.480192
965.993189	2482.768269
966.292309	2550.823846
966.591393	2457.562500
966.890439	2502.932885
967.189447	2568.467885
967.488419	2510.494615
967.787353	2485.288846
968.086249	2513.015192
968.385108	2470.165385
968.683930	2437.397885
968.982714	2409.671538
969.281462	2462.603654
969.580172	2465.124231
969.878844	2520.576923
970.177480	2412.192115
970.476078	2520.576923
970.774639	2515.535769
971.073162	2422.274423
971.371649	2475.206538
971.670098	2455.041923
971.968510	2525.618077
972.266885	2573.509038
972.565223	2500.412308
972.863524	2492.850577
973.161788	2507.974038
973.460014	2457.562500
973.758204	2480.247692
974.056356	2520.576923
974.354471	2510.494615
974.652550	2573.509038
974.950591	2497.891731
975.248595	2596.194231
975.546563	2455.041923
975.844493	2485.288846
976.142386	2535.700385
976.440243	2518.056346
976.738062	2477.727115
977.035845	2392.027500
977.333590	2462.603654
977.631299	2467.644808
977.928971	2472.685962
978.226606	2548.303269
978.524204	2490.330000
978.821765	2419.753846
979.119290	2502.932885
979.416777	2480.247692
979.714228	2452.521346
980.011642	2530.659231
980.309020	2434.877308
980.606360	2550.823846
980.903664	2510.494615
981.200931	2525.618077
981.498162	2460.083077
981.795356	2523.097500
982.092513	2611.317692
982.389633	2495.371154
982.686717	2467.644808
982.983764	2485.288846
983.280775	2485.288846
983.577749	2530.659231
983.874686	2523.097500
984.171587	2477.727115
984.468451	2487.809423
984.765279	2452.521346
985.062070	2480.247692
985.358824	2424.795000
985.655543	2492.850577
985.952224	2487.809423
986.248869	2525.618077
986.545478	2535.700385
986.842050	2523.097500
987.138586	2444.959615
987.435086	2507.974038
987.731549	2427.315577
988.027975	2487.809423
988.324366	2525.618077
988.620719	2533.179808
988.917037	2482.768269
989.213318	2513.015192
989.509563	2492.850577
989.805772	2447.480192
990.101944	2520.576923
990.398080	2490.330000
990.694180	2505.453462
990.990244	2409.671538
991.286271	2487.809423
991.582262	2550.823846
991.878217	2475.206538
992.174136	2538.220962
992.470019	2429.836154
992.765865	2507.974038
993.061676	2510.494615
993.357450	2613.838269
993.653188	2487.809423
993.948890	2565.947308
994.244556	2553.344423
994.540186	2485.288846
994.835780	2495.371154
995.131337	2492.850577
995.426859	2533.179808
995.722345	2450.000769
996.017795	2487.809423
996.313208	2462.603654
996.608586	2434.877308
996.903928	2515.535769
997.199234	2545.782692
997.494504	2447.480192
997.789738	2450.000769
998.084936	2462.603654
998.380099	2533.179808
998.675225	2457.562500
998.970316	2548.303269
999.265371	2515.535769
999.560390	2490.330000
999.855373	2485.288846
1000.150320	2568.467885
1000.445232	2442.439038
1000.740108	2548.303269
1001.034948	2495.371154
1001.329752	2568.467885
1001.624521	2548.303269
1001.919254	2450.000769
1002.213951	2523.097500
1002.508613	2533.179808
1002.803239	2467.644808
1003.097829	2502.932885
1003.392384	2545.782692
1003.686903	2419.753846
1003.981386	2465.124231
1004.275834	2472.685962
1004.570246	2470.165385
1004.864623	2422.274423
1005.158964	2480.247692
1005.453270	2482.768269
1005.747540	2470.165385
1006.041775	2510.494615
1006.335974	2475.206538
1006.630138	2495.371154
1006.924266	2535.700385
1007.218359	2525.618077
1007.512416	2505.453462
1007.806438	2442.439038
1008.100425	2548.303269
1008.394376	2432.356731
1008.688292	2553.344423
1008.982172	2472.685962
1009.276017	2520.576923
1009.569827	2467.644808
1009.863602	2500.412308
1010.157341	2470.165385
1010.451045	2540.741538
1010.744714	2490.330000
1011.038347	2528.138654
1011.331945	2429.836154
1011.625508	2455.041923
1011.919036	2515.535769
1012.212528	2434.877308
1012.505986	2497.891731
1012.799408	2490.330000
1013.092795	2513.015192
1013.386147	2462.603654
1013.679464	2477.727115
1013.972745	2477.727115
1014.265992	2500.412308
1014.559204	2424.795000
1014.852380	2500.412308
1015.145521	2628.961731
1015.438628	2623.920577
1015.731699	2465.124231
1016.024736	2513.015192
1016.317737	2485.288846
1016.610703	2477.727115
1016.903635	2470.165385
1017.196531	2487.809423
1017.489393	2409.671538
1017.782219	2497.891731
1018.075011	2513.015192
1018.367768	2475.206538
1018.660490	2533.179808
1018.953177	2533.179808
1019.245829	2533.179808
